Data from test_V78500241_429.txt Node
Date: Fri Mar 25 16:51:59 CST 2022
User: usil
Spectrometer: V785-0024
Trigger mode: 0
Integration Time (sec): 4.000000E-1
Scans to average: 1
Nonlinearity correction enabled: false
Boxcar width: 0
Storing dark spectrum: false
XAxis mode: Wavelengths
Number of Pixels in Spectrum: 1024
>>>>>Begin Spectral Data<<<<<
801.071	8035
801.214	8069
801.356	7906
801.499	7883
801.641	7864
801.783	7906
801.926	8016
802.068	8024
802.211	8043
802.353	8005
802.496	7849
802.638	7928
802.78	7902
802.923	7906
803.065	7887
803.208	7841
803.35	7963
803.492	8092
803.635	8123
803.777	7989
803.919	8161
804.061	8461
804.204	8210
804.346	8039
804.488	7974
804.63	8206
804.773	8001
804.915	8088
805.057	8396
805.199	8237
805.341	8233
805.483	8385
805.626	8210
805.768	8164
805.91	8119
806.052	8168
806.194	8130
806.336	8336
806.478	8172
806.62	8164
806.762	8157
806.904	8294
807.046	8454
807.188	8393
807.33	8240
807.472	8259
807.614	8134
807.756	8221
807.898	8001
808.04	7967
808.182	7947
808.324	7951
808.465	7959
808.607	8107
808.749	8142
808.891	8221
809.033	8263
809.174	8267
809.316	8073
809.458	8088
809.6	8035
809.741	8043
809.883	8088
810.025	8225
810.166	8073
810.308	8050
810.45	8012
810.591	7879
810.733	7811
810.875	7674
811.016	7468
811.158	7563
811.299	7597
811.441	7753
811.582	7715
811.724	7594
811.865	7597
812.007	7658
812.148	7674
812.29	7655
812.431	7833
812.573	7967
812.714	8043
812.855	8233
812.997	8240
813.138	8377
813.279	8244
813.421	8199
813.562	8054
813.703	7932
813.845	7841
813.986	7563
814.127	7339
814.268	7331
814.41	7266
814.551	7187
814.692	7247
814.833	7122
814.974	7088
815.115	7088
815.256	6996
815.397	6928
815.539	6970
815.68	6840
815.821	6802
815.962	6939
816.103	6833
816.244	6783
816.385	6639
816.526	6650
816.666	6517
816.807	6365
816.948	6464
817.089	6540
817.23	6426
817.371	6376
817.512	6376
817.653	6479
817.793	6426
817.934	6399
818.075	6490
818.216	6437
818.356	6414
818.497	6235
818.638	6129
818.778	6133
818.919	6194
819.06	6167
819.2	6304
819.341	6319
819.481	6365
819.622	6502
819.762	6779
819.903	6741
820.043	6620
820.184	6612
820.324	6623
820.465	6665
820.605	6688
820.746	6665
820.886	6582
821.026	6692
821.167	6810
821.307	6825
821.447	6726
821.588	6730
821.728	6589
821.868	6502
822.008	6357
822.149	6437
822.289	6327
822.429	6133
822.569	6087
822.709	6129
822.849	5988
822.99	5961
823.13	5946
823.27	5904
823.41	5809
823.55	5840
823.69	5802
823.83	5798
823.97	5710
824.11	5615
824.25	5532
824.389	5581
824.529	5627
824.669	5558
824.809	5630
824.949	5684
825.089	5623
825.228	5566
825.368	5372
825.508	5334
825.648	5360
825.787	5349
825.927	5398
826.067	5303
826.206	5303
826.346	5406
826.485	5463
826.625	5444
826.765	5543
826.904	5455
827.044	5277
827.183	5193
827.323	5128
827.462	5326
827.601	5174
827.741	5223
827.88	5288
828.02	5128
828.159	5250
828.298	5337
828.437	5345
828.577	5303
828.716	5512
828.855	5303
828.994	5159
829.134	5155
829.273	5193
829.412	5189
829.551	5166
829.69	5174
829.829	5235
829.968	5318
830.107	5303
830.246	5265
830.385	5185
830.524	5121
830.663	5105
830.802	4980
830.941	4900
831.08	4866
831.219	4972
831.357	4972
831.496	5166
831.635	4919
831.774	4862
831.913	4908
832.051	4790
832.19	4771
832.329	4892
832.467	4744
832.606	4656
832.744	4736
832.883	4736
833.022	4755
833.16	4824
833.299	4782
833.437	4854
833.576	4850
833.714	4854
833.852	4896
833.991	4946
834.129	4968
834.267	4927
834.406	4938
834.544	5029
834.682	4976
834.821	5018
834.959	5216
835.097	5010
835.235	5170
835.373	5075
835.511	5098
835.65	5041
835.788	5018
835.926	4915
836.064	4900
836.202	4938
836.34	5151
836.478	5258
836.615	5128
836.753	5227
836.891	5299
837.029	5273
837.167	5223
837.305	5170
837.443	5181
837.58	5056
837.718	5242
837.856	5235
837.993	5155
838.131	5235
838.269	5223
838.406	5155
838.544	5166
838.681	5045
838.819	5029
838.956	4919
839.094	4930
839.231	4980
839.369	5056
839.506	5425
839.643	5296
839.781	5037
839.918	5041
840.055	5086
840.193	5086
840.33	5105
840.467	5181
840.604	5212
840.742	5452
840.879	5071
841.016	5117
841.153	5162
841.29	5345
841.427	5334
841.564	5326
841.701	5410
841.838	5273
841.975	5235
842.112	5292
842.249	5178
842.385	5136
842.522	5364
842.659	5197
842.796	5181
842.933	5216
843.069	5178
843.206	5174
843.343	5303
843.479	5239
843.616	5303
843.752	5060
843.889	5018
844.025	5189
844.162	5025
844.298	5212
844.435	5113
844.571	5052
844.708	5124
844.844	5368
844.98	5360
845.117	5292
845.253	5128
845.389	5105
845.525	5140
845.661	5109
845.798	5048
845.934	5147
846.07	5124
846.206	5227
846.342	5280
846.478	5201
846.614	5037
846.75	4968
846.886	4972
847.022	5143
847.158	5037
847.294	5083
847.429	5147
847.565	4987
847.701	5280
847.837	4870
847.972	4835
848.108	4991
848.244	4961
848.379	4824
848.515	4729
848.65	4721
848.786	4736
848.921	4774
849.057	4889
849.192	4896
849.328	4835
849.463	4839
849.598	4786
849.734	4778
849.869	4763
850.004	4672
850.14	4714
850.275	4668
850.41	4573
850.545	4569
850.68	4569
850.815	4634
850.95	4637
851.085	4862
851.22	4725
851.355	4660
851.49	4615
851.625	4630
851.76	4603
851.895	4565
852.03	4478
852.165	4687
852.299	4702
852.434	4740
852.569	4767
852.703	4797
852.838	4858
852.973	4957
853.107	4965
853.242	4778
853.376	4641
853.511	4577
853.645	4615
853.78	4801
853.914	4694
854.048	4660
854.183	4649
854.317	4698
854.451	4858
854.585	4675
854.72	4645
854.854	4729
854.988	4588
855.122	4664
855.256	4527
855.39	4683
855.524	4805
855.658	4698
855.792	4698
855.926	4748
856.06	4774
856.194	4824
856.327	4656
856.461	4618
856.595	4603
856.729	4577
856.862	4744
856.996	4694
857.13	4744
857.263	4755
857.397	4854
857.53	4645
857.664	4725
857.797	4790
857.931	4786
858.064	4687
858.197	4774
858.331	4679
858.464	4592
858.597	4535
858.731	4634
858.864	4641
858.997	4611
859.13	4698
859.263	4710
859.396	4710
859.529	4596
859.662	4603
859.795	4599
859.928	4626
860.061	4748
860.194	4725
860.327	4603
860.46	4592
860.592	4702
860.725	4782
860.858	4736
860.99	4550
861.123	4508
861.256	4516
861.388	4626
861.521	5410
861.653	4550
861.786	4455
861.918	4474
862.05	4565
862.183	4550
862.315	4626
862.447	4607
862.58	4565
862.712	4398
862.844	4337
862.976	4531
863.108	4455
863.24	4752
863.372	4363
863.504	4447
863.636	4405
863.768	4455
863.9	4409
864.032	4375
864.164	4455
864.296	4459
864.428	4573
864.559	4584
864.691	4580
864.823	4519
864.954	4500
865.086	4516
865.217	4436
865.349	4428
865.48	4508
865.612	4523
865.743	4649
865.875	4485
866.006	4462
866.137	4474
866.269	4462
866.4	4443
866.531	4447
866.662	4402
866.793	4371
866.924	4459
867.055	4500
867.186	4436
867.317	4451
867.448	4405
867.579	4375
867.71	4405
867.841	4402
867.972	4455
868.103	4516
868.233	4432
868.364	4485
868.495	4478
868.625	4649
868.756	4793
868.886	4558
869.017	4538
869.147	4767
869.278	4782
869.408	4645
869.539	4653
869.669	4721
869.799	4679
869.929	4812
870.06	4733
870.19	5033
870.32	4877
870.45	4957
870.58	5029
870.71	5064
870.84	5102
870.97	4911
871.1	4877
871.23	5117
871.36	5124
871.489	5041
871.619	5064
871.749	5067
871.879	5090
872.008	5143
872.138	5045
872.267	4968
872.397	4873
872.526	4831
872.656	4710
872.785	4774
872.915	4965
873.044	5060
873.173	4976
873.303	4961
873.432	4961
873.561	5014
873.69	4927
873.819	4889
873.948	4938
874.077	4892
874.206	4778
874.335	4797
874.464	4919
874.593	5056
874.722	4957
874.851	5136
874.979	5094
875.108	5018
875.237	4938
875.365	4987
875.494	4911
875.623	4980
875.751	4793
875.88	4900
876.008	4984
876.136	5022
876.265	5212
876.393	5345
876.521	5261
876.65	5280
876.778	5143
876.906	5098
877.034	4991
877.162	5109
877.29	4984
877.418	5086
877.546	5052
877.674	5064
877.802	4976
877.93	5045
878.058	4896
878.185	4870
878.313	4987
878.441	4991
878.568	4809
878.696	4915
878.824	5010
878.951	5025
879.079	5159
879.206	5235
879.333	5071
879.461	4934
879.588	4991
879.715	5132
879.842	5250
879.97	5029
880.097	4797
880.224	4774
880.351	4831
880.478	4828
880.605	4812
880.732	4843
880.859	5075
880.986	4889
881.112	4904
881.239	4797
881.366	4687
881.493	4649
881.619	4569
881.746	4675
881.872	4668
881.999	4675
882.125	4714
882.252	4820
882.378	4824
882.505	4938
882.631	4843
882.757	4702
882.883	4763
883.01	4748
883.136	4694
883.262	4641
883.388	4630
883.514	4843
883.64	4877
883.766	4786
883.892	4653
884.018	4752
884.143	4889
884.269	5045
884.395	4679
884.52	4672
884.646	4668
884.772	4538
884.897	4558
885.023	4668
885.148	4786
885.274	4881
885.399	4835
885.524	4717
885.65	4687
885.775	4793
885.9	4691
886.025	4881
886.15	4759
886.275	4740
886.4	4653
886.525	4748
886.65	4706
886.775	4721
886.9	4923
887.025	5052
887.149	4816
887.274	4675
887.399	4603
887.523	4584
887.648	4573
887.773	4634
887.897	4763
888.021	4782
888.146	4675
888.27	4820
888.395	4877
888.519	4797
888.643	4858
888.767	4809
888.891	4668
889.015	4584
889.139	4725
889.263	4588
889.387	4736
889.511	4881
889.635	4797
889.759	4653
889.883	4694
890.006	4793
890.13	4854
890.254	4626
890.377	4717
890.501	4550
890.624	4504
890.748	4626
890.871	4527
890.995	4485
891.118	4478
891.241	4500
891.364	4569
891.488	4622
891.611	4497
891.734	4611
891.857	4615
891.98	4596
892.103	4599
892.226	4588
892.349	4523
892.471	4428
892.594	4504
892.717	4668
892.839	4603
892.962	4580
893.085	4687
893.207	4603
893.33	4421
893.452	4527
893.575	4649
893.697	4523
893.819	4824
893.941	4816
894.064	4725
894.186	4577
894.308	4531
894.43	4778
894.552	4835
894.674	4793
894.796	4569
894.918	4596
895.04	4626
895.161	4725
895.283	4687
895.405	4622
895.526	4664
895.648	4706
895.769	4660
895.891	4740
896.012	4755
896.134	4725
896.255	4679
896.376	4694
896.498	4660
896.619	4679
896.74	4634
896.861	4679
896.982	4881
897.103	5079
897.224	4870
897.345	4774
897.466	4679
897.587	4710
897.708	4854
897.828	4778
897.949	4691
898.07	4569
898.19	4626
898.311	4881
898.431	4668
898.552	4759
898.672	4790
898.792	4828
898.913	4797
899.033	4679
899.153	4554
899.273	4489
899.393	4478
899.513	4504
899.633	4538
899.753	4565
899.873	4523
899.993	4599
900.113	4542
900.232	4588
900.352	4531
900.472	4512
900.591	4390
900.711	4466
900.83	4428
900.95	4622
901.069	4714
901.189	4577
901.308	4341
901.427	4367
901.546	4363
901.665	4497
901.784	4500
901.904	4402
902.023	4341
902.141	4227
902.26	4135
902.379	4291
902.498	4268
902.617	4291
902.735	4402
902.854	4402
902.973	4341
903.091	4219
903.21	4211
903.328	4306
903.446	4280
903.565	4246
903.683	4394
903.801	4280
903.919	4383
904.038	4417
904.156	4287
904.274	4462
904.392	4405
904.51	4432
904.627	4478
904.745	4622
904.863	4664
904.981	4421
905.098	4280
905.216	4356
905.334	4428
905.451	4451
905.569	4421
905.686	4577
905.803	4554
905.921	4443
906.038	4626
906.155	4504
906.272	4462
906.389	4424
906.506	4356
906.623	4409
906.74	4386
906.857	4314
906.974	4390
907.091	4573
907.208	4649
907.324	4573
907.441	4508
907.557	4337
907.674	4352
907.79	4337
907.907	4371
908.023	4466
908.139	4489
908.256	4428
908.372	4485
908.488	4436
908.604	4360
908.72	4333
908.836	4367
908.952	4371
909.068	4455
909.184	4611
909.3	4489
909.415	4599
909.531	4603
909.647	4394
909.762	4356
909.878	4310
909.993	4497
910.108	4386
910.224	4428
910.339	4447
910.454	4432
910.57	4352
910.685	4303
910.8	4637
910.915	4569
911.03	4489
911.145	4318
911.259	4306
911.374	4409
911.489	4299
911.604	4276
911.718	4192
911.833	4150
911.947	4090
912.062	4010
912.176	4234
912.291	4238
912.405	4253
912.519	4493
912.633	4512
912.748	4398
912.862	4333
912.976	4253
913.09	4128
913.204	4139
913.318	4318
913.431	4344
913.545	4360
913.659	4428
913.772	4398
913.886	4249
914	4272
914.113	4352
914.226	4462
914.34	4390
914.453	4299
914.566	4421
914.68	4261
914.793	4291
914.906	4101
915.019	4112
915.132	4090
915.245	4131
915.358	4234
915.47	4249
915.583	4303
915.696	4284
915.809	4386
915.921	4402
916.034	4284
916.146	4268
916.259	4223
916.371	4405
916.483	4348
916.595	4299
916.708	4348
916.82	4299
916.932	4367
917.044	4333
917.156	4363
917.268	4238
917.38	4303
917.491	4268
917.603	4325
917.715	4417
917.826	4386
917.938	4379
918.049	4215
918.161	4360
918.272	4565
918.384	4558
918.495	4459
918.606	4367
918.717	4188
918.828	4310
918.939	4352
919.05	4268
919.161	4303
919.272	4158
919.383	4253
919.494	4413
919.604	4660
919.715	4466
919.826	4363
919.936	4386
920.047	4493
920.157	4478
920.267	4683
920.378	4523
920.488	4474
920.598	4675
920.708	4873
920.818	4733
920.928	4744
921.038	4968
921.148	4896
921.258	4630
921.368	4588
921.477	4535
921.587	4428
921.697	4363
921.806	4550
921.916	4432
922.025	4284
922.134	4268
922.244	4211
922.353	4367
922.462	4147
922.571	4150
922.68	4002
922.789	3960
922.898	4048
923.007	3975
923.116	4082
923.224	4097
923.333	4067
923.442	4010
923.55	4017
923.659	4032
923.767	4067
923.876	4002
923.984	4131
924.092	3983
924.201	4101
924.309	4078
924.417	4169
924.525	4044
924.633	4101
924.741	5014
924.849	3930
924.956	4135
925.064	3960
925.172	3941
925.279	3991
925.387	4051
925.494	4055
925.602	4196
925.709	4204
925.816	4074
925.924	4143
926.031	4265
926.138	4219
926.245	4223
926.352	4131
926.459	4280
926.566	4344
926.673	4150
926.779	4063
926.886	4078
926.993	3941
927.099	4002
927.206	3975
927.312	3956
927.419	4131
927.525	4036
927.631	4097
927.737	3953
927.843	3911
927.95	3861
928.056	3956
928.162	4021
928.267	4086
928.373	4683
928.479	4082
928.585	3880
928.69	4048
928.796	4093
928.901	3983
929.007	3896
929.112	4002
929.218	3975
929.323	3941
929.428	3979
929.533	4086
929.638	3903
929.743	3937
929.848	4067
929.953	4002
930.058	3930
930.163	3823
930.267	3846
930.372	4029
930.477	3804
930.581	4086
930.685	3945
930.79	3816
930.894	3896
930.998	3880
931.103	4017
931.207	3675
931.311	3713
931.415	3679
931.519	3542
931.623	3526
