Data from test_V78500241_184.txt Node
Date: Fri Mar 25 16:50:16 CST 2022
User: usil
Spectrometer: V785-0024
Trigger mode: 0
Integration Time (sec): 4.000000E-1
Scans to average: 1
Nonlinearity correction enabled: false
Boxcar width: 0
Storing dark spectrum: false
XAxis mode: Wavelengths
Number of Pixels in Spectrum: 1024
>>>>>Begin Spectral Data<<<<<
801.071	7978
801.214	8050
801.356	7856
801.499	7818
801.641	7814
801.783	7833
801.926	7997
802.068	7940
802.211	7970
802.353	8081
802.496	7913
802.638	7898
802.78	7906
802.923	7871
803.065	7860
803.208	7890
803.35	7940
803.492	8081
803.635	8119
803.777	7913
803.919	8084
804.061	8366
804.204	8088
804.346	8065
804.488	7944
804.63	8062
804.773	8024
804.915	8058
805.057	8225
805.199	8115
805.341	8221
805.483	8305
805.626	8157
805.768	8069
805.91	8126
806.052	8202
806.194	8073
806.336	8244
806.478	8126
806.62	8065
806.762	8107
806.904	8176
807.046	8400
807.188	8290
807.33	8240
807.472	8286
807.614	8145
807.756	8172
807.898	8001
808.04	7894
808.182	7898
808.324	7906
808.465	8005
808.607	8084
808.749	8123
808.891	8180
809.033	8347
809.174	8237
809.316	8005
809.458	8111
809.6	7955
809.741	8050
809.883	7955
810.025	8107
810.166	8001
810.308	8031
810.45	7928
810.591	7890
810.733	7811
810.875	7715
811.016	7548
811.158	7537
811.299	7624
811.441	7795
811.582	7700
811.724	7567
811.865	7514
812.007	7632
812.148	7662
812.29	7651
812.431	7769
812.573	7928
812.714	8024
812.855	8206
812.997	8286
813.138	8256
813.279	8183
813.421	8107
813.562	8001
813.703	7906
813.845	7753
813.986	7472
814.127	7251
814.268	7209
814.41	7198
814.551	7213
814.692	7209
814.833	7076
814.974	7129
815.115	7107
815.256	7008
815.397	6989
815.539	6878
815.68	6856
815.821	6856
815.962	6920
816.103	6833
816.244	6692
816.385	6662
816.526	6604
816.666	6498
816.807	6361
816.948	6486
817.089	6452
817.23	6483
817.371	6414
817.512	6315
817.653	6369
817.793	6357
817.934	6410
818.075	6414
818.216	6437
818.356	6414
818.497	6190
818.638	6110
818.778	6175
818.919	6129
819.06	6087
819.2	6319
819.341	6334
819.481	6342
819.622	6521
819.762	6684
819.903	6677
820.043	6555
820.184	6574
820.324	6551
820.465	6692
820.605	6692
820.746	6631
820.886	6483
821.026	6642
821.167	6684
821.307	6741
821.447	6791
821.588	6711
821.728	6559
821.868	6513
822.008	6342
822.149	6361
822.289	6353
822.429	6159
822.569	6121
822.709	6121
822.849	5889
822.99	5942
823.13	5950
823.27	5923
823.41	5764
823.55	5802
823.69	5775
823.83	5821
823.97	5676
824.11	5535
824.25	5490
824.389	5577
824.529	5589
824.669	5524
824.809	5634
824.949	5676
825.089	5672
825.228	5585
825.368	5379
825.508	5326
825.648	5303
825.787	5364
825.927	5322
826.067	5364
826.206	5288
826.346	5376
826.485	5349
826.625	5429
826.765	5577
826.904	5444
827.044	5242
827.183	5235
827.323	5162
827.462	5227
827.601	5201
827.741	5166
827.88	5242
828.02	5090
828.159	5197
828.298	5337
828.437	5379
828.577	5280
828.716	5455
828.855	5269
828.994	5159
829.134	5121
829.273	5185
829.412	5178
829.551	5155
829.69	5159
829.829	5265
829.968	5357
830.107	5330
830.246	5246
830.385	5204
830.524	5090
830.663	5090
830.802	4980
830.941	4904
831.08	4866
831.219	4980
831.357	4976
831.496	5201
831.635	4915
831.774	4843
831.913	4870
832.051	4755
832.19	4778
832.329	4866
832.467	4691
832.606	4691
832.744	4736
832.883	4702
833.022	4721
833.16	4763
833.299	4812
833.437	4809
833.576	4858
833.714	4850
833.852	4866
833.991	4908
834.129	4949
834.267	4911
834.406	4904
834.544	4976
834.682	4995
834.821	4961
834.959	5155
835.097	5010
835.235	5189
835.373	5143
835.511	5102
835.65	5037
835.788	5064
835.926	4908
836.064	4900
836.202	4915
836.34	5185
836.478	5284
836.615	5140
836.753	5227
836.891	5326
837.029	5284
837.167	5208
837.305	5181
837.443	5136
837.58	5102
837.718	5204
837.856	5136
837.993	5159
838.131	5265
838.269	5231
838.406	5170
838.544	5155
838.681	5083
838.819	5052
838.956	4889
839.094	4927
839.231	4976
839.369	5105
839.506	5406
839.643	5280
839.781	5033
839.918	5022
840.055	5083
840.193	5109
840.33	5117
840.467	5117
840.604	5166
840.742	5429
840.879	5178
841.016	5086
841.153	5185
841.29	5398
841.427	5357
841.564	5337
841.701	5357
841.838	5231
841.975	5246
842.112	5292
842.249	5147
842.385	5083
842.522	5337
842.659	5147
842.796	5151
842.933	5185
843.069	5159
843.206	5143
843.343	5303
843.479	5239
843.616	5277
843.752	5037
843.889	4980
844.025	5223
844.162	5006
844.298	5197
844.435	5083
844.571	5094
844.708	5235
844.844	5273
844.98	5376
845.117	5315
845.253	5094
845.389	5105
845.525	5117
845.661	5083
845.798	5037
845.934	5136
846.07	5124
846.206	5201
846.342	5303
846.478	5235
846.614	4999
846.75	5010
846.886	4968
847.022	5201
847.158	5045
847.294	5067
847.429	5121
847.565	5056
847.701	5307
847.837	4835
847.972	4809
848.108	4980
848.244	4961
848.379	4774
848.515	4729
848.65	4744
848.786	4721
848.921	4805
849.057	4870
849.192	4908
849.328	4801
849.463	4854
849.598	4809
849.734	4702
849.869	4656
850.004	4683
850.14	4672
850.275	4596
850.41	4493
850.545	4577
850.68	4618
850.815	4599
850.95	4622
851.085	4820
851.22	4767
851.355	4660
851.49	4630
851.625	4637
851.76	4649
851.895	4554
852.03	4561
852.165	4668
852.299	4729
852.434	4805
852.569	4721
852.703	4774
852.838	4843
852.973	5010
853.107	4930
853.242	4725
853.376	4687
853.511	4592
853.645	4626
853.78	4812
853.914	4702
854.048	4675
854.183	4649
854.317	4740
854.451	4831
854.585	4706
854.72	4641
854.854	4736
854.988	4634
855.122	4641
855.256	4607
855.39	4664
855.524	4793
855.658	4714
855.792	4725
855.926	4748
856.06	4774
856.194	4782
856.327	4687
856.461	4565
856.595	4649
856.729	4626
856.862	4797
856.996	4664
857.13	4679
857.263	4748
857.397	4828
857.53	4706
857.664	4698
857.797	4748
857.931	4809
858.064	4687
858.197	4710
858.331	4626
858.464	4615
858.597	4527
858.731	4615
858.864	4618
858.997	4641
859.13	4656
859.263	4664
859.396	4714
859.529	4622
859.662	4615
859.795	4550
859.928	4626
860.061	4763
860.194	4767
860.327	4611
860.46	4607
860.592	4687
860.725	4721
860.858	4675
860.99	4588
861.123	4531
861.256	4596
861.388	4630
861.521	5383
861.653	4516
861.786	4405
861.918	4440
862.05	4497
862.183	4527
862.315	4592
862.447	4634
862.58	4535
862.712	4417
862.844	4341
862.976	4474
863.108	4478
863.24	4915
863.372	4352
863.504	4478
863.636	4402
863.768	4538
863.9	4489
864.032	4363
864.164	4470
864.296	4447
864.428	4535
864.559	4603
864.691	4538
864.823	4523
864.954	4493
865.086	4500
865.217	4447
865.349	4447
865.48	4478
865.612	4542
865.743	4634
865.875	4489
866.006	4485
866.137	4474
866.269	4459
866.4	4474
866.531	4413
866.662	4421
866.793	4375
866.924	4424
867.055	4478
867.186	4500
867.317	4459
867.448	4356
867.579	4405
867.71	4417
867.841	4413
867.972	4443
868.103	4459
868.233	4466
868.364	4474
868.495	4535
868.625	4725
868.756	4824
868.886	4599
869.017	4645
869.147	4759
869.278	4763
869.408	4641
869.539	4656
869.669	4733
869.799	4679
869.929	4782
870.06	4740
870.19	5022
870.32	4892
870.45	4946
870.58	5037
870.71	5128
870.84	5117
870.97	4984
871.1	4900
871.23	5121
871.36	5136
871.489	5029
871.619	5079
871.749	5121
871.879	5178
872.008	5162
872.138	5075
872.267	4976
872.397	4870
872.526	4824
872.656	4736
872.785	4854
872.915	4965
873.044	4995
873.173	4942
873.303	5010
873.432	5018
873.561	4946
873.69	4889
873.819	4866
873.948	4930
874.077	4824
874.206	4729
874.335	4801
874.464	4908
874.593	5075
874.722	4961
874.851	5147
874.979	5094
875.108	5075
875.237	4961
875.365	4889
875.494	4881
875.623	4991
875.751	4828
875.88	4927
876.008	4980
876.136	5117
876.265	5201
876.393	5292
876.521	5280
876.65	5239
876.778	5143
876.906	5064
877.034	5025
877.162	5033
877.29	4965
877.418	5083
877.546	5075
877.674	5098
877.802	4991
877.93	4995
878.058	4942
878.185	4866
878.313	4949
878.441	4972
878.568	4805
878.696	4885
878.824	4999
878.951	5025
879.079	5151
879.206	5273
879.333	5102
879.461	5003
879.588	5014
879.715	5098
879.842	5254
879.97	5025
880.097	4763
880.224	4733
880.351	4805
880.478	4816
880.605	4847
880.732	4805
880.859	5090
880.986	4862
881.112	4942
881.239	4782
881.366	4683
881.493	4592
881.619	4588
881.746	4649
881.872	4664
881.999	4660
882.125	4706
882.252	4763
882.378	4858
882.505	5014
882.631	4828
882.757	4656
882.883	4733
883.01	4748
883.136	4672
883.262	4641
883.388	4641
883.514	4805
883.64	4889
883.766	4812
883.892	4656
884.018	4729
884.143	4892
884.269	5003
884.395	4702
884.52	4656
884.646	4611
884.772	4584
884.897	4580
885.023	4687
885.148	4752
885.274	4847
885.399	4778
885.524	4759
885.65	4683
885.775	4778
885.9	4774
886.025	4904
886.15	4774
886.275	4771
886.4	4641
886.525	4763
886.65	4698
886.775	4698
886.9	4949
887.025	5090
887.149	4797
887.274	4656
887.399	4569
887.523	4577
887.648	4637
887.773	4584
887.897	4748
888.021	4812
888.146	4683
888.27	4809
888.395	4919
888.519	4812
888.643	4839
888.767	4866
888.891	4672
889.015	4588
889.139	4611
889.263	4630
889.387	4793
889.511	4915
889.635	4835
889.759	4660
889.883	4668
890.006	4759
890.13	4873
890.254	4653
890.377	4664
890.501	4588
890.624	4538
890.748	4649
890.871	4500
890.995	4455
891.118	4421
891.241	4519
891.364	4519
891.488	4637
891.611	4519
891.734	4546
891.857	4634
891.98	4596
892.103	4641
892.226	4653
892.349	4558
892.471	4424
892.594	4542
892.717	4611
892.839	4626
892.962	4626
893.085	4683
893.207	4672
893.33	4466
893.452	4550
893.575	4733
893.697	4577
893.819	4847
893.941	4858
894.064	4778
894.186	4531
894.308	4603
894.43	4748
894.552	4820
894.674	4767
894.796	4519
894.918	4573
895.04	4546
895.161	4687
895.283	4702
895.405	4615
895.526	4630
895.648	4725
895.769	4729
895.891	4725
896.012	4736
896.134	4733
896.255	4714
896.376	4611
896.498	4622
896.619	4649
896.74	4615
896.861	4656
896.982	4919
897.103	5109
897.224	4831
897.345	4748
897.466	4702
897.587	4744
897.708	4877
897.828	4771
897.949	4664
898.07	4542
898.19	4599
898.311	4843
898.431	4611
898.552	4748
898.672	4786
898.792	4831
898.913	4755
899.033	4634
899.153	4519
899.273	4459
899.393	4531
899.513	4512
899.633	4527
899.753	4588
899.873	4523
899.993	4577
900.113	4542
900.232	4634
900.352	4580
900.472	4531
900.591	4405
900.711	4519
900.83	4402
900.95	4618
901.069	4740
901.189	4584
901.308	4386
901.427	4295
901.546	4383
901.665	4478
901.784	4538
901.904	4360
902.023	4356
902.141	4196
902.26	4188
902.379	4272
902.498	4287
902.617	4227
902.735	4413
902.854	4402
902.973	4394
903.091	4223
903.21	4253
903.328	4329
903.446	4261
903.565	4230
903.683	4379
903.801	4295
903.919	4405
904.038	4497
904.156	4341
904.274	4451
904.392	4436
904.51	4470
904.627	4535
904.745	4603
904.863	4645
904.981	4360
905.098	4299
905.216	4352
905.334	4375
905.451	4455
905.569	4455
905.686	4584
905.803	4596
905.921	4390
906.038	4550
906.155	4489
906.272	4402
906.389	4508
906.506	4363
906.623	4428
906.74	4409
906.857	4363
906.974	4371
907.091	4615
907.208	4710
907.324	4615
907.441	4546
907.557	4379
907.674	4398
907.79	4348
907.907	4402
908.023	4481
908.139	4504
908.256	4447
908.372	4451
908.488	4440
908.604	4344
908.72	4402
908.836	4375
908.952	4379
909.068	4432
909.184	4596
909.3	4504
909.415	4588
909.531	4550
909.647	4360
909.762	4371
909.878	4360
909.993	4443
910.108	4459
910.224	4428
910.339	4462
910.454	4394
910.57	4398
910.685	4303
910.8	4634
910.915	4588
911.03	4527
911.145	4363
911.259	4356
911.374	4363
911.489	4356
911.604	4318
911.718	4188
911.833	4219
911.947	4086
912.062	3987
912.176	4204
912.291	4253
912.405	4265
912.519	4474
912.633	4554
912.748	4390
912.862	4318
912.976	4215
913.09	4150
913.204	4158
913.318	4200
913.431	4386
913.545	4383
913.659	4459
913.772	4371
913.886	4246
914	4223
914.113	4367
914.226	4478
914.34	4424
914.453	4246
914.566	4466
914.68	4325
914.793	4344
914.906	4185
915.019	4116
915.132	4131
915.245	4158
915.358	4204
915.47	4211
915.583	4314
915.696	4325
915.809	4436
915.921	4440
916.034	4249
916.146	4303
916.259	4246
916.371	4379
916.483	4390
916.595	4253
916.708	4337
916.82	4295
916.932	4318
917.044	4348
917.156	4322
917.268	4249
917.38	4306
917.491	4276
917.603	4348
917.715	4493
917.826	4443
917.938	4348
918.049	4223
918.161	4402
918.272	4565
918.384	4519
918.495	4447
918.606	4295
918.717	4272
918.828	4348
918.939	4352
919.05	4257
919.161	4348
919.272	4147
919.383	4268
919.494	4428
919.604	4622
919.715	4409
919.826	4413
919.936	4390
920.047	4516
920.157	4527
920.267	4786
920.378	4565
920.488	4527
920.598	4752
920.708	4873
920.818	4782
920.928	4786
921.038	4980
921.148	4957
921.258	4637
921.368	4607
921.477	4493
921.587	4508
921.697	4394
921.806	4523
921.916	4428
922.025	4284
922.134	4261
922.244	4249
922.353	4360
922.462	4196
922.571	4166
922.68	4002
922.789	3987
922.898	4082
923.007	4017
923.116	4112
923.224	4067
923.333	4143
923.442	3983
923.55	4044
923.659	4036
923.767	4112
923.876	4040
923.984	4078
924.092	4029
924.201	4093
924.309	4116
924.417	4143
924.525	4093
924.633	4162
924.741	4919
924.849	3934
924.956	4135
925.064	4013
925.172	3945
925.279	3983
925.387	4139
925.494	4063
925.602	4227
925.709	4204
925.816	4116
925.924	4143
926.031	4280
926.138	4215
926.245	4211
926.352	4131
926.459	4253
926.566	4341
926.673	4158
926.779	4120
926.886	4040
926.993	4036
927.099	3949
927.206	3968
927.312	3934
927.419	4090
927.525	4010
927.631	4124
927.737	3975
927.843	3960
927.95	3861
928.056	4013
928.162	4029
928.267	4044
928.373	4691
928.479	4150
928.585	3896
928.69	3983
928.796	4105
928.901	3991
929.007	3865
929.112	4036
929.218	4017
929.323	3964
929.428	3945
929.533	4112
929.638	3899
929.743	4006
929.848	4090
929.953	4017
930.058	3922
930.163	3823
930.267	3838
930.372	3998
930.477	3838
930.581	4109
930.685	3972
930.79	3747
930.894	3903
930.998	3873
931.103	4032
931.207	3724
931.311	3701
931.415	3679
931.519	3557
931.623	3580
