Data from test_V78500241_1245.txt Node
Date: Fri Mar 25 16:57:39 CST 2022
User: usil
Spectrometer: V785-0024
Trigger mode: 0
Integration Time (sec): 4.000000E-1
Scans to average: 1
Nonlinearity correction enabled: false
Boxcar width: 0
Storing dark spectrum: false
XAxis mode: Wavelengths
Number of Pixels in Spectrum: 1024
>>>>>Begin Spectral Data<<<<<
801.071	8035
801.214	7989
801.356	7818
801.499	7860
801.641	7780
801.783	7727
801.926	7986
802.068	7902
802.211	7936
802.353	8005
802.496	7860
802.638	7830
802.78	7894
802.923	7959
803.065	7849
803.208	7890
803.35	7894
803.492	8005
803.635	8149
803.777	8050
803.919	8077
804.061	8427
804.204	8172
804.346	8012
804.488	7959
804.63	8012
804.773	7967
804.915	8149
805.057	8259
805.199	8134
805.341	8195
805.483	8309
805.626	8218
805.768	8183
805.91	8195
806.052	8130
806.194	8039
806.336	8240
806.478	8065
806.62	7982
806.762	8138
806.904	8229
807.046	8465
807.188	8259
807.33	8305
807.472	8263
807.614	8126
807.756	8062
807.898	8005
808.04	7898
808.182	7833
808.324	7811
808.465	7879
808.607	8092
808.749	8084
808.891	8119
809.033	8294
809.174	8221
809.316	8077
809.458	8054
809.6	7989
809.741	7993
809.883	8027
810.025	8103
810.166	8081
810.308	8020
810.45	8024
810.591	7814
810.733	7685
810.875	7655
811.016	7540
811.158	7540
811.299	7582
811.441	7708
811.582	7712
811.724	7582
811.865	7502
812.007	7552
812.148	7548
812.29	7613
812.431	7734
812.573	7856
812.714	7997
812.855	8058
812.997	8164
813.138	8286
813.279	8145
813.421	8172
813.562	8039
813.703	7860
813.845	7757
813.986	7464
814.127	7278
814.268	7225
814.41	7190
814.551	7126
814.692	7240
814.833	7050
814.974	7046
815.115	7053
815.256	6996
815.397	6909
815.539	6909
815.68	6814
815.821	6814
815.962	6886
816.103	6852
816.244	6726
816.385	6593
816.526	6578
816.666	6422
816.807	6289
816.948	6429
817.089	6513
817.23	6479
817.371	6380
817.512	6391
817.653	6380
817.793	6350
817.934	6376
818.075	6395
818.216	6380
818.356	6380
818.497	6232
818.638	6136
818.778	6155
818.919	6171
819.06	6186
819.2	6331
819.341	6323
819.481	6300
819.622	6551
819.762	6703
819.903	6688
820.043	6559
820.184	6544
820.324	6540
820.465	6669
820.605	6677
820.746	6627
820.886	6502
821.026	6669
821.167	6646
821.307	6730
821.447	6738
821.588	6696
821.728	6502
821.868	6388
822.008	6300
822.149	6311
822.289	6296
822.429	6098
822.569	6079
822.709	6159
822.849	5901
822.99	5897
823.13	5870
823.27	5870
823.41	5794
823.55	5790
823.69	5722
823.83	5737
823.97	5619
824.11	5524
824.25	5459
824.389	5589
824.529	5608
824.669	5509
824.809	5585
824.949	5615
825.089	5558
825.228	5516
825.368	5368
825.508	5357
825.648	5311
825.787	5387
825.927	5360
826.067	5299
826.206	5284
826.346	5406
826.485	5341
826.625	5402
826.765	5558
826.904	5478
827.044	5311
827.183	5178
827.323	5102
827.462	5204
827.601	5193
827.741	5227
827.88	5212
828.02	5155
828.159	5246
828.298	5318
828.437	5357
828.577	5315
828.716	5535
828.855	5364
828.994	5170
829.134	5147
829.273	5208
829.412	5208
829.551	5143
829.69	5181
829.829	5277
829.968	5421
830.107	5280
830.246	5288
830.385	5223
830.524	5140
830.663	5105
830.802	4957
830.941	4927
831.08	4881
831.219	5010
831.357	4961
831.496	5197
831.635	4938
831.774	4873
831.913	4892
832.051	4752
832.19	4763
832.329	4847
832.467	4755
832.606	4634
832.744	4717
832.883	4694
833.022	4721
833.16	4854
833.299	4862
833.437	4850
833.576	4900
833.714	4847
833.852	4904
833.991	4957
834.129	5029
834.267	4999
834.406	4923
834.544	4987
834.682	5033
834.821	4984
834.959	5201
835.097	5052
835.235	5174
835.373	5056
835.511	5060
835.65	5098
835.788	5022
835.926	4881
836.064	4957
836.202	4999
836.34	5185
836.478	5239
836.615	5083
836.753	5258
836.891	5341
837.029	5265
837.167	5280
837.305	5250
837.443	5201
837.58	5094
837.718	5296
837.856	5204
837.993	5208
838.131	5284
838.269	5284
838.406	5223
838.544	5212
838.681	5090
838.819	5067
838.956	4927
839.094	4915
839.231	5018
839.369	5140
839.506	5455
839.643	5311
839.781	5098
839.918	5048
840.055	5132
840.193	5105
840.33	5113
840.467	5143
840.604	5208
840.742	5497
840.879	5041
841.016	5124
841.153	5181
841.29	5402
841.427	5417
841.564	5391
841.701	5406
841.838	5349
841.975	5242
842.112	5299
842.249	5178
842.385	5124
842.522	5368
842.659	5181
842.796	5212
842.933	5231
843.069	5147
843.206	5113
843.343	5341
843.479	5254
843.616	5235
843.752	5045
843.889	5041
844.025	5166
844.162	4999
844.298	5258
844.435	5124
844.571	5086
844.708	5208
844.844	5269
844.98	5330
845.117	5337
845.253	5132
845.389	5128
845.525	5159
845.661	5178
845.798	5098
845.934	5174
846.07	5090
846.206	5231
846.342	5299
846.478	5201
846.614	5010
846.75	5010
846.886	4957
847.022	5178
847.158	5010
847.294	5045
847.429	5121
847.565	5094
847.701	5334
847.837	4908
847.972	4835
848.108	4995
848.244	4984
848.379	4797
848.515	4752
848.65	4767
848.786	4748
848.921	4801
849.057	4801
849.192	4938
849.328	4835
849.463	4900
849.598	4862
849.734	4782
849.869	4687
850.004	4664
850.14	4679
850.275	4660
850.41	4596
850.545	4580
850.68	4622
850.815	4645
850.95	4702
851.085	4877
851.22	4744
851.355	4721
851.49	4656
851.625	4675
851.76	4653
851.895	4615
852.03	4584
852.165	4691
852.299	4717
852.434	4812
852.569	4771
852.703	4793
852.838	4862
852.973	4991
853.107	4968
853.242	4755
853.376	4714
853.511	4561
853.645	4622
853.78	4786
853.914	4706
854.048	4736
854.183	4637
854.317	4698
854.451	4858
854.585	4698
854.72	4653
854.854	4828
854.988	4626
855.122	4672
855.256	4550
855.39	4691
855.524	4793
855.658	4687
855.792	4721
855.926	4721
856.06	4748
856.194	4793
856.327	4733
856.461	4641
856.595	4630
856.729	4660
856.862	4755
856.996	4721
857.13	4767
857.263	4736
857.397	4820
857.53	4641
857.664	4782
857.797	4805
857.931	4812
858.064	4725
858.197	4790
858.331	4698
858.464	4626
858.597	4592
858.731	4634
858.864	4668
858.997	4603
859.13	4691
859.263	4698
859.396	4710
859.529	4603
859.662	4573
859.795	4588
859.928	4637
860.061	4797
860.194	4774
860.327	4622
860.46	4538
860.592	4725
860.725	4729
860.858	4797
860.99	4584
861.123	4561
861.256	4588
861.388	4611
861.521	5307
861.653	4481
861.786	4440
861.918	4462
862.05	4527
862.183	4550
862.315	4634
862.447	4675
862.58	4580
862.712	4424
862.844	4337
862.976	4512
863.108	4409
863.24	4923
863.372	4363
863.504	4440
863.636	4424
863.768	4474
863.9	4474
864.032	4432
864.164	4474
864.296	4538
864.428	4588
864.559	4550
864.691	4558
864.823	4538
864.954	4519
865.086	4542
865.217	4440
865.349	4405
865.48	4409
865.612	4527
865.743	4626
865.875	4489
866.006	4459
866.137	4512
866.269	4497
866.4	4447
866.531	4432
866.662	4436
866.793	4421
866.924	4474
867.055	4508
867.186	4409
867.317	4424
867.448	4398
867.579	4375
867.71	4421
867.841	4341
867.972	4466
868.103	4516
868.233	4519
868.364	4474
868.495	4481
868.625	4687
868.756	4759
868.886	4622
869.017	4596
869.147	4797
869.278	4744
869.408	4664
869.539	4679
869.669	4717
869.799	4691
869.929	4793
870.06	4774
870.19	4930
870.32	4930
870.45	4949
870.58	4991
870.71	5121
870.84	5124
870.97	4965
871.1	4949
871.23	5140
871.36	5162
871.489	5037
871.619	5094
871.749	5124
871.879	5174
872.008	5208
872.138	5071
872.267	4987
872.397	4858
872.526	4812
872.656	4733
872.785	4854
872.915	4908
873.044	5022
873.173	4984
873.303	4961
873.432	5037
873.561	4968
873.69	4873
873.819	4873
873.948	4900
874.077	4843
874.206	4816
874.335	4816
874.464	4938
874.593	5022
874.722	5010
874.851	5098
874.979	5067
875.108	5052
875.237	4965
875.365	4904
875.494	4908
875.623	4965
875.751	4873
875.88	4892
876.008	5025
876.136	5060
876.265	5159
876.393	5349
876.521	5235
876.65	5231
876.778	5140
876.906	5155
877.034	5029
877.162	5045
877.29	4980
877.418	5079
877.546	5025
877.674	5067
877.802	5071
877.93	5025
878.058	4980
878.185	4904
878.313	4889
878.441	4911
878.568	4797
878.696	4858
878.824	5003
878.951	5022
879.079	5128
879.206	5307
879.333	5102
879.461	4995
879.588	5010
879.715	5109
879.842	5151
879.97	4976
880.097	4805
880.224	4725
880.351	4850
880.478	4854
880.605	4786
880.732	4771
880.859	5083
880.986	4885
881.112	4965
881.239	4793
881.366	4710
881.493	4634
881.619	4588
881.746	4622
881.872	4664
881.999	4672
882.125	4687
882.252	4809
882.378	4820
882.505	4968
882.631	4816
882.757	4710
882.883	4736
883.01	4733
883.136	4660
883.262	4584
883.388	4611
883.514	4809
883.64	4843
883.766	4824
883.892	4672
884.018	4687
884.143	4930
884.269	5025
884.395	4702
884.52	4607
884.646	4637
884.772	4592
884.897	4573
885.023	4668
885.148	4858
885.274	4858
885.399	4858
885.524	4721
885.65	4702
885.775	4710
885.9	4733
886.025	4862
886.15	4820
886.275	4744
886.4	4653
886.525	4752
886.65	4675
886.775	4702
886.9	4919
887.025	5121
887.149	4809
887.274	4675
887.399	4580
887.523	4626
887.648	4599
887.773	4558
887.897	4752
888.021	4801
888.146	4687
888.27	4824
888.395	4934
888.519	4862
888.643	4797
888.767	4889
888.891	4729
889.015	4554
889.139	4687
889.263	4626
889.387	4771
889.511	4896
889.635	4801
889.759	4672
889.883	4637
890.006	4763
890.13	4870
890.254	4668
890.377	4679
890.501	4538
890.624	4516
890.748	4653
890.871	4455
890.995	4440
891.118	4402
891.241	4531
891.364	4550
891.488	4653
891.611	4500
891.734	4565
891.857	4622
891.98	4561
892.103	4653
892.226	4630
892.349	4527
892.471	4394
892.594	4569
892.717	4618
892.839	4611
892.962	4599
893.085	4660
893.207	4611
893.33	4478
893.452	4546
893.575	4664
893.697	4599
893.819	4763
893.941	4816
894.064	4805
894.186	4584
894.308	4531
894.43	4694
894.552	4839
894.674	4763
894.796	4596
894.918	4546
895.04	4512
895.161	4691
895.283	4664
895.405	4584
895.526	4672
895.648	4645
895.769	4668
895.891	4755
896.012	4733
896.134	4698
896.255	4683
896.376	4656
896.498	4634
896.619	4645
896.74	4626
896.861	4630
896.982	4889
897.103	5098
897.224	4850
897.345	4767
897.466	4649
897.587	4679
897.708	4854
897.828	4809
897.949	4698
898.07	4577
898.19	4656
898.311	4847
898.431	4706
898.552	4706
898.672	4797
898.792	4862
898.913	4740
899.033	4668
899.153	4561
899.273	4443
899.393	4565
899.513	4527
899.633	4500
899.753	4546
899.873	4485
899.993	4603
900.113	4558
900.232	4615
900.352	4573
900.472	4535
900.591	4413
900.711	4508
900.83	4474
900.95	4603
901.069	4668
901.189	4561
901.308	4363
901.427	4333
901.546	4333
901.665	4455
901.784	4508
901.904	4405
902.023	4299
902.141	4200
902.26	4181
902.379	4291
902.498	4265
902.617	4253
902.735	4303
902.854	4424
902.973	4375
903.091	4253
903.21	4215
903.328	4291
903.446	4284
903.565	4230
903.683	4379
903.801	4276
903.919	4481
904.038	4428
904.156	4333
904.274	4451
904.392	4432
904.51	4383
904.627	4478
904.745	4603
904.863	4660
904.981	4394
905.098	4329
905.216	4371
905.334	4436
905.451	4402
905.569	4413
905.686	4630
905.803	4588
905.921	4386
906.038	4569
906.155	4478
906.272	4474
906.389	4451
906.506	4360
906.623	4424
906.74	4402
906.857	4333
906.974	4379
907.091	4599
907.208	4736
907.324	4588
907.441	4459
907.557	4360
907.674	4360
907.79	4318
907.907	4417
908.023	4489
908.139	4489
908.256	4432
908.372	4478
908.488	4497
908.604	4337
908.72	4314
908.836	4375
908.952	4398
909.068	4421
909.184	4542
909.3	4466
909.415	4558
909.531	4558
909.647	4333
909.762	4386
909.878	4337
909.993	4443
910.108	4383
910.224	4459
910.339	4466
910.454	4421
910.57	4375
910.685	4325
910.8	4645
910.915	4607
911.03	4451
911.145	4363
911.259	4363
911.374	4360
911.489	4287
911.604	4318
911.718	4128
911.833	4192
911.947	4097
912.062	4048
912.176	4196
912.291	4253
912.405	4310
912.519	4470
912.633	4519
912.748	4375
912.862	4348
912.976	4196
913.09	4124
913.204	4166
913.318	4249
913.431	4363
913.545	4383
913.659	4462
913.772	4394
913.886	4261
914	4215
914.113	4371
914.226	4440
914.34	4402
914.453	4246
914.566	4432
914.68	4310
914.793	4265
914.906	4169
915.019	4112
915.132	4101
915.245	4158
915.358	4192
915.47	4246
915.583	4242
915.696	4337
915.809	4405
915.921	4424
916.034	4219
916.146	4268
916.259	4211
916.371	4413
916.483	4333
916.595	4280
916.708	4352
916.82	4284
916.932	4314
917.044	4337
917.156	4344
917.268	4246
917.38	4341
917.491	4276
917.603	4341
917.715	4447
917.826	4424
917.938	4322
918.049	4246
918.161	4363
918.272	4508
918.384	4504
918.495	4428
918.606	4299
918.717	4227
918.828	4299
918.939	4394
919.05	4261
919.161	4287
919.272	4139
919.383	4253
919.494	4417
919.604	4584
919.715	4424
919.826	4333
919.936	4409
920.047	4561
920.157	4474
920.267	4771
920.378	4550
920.488	4500
920.598	4721
920.708	4885
920.818	4744
920.928	4763
921.038	5003
921.148	4892
921.258	4588
921.368	4569
921.477	4508
921.587	4447
921.697	4341
921.806	4527
921.916	4417
922.025	4272
922.134	4238
922.244	4227
922.353	4318
922.462	4181
922.571	4177
922.68	3991
922.789	3968
922.898	4032
923.007	3979
923.116	4116
923.224	4078
923.333	4086
923.442	3972
923.55	3953
923.659	4036
923.767	4093
923.876	3937
923.984	4097
924.092	3949
924.201	4082
924.309	4086
924.417	4154
924.525	4055
924.633	4093
924.741	5083
924.849	3911
924.956	4112
925.064	3964
925.172	3861
925.279	3960
925.387	4063
925.494	4051
925.602	4188
925.709	4192
925.816	4032
925.924	4124
926.031	4215
926.138	4185
926.245	4181
926.352	4097
926.459	4234
926.566	4284
926.673	4181
926.779	4067
926.886	4051
926.993	3964
927.099	3968
927.206	3953
927.312	3964
927.419	4044
927.525	3998
927.631	4116
927.737	3960
927.843	3911
927.95	3861
928.056	3937
928.162	4017
928.267	4055
928.373	4653
928.479	4109
928.585	3857
928.69	4021
928.796	4090
928.901	3972
929.007	3819
929.112	3975
929.218	4013
929.323	3937
929.428	3926
929.533	4147
929.638	3930
929.743	3972
929.848	4059
929.953	4002
930.058	3903
930.163	3831
930.267	3835
930.372	3953
930.477	3785
930.581	4116
930.685	3960
930.79	3797
930.894	3892
930.998	3850
931.103	4029
931.207	3740
931.311	3641
931.415	3648
931.519	3507
931.623	3507
