Data from test_V78500241_2625.txt Node
Date: Fri Mar 25 17:07:15 CST 2022
User: usil
Spectrometer: V785-0024
Trigger mode: 0
Integration Time (sec): 4.000000E-1
Scans to average: 1
Nonlinearity correction enabled: false
Boxcar width: 0
Storing dark spectrum: false
XAxis mode: Wavelengths
Number of Pixels in Spectrum: 1024
>>>>>Begin Spectral Data<<<<<
801.071	8039
801.214	7917
801.356	7875
801.499	7864
801.641	7814
801.783	7837
801.926	7940
802.068	7944
802.211	8054
802.353	8069
802.496	7894
802.638	7894
802.78	7947
802.923	7887
803.065	7906
803.208	7921
803.35	7967
803.492	8008
803.635	8206
803.777	8005
803.919	8206
804.061	8404
804.204	8100
804.346	8046
804.488	8001
804.63	8027
804.773	8031
804.915	8088
805.057	8267
805.199	8168
805.341	8259
805.483	8317
805.626	8240
805.768	8164
805.91	8218
806.052	8123
806.194	8081
806.336	8301
806.478	8092
806.62	8100
806.762	8123
806.904	8233
807.046	8442
807.188	8324
807.33	8324
807.472	8324
807.614	8115
807.756	8149
807.898	7963
808.04	7830
808.182	7906
808.324	7879
808.465	7947
808.607	8005
808.749	8157
808.891	8248
809.033	8343
809.174	8164
809.316	8096
809.458	8092
809.6	7993
809.741	8008
809.883	8046
810.025	8065
810.166	7989
810.308	8024
810.45	7974
810.591	7837
810.733	7689
810.875	7632
811.016	7491
811.158	7499
811.299	7537
811.441	7712
811.582	7677
811.724	7563
811.865	7483
812.007	7586
812.148	7590
812.29	7594
812.431	7662
812.573	7841
812.714	7963
812.855	8153
812.997	8199
813.138	8362
813.279	8103
813.421	8073
813.562	7970
813.703	7833
813.845	7795
813.986	7487
814.127	7274
814.268	7293
814.41	7183
814.551	7183
814.692	7194
814.833	7164
814.974	7072
815.115	7091
815.256	6951
815.397	6890
815.539	6871
815.68	6802
815.821	6776
815.962	6875
816.103	6783
816.244	6745
816.385	6642
816.526	6658
816.666	6490
816.807	6247
816.948	6433
817.089	6429
817.23	6437
817.371	6346
817.512	6384
817.653	6361
817.793	6418
817.934	6422
818.075	6426
818.216	6384
818.356	6365
818.497	6266
818.638	6133
818.778	6159
818.919	6133
819.06	6117
819.2	6369
819.341	6319
819.481	6467
819.622	6536
819.762	6753
819.903	6722
820.043	6589
820.184	6597
820.324	6623
820.465	6715
820.605	6700
820.746	6719
820.886	6528
821.026	6677
821.167	6726
821.307	6825
821.447	6738
821.588	6650
821.728	6597
821.868	6570
822.008	6315
822.149	6407
822.289	6384
822.429	6186
822.569	6125
822.709	6140
822.849	5897
822.99	5908
823.13	5885
823.27	5923
823.41	5813
823.55	5817
823.69	5718
823.83	5779
823.97	5642
824.11	5535
824.25	5528
824.389	5535
824.529	5547
824.669	5528
824.809	5646
824.949	5653
825.089	5630
825.228	5581
825.368	5429
825.508	5341
825.648	5307
825.787	5376
825.927	5284
826.067	5303
826.206	5277
826.346	5341
826.485	5444
826.625	5398
826.765	5520
826.904	5436
827.044	5250
827.183	5189
827.323	5105
827.462	5292
827.601	5159
827.741	5166
827.88	5159
828.02	5128
828.159	5239
828.298	5288
828.437	5318
828.577	5315
828.716	5490
828.855	5311
828.994	5170
829.134	5132
829.273	5220
829.412	5086
829.551	5109
829.69	5128
829.829	5216
829.968	5364
830.107	5292
830.246	5269
830.385	5174
830.524	5128
830.663	5056
830.802	4984
830.941	4862
831.08	4843
831.219	4980
831.357	4961
831.496	5181
831.635	4866
831.774	4904
831.913	4873
832.051	4744
832.19	4748
832.329	4801
832.467	4729
832.606	4618
832.744	4668
832.883	4683
833.022	4710
833.16	4771
833.299	4782
833.437	4809
833.576	4816
833.714	4801
833.852	4847
833.991	4866
834.129	4946
834.267	4961
834.406	4877
834.544	4934
834.682	4923
834.821	5006
834.959	5117
835.097	4976
835.235	5094
835.373	5041
835.511	5121
835.65	5025
835.788	5033
835.926	4911
836.064	4877
836.202	4919
836.34	5102
836.478	5201
836.615	5109
836.753	5151
836.891	5284
837.029	5201
837.167	5227
837.305	5113
837.443	5193
837.58	5022
837.718	5220
837.856	5201
837.993	5113
838.131	5231
838.269	5231
838.406	5185
838.544	5220
838.681	4999
838.819	5010
838.956	4904
839.094	4877
839.231	4946
839.369	5079
839.506	5410
839.643	5280
839.781	5071
839.918	4999
840.055	5113
840.193	5071
840.33	5086
840.467	5090
840.604	5121
840.742	5444
840.879	5109
841.016	5033
841.153	5102
841.29	5421
841.427	5349
841.564	5322
841.701	5330
841.838	5292
841.975	5250
842.112	5273
842.249	5178
842.385	5121
842.522	5307
842.659	5151
842.796	5140
842.933	5124
843.069	5143
843.206	5181
843.343	5337
843.479	5242
843.616	5261
843.752	4999
843.889	5052
844.025	5235
844.162	4968
844.298	5220
844.435	5071
844.571	5067
844.708	5208
844.844	5357
844.98	5383
845.117	5311
845.253	5151
845.389	5109
845.525	5162
845.661	5189
845.798	5064
845.934	5189
846.07	5102
846.206	5261
846.342	5296
846.478	5208
846.614	5075
846.75	4987
846.886	4980
847.022	5189
847.158	5124
847.294	5121
847.429	5189
847.565	5056
847.701	5383
847.837	4862
847.972	4866
848.108	4995
848.244	4968
848.379	4831
848.515	4820
848.65	4714
848.786	4797
848.921	4828
849.057	4877
849.192	4904
849.328	4801
849.463	4930
849.598	4816
849.734	4774
849.869	4717
850.004	4694
850.14	4721
850.275	4664
850.41	4603
850.545	4611
850.68	4645
850.815	4691
850.95	4637
851.085	4889
851.22	4812
851.355	4721
851.49	4649
851.625	4679
851.76	4717
851.895	4611
852.03	4577
852.165	4725
852.299	4774
852.434	4843
852.569	4782
852.703	4831
852.838	4930
852.973	4980
853.107	4980
853.242	4774
853.376	4721
853.511	4611
853.645	4660
853.78	4839
853.914	4687
854.048	4721
854.183	4634
854.317	4672
854.451	4866
854.585	4725
854.72	4656
854.854	4812
854.988	4630
855.122	4691
855.256	4519
855.39	4691
855.524	4797
855.658	4733
855.792	4752
855.926	4733
856.06	4809
856.194	4839
856.327	4714
856.461	4611
856.595	4618
856.729	4664
856.862	4801
856.996	4752
857.13	4790
857.263	4793
857.397	4854
857.53	4675
857.664	4752
857.797	4790
857.931	4778
858.064	4721
858.197	4790
858.331	4740
858.464	4634
858.597	4561
858.731	4672
858.864	4641
858.997	4618
859.13	4694
859.263	4691
859.396	4778
859.529	4596
859.662	4607
859.795	4603
859.928	4641
860.061	4755
860.194	4816
860.327	4645
860.46	4584
860.592	4706
860.725	4710
860.858	4744
860.99	4603
861.123	4531
861.256	4508
861.388	4664
861.521	5444
861.653	4542
861.786	4466
861.918	4512
862.05	4565
862.183	4577
862.315	4622
862.447	4694
862.58	4588
862.712	4386
862.844	4337
862.976	4516
863.108	4455
863.24	4752
863.372	4356
863.504	4443
863.636	4428
863.768	4516
863.9	4451
864.032	4424
864.164	4440
864.296	4535
864.428	4565
864.559	4580
864.691	4580
864.823	4531
864.954	4516
865.086	4485
865.217	4489
865.349	4470
865.48	4481
865.612	4500
865.743	4698
865.875	4500
866.006	4451
866.137	4485
866.269	4497
866.4	4447
866.531	4455
866.662	4443
866.793	4455
866.924	4432
867.055	4519
867.186	4535
867.317	4440
867.448	4356
867.579	4421
867.71	4398
867.841	4371
867.972	4527
868.103	4466
868.233	4493
868.364	4481
868.495	4493
868.625	4668
868.756	4828
868.886	4546
869.017	4645
869.147	4835
869.278	4831
869.408	4675
869.539	4664
869.669	4793
869.799	4706
869.929	4778
870.06	4771
870.19	4984
870.32	4995
870.45	4957
870.58	5094
870.71	5124
870.84	5151
870.97	4957
871.1	4980
871.23	5178
871.36	5185
871.489	5056
871.619	5128
871.749	5128
871.879	5151
872.008	5242
872.138	5102
872.267	5048
872.397	4870
872.526	4820
872.656	4774
872.785	4854
872.915	5025
873.044	5041
873.173	4980
873.303	5003
873.432	4995
873.561	4972
873.69	4930
873.819	4881
873.948	4934
874.077	4854
874.206	4778
874.335	4820
874.464	4972
874.593	5109
874.722	4968
874.851	5147
874.979	5052
875.108	5083
875.237	4934
875.365	4934
875.494	4892
875.623	5014
875.751	4877
875.88	4934
876.008	5041
876.136	5071
876.265	5280
876.393	5360
876.521	5258
876.65	5296
876.778	5193
876.906	5086
877.034	5010
877.162	5102
877.29	5022
877.418	5121
877.546	5064
877.674	5067
877.802	5067
877.93	5056
878.058	4923
878.185	4885
878.313	5003
878.441	4930
878.568	4854
878.696	4900
878.824	4999
878.951	5025
879.079	5147
879.206	5250
879.333	5143
879.461	4995
879.588	5006
879.715	5140
879.842	5216
879.97	5102
880.097	4854
880.224	4809
880.351	4866
880.478	4858
880.605	4805
880.732	4850
880.859	5159
880.986	4900
881.112	4987
881.239	4828
881.366	4717
881.493	4679
881.619	4618
881.746	4702
881.872	4649
881.999	4626
882.125	4736
882.252	4771
882.378	4892
882.505	4995
882.631	4866
882.757	4706
882.883	4759
883.01	4744
883.136	4706
883.262	4656
883.388	4611
883.514	4847
883.64	4900
883.766	4790
883.892	4694
884.018	4725
884.143	4896
884.269	5067
884.395	4729
884.52	4664
884.646	4668
884.772	4611
884.897	4584
885.023	4717
885.148	4824
885.274	4904
885.399	4847
885.524	4767
885.65	4664
885.775	4797
885.9	4759
886.025	4892
886.15	4816
886.275	4752
886.4	4668
886.525	4729
886.65	4717
886.775	4725
886.9	4927
887.025	5052
887.149	4793
887.274	4687
887.399	4668
887.523	4603
887.648	4622
887.773	4630
887.897	4755
888.021	4805
888.146	4679
888.27	4877
888.395	4870
888.519	4786
888.643	4862
888.767	4877
888.891	4725
889.015	4656
889.139	4694
889.263	4637
889.387	4767
889.511	4877
889.635	4786
889.759	4653
889.883	4626
890.006	4683
890.13	4870
890.254	4603
890.377	4717
890.501	4546
890.624	4546
890.748	4630
890.871	4500
890.995	4428
891.118	4451
891.241	4569
891.364	4535
891.488	4603
891.611	4497
891.734	4580
891.857	4622
891.98	4599
892.103	4672
892.226	4584
892.349	4565
892.471	4474
892.594	4596
892.717	4630
892.839	4516
892.962	4584
893.085	4664
893.207	4580
893.33	4470
893.452	4573
893.575	4702
893.697	4558
893.819	4790
893.941	4850
894.064	4847
894.186	4577
894.308	4615
894.43	4793
894.552	4850
894.674	4759
894.796	4523
894.918	4577
895.04	4542
895.161	4694
895.283	4691
895.405	4611
895.526	4634
895.648	4755
895.769	4660
895.891	4774
896.012	4740
896.134	4774
896.255	4683
896.376	4679
896.498	4596
896.619	4641
896.74	4607
896.861	4634
896.982	4919
897.103	5075
897.224	4831
897.345	4755
897.466	4668
897.587	4786
897.708	4892
897.828	4767
897.949	4687
898.07	4573
898.19	4672
898.311	4828
898.431	4725
898.552	4714
898.672	4778
898.792	4797
898.913	4698
899.033	4618
899.153	4531
899.273	4432
899.393	4573
899.513	4569
899.633	4577
899.753	4565
899.873	4550
899.993	4573
900.113	4599
900.232	4622
900.352	4535
900.472	4500
900.591	4493
900.711	4519
900.83	4474
900.95	4580
901.069	4653
901.189	4519
901.308	4379
901.427	4329
901.546	4413
901.665	4428
901.784	4519
901.904	4409
902.023	4341
902.141	4207
902.26	4162
902.379	4306
902.498	4272
902.617	4227
902.735	4428
902.854	4390
902.973	4360
903.091	4249
903.21	4223
903.328	4367
903.446	4303
903.565	4238
903.683	4367
903.801	4249
903.919	4417
904.038	4489
904.156	4352
904.274	4466
904.392	4413
904.51	4436
904.627	4436
904.745	4599
904.863	4626
904.981	4405
905.098	4306
905.216	4363
905.334	4455
905.451	4485
905.569	4497
905.686	4577
905.803	4573
905.921	4440
906.038	4580
906.155	4485
906.272	4413
906.389	4504
906.506	4348
906.623	4379
906.74	4417
906.857	4299
906.974	4390
907.091	4573
907.208	4710
907.324	4611
907.441	4478
907.557	4386
907.674	4356
907.79	4329
907.907	4375
908.023	4481
908.139	4497
908.256	4424
908.372	4432
908.488	4459
908.604	4413
908.72	4325
908.836	4379
908.952	4386
909.068	4474
909.184	4611
909.3	4493
909.415	4550
909.531	4516
909.647	4386
909.762	4363
909.878	4325
909.993	4432
910.108	4432
910.224	4390
910.339	4481
910.454	4436
910.57	4303
910.685	4344
910.8	4672
910.915	4611
911.03	4493
911.145	4352
911.259	4375
911.374	4352
911.489	4284
911.604	4318
911.718	4204
911.833	4204
911.947	4082
912.062	4048
912.176	4196
912.291	4287
912.405	4272
912.519	4485
912.633	4542
912.748	4478
912.862	4287
912.976	4223
913.09	4071
913.204	4188
913.318	4261
913.431	4375
913.545	4356
913.659	4443
913.772	4394
913.886	4242
914	4276
914.113	4371
914.226	4478
914.34	4398
914.453	4261
914.566	4485
914.68	4337
914.793	4379
914.906	4166
915.019	4093
915.132	4128
915.245	4181
915.358	4295
915.47	4299
915.583	4325
915.696	4367
915.809	4413
915.921	4432
916.034	4325
916.146	4280
916.259	4287
916.371	4402
916.483	4375
916.595	4322
916.708	4367
916.82	4352
916.932	4344
917.044	4352
917.156	4352
917.268	4280
917.38	4329
917.491	4352
917.603	4344
917.715	4462
917.826	4459
917.938	4405
918.049	4303
918.161	4451
918.272	4573
918.384	4577
918.495	4470
918.606	4333
918.717	4299
918.828	4383
918.939	4443
919.05	4310
919.161	4360
919.272	4150
919.383	4265
919.494	4500
919.604	4683
919.715	4489
919.826	4383
919.936	4478
920.047	4538
920.157	4504
920.267	4801
920.378	4580
920.488	4592
920.598	4763
920.708	4927
920.818	4782
920.928	4778
921.038	4999
921.148	4927
921.258	4664
921.368	4569
921.477	4580
921.587	4527
921.697	4451
921.806	4588
921.916	4451
922.025	4383
922.134	4325
922.244	4280
922.353	4341
922.462	4238
922.571	4219
922.68	4067
922.789	3998
922.898	4040
923.007	4063
923.116	4173
923.224	4154
923.333	4086
923.442	3998
923.55	4059
923.659	4082
923.767	4150
923.876	4055
923.984	4169
924.092	4078
924.201	4135
924.309	4120
924.417	4181
924.525	4112
924.633	4101
924.741	5071
924.849	3945
924.956	4185
925.064	4036
925.172	3972
925.279	3975
925.387	4101
925.494	4078
925.602	4249
925.709	4215
925.816	4105
925.924	4162
926.031	4268
926.138	4185
926.245	4246
926.352	4162
926.459	4329
926.566	4337
926.673	4173
926.779	4105
926.886	4147
926.993	4063
927.099	3949
927.206	3994
927.312	4017
927.419	4082
927.525	4036
927.631	4150
927.737	4040
927.843	4021
927.95	3876
928.056	4021
928.162	4010
928.267	4120
928.373	4580
928.479	4131
928.585	3911
928.69	4082
928.796	4135
928.901	3998
929.007	3888
929.112	4017
929.218	4006
929.323	3953
929.428	4006
929.533	4078
929.638	3918
929.743	4002
929.848	4067
929.953	4029
930.058	3930
930.163	3876
930.267	3846
930.372	3979
930.477	3888
930.581	4154
930.685	3979
930.79	3880
930.894	3934
930.998	3869
931.103	4063
931.207	3778
931.311	3701
931.415	3679
931.519	3538
931.623	3606
