Data from test_V78500241_215.txt Node
Date: Fri Mar 25 16:50:29 CST 2022
User: usil
Spectrometer: V785-0024
Trigger mode: 0
Integration Time (sec): 4.000000E-1
Scans to average: 1
Nonlinearity correction enabled: false
Boxcar width: 0
Storing dark spectrum: false
XAxis mode: Wavelengths
Number of Pixels in Spectrum: 1024
>>>>>Begin Spectral Data<<<<<
801.071	8024
801.214	7982
801.356	7871
801.499	7894
801.641	7845
801.783	7849
801.926	7982
802.068	8005
802.211	8020
802.353	7967
802.496	7906
802.638	7925
802.78	7906
802.923	7894
803.065	7845
803.208	7814
803.35	7909
803.492	8043
803.635	8199
803.777	8031
803.919	8062
804.061	8446
804.204	8149
804.346	8062
804.488	7982
804.63	8096
804.773	7993
804.915	8119
805.057	8218
805.199	8229
805.341	8180
805.483	8252
805.626	8199
805.768	8100
805.91	8233
806.052	8202
806.194	8084
806.336	8324
806.478	8046
806.62	8084
806.762	8164
806.904	8290
807.046	8438
807.188	8313
807.33	8290
807.472	8248
807.614	8142
807.756	8168
807.898	7997
808.04	7883
808.182	7951
808.324	7936
808.465	7989
808.607	8092
808.749	8069
808.891	8221
809.033	8412
809.174	8187
809.316	8054
809.458	8073
809.6	7959
809.741	8043
809.883	8115
810.025	8138
810.166	8100
810.308	8020
810.45	8062
810.591	7856
810.733	7780
810.875	7700
811.016	7563
811.158	7457
811.299	7601
811.441	7693
811.582	7719
811.724	7597
811.865	7544
812.007	7632
812.148	7643
812.29	7601
812.431	7780
812.573	7963
812.714	8043
812.855	8176
812.997	8248
813.138	8324
813.279	8191
813.421	8145
813.562	8024
813.703	7849
813.845	7696
813.986	7506
814.127	7305
814.268	7225
814.41	7266
814.551	7137
814.692	7236
814.833	7034
814.974	7145
815.115	7164
815.256	7019
815.397	6993
815.539	6901
815.68	6875
815.821	6779
815.962	6878
816.103	6840
816.244	6707
816.385	6639
816.526	6642
816.666	6544
816.807	6315
816.948	6388
817.089	6460
817.23	6456
817.371	6353
817.512	6422
817.653	6509
817.793	6384
817.934	6445
818.075	6460
818.216	6422
818.356	6391
818.497	6239
818.638	6163
818.778	6125
818.919	6194
819.06	6201
819.2	6319
819.341	6327
819.481	6304
819.622	6509
819.762	6711
819.903	6673
820.043	6555
820.184	6563
820.324	6597
820.465	6692
820.605	6665
820.746	6620
820.886	6467
821.026	6635
821.167	6703
821.307	6768
821.447	6787
821.588	6650
821.728	6589
821.868	6528
822.008	6357
822.149	6414
822.289	6346
822.429	6194
822.569	6098
822.709	6136
822.849	5939
822.99	5916
823.13	5885
823.27	5961
823.41	5802
823.55	5783
823.69	5764
823.83	5802
823.97	5710
824.11	5573
824.25	5528
824.389	5611
824.529	5604
824.669	5535
824.809	5699
824.949	5703
825.089	5646
825.228	5558
825.368	5391
825.508	5376
825.648	5410
825.787	5379
825.927	5398
826.067	5337
826.206	5326
826.346	5372
826.485	5440
826.625	5421
826.765	5532
826.904	5474
827.044	5318
827.183	5284
827.323	5140
827.462	5223
827.601	5204
827.741	5181
827.88	5258
828.02	5170
828.159	5265
828.298	5311
828.437	5337
828.577	5307
828.716	5444
828.855	5357
828.994	5166
829.134	5227
829.273	5250
829.412	5159
829.551	5132
829.69	5201
829.829	5254
829.968	5376
830.107	5322
830.246	5261
830.385	5178
830.524	5147
830.663	5075
830.802	4976
830.941	4934
831.08	4850
831.219	4987
831.357	4953
831.496	5147
831.635	4957
831.774	4885
831.913	4839
832.051	4759
832.19	4786
832.329	4850
832.467	4725
832.606	4679
832.744	4710
832.883	4725
833.022	4725
833.16	4820
833.299	4843
833.437	4885
833.576	4866
833.714	4862
833.852	4870
833.991	4908
834.129	4976
834.267	4942
834.406	4930
834.544	4995
834.682	4972
834.821	4972
834.959	5239
835.097	4980
835.235	5235
835.373	5102
835.511	5113
835.65	4995
835.788	5033
835.926	4892
836.064	4873
836.202	4900
836.34	5147
836.478	5212
836.615	5094
836.753	5265
836.891	5299
837.029	5269
837.167	5231
837.305	5166
837.443	5143
837.58	5128
837.718	5197
837.856	5261
837.993	5136
838.131	5254
838.269	5227
838.406	5250
838.544	5193
838.681	5037
838.819	4991
838.956	4938
839.094	4881
839.231	5022
839.369	5079
839.506	5433
839.643	5311
839.781	5029
839.918	5029
840.055	5094
840.193	5086
840.33	5098
840.467	5166
840.604	5140
840.742	5467
840.879	5022
841.016	5109
841.153	5128
841.29	5414
841.427	5330
841.564	5322
841.701	5410
841.838	5269
841.975	5246
842.112	5330
842.249	5151
842.385	5155
842.522	5398
842.659	5170
842.796	5178
842.933	5185
843.069	5136
843.206	5140
843.343	5292
843.479	5258
843.616	5322
843.752	5060
843.889	5041
844.025	5204
844.162	5014
844.298	5220
844.435	5079
844.571	5079
844.708	5231
844.844	5322
844.98	5345
845.117	5288
845.253	5170
845.389	5117
845.525	5178
845.661	5212
845.798	5071
845.934	5113
846.07	5102
846.206	5201
846.342	5246
846.478	5204
846.614	5041
846.75	5003
846.886	4991
847.022	5136
847.158	5010
847.294	5094
847.429	5086
847.565	5079
847.701	5345
847.837	4831
847.972	4839
848.108	4957
848.244	4930
848.379	4733
848.515	4710
848.65	4702
848.786	4771
848.921	4790
849.057	4873
849.192	4953
849.328	4816
849.463	4854
849.598	4805
849.734	4771
849.869	4736
850.004	4653
850.14	4664
850.275	4653
850.41	4508
850.545	4542
850.68	4645
850.815	4603
850.95	4668
851.085	4862
851.22	4809
851.355	4721
851.49	4626
851.625	4630
851.76	4660
851.895	4554
852.03	4527
852.165	4641
852.299	4755
852.434	4763
852.569	4759
852.703	4793
852.838	4820
852.973	4930
853.107	4946
853.242	4767
853.376	4645
853.511	4554
853.645	4626
853.78	4812
853.914	4744
854.048	4641
854.183	4675
854.317	4725
854.451	4835
854.585	4698
854.72	4664
854.854	4774
854.988	4618
855.122	4634
855.256	4565
855.39	4694
855.524	4816
855.658	4714
855.792	4679
855.926	4725
856.06	4767
856.194	4835
856.327	4698
856.461	4626
856.595	4618
856.729	4641
856.862	4778
856.996	4683
857.13	4729
857.263	4694
857.397	4793
857.53	4660
857.664	4725
857.797	4870
857.931	4793
858.064	4679
858.197	4752
858.331	4672
858.464	4679
858.597	4584
858.731	4668
858.864	4672
858.997	4622
859.13	4653
859.263	4679
859.396	4763
859.529	4584
859.662	4611
859.795	4550
859.928	4641
860.061	4786
860.194	4767
860.327	4630
860.46	4569
860.592	4725
860.725	4706
860.858	4797
860.99	4531
861.123	4550
861.256	4550
861.388	4645
861.521	5326
861.653	4493
861.786	4459
861.918	4474
862.05	4523
862.183	4584
862.315	4618
862.447	4634
862.58	4561
862.712	4379
862.844	4348
862.976	4481
863.108	4451
863.24	4873
863.372	4348
863.504	4390
863.636	4409
863.768	4500
863.9	4485
864.032	4322
864.164	4462
864.296	4455
864.428	4611
864.559	4542
864.691	4599
864.823	4546
864.954	4481
865.086	4531
865.217	4478
865.349	4497
865.48	4493
865.612	4462
865.743	4615
865.875	4500
866.006	4462
866.137	4504
866.269	4466
866.4	4451
866.531	4478
866.662	4405
866.793	4421
866.924	4436
867.055	4474
867.186	4462
867.317	4455
867.448	4402
867.579	4337
867.71	4402
867.841	4386
867.972	4443
868.103	4462
868.233	4428
868.364	4485
868.495	4512
868.625	4683
868.756	4797
868.886	4584
869.017	4660
869.147	4782
869.278	4717
869.408	4664
869.539	4656
869.669	4736
869.799	4656
869.929	4801
870.06	4759
870.19	4961
870.32	4984
870.45	4949
870.58	5022
870.71	5124
870.84	5079
870.97	4900
871.1	4885
871.23	5162
871.36	5132
871.489	4991
871.619	5105
871.749	5151
871.879	5147
872.008	5174
872.138	5014
872.267	5003
872.397	4858
872.526	4820
872.656	4797
872.785	4862
872.915	4965
873.044	5041
873.173	4919
873.303	4991
873.432	4953
873.561	4968
873.69	4889
873.819	4847
873.948	4911
874.077	4835
874.206	4744
874.335	4805
874.464	4919
874.593	5098
874.722	4972
874.851	5105
874.979	5071
875.108	5037
875.237	4904
875.365	4885
875.494	4904
875.623	5025
875.751	4850
875.88	4873
876.008	4980
876.136	5090
876.265	5212
876.393	5357
876.521	5254
876.65	5239
876.778	5181
876.906	5124
877.034	5025
877.162	5105
877.29	4930
877.418	5037
877.546	5037
877.674	5090
877.802	5033
877.93	5037
878.058	4942
878.185	4862
878.313	4930
878.441	4919
878.568	4843
878.696	4919
878.824	4999
878.951	5010
879.079	5166
879.206	5303
879.333	5109
879.461	5033
879.588	5056
879.715	5140
879.842	5265
879.97	5003
880.097	4797
880.224	4748
880.351	4812
880.478	4858
880.605	4778
880.732	4816
880.859	5136
880.986	4930
881.112	4923
881.239	4755
881.366	4679
881.493	4641
881.619	4588
881.746	4611
881.872	4668
881.999	4618
882.125	4714
882.252	4801
882.378	4828
882.505	4965
882.631	4771
882.757	4660
882.883	4733
883.01	4744
883.136	4626
883.262	4580
883.388	4622
883.514	4828
883.64	4892
883.766	4790
883.892	4660
884.018	4733
884.143	4885
884.269	4965
884.395	4691
884.52	4649
884.646	4679
884.772	4577
884.897	4516
885.023	4649
885.148	4729
885.274	4870
885.399	4870
885.524	4755
885.65	4714
885.775	4717
885.9	4736
886.025	4843
886.15	4793
886.275	4698
886.4	4653
886.525	4755
886.65	4733
886.775	4664
886.9	4889
887.025	5014
887.149	4809
887.274	4649
887.399	4607
887.523	4588
887.648	4603
887.773	4592
887.897	4763
888.021	4778
888.146	4691
888.27	4831
888.395	4923
888.519	4793
888.643	4820
888.767	4809
888.891	4649
889.015	4546
889.139	4664
889.263	4637
889.387	4717
889.511	4831
889.635	4816
889.759	4634
889.883	4630
890.006	4721
890.13	4820
890.254	4596
890.377	4698
890.501	4561
890.624	4489
890.748	4637
890.871	4493
890.995	4440
891.118	4390
891.241	4535
891.364	4538
891.488	4668
891.611	4516
891.734	4523
891.857	4622
891.98	4558
892.103	4653
892.226	4618
892.349	4500
892.471	4474
892.594	4546
892.717	4603
892.839	4527
892.962	4611
893.085	4641
893.207	4546
893.33	4447
893.452	4569
893.575	4641
893.697	4565
893.819	4870
893.941	4824
894.064	4752
894.186	4558
894.308	4561
894.43	4740
894.552	4877
894.674	4812
894.796	4561
894.918	4580
895.04	4588
895.161	4717
895.283	4687
895.405	4588
895.526	4649
895.648	4710
895.769	4694
895.891	4748
896.012	4793
896.134	4691
896.255	4653
896.376	4649
896.498	4611
896.619	4615
896.74	4626
896.861	4664
896.982	4961
897.103	5136
897.224	4847
897.345	4729
897.466	4675
897.587	4721
897.708	4900
897.828	4759
897.949	4683
898.07	4554
898.19	4653
898.311	4908
898.431	4694
898.552	4744
898.672	4771
898.792	4790
898.913	4721
899.033	4637
899.153	4512
899.273	4421
899.393	4504
899.513	4546
899.633	4508
899.753	4558
899.873	4596
899.993	4577
900.113	4611
900.232	4615
900.352	4535
900.472	4447
900.591	4409
900.711	4474
900.83	4447
900.95	4675
901.069	4626
901.189	4542
901.308	4333
901.427	4348
901.546	4360
901.665	4497
901.784	4531
901.904	4421
902.023	4348
902.141	4188
902.26	4188
902.379	4291
902.498	4238
902.617	4188
902.735	4402
902.854	4394
902.973	4383
903.091	4234
903.21	4234
903.328	4337
903.446	4333
903.565	4265
903.683	4344
903.801	4272
903.919	4394
904.038	4428
904.156	4363
904.274	4447
904.392	4386
904.51	4481
904.627	4447
904.745	4592
904.863	4607
904.981	4379
905.098	4322
905.216	4325
905.334	4421
905.451	4462
905.569	4436
905.686	4531
905.803	4603
905.921	4394
906.038	4565
906.155	4474
906.272	4375
906.389	4459
906.506	4367
906.623	4386
906.74	4379
906.857	4310
906.974	4360
907.091	4546
907.208	4656
907.324	4565
907.441	4470
907.557	4360
907.674	4360
907.79	4322
907.907	4432
908.023	4466
908.139	4481
908.256	4440
908.372	4489
908.488	4470
908.604	4383
908.72	4318
908.836	4348
908.952	4352
909.068	4436
909.184	4573
909.3	4485
909.415	4558
909.531	4550
909.647	4325
909.762	4402
909.878	4303
909.993	4432
910.108	4409
910.224	4428
910.339	4455
910.454	4432
910.57	4356
910.685	4310
910.8	4656
910.915	4599
911.03	4478
911.145	4352
911.259	4329
911.374	4398
911.489	4310
911.604	4329
911.718	4150
911.833	4223
911.947	4097
912.062	4040
912.176	4219
912.291	4257
912.405	4261
912.519	4459
912.633	4569
912.748	4363
912.862	4306
912.976	4265
913.09	4116
913.204	4162
913.318	4253
913.431	4325
913.545	4402
913.659	4443
913.772	4360
913.886	4284
914	4227
914.113	4386
914.226	4474
914.34	4413
914.453	4230
914.566	4443
914.68	4341
914.793	4337
914.906	4154
915.019	4147
915.132	4063
915.245	4188
915.358	4261
915.47	4265
915.583	4287
915.696	4341
915.809	4424
915.921	4398
916.034	4284
916.146	4261
916.259	4234
916.371	4360
916.483	4375
916.595	4303
916.708	4344
916.82	4367
916.932	4318
917.044	4299
917.156	4344
917.268	4242
917.38	4329
917.491	4238
917.603	4394
917.715	4443
917.826	4417
917.938	4367
918.049	4200
918.161	4417
918.272	4550
918.384	4554
918.495	4474
918.606	4341
918.717	4249
918.828	4356
918.939	4344
919.05	4265
919.161	4329
919.272	4154
919.383	4249
919.494	4447
919.604	4626
919.715	4474
919.826	4409
919.936	4360
920.047	4550
920.157	4516
920.267	4687
920.378	4573
920.488	4508
920.598	4744
920.708	4930
920.818	4763
920.928	4782
921.038	4915
921.148	4885
921.258	4683
921.368	4569
921.477	4504
921.587	4462
921.697	4367
921.806	4550
921.916	4409
922.025	4329
922.134	4295
922.244	4257
922.353	4356
922.462	4215
922.571	4101
922.68	4006
922.789	4006
922.898	4044
923.007	4025
923.116	4162
923.224	4067
923.333	4086
923.442	4025
923.55	4021
923.659	4017
923.767	4135
923.876	3979
923.984	4150
924.092	4051
924.201	4071
924.309	4101
924.417	4166
924.525	4048
924.633	4131
924.741	5041
924.849	3945
924.956	4173
925.064	3994
925.172	3918
925.279	3972
925.387	4074
925.494	4074
925.602	4211
925.709	4215
925.816	4036
925.924	4150
926.031	4207
926.138	4177
926.245	4215
926.352	4135
926.459	4268
926.566	4333
926.673	4147
926.779	4082
926.886	4071
926.993	3949
927.099	3972
927.206	3956
927.312	3930
927.419	4063
927.525	4059
927.631	4120
927.737	3956
927.843	3979
927.95	3823
928.056	3983
928.162	3987
928.267	4074
928.373	4691
928.479	4147
928.585	3888
928.69	4006
928.796	4097
928.901	3953
929.007	3842
929.112	3960
929.218	4025
929.323	3949
929.428	3991
929.533	4124
929.638	3937
929.743	3998
929.848	4051
929.953	4048
930.058	3937
930.163	3819
930.267	3842
930.372	4013
930.477	3831
930.581	4112
930.685	3907
930.79	3857
930.894	3915
930.998	3831
931.103	4067
931.207	3671
931.311	3720
931.415	3671
931.519	3553
931.623	3545
