Data from test_V78500241_1147.txt Node
Date: Fri Mar 25 16:56:58 CST 2022
User: usil
Spectrometer: V785-0024
Trigger mode: 0
Integration Time (sec): 4.000000E-1
Scans to average: 1
Nonlinearity correction enabled: false
Boxcar width: 0
Storing dark spectrum: false
XAxis mode: Wavelengths
Number of Pixels in Spectrum: 1024
>>>>>Begin Spectral Data<<<<<
801.071	8084
801.214	7993
801.356	7951
801.499	7852
801.641	7845
801.783	7799
801.926	7940
802.068	7921
802.211	7951
802.353	7936
802.496	7811
802.638	7871
802.78	7902
802.923	7811
803.065	7883
803.208	7864
803.35	7921
803.492	8096
803.635	8138
803.777	8107
803.919	8172
804.061	8469
804.204	8111
804.346	8050
804.488	7967
804.63	8130
804.773	7932
804.915	8084
805.057	8305
805.199	8138
805.341	8218
805.483	8180
805.626	8180
805.768	8081
805.91	8168
806.052	8134
806.194	8027
806.336	8263
806.478	8119
806.62	7989
806.762	8157
806.904	8298
807.046	8438
807.188	8332
807.33	8290
807.472	8305
807.614	8115
807.756	8069
807.898	7951
808.04	7906
808.182	7932
808.324	7887
808.465	7955
808.607	8012
808.749	8073
808.891	8168
809.033	8225
809.174	8187
809.316	8012
809.458	8077
809.6	7993
809.741	8084
809.883	7955
810.025	8069
810.166	8092
810.308	8058
810.45	8077
810.591	7811
810.733	7753
810.875	7712
811.016	7480
811.158	7495
811.299	7525
811.441	7647
811.582	7658
811.724	7563
811.865	7468
812.007	7552
812.148	7575
812.29	7624
812.431	7700
812.573	7898
812.714	7955
812.855	8130
812.997	8172
813.138	8221
813.279	8191
813.421	8096
813.562	8073
813.703	7864
813.845	7715
813.986	7480
814.127	7240
814.268	7274
814.41	7240
814.551	7133
814.692	7198
814.833	7088
814.974	6981
815.115	7084
815.256	6970
815.397	6905
815.539	6932
815.68	6821
815.821	6768
815.962	6810
816.103	6897
816.244	6806
816.385	6563
816.526	6521
816.666	6467
816.807	6266
816.948	6361
817.089	6467
817.23	6471
817.371	6391
817.512	6361
817.653	6410
817.793	6346
817.934	6410
818.075	6464
818.216	6418
818.356	6410
818.497	6243
818.638	6095
818.778	6159
818.919	6167
819.06	6175
819.2	6327
819.341	6296
819.481	6304
819.622	6494
819.762	6658
819.903	6684
820.043	6593
820.184	6521
820.324	6608
820.465	6726
820.605	6639
820.746	6612
820.886	6467
821.026	6639
821.167	6688
821.307	6738
821.447	6722
821.588	6593
821.728	6517
821.868	6483
822.008	6289
822.149	6315
822.289	6380
822.429	6133
822.569	6083
822.709	6102
822.849	5893
822.99	5901
823.13	5923
823.27	5958
823.41	5866
823.55	5790
823.69	5764
823.83	5790
823.97	5680
824.11	5528
824.25	5509
824.389	5589
824.529	5600
824.669	5512
824.809	5608
824.949	5653
825.089	5608
825.228	5543
825.368	5395
825.508	5322
825.648	5345
825.787	5414
825.927	5406
826.067	5299
826.206	5261
826.346	5372
826.485	5467
826.625	5417
826.765	5516
826.904	5406
827.044	5208
827.183	5174
827.323	5075
827.462	5292
827.601	5201
827.741	5193
827.88	5185
828.02	5083
828.159	5223
828.298	5337
828.437	5364
828.577	5334
828.716	5467
828.855	5311
828.994	5155
829.134	5162
829.273	5239
829.412	5094
829.551	5147
829.69	5193
829.829	5235
829.968	5288
830.107	5258
830.246	5235
830.385	5151
830.524	5090
830.663	5105
830.802	4972
830.941	4900
831.08	4877
831.219	5010
831.357	4968
831.496	5102
831.635	4942
831.774	4839
831.913	4828
832.051	4725
832.19	4702
832.329	4824
832.467	4679
832.606	4622
832.744	4714
832.883	4698
833.022	4698
833.16	4771
833.299	4809
833.437	4831
833.576	4793
833.714	4843
833.852	4805
833.991	4873
834.129	4919
834.267	4930
834.406	4896
834.544	4919
834.682	4980
834.821	4961
834.959	5147
835.097	4923
835.235	5147
835.373	5079
835.511	5071
835.65	5010
835.788	5025
835.926	4908
836.064	4854
836.202	4938
836.34	5136
836.478	5254
836.615	5132
836.753	5162
836.891	5242
837.029	5258
837.167	5185
837.305	5136
837.443	5151
837.58	5041
837.718	5204
837.856	5208
837.993	5105
838.131	5250
838.269	5208
838.406	5197
838.544	5132
838.681	5037
838.819	4980
838.956	4900
839.094	4850
839.231	4995
839.369	5060
839.506	5448
839.643	5231
839.781	5006
839.918	5018
840.055	5090
840.193	5090
840.33	5113
840.467	5113
840.604	5140
840.742	5429
840.879	5067
841.016	5052
841.153	5143
841.29	5379
841.427	5303
841.564	5288
841.701	5341
841.838	5216
841.975	5201
842.112	5292
842.249	5193
842.385	5060
842.522	5318
842.659	5140
842.796	5174
842.933	5204
843.069	5201
843.206	5178
843.343	5201
843.479	5140
843.616	5231
843.752	5003
843.889	5037
844.025	5140
844.162	4972
844.298	5140
844.435	5090
844.571	5048
844.708	5208
844.844	5330
844.98	5349
845.117	5292
845.253	5105
845.389	5048
845.525	5151
845.661	5083
845.798	5029
845.934	5136
846.07	5025
846.206	5136
846.342	5250
846.478	5170
846.614	5022
846.75	4946
846.886	4885
847.022	5117
847.158	4976
847.294	5014
847.429	5067
847.565	5048
847.701	5303
847.837	4801
847.972	4820
848.108	4873
848.244	4892
848.379	4763
848.515	4778
848.65	4668
848.786	4721
848.921	4786
849.057	4828
849.192	4908
849.328	4801
849.463	4824
849.598	4763
849.734	4717
849.869	4675
850.004	4603
850.14	4622
850.275	4580
850.41	4538
850.545	4573
850.68	4580
850.815	4672
850.95	4592
851.085	4831
851.22	4721
851.355	4675
851.49	4596
851.625	4615
851.76	4630
851.895	4508
852.03	4527
852.165	4599
852.299	4679
852.434	4755
852.569	4714
852.703	4721
852.838	4835
852.973	4904
853.107	4892
853.242	4748
853.376	4683
853.511	4546
853.645	4599
853.78	4774
853.914	4683
854.048	4698
854.183	4554
854.317	4687
854.451	4873
854.585	4675
854.72	4611
854.854	4725
854.988	4599
855.122	4603
855.256	4516
855.39	4637
855.524	4778
855.658	4706
855.792	4664
855.926	4717
856.06	4740
856.194	4812
856.327	4687
856.461	4618
856.595	4596
856.729	4561
856.862	4759
856.996	4672
857.13	4717
857.263	4736
857.397	4778
857.53	4649
857.664	4634
857.797	4717
857.931	4736
858.064	4687
858.197	4717
858.331	4656
858.464	4611
858.597	4527
858.731	4622
858.864	4626
858.997	4550
859.13	4672
859.263	4645
859.396	4664
859.529	4622
859.662	4508
859.795	4531
859.928	4630
860.061	4736
860.194	4755
860.327	4596
860.46	4546
860.592	4710
860.725	4733
860.858	4675
860.99	4573
861.123	4542
861.256	4470
861.388	4611
861.521	5231
861.653	4481
861.786	4470
861.918	4485
862.05	4519
862.183	4554
862.315	4634
862.447	4634
862.58	4561
862.712	4352
862.844	4325
862.976	4417
863.108	4489
863.24	4873
863.372	4341
863.504	4424
863.636	4394
863.768	4489
863.9	4440
864.032	4363
864.164	4390
864.296	4424
864.428	4531
864.559	4588
864.691	4493
864.823	4508
864.954	4497
865.086	4489
865.217	4402
865.349	4386
865.48	4466
865.612	4508
865.743	4637
865.875	4413
866.006	4474
866.137	4432
866.269	4436
866.4	4398
866.531	4383
866.662	4363
866.793	4379
866.924	4398
867.055	4493
867.186	4451
867.317	4386
867.448	4322
867.579	4390
867.71	4402
867.841	4303
867.972	4405
868.103	4443
868.233	4432
868.364	4462
868.495	4466
868.625	4630
868.756	4725
868.886	4459
869.017	4565
869.147	4706
869.278	4774
869.408	4664
869.539	4596
869.669	4725
869.799	4630
869.929	4774
870.06	4714
870.19	4965
870.32	4892
870.45	4862
870.58	5003
870.71	5086
870.84	5056
870.97	4911
871.1	4911
871.23	5090
871.36	5113
871.489	4968
871.619	5064
871.749	5083
871.879	5109
872.008	5121
872.138	5060
872.267	4953
872.397	4793
872.526	4812
872.656	4687
872.785	4755
872.915	4980
873.044	4995
873.173	4839
873.303	4972
873.432	4934
873.561	4927
873.69	4850
873.819	4854
873.948	4908
874.077	4793
874.206	4717
874.335	4767
874.464	4949
874.593	5041
874.722	4965
874.851	5067
874.979	5010
875.108	4995
875.237	4850
875.365	4816
875.494	4900
875.623	4953
875.751	4828
875.88	4854
876.008	4953
876.136	4991
876.265	5197
876.393	5250
876.521	5223
876.65	5178
876.778	5079
876.906	5029
877.034	5025
877.162	4976
877.29	4953
877.418	5067
877.546	4999
877.674	5025
877.802	5014
877.93	5003
878.058	4923
878.185	4759
878.313	4946
878.441	4873
878.568	4805
878.696	4881
878.824	4946
878.951	4999
879.079	5162
879.206	5242
879.333	5102
879.461	4930
879.588	4949
879.715	5086
879.842	5185
879.97	4987
880.097	4717
880.224	4744
880.351	4843
880.478	4816
880.605	4771
880.732	4809
880.859	5067
880.986	4866
881.112	4911
881.239	4748
881.366	4675
881.493	4603
881.619	4622
881.746	4641
881.872	4679
881.999	4653
882.125	4691
882.252	4752
882.378	4812
882.505	5006
882.631	4759
882.757	4672
882.883	4679
883.01	4740
883.136	4679
883.262	4653
883.388	4668
883.514	4839
883.64	4896
883.766	4824
883.892	4679
884.018	4683
884.143	4877
884.269	5014
884.395	4691
884.52	4660
884.646	4733
884.772	4592
884.897	4645
885.023	4672
885.148	4850
885.274	4870
885.399	4850
885.524	4755
885.65	4721
885.775	4763
885.9	4736
886.025	4911
886.15	4786
886.275	4717
886.4	4710
886.525	4740
886.65	4736
886.775	4706
886.9	4984
887.025	5094
887.149	4858
887.274	4679
887.399	4660
887.523	4641
887.648	4573
887.773	4607
887.897	4820
888.021	4873
888.146	4721
888.27	4824
888.395	4877
888.519	4812
888.643	4812
888.767	4858
888.891	4717
889.015	4626
889.139	4706
889.263	4660
889.387	4763
889.511	4870
889.635	4820
889.759	4714
889.883	4637
890.006	4771
890.13	4889
890.254	4630
890.377	4683
890.501	4508
890.624	4558
890.748	4679
890.871	4546
890.995	4470
891.118	4402
891.241	4500
891.364	4538
891.488	4649
891.611	4523
891.734	4569
891.857	4603
891.98	4558
892.103	4679
892.226	4558
892.349	4558
892.471	4451
892.594	4588
892.717	4603
892.839	4592
892.962	4596
893.085	4698
893.207	4653
893.33	4436
893.452	4535
893.575	4725
893.697	4679
893.819	4843
893.941	4866
894.064	4755
894.186	4599
894.308	4584
894.43	4778
894.552	4835
894.674	4714
894.796	4592
894.918	4630
895.04	4599
895.161	4767
895.283	4653
895.405	4611
895.526	4656
895.648	4660
895.769	4755
895.891	4755
896.012	4763
896.134	4729
896.255	4668
896.376	4710
896.498	4626
896.619	4710
896.74	4641
896.861	4645
896.982	4991
897.103	5102
897.224	4866
897.345	4774
897.466	4706
897.587	4714
897.708	4835
897.828	4816
897.949	4668
898.07	4603
898.19	4668
898.311	4812
898.431	4653
898.552	4763
898.672	4763
898.792	4828
898.913	4790
899.033	4656
899.153	4508
899.273	4504
899.393	4512
899.513	4558
899.633	4531
899.753	4573
899.873	4538
899.993	4561
900.113	4512
900.232	4592
900.352	4573
900.472	4497
900.591	4432
900.711	4497
900.83	4508
900.95	4668
901.069	4702
901.189	4561
901.308	4402
901.427	4333
901.546	4394
901.665	4500
901.784	4466
901.904	4375
902.023	4333
902.141	4211
902.26	4169
902.379	4367
902.498	4280
902.617	4268
902.735	4402
902.854	4470
902.973	4379
903.091	4215
903.21	4276
903.328	4352
903.446	4322
903.565	4265
903.683	4371
903.801	4314
903.919	4443
904.038	4466
904.156	4360
904.274	4462
904.392	4417
904.51	4470
904.627	4508
904.745	4523
904.863	4645
904.981	4405
905.098	4333
905.216	4356
905.334	4451
905.451	4470
905.569	4481
905.686	4573
905.803	4584
905.921	4424
906.038	4626
906.155	4478
906.272	4428
906.389	4470
906.506	4379
906.623	4421
906.74	4421
906.857	4341
906.974	4375
907.091	4569
907.208	4698
907.324	4615
907.441	4485
907.557	4379
907.674	4386
907.79	4341
907.907	4383
908.023	4519
908.139	4546
908.256	4417
908.372	4500
908.488	4493
908.604	4325
908.72	4360
908.836	4386
908.952	4398
909.068	4455
909.184	4603
909.3	4538
909.415	4664
909.531	4558
909.647	4371
909.762	4371
909.878	4383
909.993	4500
910.108	4443
910.224	4440
910.339	4485
910.454	4375
910.57	4337
910.685	4367
910.8	4702
910.915	4634
911.03	4504
911.145	4356
911.259	4379
911.374	4379
911.489	4329
911.604	4280
911.718	4192
911.833	4272
911.947	4131
912.062	4059
912.176	4246
912.291	4238
912.405	4227
912.519	4493
912.633	4516
912.748	4367
912.862	4310
912.976	4204
913.09	4128
913.204	4207
913.318	4242
913.431	4417
913.545	4402
913.659	4447
913.772	4421
913.886	4211
914	4215
914.113	4360
914.226	4428
914.34	4436
914.453	4230
914.566	4405
914.68	4295
914.793	4344
914.906	4211
915.019	4173
915.132	4071
915.245	4211
915.358	4223
915.47	4287
915.583	4246
915.696	4314
915.809	4390
915.921	4386
916.034	4272
916.146	4295
916.259	4257
916.371	4402
916.483	4394
916.595	4268
916.708	4325
916.82	4394
916.932	4367
917.044	4367
917.156	4341
917.268	4310
917.38	4337
917.491	4299
917.603	4363
917.715	4462
917.826	4466
917.938	4375
918.049	4265
918.161	4432
918.272	4542
918.384	4554
918.495	4455
918.606	4310
918.717	4265
918.828	4337
918.939	4405
919.05	4291
919.161	4314
919.272	4135
919.383	4242
919.494	4466
919.604	4603
919.715	4421
919.826	4379
919.936	4432
920.047	4535
920.157	4504
920.267	4717
920.378	4538
920.488	4538
920.598	4744
920.708	4862
920.818	4755
920.928	4755
921.038	4930
921.148	4957
921.258	4649
921.368	4615
921.477	4558
921.587	4443
921.697	4447
921.806	4596
921.916	4421
922.025	4310
922.134	4291
922.244	4261
922.353	4348
922.462	4188
922.571	4150
922.68	3998
922.789	3994
922.898	4051
923.007	4006
923.116	4101
923.224	4097
923.333	4036
923.442	4021
923.55	4036
923.659	4029
923.767	4124
923.876	4002
923.984	4109
924.092	4006
924.201	4116
924.309	4105
924.417	4150
924.525	4059
924.633	4177
924.741	5071
924.849	3960
924.956	4131
925.064	3994
925.172	3918
925.279	3968
925.387	4036
925.494	4078
925.602	4227
925.709	4215
925.816	4040
925.924	4139
926.031	4246
926.138	4200
926.245	4219
926.352	4090
926.459	4249
926.566	4356
926.673	4158
926.779	4086
926.886	4086
926.993	3994
927.099	3949
927.206	3953
927.312	3972
927.419	4097
927.525	4029
927.631	4120
927.737	3987
927.843	3979
927.95	3850
928.056	3937
928.162	3960
928.267	4074
928.373	4706
928.479	4147
928.585	3945
928.69	4032
928.796	4082
928.901	3994
929.007	3861
929.112	4006
929.218	3975
929.323	3964
929.428	3960
929.533	4093
929.638	3941
929.743	3972
929.848	4017
929.953	3987
930.058	3945
930.163	3804
930.267	3819
930.372	4021
930.477	3778
930.581	4093
930.685	3987
930.79	3816
930.894	3896
930.998	3896
931.103	4059
931.207	3759
931.311	3713
931.415	3667
931.519	3538
931.623	3538
