Data from test_V78500241_1924.txt Node
Date: Fri Mar 25 17:02:22 CST 2022
User: usil
Spectrometer: V785-0024
Trigger mode: 0
Integration Time (sec): 4.000000E-1
Scans to average: 1
Nonlinearity correction enabled: false
Boxcar width: 0
Storing dark spectrum: false
XAxis mode: Wavelengths
Number of Pixels in Spectrum: 1024
>>>>>Begin Spectral Data<<<<<
801.071	8084
801.214	8046
801.356	7856
801.499	7860
801.641	7685
801.783	7788
801.926	8001
802.068	7856
802.211	7887
802.353	8020
802.496	7803
802.638	7803
802.78	7864
802.923	7925
803.065	7837
803.208	7807
803.35	7928
803.492	8103
803.635	8180
803.777	7997
803.919	8107
804.061	8431
804.204	8183
804.346	8103
804.488	7997
804.63	8016
804.773	7978
804.915	8043
805.057	8279
805.199	8168
805.341	8199
805.483	8240
805.626	8191
805.768	8084
805.91	8176
806.052	8225
806.194	8058
806.336	8298
806.478	8058
806.62	8031
806.762	8119
806.904	8218
807.046	8412
807.188	8355
807.33	8377
807.472	8290
807.614	8134
807.756	8123
807.898	7947
808.04	7951
808.182	7883
808.324	7875
808.465	7913
808.607	8054
808.749	8115
808.891	8164
809.033	8267
809.174	8176
809.316	8084
809.458	8058
809.6	8069
809.741	8039
809.883	8073
810.025	8092
810.166	8016
810.308	7978
810.45	8077
810.591	7852
810.733	7712
810.875	7643
811.016	7552
811.158	7468
811.299	7525
811.441	7757
811.582	7613
811.724	7529
811.865	7514
812.007	7575
812.148	7632
812.29	7624
812.431	7742
812.573	7860
812.714	7951
812.855	8145
812.997	8180
813.138	8263
813.279	8145
813.421	8096
813.562	7936
813.703	7788
813.845	7674
813.986	7438
814.127	7251
814.268	7187
814.41	7156
814.551	7126
814.692	7232
814.833	7080
814.974	7091
815.115	7179
815.256	6844
815.397	6871
815.539	6909
815.68	6760
815.821	6738
815.962	6886
816.103	6810
816.244	6738
816.385	6627
816.526	6612
816.666	6490
816.807	6304
816.948	6433
817.089	6464
817.23	6486
817.371	6327
817.512	6357
817.653	6350
817.793	6327
817.934	6460
818.075	6429
818.216	6445
818.356	6395
818.497	6292
818.638	6098
818.778	6140
818.919	6083
819.06	6155
819.2	6277
819.341	6338
819.481	6350
819.622	6506
819.762	6738
819.903	6696
820.043	6597
820.184	6521
820.324	6574
820.465	6703
820.605	6612
820.746	6601
820.886	6502
821.026	6635
821.167	6692
821.307	6738
821.447	6760
821.588	6665
821.728	6517
821.868	6525
822.008	6380
822.149	6403
822.289	6353
822.429	6106
822.569	6068
822.709	6110
822.849	5935
822.99	5813
823.13	5863
823.27	5946
823.41	5805
823.55	5775
823.69	5779
823.83	5733
823.97	5646
824.11	5467
824.25	5509
824.389	5516
824.529	5551
824.669	5490
824.809	5596
824.949	5684
825.089	5638
825.228	5619
825.368	5402
825.508	5311
825.648	5372
825.787	5414
825.927	5383
826.067	5357
826.206	5326
826.346	5360
826.485	5414
826.625	5429
826.765	5592
826.904	5486
827.044	5239
827.183	5201
827.323	5124
827.462	5201
827.601	5151
827.741	5231
827.88	5231
828.02	5086
828.159	5170
828.298	5284
828.437	5318
828.577	5261
828.716	5516
828.855	5307
828.994	5136
829.134	5102
829.273	5174
829.412	5132
829.551	5132
829.69	5174
829.829	5242
829.968	5379
830.107	5265
830.246	5269
830.385	5159
830.524	5090
830.663	5075
830.802	4949
830.941	4923
831.08	4862
831.219	5018
831.357	4927
831.496	5102
831.635	4870
831.774	4835
831.913	4866
832.051	4752
832.19	4736
832.329	4740
832.467	4740
832.606	4634
832.744	4736
832.883	4694
833.022	4675
833.16	4782
833.299	4824
833.437	4797
833.576	4824
833.714	4847
833.852	4870
833.991	4938
834.129	4923
834.267	4908
834.406	4892
834.544	4980
834.682	4972
834.821	4968
834.959	5178
835.097	4980
835.235	5189
835.373	5060
835.511	5064
835.65	5052
835.788	5006
835.926	4881
836.064	4881
836.202	4938
836.34	5109
836.478	5220
836.615	5048
836.753	5181
836.891	5254
837.029	5227
837.167	5185
837.305	5208
837.443	5113
837.58	5064
837.718	5201
837.856	5204
837.993	5090
838.131	5261
838.269	5208
838.406	5170
838.544	5162
838.681	4980
838.819	5056
838.956	4896
839.094	4889
839.231	4934
839.369	5064
839.506	5455
839.643	5231
839.781	5083
839.918	5014
840.055	5048
840.193	5052
840.33	5071
840.467	5105
840.604	5155
840.742	5440
840.879	5033
841.016	5071
841.153	5159
841.29	5311
841.427	5307
841.564	5318
841.701	5337
841.838	5284
841.975	5250
842.112	5235
842.249	5117
842.385	5140
842.522	5349
842.659	5147
842.796	5128
842.933	5193
843.069	5124
843.206	5155
843.343	5299
843.479	5227
843.616	5265
843.752	5010
843.889	5041
844.025	5246
844.162	5033
844.298	5269
844.435	5143
844.571	5033
844.708	5201
844.844	5307
844.98	5303
845.117	5292
845.253	5090
845.389	5071
845.525	5094
845.661	5109
845.798	5041
845.934	5155
846.07	5064
846.206	5189
846.342	5284
846.478	5185
846.614	5064
846.75	5018
846.886	4885
847.022	5159
847.158	5041
847.294	5060
847.429	5071
847.565	5003
847.701	5315
847.837	4812
847.972	4790
848.108	4968
848.244	4934
848.379	4767
848.515	4744
848.65	4736
848.786	4752
848.921	4744
849.057	4820
849.192	4934
849.328	4778
849.463	4854
849.598	4797
849.734	4736
849.869	4683
850.004	4679
850.14	4668
850.275	4611
850.41	4584
850.545	4546
850.68	4584
850.815	4634
850.95	4592
851.085	4790
851.22	4721
851.355	4615
851.49	4626
851.625	4592
851.76	4599
851.895	4577
852.03	4519
852.165	4656
852.299	4694
852.434	4797
852.569	4740
852.703	4774
852.838	4831
852.973	4942
853.107	4938
853.242	4710
853.376	4641
853.511	4584
853.645	4603
853.78	4755
853.914	4656
854.048	4668
854.183	4634
854.317	4687
854.451	4812
854.585	4641
854.72	4664
854.854	4752
854.988	4611
855.122	4653
855.256	4497
855.39	4672
855.524	4740
855.658	4702
855.792	4710
855.926	4744
856.06	4759
856.194	4816
856.327	4691
856.461	4611
856.595	4622
856.729	4599
856.862	4702
856.996	4698
857.13	4725
857.263	4729
857.397	4774
857.53	4637
857.664	4691
857.797	4733
857.931	4748
858.064	4645
858.197	4759
858.331	4634
858.464	4611
858.597	4478
858.731	4687
858.864	4611
858.997	4637
859.13	4626
859.263	4694
859.396	4729
859.529	4588
859.662	4580
859.795	4558
859.928	4630
860.061	4725
860.194	4736
860.327	4588
860.46	4535
860.592	4740
860.725	4736
860.858	4725
860.99	4607
861.123	4512
861.256	4531
861.388	4611
861.521	5277
861.653	4485
861.786	4455
861.918	4440
862.05	4535
862.183	4527
862.315	4672
862.447	4588
862.58	4527
862.712	4466
862.844	4287
862.976	4478
863.108	4466
863.24	4706
863.372	4341
863.504	4424
863.636	4398
863.768	4474
863.9	4432
864.032	4348
864.164	4417
864.296	4478
864.428	4497
864.559	4535
864.691	4500
864.823	4489
864.954	4538
865.086	4523
865.217	4455
865.349	4432
865.48	4424
865.612	4443
865.743	4630
865.875	4466
866.006	4402
866.137	4440
866.269	4455
866.4	4424
866.531	4417
866.662	4417
866.793	4405
866.924	4394
867.055	4512
867.186	4409
867.317	4405
867.448	4367
867.579	4356
867.71	4337
867.841	4352
867.972	4386
868.103	4462
868.233	4440
868.364	4440
868.495	4474
868.625	4668
868.756	4736
868.886	4558
869.017	4615
869.147	4774
869.278	4755
869.408	4660
869.539	4630
869.669	4679
869.799	4641
869.929	4782
870.06	4717
870.19	4942
870.32	4938
870.45	4930
870.58	4991
870.71	5052
870.84	5121
870.97	4923
871.1	4896
871.23	5098
871.36	5113
871.489	5067
871.619	5109
871.749	5094
871.879	5060
872.008	5212
872.138	5003
872.267	4980
872.397	4850
872.526	4805
872.656	4706
872.785	4790
872.915	4938
873.044	4984
873.173	4949
873.303	4965
873.432	4961
873.561	4968
873.69	4873
873.819	4858
873.948	4885
874.077	4801
874.206	4797
874.335	4809
874.464	4900
874.593	5045
874.722	4949
874.851	5056
874.979	5018
875.108	5045
875.237	4915
875.365	4904
875.494	4904
875.623	4949
875.751	4786
875.88	4870
876.008	4984
876.136	4995
876.265	5189
876.393	5337
876.521	5250
876.65	5223
876.778	5162
876.906	5048
877.034	4999
877.162	5056
877.29	5022
877.418	5067
877.546	5067
877.674	5075
877.802	4999
877.93	4999
878.058	4938
878.185	4820
878.313	4976
878.441	4889
878.568	4793
878.696	4896
878.824	4942
878.951	4991
879.079	5124
879.206	5288
879.333	5071
879.461	4972
879.588	5029
879.715	5079
879.842	5223
879.97	4976
880.097	4767
880.224	4733
880.351	4835
880.478	4774
880.605	4774
880.732	4733
880.859	5121
880.986	4866
881.112	4877
881.239	4752
881.366	4683
881.493	4535
881.619	4569
881.746	4634
881.872	4660
881.999	4577
882.125	4649
882.252	4805
882.378	4824
882.505	4900
882.631	4797
882.757	4634
882.883	4740
883.01	4691
883.136	4630
883.262	4611
883.388	4561
883.514	4843
883.64	4809
883.766	4797
883.892	4634
884.018	4706
884.143	4881
884.269	4946
884.395	4649
884.52	4607
884.646	4611
884.772	4558
884.897	4508
885.023	4649
885.148	4748
885.274	4812
885.399	4733
885.524	4683
885.65	4736
885.775	4706
885.9	4706
886.025	4850
886.15	4717
886.275	4687
886.4	4702
886.525	4649
886.65	4679
886.775	4694
886.9	4816
887.025	5014
887.149	4744
887.274	4630
887.399	4611
887.523	4577
887.648	4565
887.773	4592
887.897	4687
888.021	4736
888.146	4630
888.27	4820
888.395	4870
888.519	4774
888.643	4778
888.767	4812
888.891	4645
889.015	4569
889.139	4641
889.263	4584
889.387	4725
889.511	4820
889.635	4767
889.759	4615
889.883	4626
890.006	4702
890.13	4828
890.254	4596
890.377	4641
890.501	4508
890.624	4573
890.748	4580
890.871	4493
890.995	4455
891.118	4379
891.241	4478
891.364	4554
891.488	4592
891.611	4493
891.734	4577
891.857	4641
891.98	4481
892.103	4668
892.226	4577
892.349	4542
892.471	4432
892.594	4519
892.717	4580
892.839	4550
892.962	4611
893.085	4672
893.207	4615
893.33	4470
893.452	4558
893.575	4660
893.697	4622
893.819	4759
893.941	4877
894.064	4786
894.186	4607
894.308	4607
894.43	4767
894.552	4873
894.674	4790
894.796	4569
894.918	4634
895.04	4634
895.161	4729
895.283	4675
895.405	4630
895.526	4660
895.648	4683
895.769	4778
895.891	4736
896.012	4778
896.134	4797
896.255	4771
896.376	4634
896.498	4721
896.619	4763
896.74	4618
896.861	4622
896.982	4980
897.103	5128
897.224	4889
897.345	4767
897.466	4694
897.587	4809
897.708	4877
897.828	4778
897.949	4710
898.07	4592
898.19	4649
898.311	4889
898.431	4675
898.552	4744
898.672	4816
898.792	4850
898.913	4748
899.033	4679
899.153	4504
899.273	4512
899.393	4577
899.513	4531
899.633	4630
899.753	4615
899.873	4573
899.993	4561
900.113	4527
900.232	4637
900.352	4599
900.472	4508
900.591	4428
900.711	4516
900.83	4497
900.95	4645
901.069	4729
901.189	4569
901.308	4417
901.427	4348
901.546	4455
901.665	4550
901.784	4512
901.904	4394
902.023	4363
902.141	4192
902.26	4223
902.379	4325
902.498	4246
902.617	4303
902.735	4405
902.854	4436
902.973	4371
903.091	4204
903.21	4261
903.328	4337
903.446	4287
903.565	4249
903.683	4379
903.801	4306
903.919	4447
904.038	4474
904.156	4352
904.274	4481
904.392	4447
904.51	4455
904.627	4508
904.745	4649
904.863	4607
904.981	4409
905.098	4352
905.216	4413
905.334	4428
905.451	4462
905.569	4447
905.686	4554
905.803	4615
905.921	4440
906.038	4618
906.155	4478
906.272	4443
906.389	4462
906.506	4348
906.623	4386
906.74	4432
906.857	4379
906.974	4367
907.091	4611
907.208	4714
907.324	4615
907.441	4508
907.557	4413
907.674	4386
907.79	4367
907.907	4409
908.023	4508
908.139	4478
908.256	4459
908.372	4466
908.488	4478
908.604	4356
908.72	4325
908.836	4375
908.952	4402
909.068	4489
909.184	4596
909.3	4504
909.415	4622
909.531	4584
909.647	4383
909.762	4405
909.878	4352
909.993	4451
910.108	4417
910.224	4443
910.339	4516
910.454	4413
910.57	4413
910.685	4310
910.8	4679
910.915	4599
911.03	4451
911.145	4398
911.259	4303
911.374	4417
911.489	4322
911.604	4303
911.718	4242
911.833	4211
911.947	4093
912.062	4067
912.176	4257
912.291	4284
912.405	4284
912.519	4398
912.633	4519
912.748	4394
912.862	4303
912.976	4227
913.09	4040
913.204	4188
913.318	4291
913.431	4383
913.545	4379
913.659	4466
913.772	4413
913.886	4265
914	4265
914.113	4421
914.226	4455
914.34	4409
914.453	4284
914.566	4402
914.68	4299
914.793	4341
914.906	4211
915.019	4192
915.132	4109
915.245	4204
915.358	4246
915.47	4257
915.583	4284
915.696	4325
915.809	4478
915.921	4470
916.034	4276
916.146	4253
916.259	4257
916.371	4402
916.483	4405
916.595	4306
916.708	4314
916.82	4398
916.932	4348
917.044	4348
917.156	4383
917.268	4249
917.38	4314
917.491	4265
917.603	4352
917.715	4489
917.826	4447
917.938	4333
918.049	4261
918.161	4455
918.272	4588
918.384	4565
918.495	4519
918.606	4299
918.717	4284
918.828	4314
918.939	4398
919.05	4242
919.161	4398
919.272	4150
919.383	4276
919.494	4459
919.604	4653
919.715	4405
919.826	4402
919.936	4398
920.047	4588
920.157	4527
920.267	4755
920.378	4584
920.488	4500
920.598	4752
920.708	4908
920.818	4771
920.928	4782
921.038	4949
921.148	4919
921.258	4660
921.368	4596
921.477	4538
921.587	4481
921.697	4375
921.806	4584
921.916	4466
922.025	4265
922.134	4284
922.244	4242
922.353	4333
922.462	4192
922.571	4192
922.68	4025
922.789	3979
922.898	4086
923.007	4006
923.116	4082
923.224	4101
923.333	4074
923.442	4021
923.55	3972
923.659	4025
923.767	4093
923.876	3975
923.984	4188
924.092	3991
924.201	4063
924.309	4128
924.417	4154
924.525	4086
924.633	4116
924.741	5037
924.849	3945
924.956	4181
925.064	4021
925.172	3956
925.279	3968
925.387	4063
925.494	4105
925.602	4227
925.709	4211
925.816	4055
925.924	4143
926.031	4268
926.138	4177
926.245	4204
926.352	4086
926.459	4257
926.566	4303
926.673	4200
926.779	4131
926.886	4090
926.993	3998
927.099	3987
927.206	3975
927.312	4010
927.419	4055
927.525	4071
927.631	4120
927.737	3964
927.843	3972
927.95	3896
928.056	4010
928.162	4025
928.267	4105
928.373	4611
928.479	4105
928.585	3888
928.69	4059
928.796	4101
928.901	4021
929.007	3850
929.112	4013
929.218	3998
929.323	3960
929.428	3979
929.533	4124
929.638	3903
929.743	4006
929.848	4040
929.953	3994
930.058	3960
930.163	3797
930.267	3797
930.372	4040
930.477	3835
930.581	4128
930.685	3930
930.79	3865
930.894	3869
930.998	3835
931.103	4032
931.207	3762
931.311	3724
931.415	3701
931.519	3542
931.623	3584
