Data from test_V78500241_1262.txt Node
Date: Fri Mar 25 16:57:46 CST 2022
User: usil
Spectrometer: V785-0024
Trigger mode: 0
Integration Time (sec): 4.000000E-1
Scans to average: 1
Nonlinearity correction enabled: false
Boxcar width: 0
Storing dark spectrum: false
XAxis mode: Wavelengths
Number of Pixels in Spectrum: 1024
>>>>>Begin Spectral Data<<<<<
801.071	8016
801.214	8069
801.356	7883
801.499	7868
801.641	7788
801.783	7769
801.926	7959
802.068	7917
802.211	7936
802.353	7906
802.496	7822
802.638	7902
802.78	7947
802.923	7917
803.065	7890
803.208	7807
803.35	7928
803.492	8123
803.635	8145
803.777	7986
803.919	8062
804.061	8404
804.204	8195
804.346	8008
804.488	7997
804.63	8172
804.773	7986
804.915	8081
805.057	8294
805.199	8149
805.341	8176
805.483	8256
805.626	8218
805.768	8126
805.91	8252
806.052	8229
806.194	8134
806.336	8305
806.478	8100
806.62	8077
806.762	8043
806.904	8298
807.046	8461
807.188	8313
807.33	8275
807.472	8317
807.614	8130
807.756	8126
807.898	8016
808.04	7921
808.182	7928
808.324	7906
808.465	7932
808.607	8084
808.749	8050
808.891	8202
809.033	8271
809.174	8187
809.316	8073
809.458	7982
809.6	7997
809.741	8039
809.883	7986
810.025	8050
810.166	8077
810.308	8043
810.45	8073
810.591	7826
810.733	7731
810.875	7677
811.016	7483
811.158	7502
811.299	7556
811.441	7674
811.582	7620
811.724	7605
811.865	7609
812.007	7567
812.148	7624
812.29	7616
812.431	7723
812.573	7875
812.714	7967
812.855	8096
812.997	8180
813.138	8248
813.279	8206
813.421	8119
813.562	7982
813.703	7818
813.845	7772
813.986	7415
814.127	7244
814.268	7156
814.41	7190
814.551	7168
814.692	7168
814.833	7149
814.974	7023
815.115	7156
815.256	6981
815.397	6947
815.539	6958
815.68	6821
815.821	6738
815.962	6875
816.103	6856
816.244	6684
816.385	6684
816.526	6627
816.666	6490
816.807	6296
816.948	6403
817.089	6506
817.23	6433
817.371	6342
817.512	6407
817.653	6437
817.793	6376
817.934	6433
818.075	6441
818.216	6464
818.356	6384
818.497	6201
818.638	6106
818.778	6106
818.919	6148
819.06	6144
819.2	6311
819.341	6338
819.481	6365
819.622	6502
819.762	6734
819.903	6688
820.043	6521
820.184	6532
820.324	6601
820.465	6681
820.605	6677
820.746	6582
820.886	6486
821.026	6677
821.167	6711
821.307	6753
821.447	6726
821.588	6612
821.728	6563
821.868	6517
822.008	6311
822.149	6338
822.289	6353
822.429	6133
822.569	6057
822.709	6064
822.849	5901
822.99	5912
823.13	5866
823.27	5920
823.41	5813
823.55	5779
823.69	5718
823.83	5748
823.97	5657
824.11	5501
824.25	5554
824.389	5551
824.529	5554
824.669	5512
824.809	5634
824.949	5688
825.089	5638
825.228	5532
825.368	5372
825.508	5311
825.648	5364
825.787	5364
825.927	5391
826.067	5280
826.206	5258
826.346	5360
826.485	5376
826.625	5387
826.765	5501
826.904	5436
827.044	5273
827.183	5178
827.323	5140
827.462	5204
827.601	5105
827.741	5220
827.88	5258
828.02	5105
828.159	5235
828.298	5288
828.437	5379
828.577	5223
828.716	5440
828.855	5307
828.994	5128
829.134	5151
829.273	5181
829.412	5166
829.551	5113
829.69	5162
829.829	5254
829.968	5398
830.107	5242
830.246	5220
830.385	5162
830.524	5124
830.663	5048
830.802	4953
830.941	4896
831.08	4889
831.219	4980
831.357	4949
831.496	5155
831.635	4908
831.774	4854
831.913	4774
832.051	4694
832.19	4771
832.329	4839
832.467	4660
832.606	4599
832.744	4717
832.883	4694
833.022	4691
833.16	4733
833.299	4816
833.437	4847
833.576	4835
833.714	4915
833.852	4858
833.991	4889
834.129	4942
834.267	4938
834.406	4949
834.544	4957
834.682	4961
834.821	4980
834.959	5159
835.097	4991
835.235	5113
835.373	5045
835.511	5159
835.65	4984
835.788	4995
835.926	4927
836.064	4850
836.202	4919
836.34	5143
836.478	5208
836.615	5117
836.753	5208
836.891	5261
837.029	5216
837.167	5170
837.305	5140
837.443	5147
837.58	5132
837.718	5197
837.856	5136
837.993	5086
838.131	5185
838.269	5166
838.406	5242
838.544	5189
838.681	5045
838.819	5025
838.956	4877
839.094	4915
839.231	4999
839.369	5064
839.506	5410
839.643	5246
839.781	4995
839.918	5025
840.055	5113
840.193	5090
840.33	5094
840.467	5086
840.604	5212
840.742	5436
840.879	5052
841.016	5064
841.153	5124
841.29	5368
841.427	5296
841.564	5277
841.701	5311
841.838	5261
841.975	5246
842.112	5258
842.249	5113
842.385	5083
842.522	5322
842.659	5174
842.796	5121
842.933	5223
843.069	5132
843.206	5136
843.343	5258
843.479	5242
843.616	5277
843.752	5006
843.889	4965
844.025	5174
844.162	4991
844.298	5220
844.435	5094
844.571	5014
844.708	5143
844.844	5284
844.98	5357
845.117	5292
845.253	5136
845.389	5045
845.525	5136
845.661	5151
845.798	5029
845.934	5147
846.07	5086
846.206	5212
846.342	5265
846.478	5204
846.614	4972
846.75	4987
846.886	4927
847.022	5143
847.158	5029
847.294	5113
847.429	5128
847.565	5041
847.701	5280
847.837	4809
847.972	4831
848.108	4965
848.244	4942
848.379	4748
848.515	4691
848.65	4679
848.786	4725
848.921	4725
849.057	4828
849.192	4877
849.328	4797
849.463	4831
849.598	4797
849.734	4763
849.869	4683
850.004	4630
850.14	4649
850.275	4634
850.41	4516
850.545	4561
850.68	4569
850.815	4599
850.95	4546
851.085	4786
851.22	4763
851.355	4656
851.49	4626
851.625	4683
851.76	4580
851.895	4535
852.03	4478
852.165	4622
852.299	4645
852.434	4759
852.569	4740
852.703	4736
852.838	4809
852.973	4915
853.107	4896
853.242	4736
853.376	4668
853.511	4550
853.645	4603
853.78	4771
853.914	4649
854.048	4691
854.183	4672
854.317	4733
854.451	4824
854.585	4717
854.72	4611
854.854	4736
854.988	4588
855.122	4649
855.256	4481
855.39	4653
855.524	4820
855.658	4748
855.792	4626
855.926	4702
856.06	4748
856.194	4755
856.327	4672
856.461	4561
856.595	4577
856.729	4618
856.862	4774
856.996	4683
857.13	4656
857.263	4740
857.397	4843
857.53	4584
857.664	4721
857.797	4767
857.931	4714
858.064	4656
858.197	4736
858.331	4599
858.464	4565
858.597	4531
858.731	4637
858.864	4618
858.997	4554
859.13	4615
859.263	4675
859.396	4668
859.529	4569
859.662	4542
859.795	4489
859.928	4634
860.061	4725
860.194	4752
860.327	4603
860.46	4554
860.592	4672
860.725	4717
860.858	4740
860.99	4569
861.123	4504
861.256	4508
861.388	4588
861.521	5296
861.653	4459
861.786	4390
861.918	4500
862.05	4535
862.183	4523
862.315	4535
862.447	4596
862.58	4546
862.712	4440
862.844	4322
862.976	4424
863.108	4451
863.24	4847
863.372	4299
863.504	4405
863.636	4386
863.768	4527
863.9	4443
864.032	4329
864.164	4405
864.296	4455
864.428	4531
864.559	4561
864.691	4527
864.823	4516
864.954	4481
865.086	4478
865.217	4436
865.349	4428
865.48	4440
865.612	4462
865.743	4569
865.875	4478
866.006	4428
866.137	4394
866.269	4470
866.4	4436
866.531	4402
866.662	4367
866.793	4394
866.924	4409
867.055	4459
867.186	4466
867.317	4440
867.448	4363
867.579	4363
867.71	4333
867.841	4344
867.972	4436
868.103	4489
868.233	4455
868.364	4417
868.495	4462
868.625	4607
868.756	4759
868.886	4561
869.017	4596
869.147	4759
869.278	4755
869.408	4630
869.539	4599
869.669	4691
869.799	4599
869.929	4736
870.06	4714
870.19	4904
870.32	4915
870.45	4911
870.58	4987
870.71	5079
870.84	5105
870.97	4980
871.1	4816
871.23	5113
871.36	5083
871.489	5022
871.619	5098
871.749	5045
871.879	5105
872.008	5147
872.138	5037
872.267	4965
872.397	4820
872.526	4790
872.656	4717
872.785	4850
872.915	4930
873.044	4999
873.173	4927
873.303	4946
873.432	4911
873.561	4930
873.69	4843
873.819	4862
873.948	4881
874.077	4801
874.206	4752
874.335	4790
874.464	4862
874.593	5060
874.722	4927
874.851	5086
874.979	5060
875.108	5056
875.237	4904
875.365	4923
875.494	4850
875.623	4942
875.751	4858
875.88	4828
876.008	4938
876.136	4999
876.265	5140
876.393	5322
876.521	5189
876.65	5212
876.778	5117
876.906	5037
877.034	5022
877.162	5048
877.29	4946
877.418	4991
877.546	4999
877.674	4999
877.802	5060
877.93	5025
878.058	4911
878.185	4866
878.313	4984
878.441	4900
878.568	4778
878.696	4854
878.824	4908
878.951	5014
879.079	5117
879.206	5242
879.333	5090
879.461	4999
879.588	5010
879.715	5090
879.842	5212
879.97	4995
880.097	4767
880.224	4729
880.351	4755
880.478	4797
880.605	4786
880.732	4790
880.859	5033
880.986	4892
881.112	4870
881.239	4729
881.366	4672
881.493	4577
881.619	4615
881.746	4599
881.872	4634
881.999	4641
882.125	4645
882.252	4809
882.378	4771
882.505	4938
882.631	4763
882.757	4649
882.883	4733
883.01	4702
883.136	4634
883.262	4538
883.388	4580
883.514	4786
883.64	4866
883.766	4763
883.892	4656
884.018	4740
884.143	4896
884.269	4995
884.395	4660
884.52	4626
884.646	4611
884.772	4554
884.897	4546
885.023	4641
885.148	4759
885.274	4816
885.399	4797
885.524	4706
885.65	4622
885.775	4736
885.9	4698
886.025	4812
886.15	4793
886.275	4702
886.4	4656
886.525	4755
886.65	4668
886.775	4664
886.9	4866
887.025	5003
887.149	4786
887.274	4637
887.399	4569
887.523	4546
887.648	4558
887.773	4554
887.897	4797
888.021	4790
888.146	4645
888.27	4755
888.395	4885
888.519	4809
888.643	4824
888.767	4843
888.891	4634
889.015	4550
889.139	4634
889.263	4596
889.387	4752
889.511	4816
889.635	4786
889.759	4615
889.883	4668
890.006	4683
890.13	4816
890.254	4660
890.377	4698
890.501	4618
890.624	4531
890.748	4599
890.871	4588
890.995	4451
891.118	4390
891.241	4527
891.364	4569
891.488	4599
891.611	4489
891.734	4561
891.857	4634
891.98	4561
892.103	4656
892.226	4607
892.349	4558
892.471	4424
892.594	4584
892.717	4637
892.839	4611
892.962	4592
893.085	4615
893.207	4626
893.33	4474
893.452	4535
893.575	4714
893.697	4630
893.819	4797
893.941	4889
894.064	4809
894.186	4630
894.308	4554
894.43	4801
894.552	4835
894.674	4778
894.796	4622
894.918	4626
895.04	4596
895.161	4721
895.283	4653
895.405	4596
895.526	4649
895.648	4702
895.769	4748
895.891	4771
896.012	4774
896.134	4744
896.255	4706
896.376	4656
896.498	4664
896.619	4733
896.74	4641
896.861	4691
896.982	4946
897.103	5124
897.224	4847
897.345	4786
897.466	4710
897.587	4771
897.708	4870
897.828	4858
897.949	4717
898.07	4611
898.19	4626
898.311	4858
898.431	4679
898.552	4816
898.672	4767
898.792	4843
898.913	4744
899.033	4664
899.153	4561
899.273	4421
899.393	4531
899.513	4554
899.633	4565
899.753	4588
899.873	4504
899.993	4554
900.113	4569
900.232	4599
900.352	4558
900.472	4519
900.591	4432
900.711	4519
900.83	4462
900.95	4618
901.069	4740
901.189	4519
901.308	4379
901.427	4306
901.546	4379
901.665	4474
901.784	4527
901.904	4417
902.023	4375
902.141	4242
902.26	4169
902.379	4333
902.498	4268
902.617	4246
902.735	4413
902.854	4394
902.973	4383
903.091	4215
903.21	4238
903.328	4306
903.446	4253
903.565	4265
903.683	4402
903.801	4272
903.919	4375
904.038	4527
904.156	4344
904.274	4470
904.392	4394
904.51	4447
904.627	4497
904.745	4580
904.863	4717
904.981	4390
905.098	4348
905.216	4333
905.334	4500
905.451	4470
905.569	4432
905.686	4588
905.803	4573
905.921	4424
906.038	4588
906.155	4523
906.272	4440
906.389	4424
906.506	4367
906.623	4360
906.74	4447
906.857	4375
906.974	4379
907.091	4531
907.208	4660
907.324	4649
907.441	4497
907.557	4367
907.674	4348
907.79	4344
907.907	4390
908.023	4508
908.139	4497
908.256	4481
908.372	4489
908.488	4440
908.604	4383
908.72	4352
908.836	4409
908.952	4375
909.068	4428
909.184	4664
909.3	4478
909.415	4618
909.531	4573
909.647	4428
909.762	4436
909.878	4390
909.993	4466
910.108	4447
910.224	4462
910.339	4519
910.454	4424
910.57	4413
910.685	4333
910.8	4717
910.915	4675
911.03	4603
911.145	4360
911.259	4352
911.374	4383
911.489	4306
911.604	4329
911.718	4238
911.833	4234
911.947	4090
912.062	4051
912.176	4207
912.291	4287
912.405	4223
912.519	4447
912.633	4474
912.748	4394
912.862	4310
912.976	4276
913.09	4112
913.204	4200
913.318	4249
913.431	4432
913.545	4386
913.659	4428
913.772	4375
913.886	4276
914	4310
914.113	4383
914.226	4440
914.34	4383
914.453	4242
914.566	4459
914.68	4310
914.793	4337
914.906	4211
915.019	4124
915.132	4105
915.245	4211
915.358	4196
915.47	4284
915.583	4360
915.696	4303
915.809	4432
915.921	4489
916.034	4295
916.146	4291
916.259	4253
916.371	4367
916.483	4383
916.595	4268
916.708	4375
916.82	4329
916.932	4363
917.044	4360
917.156	4325
917.268	4230
917.38	4333
917.491	4299
917.603	4360
917.715	4398
917.826	4417
917.938	4386
918.049	4227
918.161	4409
918.272	4554
918.384	4550
918.495	4497
918.606	4333
918.717	4272
918.828	4348
918.939	4398
919.05	4287
919.161	4367
919.272	4131
919.383	4253
919.494	4459
919.604	4664
919.715	4436
919.826	4356
919.936	4383
920.047	4535
920.157	4508
920.267	4744
920.378	4538
920.488	4535
920.598	4706
920.708	4873
920.818	4778
920.928	4771
921.038	4980
921.148	4965
921.258	4668
921.368	4596
921.477	4527
921.587	4462
921.697	4383
921.806	4558
921.916	4443
922.025	4242
922.134	4230
922.244	4227
922.353	4390
922.462	4185
922.571	4181
922.68	3991
922.789	4017
922.898	4090
923.007	4036
923.116	4147
923.224	4090
923.333	4112
923.442	4040
923.55	4021
923.659	4082
923.767	4143
923.876	4017
923.984	4185
924.092	4040
924.201	4093
924.309	4105
924.417	4166
924.525	4120
924.633	4109
924.741	5052
924.849	3941
924.956	4188
925.064	3987
925.172	3945
925.279	3960
925.387	4006
925.494	4109
925.602	4223
925.709	4158
925.816	4032
925.924	4162
926.031	4257
926.138	4139
926.245	4227
926.352	4097
926.459	4234
926.566	4329
926.673	4143
926.779	4158
926.886	4116
926.993	4010
927.099	4010
927.206	3941
927.312	3994
927.419	4055
927.525	4017
927.631	4131
927.737	3987
927.843	3972
927.95	3884
928.056	3934
928.162	3983
928.267	4082
928.373	4721
928.479	4074
928.585	3880
928.69	3994
928.796	4071
928.901	4006
929.007	3842
929.112	4040
929.218	4013
929.323	3975
929.428	3968
929.533	4120
929.638	3953
929.743	3968
929.848	4055
929.953	3983
930.058	3945
930.163	3797
930.267	3819
930.372	3964
930.477	3838
930.581	4067
930.685	3983
930.79	3880
930.894	3911
930.998	3876
931.103	4071
931.207	3797
931.311	3698
931.415	3690
931.519	3530
931.623	3549
