Data from test_V78500241_1229.txt Node
Date: Fri Mar 25 16:57:32 CST 2022
User: usil
Spectrometer: V785-0024
Trigger mode: 0
Integration Time (sec): 4.000000E-1
Scans to average: 1
Nonlinearity correction enabled: false
Boxcar width: 0
Storing dark spectrum: false
XAxis mode: Wavelengths
Number of Pixels in Spectrum: 1024
>>>>>Begin Spectral Data<<<<<
801.071	8001
801.214	8054
801.356	7875
801.499	7868
801.641	7799
801.783	7849
801.926	7902
802.068	7902
802.211	7967
802.353	7951
802.496	7822
802.638	7868
802.78	7959
802.923	7909
803.065	7868
803.208	7822
803.35	8005
803.492	8024
803.635	8164
803.777	8081
803.919	8092
804.061	8473
804.204	8130
804.346	8100
804.488	7917
804.63	8103
804.773	8024
804.915	8088
805.057	8248
805.199	8195
805.341	8279
805.483	8309
805.626	8263
805.768	8130
805.91	8233
806.052	8267
806.194	8145
806.336	8263
806.478	8153
806.62	8062
806.762	8214
806.904	8279
807.046	8454
807.188	8381
807.33	8317
807.472	8256
807.614	8176
807.756	8149
807.898	7967
808.04	7978
808.182	7955
808.324	7967
808.465	7955
808.607	8145
808.749	8103
808.891	8183
809.033	8313
809.174	8252
809.316	8138
809.458	8077
809.6	8050
809.741	8024
809.883	8016
810.025	8062
810.166	8134
810.308	8081
810.45	8035
810.591	7856
810.733	7772
810.875	7597
811.016	7597
811.158	7616
811.299	7624
811.441	7727
811.582	7746
811.724	7658
811.865	7567
812.007	7674
812.148	7643
812.29	7616
812.431	7826
812.573	7959
812.714	8027
812.855	8111
812.997	8279
813.138	8332
813.279	8172
813.421	8126
813.562	8008
813.703	7925
813.845	7807
813.986	7491
814.127	7289
814.268	7289
814.41	7247
814.551	7164
814.692	7221
814.833	7107
814.974	7084
815.115	7110
815.256	7019
815.397	6894
815.539	7015
815.68	6856
815.821	6798
815.962	6875
816.103	6814
816.244	6772
816.385	6658
816.526	6627
816.666	6536
816.807	6270
816.948	6471
817.089	6528
817.23	6452
817.371	6414
817.512	6437
817.653	6429
817.793	6399
817.934	6418
818.075	6445
818.216	6475
818.356	6414
818.497	6239
818.638	6136
818.778	6232
818.919	6194
819.06	6243
819.2	6357
819.341	6270
819.481	6350
819.622	6536
819.762	6829
819.903	6722
820.043	6608
820.184	6604
820.324	6566
820.465	6726
820.605	6677
820.746	6658
820.886	6483
821.026	6673
821.167	6726
821.307	6764
821.447	6722
821.588	6669
821.728	6589
821.868	6563
822.008	6338
822.149	6395
822.289	6331
822.429	6167
822.569	6007
822.709	6144
822.849	5973
822.99	5912
823.13	5950
823.27	5969
823.41	5798
823.55	5821
823.69	5821
823.83	5802
823.97	5710
824.11	5592
824.25	5554
824.389	5551
824.529	5611
824.669	5551
824.809	5665
824.949	5710
825.089	5589
825.228	5608
825.368	5360
825.508	5364
825.648	5376
825.787	5429
825.927	5391
826.067	5330
826.206	5299
826.346	5376
826.485	5444
826.625	5360
826.765	5509
826.904	5452
827.044	5288
827.183	5143
827.323	5166
827.462	5261
827.601	5216
827.741	5193
827.88	5258
828.02	5162
828.159	5227
828.298	5273
828.437	5349
828.577	5337
828.716	5512
828.855	5326
828.994	5201
829.134	5185
829.273	5193
829.412	5143
829.551	5166
829.69	5178
829.829	5265
829.968	5402
830.107	5303
830.246	5307
830.385	5185
830.524	5143
830.663	5048
830.802	4911
830.941	4919
831.08	4900
831.219	5014
831.357	4968
831.496	5136
831.635	4923
831.774	4835
831.913	4839
832.051	4786
832.19	4706
832.329	4801
832.467	4702
832.606	4653
832.744	4683
832.883	4774
833.022	4721
833.16	4763
833.299	4843
833.437	4870
833.576	4866
833.714	4831
833.852	4904
833.991	4873
834.129	4972
834.267	4949
834.406	4972
834.544	4995
834.682	5029
834.821	4972
834.959	5189
835.097	5006
835.235	5166
835.373	5121
835.511	5140
835.65	5014
835.788	5060
835.926	4961
836.064	4877
836.202	4961
836.34	5151
836.478	5227
836.615	5124
836.753	5124
836.891	5258
837.029	5250
837.167	5201
837.305	5212
837.443	5143
837.58	5075
837.718	5231
837.856	5174
837.993	5166
838.131	5220
838.269	5242
838.406	5223
838.544	5223
838.681	5071
838.819	5006
838.956	4866
839.094	4873
839.231	5056
839.369	5109
839.506	5490
839.643	5261
839.781	5052
839.918	4999
840.055	5132
840.193	5166
840.33	5136
840.467	5162
840.604	5185
840.742	5440
840.879	5102
841.016	5079
841.153	5143
841.29	5410
841.427	5345
841.564	5349
841.701	5341
841.838	5326
841.975	5201
842.112	5261
842.249	5140
842.385	5109
842.522	5376
842.659	5193
842.796	5204
842.933	5201
843.069	5132
843.206	5166
843.343	5326
843.479	5307
843.616	5239
843.752	5010
843.889	4999
844.025	5235
844.162	5048
844.298	5212
844.435	5109
844.571	5060
844.708	5223
844.844	5341
844.98	5383
845.117	5311
845.253	5094
845.389	5071
845.525	5132
845.661	5185
845.798	5033
845.934	5159
846.07	5029
846.206	5208
846.342	5318
846.478	5162
846.614	5025
846.75	4949
846.886	4957
847.022	5151
847.158	5079
847.294	5071
847.429	5083
847.565	5052
847.701	5299
847.837	4843
847.972	4820
848.108	4927
848.244	4923
848.379	4793
848.515	4771
848.65	4729
848.786	4809
848.921	4752
849.057	4843
849.192	4915
849.328	4839
849.463	4854
849.598	4759
849.734	4771
849.869	4660
850.004	4656
850.14	4687
850.275	4615
850.41	4512
850.545	4588
850.68	4599
850.815	4630
850.95	4630
851.085	4835
851.22	4736
851.355	4656
851.49	4615
851.625	4580
851.76	4653
851.895	4542
852.03	4538
852.165	4645
852.299	4748
852.434	4805
852.569	4771
852.703	4805
852.838	4870
852.973	4900
853.107	4923
853.242	4759
853.376	4679
853.511	4523
853.645	4622
853.78	4824
853.914	4702
854.048	4672
854.183	4664
854.317	4694
854.451	4839
854.585	4668
854.72	4645
854.854	4748
854.988	4607
855.122	4618
855.256	4550
855.39	4683
855.524	4812
855.658	4698
855.792	4694
855.926	4683
856.06	4793
856.194	4790
856.327	4710
856.461	4645
856.595	4668
856.729	4611
856.862	4801
856.996	4694
857.13	4691
857.263	4782
857.397	4843
857.53	4656
857.664	4786
857.797	4763
857.931	4755
858.064	4740
858.197	4721
858.331	4637
858.464	4622
858.597	4519
858.731	4641
858.864	4653
858.997	4592
859.13	4660
859.263	4649
859.396	4717
859.529	4622
859.662	4584
859.795	4565
859.928	4615
860.061	4771
860.194	4797
860.327	4615
860.46	4542
860.592	4675
860.725	4675
860.858	4725
860.99	4622
861.123	4481
861.256	4565
861.388	4592
861.521	5406
861.653	4493
861.786	4485
861.918	4493
862.05	4542
862.183	4599
862.315	4599
862.447	4717
862.58	4577
862.712	4413
862.844	4367
862.976	4500
863.108	4466
863.24	4927
863.372	4356
863.504	4398
863.636	4405
863.768	4489
863.9	4462
864.032	4352
864.164	4432
864.296	4481
864.428	4542
864.559	4538
864.691	4538
864.823	4512
864.954	4516
865.086	4474
865.217	4417
865.349	4402
865.48	4451
865.612	4474
865.743	4615
865.875	4424
866.006	4428
866.137	4500
866.269	4428
866.4	4497
866.531	4428
866.662	4417
866.793	4413
866.924	4424
867.055	4493
867.186	4466
867.317	4413
867.448	4360
867.579	4402
867.71	4432
867.841	4367
867.972	4455
868.103	4531
868.233	4451
868.364	4424
868.495	4535
868.625	4672
868.756	4801
868.886	4584
869.017	4653
869.147	4782
869.278	4771
869.408	4641
869.539	4634
869.669	4729
869.799	4710
869.929	4767
870.06	4733
870.19	4987
870.32	4877
870.45	4908
870.58	5045
870.71	5086
870.84	5117
870.97	4915
871.1	4908
871.23	5162
871.36	5140
871.489	5037
871.619	5090
871.749	5037
871.879	5151
872.008	5147
872.138	5064
872.267	4980
872.397	4862
872.526	4862
872.656	4778
872.785	4831
872.915	4942
873.044	4995
873.173	4987
873.303	4999
873.432	4938
873.561	4961
873.69	4892
873.819	4881
873.948	4896
874.077	4839
874.206	4774
874.335	4831
874.464	4957
874.593	5052
874.722	5010
874.851	5113
874.979	5105
875.108	5003
875.237	4938
875.365	4889
875.494	4862
875.623	4942
875.751	4801
875.88	4858
876.008	4965
876.136	5052
876.265	5189
876.393	5299
876.521	5303
876.65	5239
876.778	5189
876.906	5136
877.034	5098
877.162	5029
877.29	5006
877.418	5064
877.546	5086
877.674	5010
877.802	5033
877.93	4953
878.058	4972
878.185	4938
878.313	4930
878.441	4976
878.568	4793
878.696	4881
878.824	4957
878.951	4995
879.079	5117
879.206	5265
879.333	5064
879.461	4999
879.588	4942
879.715	5105
879.842	5193
879.97	4984
880.097	4812
880.224	4740
880.351	4854
880.478	4854
880.605	4778
880.732	4797
880.859	5056
880.986	4889
881.112	4927
881.239	4755
881.366	4611
881.493	4622
881.619	4554
881.746	4634
881.872	4622
881.999	4649
882.125	4694
882.252	4744
882.378	4812
882.505	4904
882.631	4820
882.757	4694
882.883	4721
883.01	4752
883.136	4687
883.262	4603
883.388	4641
883.514	4782
883.64	4900
883.766	4759
883.892	4694
884.018	4721
884.143	4919
884.269	5033
884.395	4683
884.52	4622
884.646	4679
884.772	4611
884.897	4523
885.023	4641
885.148	4763
885.274	4862
885.399	4839
885.524	4740
885.65	4675
885.775	4774
885.9	4721
886.025	4858
886.15	4801
886.275	4733
886.4	4656
886.525	4706
886.65	4725
886.775	4634
886.9	4908
887.025	5045
887.149	4767
887.274	4649
887.399	4538
887.523	4622
887.648	4565
887.773	4592
887.897	4725
888.021	4744
888.146	4694
888.27	4786
888.395	4942
888.519	4782
888.643	4797
888.767	4790
888.891	4656
889.015	4596
889.139	4634
889.263	4649
889.387	4744
889.511	4870
889.635	4820
889.759	4691
889.883	4618
890.006	4752
890.13	4812
890.254	4626
890.377	4683
890.501	4481
890.624	4523
890.748	4630
890.871	4519
890.995	4421
891.118	4356
891.241	4500
891.364	4531
891.488	4618
891.611	4485
891.734	4504
891.857	4668
891.98	4554
892.103	4626
892.226	4596
892.349	4512
892.471	4432
892.594	4542
892.717	4561
892.839	4596
892.962	4565
893.085	4641
893.207	4592
893.33	4497
893.452	4531
893.575	4622
893.697	4573
893.819	4740
893.941	4797
894.064	4824
894.186	4584
894.308	4561
894.43	4767
894.552	4809
894.674	4778
894.796	4546
894.918	4599
895.04	4622
895.161	4691
895.283	4672
895.405	4596
895.526	4660
895.648	4672
895.769	4694
895.891	4710
896.012	4691
896.134	4748
896.255	4717
896.376	4607
896.498	4603
896.619	4675
896.74	4584
896.861	4603
896.982	4915
897.103	5090
897.224	4873
897.345	4755
897.466	4653
897.587	4729
897.708	4896
897.828	4786
897.949	4641
898.07	4569
898.19	4630
898.311	4877
898.431	4626
898.552	4714
898.672	4797
898.792	4812
898.913	4755
899.033	4637
899.153	4497
899.273	4462
899.393	4531
899.513	4523
899.633	4512
899.753	4565
899.873	4512
899.993	4535
900.113	4550
900.232	4634
900.352	4527
900.472	4440
900.591	4421
900.711	4474
900.83	4470
900.95	4615
901.069	4615
901.189	4565
901.308	4329
901.427	4348
901.546	4360
901.665	4459
901.784	4481
901.904	4333
902.023	4325
902.141	4238
902.26	4181
902.379	4291
902.498	4287
902.617	4211
902.735	4375
902.854	4348
902.973	4379
903.091	4242
903.21	4200
903.328	4341
903.446	4215
903.565	4219
903.683	4360
903.801	4303
903.919	4394
904.038	4440
904.156	4337
904.274	4436
904.392	4432
904.51	4383
904.627	4466
904.745	4573
904.863	4546
904.981	4371
905.098	4352
905.216	4333
905.334	4428
905.451	4440
905.569	4462
905.686	4592
905.803	4580
905.921	4424
906.038	4592
906.155	4451
906.272	4417
906.389	4459
906.506	4325
906.623	4325
906.74	4432
906.857	4295
906.974	4394
907.091	4569
907.208	4664
907.324	4569
907.441	4535
907.557	4314
907.674	4329
907.79	4329
907.907	4348
908.023	4470
908.139	4504
908.256	4386
908.372	4485
908.488	4462
908.604	4352
908.72	4276
908.836	4383
908.952	4352
909.068	4398
909.184	4497
909.3	4424
909.415	4554
909.531	4527
909.647	4352
909.762	4371
909.878	4325
909.993	4424
910.108	4409
910.224	4356
910.339	4474
910.454	4398
910.57	4360
910.685	4253
910.8	4626
910.915	4565
911.03	4481
911.145	4344
911.259	4344
911.374	4344
911.489	4257
911.604	4246
911.718	4177
911.833	4173
911.947	4093
912.062	4021
912.176	4200
912.291	4253
912.405	4253
912.519	4436
912.633	4478
912.748	4341
912.862	4310
912.976	4204
913.09	4128
913.204	4116
913.318	4265
913.431	4379
913.545	4367
913.659	4390
913.772	4371
913.886	4207
914	4249
914.113	4375
914.226	4459
914.34	4363
914.453	4188
914.566	4447
914.68	4291
914.793	4329
914.906	4124
915.019	4105
915.132	4017
915.245	4188
915.358	4188
915.47	4246
915.583	4272
915.696	4310
915.809	4402
915.921	4462
916.034	4242
916.146	4246
916.259	4188
916.371	4363
916.483	4329
916.595	4249
916.708	4341
916.82	4325
916.932	4348
917.044	4322
917.156	4337
917.268	4246
917.38	4238
917.491	4261
917.603	4341
917.715	4413
917.826	4436
917.938	4341
918.049	4234
918.161	4394
918.272	4538
918.384	4508
918.495	4413
918.606	4310
918.717	4158
918.828	4371
918.939	4363
919.05	4272
919.161	4318
919.272	4135
919.383	4200
919.494	4386
919.604	4618
919.715	4440
919.826	4363
919.936	4348
920.047	4523
920.157	4485
920.267	4687
920.378	4485
920.488	4485
920.598	4675
920.708	4889
920.818	4755
920.928	4710
921.038	4919
921.148	4904
921.258	4622
921.368	4565
921.477	4489
921.587	4428
921.697	4367
921.806	4573
921.916	4390
922.025	4280
922.134	4246
922.244	4234
922.353	4337
922.462	4177
922.571	4120
922.68	3960
922.789	3975
922.898	4017
923.007	3983
923.116	4093
923.224	4048
923.333	4067
923.442	3964
923.55	3964
923.659	4021
923.767	4097
923.876	3987
923.984	4112
924.092	3994
924.201	4093
924.309	4059
924.417	4105
924.525	4067
924.633	4071
924.741	5064
924.849	3907
924.956	4116
925.064	3972
925.172	3896
925.279	3937
925.387	4071
925.494	4025
925.602	4154
925.709	4188
925.816	4032
925.924	4128
926.031	4192
926.138	4128
926.245	4169
926.352	4040
926.459	4234
926.566	4276
926.673	4162
926.779	4082
926.886	4059
926.993	3937
927.099	3987
927.206	3930
927.312	3903
927.419	4044
927.525	4051
927.631	4101
927.737	3960
927.843	3960
927.95	3842
928.056	3975
928.162	3998
928.267	4063
928.373	4664
928.479	4093
928.585	3842
928.69	3979
928.796	4101
928.901	3968
929.007	3842
929.112	3983
929.218	3983
929.323	3941
929.428	3945
929.533	4048
929.638	3953
929.743	3907
929.848	3979
929.953	3994
930.058	3915
930.163	3759
930.267	3759
930.372	3972
930.477	3827
930.581	4101
930.685	3934
930.79	3793
930.894	3884
930.998	3827
931.103	4029
931.207	3713
931.311	3671
931.415	3633
931.519	3500
931.623	3545
