Data from test_V78500241_1127.txt Node
Date: Fri Mar 25 16:56:50 CST 2022
User: usil
Spectrometer: V785-0024
Trigger mode: 0
Integration Time (sec): 4.000000E-1
Scans to average: 1
Nonlinearity correction enabled: false
Boxcar width: 0
Storing dark spectrum: false
XAxis mode: Wavelengths
Number of Pixels in Spectrum: 1024
>>>>>Begin Spectral Data<<<<<
801.071	8024
801.214	8046
801.356	7951
801.499	7883
801.641	7772
801.783	7784
801.926	7928
802.068	7928
802.211	7959
802.353	8050
802.496	7864
802.638	7849
802.78	7928
802.923	7955
803.065	7883
803.208	7909
803.35	7974
803.492	8103
803.635	8172
803.777	8043
803.919	8195
804.061	8476
804.204	8172
804.346	8084
804.488	8020
804.63	8103
804.773	7986
804.915	8103
805.057	8301
805.199	8126
805.341	8267
805.483	8271
805.626	8214
805.768	8157
805.91	8210
806.052	8248
806.194	8103
806.336	8279
806.478	8073
806.62	8073
806.762	8115
806.904	8263
807.046	8480
807.188	8396
807.33	8298
807.472	8263
807.614	8214
807.756	8126
807.898	8043
808.04	7917
808.182	7913
808.324	7887
808.465	7917
808.607	8145
808.749	8069
808.891	8202
809.033	8286
809.174	8248
809.316	8020
809.458	8016
809.6	7944
809.741	8035
809.883	8046
810.025	8119
810.166	8043
810.308	8039
810.45	7993
810.591	7894
810.733	7670
810.875	7647
811.016	7533
811.158	7419
811.299	7597
811.441	7761
811.582	7677
811.724	7639
811.865	7514
812.007	7655
812.148	7571
812.29	7586
812.431	7704
812.573	7811
812.714	7989
812.855	8088
812.997	8199
813.138	8332
813.279	8221
813.421	8077
813.562	8001
813.703	7803
813.845	7776
813.986	7426
814.127	7221
814.268	7217
814.41	7221
814.551	7198
814.692	7217
814.833	7038
814.974	7072
815.115	7091
815.256	6943
815.397	6920
815.539	6954
815.68	6814
815.821	6840
815.962	6856
816.103	6821
816.244	6741
816.385	6654
816.526	6673
816.666	6437
816.807	6270
816.948	6380
817.089	6509
817.23	6475
817.371	6361
817.512	6429
817.653	6395
817.793	6323
817.934	6414
818.075	6391
818.216	6433
818.356	6357
818.497	6235
818.638	6148
818.778	6125
818.919	6155
819.06	6144
819.2	6327
819.341	6311
819.481	6353
819.622	6521
819.762	6768
819.903	6688
820.043	6540
820.184	6608
820.324	6578
820.465	6715
820.605	6684
820.746	6627
820.886	6448
821.026	6650
821.167	6642
821.307	6829
821.447	6760
821.588	6703
821.728	6566
821.868	6426
822.008	6296
822.149	6388
822.289	6372
822.429	6213
822.569	6049
822.709	6098
822.849	5969
822.99	5908
823.13	5946
823.27	5931
823.41	5786
823.55	5760
823.69	5729
823.83	5775
823.97	5691
824.11	5554
824.25	5524
824.389	5535
824.529	5592
824.669	5440
824.809	5668
824.949	5661
825.089	5619
825.228	5558
825.368	5414
825.508	5349
825.648	5322
825.787	5337
825.927	5334
826.067	5299
826.206	5242
826.346	5360
826.485	5353
826.625	5334
826.765	5551
826.904	5471
827.044	5246
827.183	5231
827.323	5151
827.462	5216
827.601	5159
827.741	5166
827.88	5208
828.02	5098
828.159	5277
828.298	5334
828.437	5311
828.577	5273
828.716	5471
828.855	5303
828.994	5201
829.134	5151
829.273	5166
829.412	5075
829.551	5117
829.69	5185
829.829	5227
829.968	5292
830.107	5239
830.246	5277
830.385	5220
830.524	5128
830.663	5048
830.802	4938
830.941	4892
831.08	4858
831.219	4972
831.357	4927
831.496	5128
831.635	4915
831.774	4889
831.913	4850
832.051	4694
832.19	4729
832.329	4843
832.467	4683
832.606	4641
832.744	4691
832.883	4733
833.022	4729
833.16	4763
833.299	4824
833.437	4786
833.576	4866
833.714	4858
833.852	4866
833.991	4870
834.129	4930
834.267	4987
834.406	4908
834.544	4968
834.682	4991
834.821	4980
834.959	5162
835.097	5037
835.235	5136
835.373	5090
835.511	5067
835.65	5018
835.788	5056
835.926	4900
836.064	4866
836.202	4946
836.34	5189
836.478	5235
836.615	5140
836.753	5231
836.891	5280
837.029	5216
837.167	5185
837.305	5162
837.443	5094
837.58	5037
837.718	5261
837.856	5166
837.993	5151
838.131	5185
838.269	5220
838.406	5212
838.544	5181
838.681	5045
838.819	5029
838.956	4862
839.094	4961
839.231	4984
839.369	5105
839.506	5455
839.643	5235
839.781	5064
839.918	4999
840.055	5117
840.193	5094
840.33	5132
840.467	5140
840.604	5204
840.742	5444
840.879	5102
841.016	5071
841.153	5193
841.29	5406
841.427	5326
841.564	5330
841.701	5337
841.838	5288
841.975	5181
842.112	5265
842.249	5060
842.385	5132
842.522	5353
842.659	5159
842.796	5117
842.933	5223
843.069	5155
843.206	5121
843.343	5303
843.479	5227
843.616	5250
843.752	4991
843.889	5010
844.025	5231
844.162	5018
844.298	5178
844.435	5067
844.571	5056
844.708	5242
844.844	5277
844.98	5315
845.117	5292
845.253	5140
845.389	5075
845.525	5109
845.661	5147
845.798	5025
845.934	5132
846.07	5048
846.206	5178
846.342	5261
846.478	5151
846.614	5029
846.75	5003
846.886	4972
847.022	5090
847.158	5041
847.294	5079
847.429	5090
847.565	5064
847.701	5337
847.837	4843
847.972	4790
848.108	4942
848.244	4938
848.379	4763
848.515	4691
848.65	4664
848.786	4733
848.921	4736
849.057	4847
849.192	4930
849.328	4809
849.463	4858
849.598	4793
849.734	4748
849.869	4706
850.004	4660
850.14	4660
850.275	4577
850.41	4516
850.545	4558
850.68	4592
850.815	4653
850.95	4634
851.085	4797
851.22	4729
851.355	4645
851.49	4615
851.625	4588
851.76	4626
851.895	4599
852.03	4535
852.165	4660
852.299	4672
852.434	4771
852.569	4755
852.703	4774
852.838	4866
852.973	4930
853.107	4885
853.242	4698
853.376	4664
853.511	4531
853.645	4561
853.78	4748
853.914	4691
854.048	4660
854.183	4656
854.317	4698
854.451	4816
854.585	4687
854.72	4656
854.854	4736
854.988	4618
855.122	4645
855.256	4542
855.39	4649
855.524	4778
855.658	4717
855.792	4672
855.926	4683
856.06	4736
856.194	4790
856.327	4668
856.461	4622
856.595	4622
856.729	4622
856.862	4717
856.996	4660
857.13	4687
857.263	4752
857.397	4805
857.53	4656
857.664	4721
857.797	4736
857.931	4755
858.064	4645
858.197	4714
858.331	4596
858.464	4607
858.597	4481
858.731	4599
858.864	4660
858.997	4565
859.13	4588
859.263	4656
859.396	4725
859.529	4584
859.662	4596
859.795	4512
859.928	4683
860.061	4733
860.194	4748
860.327	4603
860.46	4546
860.592	4691
860.725	4653
860.858	4725
860.99	4546
861.123	4462
861.256	4516
861.388	4630
861.521	5231
861.653	4481
861.786	4432
861.918	4443
862.05	4481
862.183	4569
862.315	4656
862.447	4641
862.58	4538
862.712	4394
862.844	4333
862.976	4489
863.108	4455
863.24	4843
863.372	4363
863.504	4383
863.636	4398
863.768	4489
863.9	4417
864.032	4337
864.164	4443
864.296	4485
864.428	4538
864.559	4592
864.691	4535
864.823	4527
864.954	4489
865.086	4527
865.217	4417
865.349	4386
865.48	4436
865.612	4443
865.743	4611
865.875	4466
866.006	4409
866.137	4470
866.269	4459
866.4	4432
866.531	4398
866.662	4402
866.793	4417
866.924	4478
867.055	4485
867.186	4443
867.317	4383
867.448	4363
867.579	4405
867.71	4413
867.841	4383
867.972	4462
868.103	4516
868.233	4440
868.364	4443
868.495	4470
868.625	4649
868.756	4759
868.886	4580
869.017	4653
869.147	4714
869.278	4812
869.408	4672
869.539	4615
869.669	4694
869.799	4626
869.929	4774
870.06	4733
870.19	4904
870.32	4866
870.45	4965
870.58	4995
870.71	5086
870.84	5124
870.97	4930
871.1	4896
871.23	5159
871.36	5147
871.489	5033
871.619	5109
871.749	5098
871.879	5136
872.008	5166
872.138	5071
872.267	4965
872.397	4812
872.526	4812
872.656	4721
872.785	4767
872.915	4927
873.044	5010
873.173	4904
873.303	4923
873.432	4972
873.561	4930
873.69	4843
873.819	4801
873.948	4904
874.077	4835
874.206	4740
874.335	4839
874.464	4949
874.593	5041
874.722	4953
874.851	5090
874.979	5048
875.108	4999
875.237	4927
875.365	4843
875.494	4881
875.623	4976
875.751	4820
875.88	4892
876.008	4980
876.136	5056
876.265	5239
876.393	5368
876.521	5239
876.65	5201
876.778	5159
876.906	5086
877.034	5022
877.162	5022
877.29	5003
877.418	5041
877.546	5045
877.674	5056
877.802	5048
877.93	4984
878.058	4889
878.185	4866
878.313	4934
878.441	4946
878.568	4793
878.696	4877
878.824	4900
878.951	4987
879.079	5086
879.206	5223
879.333	5102
879.461	4995
879.588	5018
879.715	5143
879.842	5227
879.97	4965
880.097	4774
880.224	4733
880.351	4797
880.478	4835
880.605	4801
880.732	4782
880.859	5102
880.986	4953
881.112	4923
881.239	4790
881.366	4679
881.493	4588
881.619	4592
881.746	4622
881.872	4630
881.999	4653
882.125	4683
882.252	4717
882.378	4778
882.505	4968
882.631	4759
882.757	4653
882.883	4748
883.01	4736
883.136	4672
883.262	4569
883.388	4573
883.514	4790
883.64	4835
883.766	4809
883.892	4649
884.018	4763
884.143	4873
884.269	5014
884.395	4668
884.52	4626
884.646	4599
884.772	4554
884.897	4584
885.023	4645
885.148	4763
885.274	4801
885.399	4782
885.524	4691
885.65	4679
885.775	4683
885.9	4698
886.025	4839
886.15	4790
886.275	4687
886.4	4641
886.525	4668
886.65	4653
886.775	4660
886.9	4934
887.025	4987
887.149	4755
887.274	4672
887.399	4516
887.523	4607
887.648	4573
887.773	4577
887.897	4778
888.021	4767
888.146	4656
888.27	4767
888.395	4873
888.519	4835
888.643	4774
888.767	4816
888.891	4679
889.015	4565
889.139	4622
889.263	4599
889.387	4744
889.511	4862
889.635	4797
889.759	4672
889.883	4565
890.006	4721
890.13	4797
890.254	4554
890.377	4691
890.501	4542
890.624	4569
890.748	4618
890.871	4489
890.995	4436
891.118	4367
891.241	4523
891.364	4516
891.488	4679
891.611	4504
891.734	4561
891.857	4599
891.98	4550
892.103	4634
892.226	4584
892.349	4478
892.471	4424
892.594	4561
892.717	4588
892.839	4538
892.962	4565
893.085	4660
893.207	4596
893.33	4436
893.452	4519
893.575	4634
893.697	4577
893.819	4805
893.941	4835
894.064	4733
894.186	4561
894.308	4573
894.43	4759
894.552	4839
894.674	4759
894.796	4558
894.918	4577
895.04	4554
895.161	4710
895.283	4672
895.405	4588
895.526	4580
895.648	4683
895.769	4679
895.891	4733
896.012	4740
896.134	4755
896.255	4599
896.376	4550
896.498	4615
896.619	4679
896.74	4584
896.861	4584
896.982	4930
897.103	5071
897.224	4797
897.345	4767
897.466	4645
897.587	4717
897.708	4862
897.828	4736
897.949	4653
898.07	4516
898.19	4596
898.311	4790
898.431	4634
898.552	4717
898.672	4831
898.792	4805
898.913	4744
899.033	4599
899.153	4497
899.273	4409
899.393	4538
899.513	4478
899.633	4455
899.753	4500
899.873	4489
899.993	4596
900.113	4512
900.232	4603
900.352	4558
900.472	4459
900.591	4360
900.711	4493
900.83	4402
900.95	4607
901.069	4687
901.189	4569
901.308	4375
901.427	4356
901.546	4356
901.665	4470
901.784	4500
901.904	4333
902.023	4318
902.141	4234
902.26	4162
902.379	4280
902.498	4249
902.617	4219
902.735	4367
902.854	4409
902.973	4379
903.091	4223
903.21	4185
903.328	4287
903.446	4223
903.565	4215
903.683	4348
903.801	4318
903.919	4348
904.038	4424
904.156	4272
904.274	4436
904.392	4379
904.51	4421
904.627	4493
904.745	4577
904.863	4641
904.981	4356
905.098	4325
905.216	4390
905.334	4447
905.451	4402
905.569	4379
905.686	4489
905.803	4580
905.921	4398
906.038	4542
906.155	4470
906.272	4432
906.389	4440
906.506	4348
906.623	4356
906.74	4360
906.857	4234
906.974	4322
907.091	4569
907.208	4622
907.324	4565
907.441	4470
907.557	4325
907.674	4344
907.79	4325
907.907	4337
908.023	4440
908.139	4462
908.256	4443
908.372	4508
908.488	4455
908.604	4344
908.72	4314
908.836	4379
908.952	4386
909.068	4394
909.184	4546
909.3	4481
909.415	4561
909.531	4546
909.647	4348
909.762	4375
909.878	4333
909.993	4432
910.108	4375
910.224	4360
910.339	4512
910.454	4371
910.57	4383
910.685	4322
910.8	4618
910.915	4573
911.03	4478
911.145	4344
911.259	4306
911.374	4398
911.489	4341
911.604	4280
911.718	4112
911.833	4192
911.947	4082
912.062	4051
912.176	4223
912.291	4211
912.405	4215
912.519	4443
912.633	4481
912.748	4356
912.862	4318
912.976	4211
913.09	4082
913.204	4185
913.318	4268
913.431	4348
913.545	4360
913.659	4409
913.772	4322
913.886	4200
914	4223
914.113	4375
914.226	4440
914.34	4356
914.453	4238
914.566	4363
914.68	4295
914.793	4337
914.906	4131
915.019	4105
915.132	4071
915.245	4173
915.358	4227
915.47	4223
915.583	4280
915.696	4287
915.809	4413
915.921	4424
916.034	4227
916.146	4261
916.259	4242
916.371	4348
916.483	4344
916.595	4280
916.708	4333
916.82	4360
916.932	4299
917.044	4341
917.156	4276
917.268	4246
917.38	4303
917.491	4272
917.603	4310
917.715	4440
917.826	4428
917.938	4303
918.049	4215
918.161	4386
918.272	4546
918.384	4527
918.495	4424
918.606	4272
918.717	4249
918.828	4322
918.939	4375
919.05	4219
919.161	4333
919.272	4112
919.383	4207
919.494	4474
919.604	4634
919.715	4417
919.826	4325
919.936	4405
920.047	4535
920.157	4493
920.267	4752
920.378	4580
920.488	4481
920.598	4710
920.708	4858
920.818	4733
920.928	4759
921.038	4961
921.148	4904
921.258	4615
921.368	4577
921.477	4493
921.587	4504
921.697	4383
921.806	4573
921.916	4413
922.025	4276
922.134	4238
922.244	4219
922.353	4333
922.462	4181
922.571	4135
922.68	4013
922.789	3956
922.898	4010
923.007	3975
923.116	4093
923.224	4044
923.333	4097
923.442	3979
923.55	4006
923.659	4021
923.767	4109
923.876	3994
923.984	4078
924.092	3983
924.201	4074
924.309	4063
924.417	4105
924.525	4067
924.633	4139
924.741	5022
924.849	3918
924.956	4120
925.064	3930
925.172	3896
925.279	3941
925.387	4093
925.494	4044
925.602	4181
925.709	4188
925.816	3991
925.924	4116
926.031	4211
926.138	4147
926.245	4185
926.352	4101
926.459	4227
926.566	4268
926.673	4207
926.779	4097
926.886	4105
926.993	3945
927.099	3960
927.206	3915
927.312	3918
927.419	4067
927.525	4013
927.631	4063
927.737	3964
927.843	3956
927.95	3789
928.056	3926
928.162	3994
928.267	4120
928.373	4725
928.479	4109
928.585	3888
928.69	4006
928.796	4093
928.901	3934
929.007	3865
929.112	3953
929.218	4017
929.323	3899
929.428	3915
929.533	4074
929.638	3930
929.743	3956
929.848	4036
929.953	3964
930.058	3892
930.163	3778
930.267	3800
930.372	3975
930.477	3819
930.581	4086
930.685	3949
930.79	3785
930.894	3873
930.998	3880
931.103	4044
931.207	3709
931.311	3663
931.415	3682
931.519	3496
931.623	3545
