Data from test_V78500241_868.txt Node
Date: Fri Mar 25 16:55:02 CST 2022
User: usil
Spectrometer: V785-0024
Trigger mode: 0
Integration Time (sec): 4.000000E-1
Scans to average: 1
Nonlinearity correction enabled: false
Boxcar width: 0
Storing dark spectrum: false
XAxis mode: Wavelengths
Number of Pixels in Spectrum: 1024
>>>>>Begin Spectral Data<<<<<
801.071	7974
801.214	8008
801.356	7944
801.499	7852
801.641	7788
801.783	7849
801.926	7921
802.068	7902
802.211	7890
802.353	7932
802.496	7830
802.638	7875
802.78	7963
802.923	7947
803.065	7856
803.208	7913
803.35	7917
803.492	8187
803.635	8172
803.777	7978
803.919	8142
804.061	8389
804.204	8111
804.346	8027
804.488	7955
804.63	8157
804.773	8008
804.915	8123
805.057	8221
805.199	8088
805.341	8138
805.483	8195
805.626	8145
805.768	8058
805.91	8191
806.052	8199
806.194	8111
806.336	8252
806.478	8062
806.62	8008
806.762	8100
806.904	8252
807.046	8427
807.188	8282
807.33	8320
807.472	8343
807.614	8119
807.756	8172
807.898	8024
808.04	7879
808.182	7887
808.324	7871
808.465	7906
808.607	8088
808.749	8065
808.891	8229
809.033	8263
809.174	8221
809.316	8077
809.458	8138
809.6	8012
809.741	8054
809.883	8020
810.025	8031
810.166	8081
810.308	8069
810.45	8050
810.591	7947
810.733	7803
810.875	7685
811.016	7537
811.158	7533
811.299	7658
811.441	7723
811.582	7719
811.724	7571
811.865	7578
812.007	7613
812.148	7601
812.29	7666
812.431	7742
812.573	7826
812.714	7989
812.855	8130
812.997	8244
813.138	8298
813.279	8187
813.421	8187
813.562	8046
813.703	7890
813.845	7826
813.986	7506
814.127	7293
814.268	7270
814.41	7251
814.551	7175
814.692	7183
814.833	7099
814.974	7034
815.115	7187
815.256	6989
815.397	6901
815.539	7019
815.68	6875
815.821	6821
815.962	6928
816.103	6863
816.244	6745
816.385	6654
816.526	6696
816.666	6555
816.807	6270
816.948	6437
817.089	6528
817.23	6464
817.371	6346
817.512	6426
817.653	6399
817.793	6357
817.934	6513
818.075	6460
818.216	6445
818.356	6433
818.497	6262
818.638	6087
818.778	6144
818.919	6133
819.06	6171
819.2	6296
819.341	6311
819.481	6426
819.622	6570
819.762	6738
819.903	6711
820.043	6681
820.184	6597
820.324	6536
820.465	6662
820.605	6681
820.746	6627
820.886	6566
821.026	6627
821.167	6776
821.307	6814
821.447	6768
821.588	6639
821.728	6582
821.868	6551
822.008	6338
822.149	6384
822.289	6410
822.429	6175
822.569	6053
822.709	6102
822.849	5904
822.99	5912
823.13	5965
823.27	5950
823.41	5878
823.55	5760
823.69	5809
823.83	5813
823.97	5726
824.11	5581
824.25	5455
824.389	5611
824.529	5592
824.669	5532
824.809	5649
824.949	5684
825.089	5623
825.228	5604
825.368	5459
825.508	5357
825.648	5322
825.787	5406
825.927	5421
826.067	5326
826.206	5315
826.346	5417
826.485	5471
826.625	5417
826.765	5566
826.904	5520
827.044	5292
827.183	5212
827.323	5132
827.462	5292
827.601	5227
827.741	5261
827.88	5208
828.02	5102
828.159	5288
828.298	5303
828.437	5364
828.577	5273
828.716	5482
828.855	5368
828.994	5239
829.134	5208
829.273	5189
829.412	5197
829.551	5090
829.69	5201
829.829	5277
829.968	5402
830.107	5299
830.246	5296
830.385	5189
830.524	5117
830.663	5117
830.802	4976
830.941	4896
831.08	4923
831.219	4972
831.357	5025
831.496	5220
831.635	4923
831.774	4847
831.913	4854
832.051	4790
832.19	4801
832.329	4858
832.467	4698
832.606	4656
832.744	4752
832.883	4687
833.022	4759
833.16	4839
833.299	4839
833.437	4839
833.576	4892
833.714	4896
833.852	4847
833.991	4911
834.129	5003
834.267	4984
834.406	4957
834.544	5010
834.682	5006
834.821	4938
834.959	5140
835.097	5022
835.235	5151
835.373	5109
835.511	5140
835.65	5022
835.788	5056
835.926	4904
836.064	4949
836.202	4953
836.34	5220
836.478	5212
836.615	5159
836.753	5216
836.891	5318
837.029	5330
837.167	5201
837.305	5189
837.443	5181
837.58	5102
837.718	5208
837.856	5208
837.993	5170
838.131	5261
838.269	5208
838.406	5246
838.544	5204
838.681	5067
838.819	4995
838.956	4881
839.094	4934
839.231	4995
839.369	5090
839.506	5459
839.643	5239
839.781	5098
839.918	5018
840.055	5102
840.193	5124
840.33	5098
840.467	5166
840.604	5189
840.742	5452
840.879	5113
841.016	5079
841.153	5181
841.29	5417
841.427	5376
841.564	5288
841.701	5364
841.838	5318
841.975	5235
842.112	5315
842.249	5162
842.385	5128
842.522	5330
842.659	5212
842.796	5151
842.933	5212
843.069	5140
843.206	5170
843.343	5330
843.479	5212
843.616	5242
843.752	5022
843.889	5056
844.025	5299
844.162	5037
844.298	5250
844.435	5113
844.571	5079
844.708	5140
844.844	5269
844.98	5364
845.117	5280
845.253	5162
845.389	5128
845.525	5204
845.661	5143
845.798	5003
845.934	5128
846.07	5067
846.206	5239
846.342	5261
846.478	5162
846.614	5014
846.75	5022
846.886	5025
847.022	5151
847.158	5029
847.294	5079
847.429	5132
847.565	5075
847.701	5345
847.837	4889
847.972	4831
848.108	4908
848.244	4919
848.379	4771
848.515	4698
848.65	4721
848.786	4729
848.921	4790
849.057	4870
849.192	4850
849.328	4820
849.463	4862
849.598	4782
849.734	4744
849.869	4759
850.004	4634
850.14	4668
850.275	4626
850.41	4516
850.545	4535
850.68	4645
850.815	4596
850.95	4664
851.085	4824
851.22	4740
851.355	4687
851.49	4694
851.625	4679
851.76	4653
851.895	4592
852.03	4542
852.165	4706
852.299	4683
852.434	4797
852.569	4759
852.703	4774
852.838	4805
852.973	4885
853.107	4900
853.242	4740
853.376	4706
853.511	4550
853.645	4664
853.78	4831
853.914	4668
854.048	4645
854.183	4706
854.317	4694
854.451	4850
854.585	4694
854.72	4637
854.854	4759
854.988	4637
855.122	4660
855.256	4523
855.39	4664
855.524	4744
855.658	4710
855.792	4660
855.926	4771
856.06	4717
856.194	4786
856.327	4687
856.461	4653
856.595	4622
856.729	4660
856.862	4782
856.996	4717
857.13	4725
857.263	4733
857.397	4793
857.53	4675
857.664	4767
857.797	4736
857.931	4820
858.064	4691
858.197	4698
858.331	4687
858.464	4626
858.597	4535
858.731	4668
858.864	4630
858.997	4588
859.13	4656
859.263	4607
859.396	4672
859.529	4584
859.662	4554
859.795	4565
859.928	4641
860.061	4786
860.194	4782
860.327	4611
860.46	4550
860.592	4721
860.725	4683
860.858	4752
860.99	4542
861.123	4558
861.256	4504
861.388	4611
861.521	5292
861.653	4478
861.786	4489
861.918	4497
862.05	4500
862.183	4512
862.315	4637
862.447	4679
862.58	4569
862.712	4402
862.844	4344
862.976	4504
863.108	4466
863.24	4797
863.372	4329
863.504	4451
863.636	4424
863.768	4455
863.9	4424
864.032	4375
864.164	4402
864.296	4485
864.428	4527
864.559	4599
864.691	4546
864.823	4516
864.954	4531
865.086	4489
865.217	4443
865.349	4462
865.48	4424
865.612	4512
865.743	4641
865.875	4443
866.006	4421
866.137	4455
866.269	4489
866.4	4409
866.531	4424
866.662	4352
866.793	4405
866.924	4394
867.055	4535
867.186	4417
867.317	4363
867.448	4375
867.579	4383
867.71	4367
867.841	4360
867.972	4481
868.103	4481
868.233	4459
868.364	4470
868.495	4497
868.625	4691
868.756	4774
868.886	4645
869.017	4634
869.147	4824
869.278	4771
869.408	4691
869.539	4634
869.669	4748
869.799	4656
869.929	4725
870.06	4744
870.19	4968
870.32	4915
870.45	4900
870.58	5048
870.71	5121
870.84	5064
870.97	4961
871.1	4885
871.23	5159
871.36	5094
871.489	5018
871.619	5045
871.749	5075
871.879	5147
872.008	5124
872.138	5052
872.267	4968
872.397	4896
872.526	4828
872.656	4736
872.785	4847
872.915	4995
873.044	5014
873.173	4949
873.303	4908
873.432	4972
873.561	4972
873.69	4938
873.819	4927
873.948	4923
874.077	4824
874.206	4778
874.335	4850
874.464	4915
874.593	5037
874.722	5025
874.851	5105
874.979	5083
875.108	5041
875.237	4961
875.365	4927
875.494	4885
875.623	4987
875.751	4839
875.88	4873
876.008	4965
876.136	5075
876.265	5204
876.393	5345
876.521	5254
876.65	5231
876.778	5109
876.906	5029
877.034	5045
877.162	5018
877.29	4980
877.418	5010
877.546	5037
877.674	5014
877.802	5014
877.93	5033
878.058	4957
878.185	4896
878.313	4942
878.441	4923
878.568	4797
878.696	4858
878.824	4927
878.951	4953
879.079	5159
879.206	5284
879.333	5117
879.461	4980
879.588	4995
879.715	5121
879.842	5227
879.97	5003
880.097	4774
880.224	4698
880.351	4778
880.478	4850
880.605	4790
880.732	4786
880.859	5094
880.986	4889
881.112	4850
881.239	4744
881.366	4672
881.493	4592
881.619	4630
881.746	4618
881.872	4645
881.999	4672
882.125	4683
882.252	4774
882.378	4824
882.505	4957
882.631	4843
882.757	4691
882.883	4755
883.01	4744
883.136	4672
883.262	4599
883.388	4558
883.514	4835
883.64	4866
883.766	4786
883.892	4656
884.018	4687
884.143	4915
884.269	5018
884.395	4660
884.52	4675
884.646	4634
884.772	4554
884.897	4607
885.023	4660
885.148	4858
885.274	4839
885.399	4782
885.524	4683
885.65	4698
885.775	4702
885.9	4687
886.025	4850
886.15	4790
886.275	4694
886.4	4630
886.525	4744
886.65	4702
886.775	4694
886.9	4858
887.025	5006
887.149	4790
887.274	4615
887.399	4561
887.523	4645
887.648	4542
887.773	4599
887.897	4759
888.021	4774
888.146	4641
888.27	4816
888.395	4877
888.519	4793
888.643	4839
888.767	4809
888.891	4702
889.015	4592
889.139	4634
889.263	4577
889.387	4729
889.511	4915
889.635	4782
889.759	4649
889.883	4596
890.006	4714
890.13	4801
890.254	4607
890.377	4679
890.501	4519
890.624	4508
890.748	4641
890.871	4478
890.995	4432
891.118	4432
891.241	4519
891.364	4504
891.488	4649
891.611	4451
891.734	4531
891.857	4615
891.98	4558
892.103	4683
892.226	4592
892.349	4516
892.471	4462
892.594	4504
892.717	4622
892.839	4607
892.962	4603
893.085	4637
893.207	4611
893.33	4497
893.452	4489
893.575	4645
893.697	4596
893.819	4755
893.941	4771
894.064	4774
894.186	4611
894.308	4626
894.43	4717
894.552	4831
894.674	4729
894.796	4573
894.918	4626
895.04	4596
895.161	4687
895.283	4679
895.405	4592
895.526	4641
895.648	4725
895.769	4672
895.891	4706
896.012	4740
896.134	4706
896.255	4645
896.376	4653
896.498	4592
896.619	4714
896.74	4603
896.861	4634
896.982	4946
897.103	5071
897.224	4816
897.345	4755
897.466	4691
897.587	4714
897.708	4854
897.828	4801
897.949	4683
898.07	4523
898.19	4656
898.311	4778
898.431	4622
898.552	4710
898.672	4862
898.792	4793
898.913	4687
899.033	4569
899.153	4531
899.273	4424
899.393	4485
899.513	4554
899.633	4527
899.753	4497
899.873	4561
899.993	4558
900.113	4554
900.232	4569
900.352	4519
900.472	4493
900.591	4363
900.711	4466
900.83	4432
900.95	4577
901.069	4672
901.189	4512
901.308	4337
901.427	4310
901.546	4379
901.665	4447
901.784	4538
901.904	4344
902.023	4341
902.141	4162
902.26	4150
902.379	4253
902.498	4246
902.617	4242
902.735	4352
902.854	4402
902.973	4348
903.091	4147
903.21	4261
903.328	4299
903.446	4295
903.565	4230
903.683	4310
903.801	4249
903.919	4413
904.038	4398
904.156	4265
904.274	4421
904.392	4402
904.51	4443
904.627	4459
904.745	4523
904.863	4603
904.981	4348
905.098	4287
905.216	4394
905.334	4394
905.451	4462
905.569	4436
905.686	4504
905.803	4558
905.921	4386
906.038	4554
906.155	4478
906.272	4379
906.389	4443
906.506	4356
906.623	4402
906.74	4413
906.857	4314
906.974	4363
907.091	4561
907.208	4656
907.324	4580
907.441	4508
907.557	4363
907.674	4371
907.79	4371
907.907	4367
908.023	4500
908.139	4504
908.256	4459
908.372	4455
908.488	4459
908.604	4322
908.72	4341
908.836	4371
908.952	4352
909.068	4436
909.184	4569
909.3	4440
909.415	4592
909.531	4550
909.647	4348
909.762	4337
909.878	4352
909.993	4413
910.108	4417
910.224	4386
910.339	4432
910.454	4371
910.57	4348
910.685	4261
910.8	4615
910.915	4634
911.03	4455
911.145	4322
911.259	4344
911.374	4299
911.489	4303
911.604	4257
911.718	4131
911.833	4192
911.947	4105
912.062	4010
912.176	4192
912.291	4234
912.405	4181
912.519	4470
912.633	4462
912.748	4329
912.862	4303
912.976	4192
913.09	4105
913.204	4188
913.318	4234
913.431	4344
913.545	4383
913.659	4428
913.772	4310
913.886	4242
914	4207
914.113	4318
914.226	4424
914.34	4371
914.453	4257
914.566	4409
914.68	4287
914.793	4303
914.906	4173
915.019	4082
915.132	4128
915.245	4166
915.358	4211
915.47	4204
915.583	4238
915.696	4280
915.809	4409
915.921	4402
916.034	4215
916.146	4280
916.259	4242
916.371	4363
916.483	4337
916.595	4265
916.708	4299
916.82	4325
916.932	4314
917.044	4310
917.156	4295
917.268	4257
917.38	4249
917.491	4280
917.603	4329
917.715	4424
917.826	4409
917.938	4360
918.049	4253
918.161	4341
918.272	4489
918.384	4489
918.495	4455
918.606	4238
918.717	4207
918.828	4322
918.939	4341
919.05	4268
919.161	4360
919.272	4143
919.383	4204
919.494	4455
919.604	4622
919.715	4436
919.826	4337
919.936	4379
920.047	4466
920.157	4474
920.267	4637
920.378	4527
920.488	4451
920.598	4714
920.708	4850
920.818	4694
920.928	4790
921.038	4957
921.148	4885
921.258	4599
921.368	4500
921.477	4508
921.587	4421
921.697	4363
921.806	4527
921.916	4386
922.025	4261
922.134	4265
922.244	4215
922.353	4295
922.462	4162
922.571	4147
922.68	4017
922.789	3968
922.898	4013
923.007	3994
923.116	4097
923.224	4055
923.333	4071
923.442	4021
923.55	3975
923.659	4021
923.767	4097
923.876	3994
923.984	4093
924.092	4025
924.201	4074
924.309	4101
924.417	4105
924.525	4032
924.633	4101
924.741	4881
924.849	3934
924.956	4116
925.064	3975
925.172	3884
925.279	3937
925.387	4032
925.494	4036
925.602	4215
925.709	4192
925.816	4067
925.924	4090
926.031	4192
926.138	4177
926.245	4150
926.352	4109
926.459	4219
926.566	4272
926.673	4177
926.779	4063
926.886	4074
926.993	3991
927.099	3960
927.206	3915
927.312	3941
927.419	4048
927.525	4029
927.631	4120
927.737	3918
927.843	3930
927.95	3819
928.056	3994
928.162	3972
928.267	4105
928.373	4561
928.479	4124
928.585	3812
928.69	3994
928.796	4032
928.901	3987
929.007	3838
929.112	4013
929.218	3960
929.323	3911
929.428	3937
929.533	4105
929.638	3953
929.743	3983
929.848	4051
929.953	3994
930.058	3911
930.163	3785
930.267	3850
930.372	3991
930.477	3800
930.581	4051
930.685	3873
930.79	3785
930.894	3869
930.998	3873
931.103	4048
931.207	3736
931.311	3694
931.415	3618
931.519	3515
931.623	3553
