Data from test_V78500241_553.txt Node
Date: Fri Mar 25 16:52:50 CST 2022
User: usil
Spectrometer: V785-0024
Trigger mode: 0
Integration Time (sec): 4.000000E-1
Scans to average: 1
Nonlinearity correction enabled: false
Boxcar width: 0
Storing dark spectrum: false
XAxis mode: Wavelengths
Number of Pixels in Spectrum: 1024
>>>>>Begin Spectral Data<<<<<
801.071	7989
801.214	7989
801.356	7860
801.499	7894
801.641	7837
801.783	7845
801.926	8016
802.068	8012
802.211	8081
802.353	7982
802.496	7883
802.638	7909
802.78	7883
802.923	7890
803.065	7830
803.208	7951
803.35	8027
803.492	8024
803.635	8111
803.777	8065
803.919	8149
804.061	8400
804.204	8176
804.346	8005
804.488	7993
804.63	8123
804.773	8043
804.915	8119
805.057	8252
805.199	8176
805.341	8298
805.483	8267
805.626	8214
805.768	8142
805.91	8248
806.052	8225
806.194	8126
806.336	8206
806.478	8092
806.62	8065
806.762	8153
806.904	8301
807.046	8457
807.188	8370
807.33	8286
807.472	8290
807.614	8107
807.756	8161
807.898	8001
808.04	7906
808.182	7982
808.324	7940
808.465	7932
808.607	8043
808.749	8100
808.891	8263
809.033	8351
809.174	8206
809.316	8119
809.458	8100
809.6	7921
809.741	8035
809.883	8088
810.025	8130
810.166	7974
810.308	8031
810.45	8043
810.591	7932
810.733	7780
810.875	7746
811.016	7575
811.158	7518
811.299	7632
811.441	7833
811.582	7677
811.724	7514
811.865	7582
812.007	7571
812.148	7571
812.29	7677
812.431	7803
812.573	7856
812.714	8012
812.855	8183
812.997	8233
813.138	8336
813.279	8210
813.421	8191
813.562	8123
813.703	7856
813.845	7871
813.986	7518
814.127	7381
814.268	7365
814.41	7278
814.551	7141
814.692	7217
814.833	7027
814.974	7099
815.115	7088
815.256	6977
815.397	6954
815.539	6943
815.68	6856
815.821	6791
815.962	6886
816.103	6871
816.244	6753
816.385	6623
816.526	6620
816.666	6528
816.807	6403
816.948	6494
817.089	6536
817.23	6422
817.371	6331
817.512	6388
817.653	6403
817.793	6391
817.934	6384
818.075	6422
818.216	6448
818.356	6422
818.497	6289
818.638	6152
818.778	6175
818.919	6106
819.06	6144
819.2	6350
819.341	6300
819.481	6384
819.622	6536
819.762	6719
819.903	6734
820.043	6570
820.184	6604
820.324	6612
820.465	6696
820.605	6635
820.746	6620
820.886	6513
821.026	6650
821.167	6738
821.307	6821
821.447	6760
821.588	6635
821.728	6593
821.868	6513
822.008	6342
822.149	6357
822.289	6407
822.429	6163
822.569	6057
822.709	6117
822.849	5980
822.99	5912
823.13	5935
823.27	5912
823.41	5794
823.55	5756
823.69	5779
823.83	5821
823.97	5657
824.11	5543
824.25	5528
824.389	5547
824.529	5573
824.669	5547
824.809	5619
824.949	5657
825.089	5707
825.228	5554
825.368	5387
825.508	5364
825.648	5349
825.787	5417
825.927	5376
826.067	5330
826.206	5280
826.346	5383
826.485	5372
826.625	5444
826.765	5554
826.904	5471
827.044	5284
827.183	5193
827.323	5159
827.462	5265
827.601	5159
827.741	5201
827.88	5208
828.02	5098
828.159	5220
828.298	5299
828.437	5379
828.577	5299
828.716	5497
828.855	5315
828.994	5155
829.134	5121
829.273	5197
829.412	5151
829.551	5151
829.69	5201
829.829	5246
829.968	5357
830.107	5250
830.246	5269
830.385	5162
830.524	5151
830.663	5117
830.802	4938
830.941	4889
831.08	4892
831.219	5018
831.357	4987
831.496	5170
831.635	4938
831.774	4850
831.913	4873
832.051	4759
832.19	4752
832.329	4858
832.467	4706
832.606	4683
832.744	4687
832.883	4733
833.022	4748
833.16	4820
833.299	4790
833.437	4828
833.576	4847
833.714	4835
833.852	4885
833.991	4934
834.129	4949
834.267	4961
834.406	4946
834.544	4987
834.682	4987
834.821	4968
834.959	5117
835.097	4991
835.235	5140
835.373	5102
835.511	5117
835.65	5018
835.788	5014
835.926	4972
836.064	4896
836.202	4881
836.34	5174
836.478	5216
836.615	5128
836.753	5185
836.891	5265
837.029	5242
837.167	5220
837.305	5151
837.443	5155
837.58	5083
837.718	5216
837.856	5143
837.993	5159
838.131	5223
838.269	5185
838.406	5189
838.544	5166
838.681	5079
838.819	5041
838.956	4911
839.094	4946
839.231	5018
839.369	5067
839.506	5433
839.643	5250
839.781	5010
839.918	5006
840.055	5102
840.193	5113
840.33	5105
840.467	5098
840.604	5212
840.742	5452
840.879	5113
841.016	5033
841.153	5181
841.29	5360
841.427	5334
841.564	5273
841.701	5372
841.838	5254
841.975	5235
842.112	5299
842.249	5189
842.385	5105
842.522	5334
842.659	5193
842.796	5140
842.933	5136
843.069	5132
843.206	5113
843.343	5296
843.479	5246
843.616	5239
843.752	5048
843.889	5056
844.025	5212
844.162	5022
844.298	5250
844.435	5090
844.571	5064
844.708	5231
844.844	5307
844.98	5326
845.117	5280
845.253	5109
845.389	5075
845.525	5132
845.661	5174
845.798	5052
845.934	5071
846.07	5064
846.206	5212
846.342	5277
846.478	5189
846.614	5025
846.75	4976
846.886	4942
847.022	5151
847.158	5048
847.294	5075
847.429	5102
847.565	5025
847.701	5353
847.837	4854
847.972	4831
848.108	4934
848.244	4957
848.379	4759
848.515	4691
848.65	4694
848.786	4774
848.921	4786
849.057	4877
849.192	4923
849.328	4854
849.463	4866
849.598	4778
849.734	4721
849.869	4698
850.004	4592
850.14	4679
850.275	4603
850.41	4580
850.545	4558
850.68	4626
850.815	4637
850.95	4630
851.085	4835
851.22	4786
851.355	4664
851.49	4607
851.625	4687
851.76	4672
851.895	4519
852.03	4516
852.165	4675
852.299	4755
852.434	4752
852.569	4714
852.703	4797
852.838	4835
852.973	4934
853.107	4930
853.242	4729
853.376	4626
853.511	4580
853.645	4664
853.78	4843
853.914	4672
854.048	4702
854.183	4664
854.317	4706
854.451	4790
854.585	4668
854.72	4672
854.854	4782
854.988	4615
855.122	4668
855.256	4538
855.39	4596
855.524	4774
855.658	4744
855.792	4702
855.926	4740
856.06	4736
856.194	4831
856.327	4717
856.461	4573
856.595	4615
856.729	4592
856.862	4763
856.996	4710
857.13	4755
857.263	4744
857.397	4793
857.53	4645
857.664	4694
857.797	4763
857.931	4679
858.064	4694
858.197	4805
858.331	4660
858.464	4637
858.597	4500
858.731	4645
858.864	4607
858.997	4630
859.13	4649
859.263	4668
859.396	4698
859.529	4542
859.662	4577
859.795	4599
859.928	4653
860.061	4763
860.194	4778
860.327	4599
860.46	4558
860.592	4736
860.725	4752
860.858	4744
860.99	4523
861.123	4561
861.256	4531
861.388	4615
861.521	5486
861.653	4500
861.786	4455
861.918	4462
862.05	4554
862.183	4599
862.315	4626
862.447	4630
862.58	4588
862.712	4363
862.844	4291
862.976	4474
863.108	4451
863.24	4843
863.372	4325
863.504	4424
863.636	4413
863.768	4500
863.9	4447
864.032	4379
864.164	4413
864.296	4466
864.428	4561
864.559	4573
864.691	4573
864.823	4542
864.954	4462
865.086	4481
865.217	4508
865.349	4421
865.48	4459
865.612	4470
865.743	4637
865.875	4538
866.006	4417
866.137	4462
866.269	4443
866.4	4478
866.531	4459
866.662	4417
866.793	4398
866.924	4421
867.055	4493
867.186	4436
867.317	4421
867.448	4398
867.579	4394
867.71	4367
867.841	4367
867.972	4436
868.103	4474
868.233	4432
868.364	4428
868.495	4470
868.625	4645
868.756	4717
868.886	4596
869.017	4645
869.147	4759
869.278	4805
869.408	4679
869.539	4664
869.669	4691
869.799	4653
869.929	4752
870.06	4691
870.19	4915
870.32	4961
870.45	4904
870.58	4991
870.71	5105
870.84	5060
870.97	4908
871.1	4938
871.23	5113
871.36	5071
871.489	5045
871.619	5094
871.749	5147
871.879	5136
872.008	5178
872.138	5010
872.267	5022
872.397	4839
872.526	4805
872.656	4759
872.785	4793
872.915	4908
873.044	5010
873.173	4972
873.303	4987
873.432	4949
873.561	4987
873.69	4850
873.819	4892
873.948	4877
874.077	4820
874.206	4786
874.335	4778
874.464	4904
874.593	5014
874.722	4968
874.851	5075
874.979	5033
875.108	5025
875.237	4892
875.365	4908
875.494	4854
875.623	5006
875.751	4847
875.88	4866
876.008	4980
876.136	5071
876.265	5197
876.393	5353
876.521	5277
876.65	5216
876.778	5128
876.906	5075
877.034	5048
877.162	5075
877.29	5022
877.418	5045
877.546	5033
877.674	5029
877.802	5029
877.93	5033
878.058	4961
878.185	4870
878.313	4953
878.441	4984
878.568	4790
878.696	4877
878.824	4957
878.951	4999
879.079	5132
879.206	5315
879.333	5090
879.461	4991
879.588	5003
879.715	5140
879.842	5220
879.97	5067
880.097	4786
880.224	4763
880.351	4771
880.478	4843
880.605	4786
880.732	4763
880.859	5056
880.986	4934
881.112	4911
881.239	4763
881.366	4706
881.493	4615
881.619	4550
881.746	4618
881.872	4664
881.999	4672
882.125	4698
882.252	4824
882.378	4847
882.505	4938
882.631	4881
882.757	4702
882.883	4740
883.01	4717
883.136	4725
883.262	4561
883.388	4607
883.514	4831
883.64	4831
883.766	4790
883.892	4687
884.018	4721
884.143	4866
884.269	5018
884.395	4668
884.52	4649
884.646	4630
884.772	4565
884.897	4573
885.023	4634
885.148	4786
885.274	4850
885.399	4801
885.524	4706
885.65	4691
885.775	4714
885.9	4725
886.025	4843
886.15	4793
886.275	4736
886.4	4656
886.525	4755
886.65	4717
886.775	4668
886.9	4923
887.025	5075
887.149	4816
887.274	4630
887.399	4527
887.523	4580
887.648	4580
887.773	4558
887.897	4793
888.021	4816
888.146	4683
888.27	4782
888.395	4900
888.519	4816
888.643	4801
888.767	4824
888.891	4668
889.015	4599
889.139	4702
889.263	4622
889.387	4698
889.511	4839
889.635	4812
889.759	4637
889.883	4698
890.006	4778
890.13	4816
890.254	4615
890.377	4679
890.501	4599
890.624	4516
890.748	4596
890.871	4504
890.995	4455
891.118	4432
891.241	4531
891.364	4527
891.488	4622
891.611	4493
891.734	4577
891.857	4615
891.98	4577
892.103	4653
892.226	4603
892.349	4489
892.471	4455
892.594	4527
892.717	4596
892.839	4588
892.962	4584
893.085	4656
893.207	4622
893.33	4474
893.452	4588
893.575	4634
893.697	4611
893.819	4835
893.941	4843
894.064	4778
894.186	4565
894.308	4542
894.43	4725
894.552	4831
894.674	4748
894.796	4535
894.918	4577
895.04	4599
895.161	4748
895.283	4702
895.405	4584
895.526	4607
895.648	4675
895.769	4653
895.891	4698
896.012	4721
896.134	4710
896.255	4672
896.376	4698
896.498	4626
896.619	4668
896.74	4630
896.861	4637
896.982	4896
897.103	5067
897.224	4828
897.345	4752
897.466	4687
897.587	4740
897.708	4889
897.828	4805
897.949	4683
898.07	4588
898.19	4611
898.311	4847
898.431	4668
898.552	4763
898.672	4835
898.792	4771
898.913	4694
899.033	4656
899.153	4519
899.273	4440
899.393	4497
899.513	4546
899.633	4550
899.753	4596
899.873	4573
899.993	4588
900.113	4519
900.232	4588
900.352	4535
900.472	4493
900.591	4413
900.711	4481
900.83	4451
900.95	4569
901.069	4675
901.189	4561
901.308	4348
901.427	4306
901.546	4394
901.665	4485
901.784	4485
901.904	4379
902.023	4318
902.141	4207
902.26	4158
902.379	4287
902.498	4272
902.617	4204
902.735	4337
902.854	4360
902.973	4303
903.091	4185
903.21	4207
903.328	4303
903.446	4303
903.565	4272
903.683	4375
903.801	4280
903.919	4447
904.038	4417
904.156	4329
904.274	4428
904.392	4356
904.51	4405
904.627	4493
904.745	4611
904.863	4637
904.981	4428
905.098	4299
905.216	4363
905.334	4459
905.451	4459
905.569	4428
905.686	4580
905.803	4577
905.921	4348
906.038	4565
906.155	4542
906.272	4398
906.389	4443
906.506	4329
906.623	4314
906.74	4436
906.857	4325
906.974	4344
907.091	4573
907.208	4656
907.324	4603
907.441	4542
907.557	4333
907.674	4325
907.79	4341
907.907	4375
908.023	4497
908.139	4485
908.256	4436
908.372	4481
908.488	4462
908.604	4398
908.72	4367
908.836	4390
908.952	4371
909.068	4443
909.184	4523
909.3	4497
909.415	4538
909.531	4550
909.647	4333
909.762	4409
909.878	4329
909.993	4409
910.108	4432
910.224	4413
910.339	4424
910.454	4379
910.57	4379
910.685	4306
910.8	4611
910.915	4558
911.03	4516
911.145	4299
911.259	4306
911.374	4363
911.489	4242
911.604	4310
911.718	4158
911.833	4219
911.947	4082
912.062	4082
912.176	4219
912.291	4276
912.405	4207
912.519	4481
912.633	4466
912.748	4424
912.862	4348
912.976	4188
913.09	4093
913.204	4135
913.318	4249
913.431	4344
913.545	4363
913.659	4443
913.772	4394
913.886	4230
914	4211
914.113	4375
914.226	4470
914.34	4413
914.453	4261
914.566	4409
914.68	4257
914.793	4329
914.906	4154
915.019	4112
915.132	4093
915.245	4166
915.358	4265
915.47	4257
915.583	4306
915.696	4329
915.809	4421
915.921	4421
916.034	4249
916.146	4227
916.259	4234
916.371	4344
916.483	4402
916.595	4261
916.708	4299
916.82	4329
916.932	4337
917.044	4344
917.156	4329
917.268	4249
917.38	4322
917.491	4265
917.603	4341
917.715	4413
917.826	4443
917.938	4371
918.049	4227
918.161	4440
918.272	4527
918.384	4554
918.495	4440
918.606	4303
918.717	4314
918.828	4341
918.939	4390
919.05	4234
919.161	4318
919.272	4162
919.383	4253
919.494	4485
919.604	4622
919.715	4432
919.826	4333
919.936	4379
920.047	4527
920.157	4474
920.267	4653
920.378	4542
920.488	4508
920.598	4744
920.708	4911
920.818	4744
920.928	4744
921.038	4957
921.148	4919
921.258	4649
921.368	4580
921.477	4516
921.587	4485
921.697	4398
921.806	4554
921.916	4451
922.025	4261
922.134	4272
922.244	4234
922.353	4371
922.462	4154
922.571	4109
922.68	4029
922.789	3964
922.898	4040
923.007	3994
923.116	4101
923.224	4055
923.333	4093
923.442	3987
923.55	3960
923.659	4055
923.767	4128
923.876	3972
923.984	4124
924.092	3968
924.201	4078
924.309	4105
924.417	4124
924.525	4055
924.633	4090
924.741	5067
924.849	3915
924.956	4162
925.064	3949
925.172	3884
925.279	3968
925.387	4063
925.494	4048
925.602	4246
925.709	4215
925.816	4055
925.924	4135
926.031	4223
926.138	4196
926.245	4230
926.352	4044
926.459	4291
926.566	4265
926.673	4116
926.779	4036
926.886	4097
926.993	3987
927.099	3994
927.206	3930
927.312	3941
927.419	4059
927.525	4040
927.631	4128
927.737	3964
927.843	3930
927.95	3869
928.056	3960
928.162	3983
928.267	4044
928.373	4714
928.479	4154
928.585	3861
928.69	4002
928.796	4086
928.901	3964
929.007	3876
929.112	4017
929.218	3960
929.323	3968
929.428	3953
929.533	4131
929.638	3930
929.743	3930
929.848	4082
929.953	3960
930.058	3896
930.163	3759
930.267	3827
930.372	3979
930.477	3808
930.581	4093
930.685	3964
930.79	3827
930.894	3903
930.998	3861
931.103	4055
931.207	3701
931.311	3724
931.415	3694
931.519	3526
931.623	3572
