Data from test_V78500241_1490.txt Node
Date: Fri Mar 25 16:59:21 CST 2022
User: usil
Spectrometer: V785-0024
Trigger mode: 0
Integration Time (sec): 4.000000E-1
Scans to average: 1
Nonlinearity correction enabled: false
Boxcar width: 0
Storing dark spectrum: false
XAxis mode: Wavelengths
Number of Pixels in Spectrum: 1024
>>>>>Begin Spectral Data<<<<<
801.071	8024
801.214	8016
801.356	7902
801.499	7795
801.641	7799
801.783	7849
801.926	7902
802.068	7906
802.211	7986
802.353	8031
802.496	7818
802.638	7833
802.78	7917
802.923	8005
803.065	7955
803.208	7830
803.35	7913
803.492	8035
803.635	8142
803.777	8020
803.919	8077
804.061	8393
804.204	8123
804.346	8050
804.488	7917
804.63	8024
804.773	7967
804.915	8130
805.057	8263
805.199	8145
805.341	8233
805.483	8263
805.626	8187
805.768	8157
805.91	8256
806.052	8210
806.194	8134
806.336	8267
806.478	8020
806.62	8039
806.762	8180
806.904	8282
807.046	8457
807.188	8412
807.33	8225
807.472	8324
807.614	8130
807.756	8168
807.898	8046
808.04	7928
808.182	7955
808.324	7860
808.465	7928
808.607	8119
808.749	8081
808.891	8237
809.033	8256
809.174	8225
809.316	8024
809.458	8096
809.6	7982
809.741	8035
809.883	8016
810.025	8119
810.166	8001
810.308	8050
810.45	8005
810.591	7925
810.733	7734
810.875	7597
811.016	7483
811.158	7521
811.299	7590
811.441	7753
811.582	7666
811.724	7613
811.865	7529
812.007	7594
812.148	7537
812.29	7601
812.431	7723
812.573	7928
812.714	8008
812.855	8149
812.997	8138
813.138	8313
813.279	8199
813.421	8020
813.562	8027
813.703	7845
813.845	7769
813.986	7430
814.127	7244
814.268	7198
814.41	7156
814.551	7206
814.692	7160
814.833	7099
814.974	7137
815.115	7133
815.256	6947
815.397	6935
815.539	6943
815.68	6859
815.821	6730
815.962	6798
816.103	6810
816.244	6753
816.385	6631
816.526	6616
816.666	6452
816.807	6300
816.948	6414
817.089	6464
817.23	6422
817.371	6399
817.512	6342
817.653	6388
817.793	6384
817.934	6395
818.075	6433
818.216	6422
818.356	6460
818.497	6262
818.638	6140
818.778	6148
818.919	6144
819.06	6136
819.2	6338
819.341	6277
819.481	6300
819.622	6544
819.762	6703
819.903	6639
820.043	6593
820.184	6566
820.324	6551
820.465	6700
820.605	6715
820.746	6677
820.886	6486
821.026	6684
821.167	6669
821.307	6741
821.447	6779
821.588	6696
821.728	6532
821.868	6490
822.008	6334
822.149	6296
822.289	6319
822.429	6148
822.569	6064
822.709	6152
822.849	5901
822.99	5889
823.13	5904
823.27	5939
823.41	5767
823.55	5745
823.69	5748
823.83	5794
823.97	5707
824.11	5505
824.25	5512
824.389	5539
824.529	5581
824.669	5520
824.809	5600
824.949	5642
825.089	5592
825.228	5570
825.368	5330
825.508	5288
825.648	5337
825.787	5360
825.927	5334
826.067	5307
826.206	5204
826.346	5330
826.485	5387
826.625	5444
826.765	5547
826.904	5467
827.044	5239
827.183	5140
827.323	5128
827.462	5208
827.601	5201
827.741	5201
827.88	5227
828.02	5181
828.159	5269
828.298	5284
828.437	5368
828.577	5246
828.716	5535
828.855	5345
828.994	5174
829.134	5162
829.273	5109
829.412	5128
829.551	5113
829.69	5185
829.829	5162
829.968	5296
830.107	5216
830.246	5235
830.385	5178
830.524	5098
830.663	5105
830.802	4976
830.941	4877
831.08	4870
831.219	5037
831.357	4938
831.496	5136
831.635	4889
831.774	4866
831.913	4896
832.051	4717
832.19	4778
832.329	4820
832.467	4725
832.606	4630
832.744	4725
832.883	4710
833.022	4721
833.16	4805
833.299	4812
833.437	4828
833.576	4854
833.714	4847
833.852	4877
833.991	4843
834.129	4949
834.267	4930
834.406	4915
834.544	4999
834.682	4965
834.821	4946
834.959	5136
835.097	4999
835.235	5132
835.373	5025
835.511	5060
835.65	5060
835.788	5006
835.926	4923
836.064	4828
836.202	4873
836.34	5113
836.478	5235
836.615	5086
836.753	5193
836.891	5220
837.029	5170
837.167	5181
837.305	5113
837.443	5121
837.58	5079
837.718	5235
837.856	5174
837.993	5083
838.131	5212
838.269	5220
838.406	5220
838.544	5178
838.681	4984
838.819	4965
838.956	4919
839.094	4911
839.231	4965
839.369	5079
839.506	5440
839.643	5231
839.781	5025
839.918	4991
840.055	5052
840.193	5117
840.33	5083
840.467	5117
840.604	5132
840.742	5398
840.879	5067
841.016	5102
841.153	5121
841.29	5398
841.427	5284
841.564	5307
841.701	5315
841.838	5235
841.975	5197
842.112	5231
842.249	5162
842.385	5121
842.522	5277
842.659	5136
842.796	5109
842.933	5136
843.069	5121
843.206	5140
843.343	5227
843.479	5258
843.616	5235
843.752	5014
843.889	5003
844.025	5193
844.162	5052
844.298	5117
844.435	5067
844.571	5090
844.708	5166
844.844	5299
844.98	5288
845.117	5288
845.253	5147
845.389	5094
845.525	5140
845.661	5060
845.798	5018
845.934	5136
846.07	5014
846.206	5174
846.342	5250
846.478	5185
846.614	5014
846.75	4946
846.886	4915
847.022	5083
847.158	4999
847.294	5064
847.429	5102
847.565	5064
847.701	5307
847.837	4847
847.972	4816
848.108	4904
848.244	4942
848.379	4763
848.515	4740
848.65	4706
848.786	4801
848.921	4809
849.057	4854
849.192	4858
849.328	4805
849.463	4812
849.598	4767
849.734	4721
849.869	4675
850.004	4599
850.14	4675
850.275	4630
850.41	4542
850.545	4599
850.68	4618
850.815	4607
850.95	4637
851.085	4816
851.22	4748
851.355	4694
851.49	4584
851.625	4626
851.76	4596
851.895	4527
852.03	4535
852.165	4637
852.299	4717
852.434	4721
852.569	4729
852.703	4687
852.838	4862
852.973	4896
853.107	4889
853.242	4717
853.376	4679
853.511	4550
853.645	4630
853.78	4782
853.914	4717
854.048	4660
854.183	4592
854.317	4672
854.451	4824
854.585	4649
854.72	4615
854.854	4721
854.988	4561
855.122	4607
855.256	4546
855.39	4672
855.524	4721
855.658	4717
855.792	4702
855.926	4706
856.06	4786
856.194	4797
856.327	4672
856.461	4603
856.595	4596
856.729	4618
856.862	4778
856.996	4664
857.13	4721
857.263	4729
857.397	4786
857.53	4653
857.664	4660
857.797	4725
857.931	4771
858.064	4683
858.197	4710
858.331	4611
858.464	4577
858.597	4481
858.731	4584
858.864	4637
858.997	4599
859.13	4637
859.263	4660
859.396	4675
859.529	4596
859.662	4561
859.795	4470
859.928	4645
860.061	4744
860.194	4755
860.327	4618
860.46	4618
860.592	4714
860.725	4714
860.858	4706
860.99	4512
861.123	4527
861.256	4508
861.388	4611
861.521	5406
861.653	4489
861.786	4489
861.918	4440
862.05	4466
862.183	4550
862.315	4588
862.447	4675
862.58	4577
862.712	4367
862.844	4363
862.976	4447
863.108	4470
863.24	4828
863.372	4352
863.504	4424
863.636	4375
863.768	4447
863.9	4413
864.032	4348
864.164	4375
864.296	4466
864.428	4535
864.559	4523
864.691	4558
864.823	4481
864.954	4474
865.086	4500
865.217	4478
865.349	4394
865.48	4432
865.612	4459
865.743	4641
865.875	4455
866.006	4390
866.137	4451
866.269	4421
866.4	4409
866.531	4417
866.662	4394
866.793	4402
866.924	4432
867.055	4485
867.186	4436
867.317	4390
867.448	4371
867.579	4421
867.71	4352
867.841	4367
867.972	4462
868.103	4443
868.233	4481
868.364	4371
868.495	4481
868.625	4607
868.756	4702
868.886	4550
869.017	4569
869.147	4774
869.278	4740
869.408	4603
869.539	4630
869.669	4687
869.799	4637
869.929	4748
870.06	4706
870.19	4980
870.32	4889
870.45	4938
870.58	4984
870.71	5090
870.84	5098
870.97	4911
871.1	4828
871.23	5109
871.36	5132
871.489	5010
871.619	5094
871.749	5094
871.879	5105
872.008	5113
872.138	5075
872.267	4949
872.397	4866
872.526	4805
872.656	4717
872.785	4793
872.915	4881
873.044	5033
873.173	4900
873.303	4930
873.432	4927
873.561	4942
873.69	4862
873.819	4870
873.948	4892
874.077	4805
874.206	4740
874.335	4809
874.464	4965
874.593	5010
874.722	4942
874.851	5045
874.979	5052
875.108	5029
875.237	4896
875.365	4896
875.494	4900
875.623	4949
875.751	4831
875.88	4835
876.008	4896
876.136	5014
876.265	5166
876.393	5372
876.521	5269
876.65	5250
876.778	5151
876.906	5056
877.034	5006
877.162	5045
877.29	4953
877.418	5045
877.546	4991
877.674	5018
877.802	5045
877.93	5006
878.058	4904
878.185	4835
878.313	4919
878.441	4934
878.568	4793
878.696	4919
878.824	4942
878.951	5018
879.079	5113
879.206	5311
879.333	5052
879.461	4957
879.588	5067
879.715	5109
879.842	5227
879.97	4991
880.097	4771
880.224	4714
880.351	4831
880.478	4744
880.605	4767
880.732	4782
880.859	5109
880.986	4908
881.112	4873
881.239	4793
881.366	4653
881.493	4634
881.619	4542
881.746	4645
881.872	4622
881.999	4672
882.125	4668
882.252	4736
882.378	4763
882.505	4934
882.631	4805
882.757	4641
882.883	4748
883.01	4717
883.136	4668
883.262	4645
883.388	4550
883.514	4763
883.64	4828
883.766	4793
883.892	4645
884.018	4675
884.143	4885
884.269	5041
884.395	4641
884.52	4607
884.646	4706
884.772	4615
884.897	4580
885.023	4721
885.148	4782
885.274	4896
885.399	4843
885.524	4725
885.65	4653
885.775	4736
885.9	4717
886.025	4862
886.15	4767
886.275	4717
886.4	4687
886.525	4710
886.65	4637
886.775	4694
886.9	4866
887.025	5014
887.149	4812
887.274	4702
887.399	4588
887.523	4599
887.648	4577
887.773	4592
887.897	4740
888.021	4740
888.146	4664
888.27	4831
888.395	4904
888.519	4797
888.643	4816
888.767	4881
888.891	4660
889.015	4546
889.139	4611
889.263	4523
889.387	4782
889.511	4862
889.635	4786
889.759	4637
889.883	4599
890.006	4755
890.13	4824
890.254	4641
890.377	4630
890.501	4542
890.624	4531
890.748	4622
890.871	4478
890.995	4413
891.118	4356
891.241	4546
891.364	4523
891.488	4592
891.611	4436
891.734	4535
891.857	4569
891.98	4573
892.103	4630
892.226	4607
892.349	4508
892.471	4436
892.594	4550
892.717	4573
892.839	4497
892.962	4603
893.085	4607
893.207	4558
893.33	4474
893.452	4519
893.575	4626
893.697	4596
893.819	4824
893.941	4835
894.064	4736
894.186	4538
894.308	4550
894.43	4763
894.552	4824
894.674	4759
894.796	4538
894.918	4584
895.04	4538
895.161	4706
895.283	4649
895.405	4565
895.526	4611
895.648	4694
895.769	4706
895.891	4702
896.012	4729
896.134	4702
896.255	4668
896.376	4653
896.498	4577
896.619	4626
896.74	4607
896.861	4637
896.982	4957
897.103	5098
897.224	4816
897.345	4755
897.466	4660
897.587	4725
897.708	4809
897.828	4786
897.949	4656
898.07	4508
898.19	4592
898.311	4809
898.431	4649
898.552	4706
898.672	4797
898.792	4801
898.913	4706
899.033	4607
899.153	4519
899.273	4413
899.393	4443
899.513	4485
899.633	4523
899.753	4538
899.873	4474
899.993	4531
900.113	4508
900.232	4618
900.352	4573
900.472	4481
900.591	4367
900.711	4451
900.83	4466
900.95	4596
901.069	4641
901.189	4531
901.308	4352
901.427	4348
901.546	4348
901.665	4485
901.784	4550
901.904	4367
902.023	4303
902.141	4215
902.26	4154
902.379	4344
902.498	4249
902.617	4211
902.735	4367
902.854	4367
902.973	4337
903.091	4196
903.21	4207
903.328	4268
903.446	4249
903.565	4284
903.683	4386
903.801	4261
903.919	4390
904.038	4481
904.156	4318
904.274	4443
904.392	4383
904.51	4409
904.627	4455
904.745	4565
904.863	4599
904.981	4367
905.098	4287
905.216	4371
905.334	4386
905.451	4440
905.569	4398
905.686	4527
905.803	4519
905.921	4375
906.038	4550
906.155	4474
906.272	4436
906.389	4447
906.506	4352
906.623	4398
906.74	4398
906.857	4314
906.974	4329
907.091	4538
907.208	4656
907.324	4542
907.441	4519
907.557	4329
907.674	4337
907.79	4295
907.907	4386
908.023	4478
908.139	4489
908.256	4436
908.372	4470
908.488	4440
908.604	4314
908.72	4333
908.836	4367
908.952	4363
909.068	4440
909.184	4550
909.3	4462
909.415	4504
909.531	4535
909.647	4360
909.762	4367
909.878	4386
909.993	4443
910.108	4413
910.224	4352
910.339	4443
910.454	4386
910.57	4367
910.685	4322
910.8	4679
910.915	4622
911.03	4561
911.145	4348
911.259	4306
911.374	4371
911.489	4291
911.604	4261
911.718	4162
911.833	4242
911.947	4051
912.062	3994
912.176	4242
912.291	4204
912.405	4257
912.519	4493
912.633	4542
912.748	4337
912.862	4287
912.976	4192
913.09	4120
913.204	4181
913.318	4223
913.431	4413
913.545	4360
913.659	4466
913.772	4341
913.886	4257
914	4219
914.113	4363
914.226	4428
914.34	4440
914.453	4227
914.566	4451
914.68	4356
914.793	4284
914.906	4154
915.019	4105
915.132	4112
915.245	4188
915.358	4200
915.47	4238
915.583	4291
915.696	4284
915.809	4424
915.921	4398
916.034	4253
916.146	4227
916.259	4227
916.371	4375
916.483	4379
916.595	4253
916.708	4360
916.82	4344
916.932	4303
917.044	4325
917.156	4314
917.268	4211
917.38	4310
917.491	4287
917.603	4348
917.715	4413
917.826	4398
917.938	4341
918.049	4249
918.161	4379
918.272	4546
918.384	4527
918.495	4432
918.606	4303
918.717	4223
918.828	4356
918.939	4432
919.05	4223
919.161	4333
919.272	4135
919.383	4249
919.494	4424
919.604	4607
919.715	4421
919.826	4356
919.936	4367
920.047	4535
920.157	4508
920.267	4706
920.378	4565
920.488	4523
920.598	4691
920.708	4854
920.818	4752
920.928	4687
921.038	4904
921.148	4934
921.258	4615
921.368	4538
921.477	4474
921.587	4421
921.697	4390
921.806	4542
921.916	4428
922.025	4257
922.134	4276
922.244	4249
922.353	4371
922.462	4196
922.571	4173
922.68	3994
922.789	4025
922.898	4013
923.007	3949
923.116	4074
923.224	4044
923.333	4109
923.442	3991
923.55	3975
923.659	4040
923.767	4124
923.876	4029
923.984	4071
924.092	3987
924.201	4090
924.309	4112
924.417	4109
924.525	4029
924.633	4097
924.741	4908
924.849	3945
924.956	4135
925.064	3956
925.172	3907
925.279	3994
925.387	4048
925.494	4048
925.602	4185
925.709	4192
925.816	4021
925.924	4097
926.031	4234
926.138	4169
926.245	4169
926.352	4059
926.459	4227
926.566	4253
926.673	4158
926.779	4105
926.886	4082
926.993	3960
927.099	3896
927.206	3953
927.312	3918
927.419	4059
927.525	4006
927.631	4074
927.737	3934
927.843	3907
927.95	3838
928.056	3922
928.162	4025
928.267	4055
928.373	4565
928.479	4078
928.585	3857
928.69	4002
928.796	4040
928.901	3964
929.007	3842
929.112	3991
929.218	3964
929.323	3945
929.428	3922
929.533	4093
929.638	3907
929.743	3979
929.848	4017
929.953	3998
930.058	3968
930.163	3789
930.267	3789
930.372	4006
930.477	3846
930.581	4097
930.685	3945
930.79	3797
930.894	3876
930.998	3857
931.103	4029
931.207	3717
931.311	3679
931.415	3641
931.519	3523
931.623	3534
