Data from test_V78500241_2644.txt Node
Date: Fri Mar 25 17:07:23 CST 2022
User: usil
Spectrometer: V785-0024
Trigger mode: 0
Integration Time (sec): 4.000000E-1
Scans to average: 1
Nonlinearity correction enabled: false
Boxcar width: 0
Storing dark spectrum: false
XAxis mode: Wavelengths
Number of Pixels in Spectrum: 1024
>>>>>Begin Spectral Data<<<<<
801.071	8119
801.214	8043
801.356	7875
801.499	7807
801.641	7826
801.783	7837
801.926	7997
802.068	7978
802.211	8005
802.353	7986
802.496	7890
802.638	7928
802.78	7913
802.923	7959
803.065	7925
803.208	7849
803.35	7951
803.492	8077
803.635	8164
803.777	8081
803.919	8176
804.061	8408
804.204	8164
804.346	8081
804.488	7944
804.63	8103
804.773	7955
804.915	8161
805.057	8347
805.199	8149
805.341	8172
805.483	8339
805.626	8229
805.768	8100
805.91	8168
806.052	8176
806.194	8142
806.336	8275
806.478	8107
806.62	8012
806.762	8058
806.904	8214
807.046	8492
807.188	8358
807.33	8282
807.472	8263
807.614	8111
807.756	8145
807.898	8016
808.04	7795
808.182	7898
808.324	7887
808.465	7940
808.607	8123
808.749	8119
808.891	8142
809.033	8275
809.174	8187
809.316	8077
809.458	8096
809.6	8005
809.741	8050
809.883	7989
810.025	8149
810.166	8058
810.308	7997
810.45	7959
810.591	7826
810.733	7700
810.875	7670
811.016	7499
811.158	7400
811.299	7514
811.441	7685
811.582	7643
811.724	7567
811.865	7540
812.007	7620
812.148	7696
812.29	7609
812.431	7780
812.573	7856
812.714	7894
812.855	8077
812.997	8214
813.138	8282
813.279	8157
813.421	8043
813.562	7978
813.703	7868
813.845	7750
813.986	7472
814.127	7225
814.268	7202
814.41	7114
814.551	7190
814.692	7198
814.833	7069
814.974	7091
815.115	7133
815.256	6993
815.397	6871
815.539	6962
815.68	6806
815.821	6776
815.962	6928
816.103	6798
816.244	6696
816.385	6665
816.526	6612
816.666	6517
816.807	6334
816.948	6414
817.089	6433
817.23	6502
817.371	6395
817.512	6395
817.653	6384
817.793	6361
817.934	6456
818.075	6452
818.216	6410
818.356	6414
818.497	6209
818.638	6117
818.778	6175
818.919	6144
819.06	6091
819.2	6285
819.341	6361
819.481	6369
819.622	6498
819.762	6730
819.903	6726
820.043	6582
820.184	6582
820.324	6563
820.465	6669
820.605	6711
820.746	6646
820.886	6566
821.026	6688
821.167	6700
821.307	6795
821.447	6791
821.588	6658
821.728	6627
821.868	6483
822.008	6334
822.149	6365
822.289	6384
822.429	6129
822.569	6125
822.709	6087
822.849	5920
822.99	5908
823.13	5965
823.27	5939
823.41	5859
823.55	5783
823.69	5710
823.83	5741
823.97	5680
824.11	5547
824.25	5516
824.389	5608
824.529	5562
824.669	5524
824.809	5646
824.949	5665
825.089	5573
825.228	5532
825.368	5402
825.508	5318
825.648	5368
825.787	5417
825.927	5395
826.067	5364
826.206	5296
826.346	5364
826.485	5395
826.625	5383
826.765	5558
826.904	5520
827.044	5231
827.183	5277
827.323	5170
827.462	5261
827.601	5147
827.741	5242
827.88	5166
828.02	5083
828.159	5193
828.298	5318
828.437	5357
828.577	5299
828.716	5501
828.855	5326
828.994	5178
829.134	5132
829.273	5254
829.412	5094
829.551	5113
829.69	5128
829.829	5239
829.968	5299
830.107	5284
830.246	5261
830.385	5181
830.524	5155
830.663	5090
830.802	4976
830.941	4889
831.08	4831
831.219	4984
831.357	4938
831.496	5212
831.635	4900
831.774	4843
831.913	4809
832.051	4691
832.19	4691
832.329	4767
832.467	4698
832.606	4691
832.744	4725
832.883	4706
833.022	4755
833.16	4759
833.299	4771
833.437	4801
833.576	4816
833.714	4847
833.852	4911
833.991	4900
834.129	4923
834.267	4942
834.406	4877
834.544	4946
834.682	4991
834.821	4953
834.959	5102
835.097	4984
835.235	5223
835.373	5124
835.511	5098
835.65	5014
835.788	5056
835.926	4877
836.064	4877
836.202	4946
836.34	5136
836.478	5204
836.615	5113
836.753	5258
836.891	5277
837.029	5235
837.167	5174
837.305	5117
837.443	5060
837.58	5086
837.718	5261
837.856	5201
837.993	5174
838.131	5231
838.269	5220
838.406	5201
838.544	5201
838.681	5037
838.819	5025
838.956	4896
839.094	4900
839.231	4987
839.369	5094
839.506	5410
839.643	5296
839.781	5037
839.918	5003
840.055	5098
840.193	5071
840.33	5124
840.467	5136
840.604	5162
840.742	5471
840.879	5060
841.016	5113
841.153	5181
841.29	5402
841.427	5296
841.564	5307
841.701	5349
841.838	5254
841.975	5193
842.112	5265
842.249	5140
842.385	5124
842.522	5315
842.659	5140
842.796	5159
842.933	5174
843.069	5147
843.206	5132
843.343	5303
843.479	5258
843.616	5231
843.752	5071
843.889	5022
844.025	5242
844.162	5037
844.298	5223
844.435	5064
844.571	5060
844.708	5181
844.844	5334
844.98	5303
845.117	5292
845.253	5143
845.389	5079
845.525	5162
845.661	5185
845.798	5010
845.934	5197
846.07	5041
846.206	5174
846.342	5296
846.478	5193
846.614	5086
846.75	4953
846.886	4911
847.022	5136
847.158	5003
847.294	5094
847.429	5121
847.565	5060
847.701	5273
847.837	4843
847.972	4767
848.108	4965
848.244	4927
848.379	4763
848.515	4729
848.65	4755
848.786	4744
848.921	4778
849.057	4839
849.192	4908
849.328	4824
849.463	4839
849.598	4778
849.734	4714
849.869	4672
850.004	4656
850.14	4702
850.275	4622
850.41	4523
850.545	4531
850.68	4561
850.815	4569
850.95	4641
851.085	4854
851.22	4740
851.355	4592
851.49	4660
851.625	4584
851.76	4630
851.895	4546
852.03	4558
852.165	4668
852.299	4714
852.434	4839
852.569	4729
852.703	4767
852.838	4843
852.973	4957
853.107	4923
853.242	4694
853.376	4641
853.511	4527
853.645	4618
853.78	4809
853.914	4679
854.048	4664
854.183	4592
854.317	4656
854.451	4896
854.585	4672
854.72	4664
854.854	4694
854.988	4641
855.122	4618
855.256	4512
855.39	4675
855.524	4801
855.658	4740
855.792	4694
855.926	4771
856.06	4729
856.194	4820
856.327	4714
856.461	4630
856.595	4596
856.729	4592
856.862	4683
856.996	4679
857.13	4694
857.263	4694
857.397	4778
857.53	4641
857.664	4763
857.797	4717
857.931	4771
858.064	4664
858.197	4774
858.331	4649
858.464	4626
858.597	4489
858.731	4607
858.864	4649
858.997	4592
859.13	4622
859.263	4660
859.396	4694
859.529	4573
859.662	4565
859.795	4516
859.928	4607
860.061	4771
860.194	4755
860.327	4618
860.46	4561
860.592	4683
860.725	4691
860.858	4698
860.99	4565
861.123	4485
861.256	4550
861.388	4588
861.521	5402
861.653	4443
861.786	4432
861.918	4447
862.05	4558
862.183	4523
862.315	4573
862.447	4637
862.58	4531
862.712	4356
862.844	4268
862.976	4432
863.108	4451
863.24	4778
863.372	4337
863.504	4417
863.636	4386
863.768	4447
863.9	4421
864.032	4379
864.164	4417
864.296	4402
864.428	4516
864.559	4554
864.691	4493
864.823	4512
864.954	4466
865.086	4512
865.217	4402
865.349	4367
865.48	4474
865.612	4447
865.743	4637
865.875	4443
866.006	4421
866.137	4363
866.269	4440
866.4	4421
866.531	4394
866.662	4386
866.793	4432
866.924	4409
867.055	4527
867.186	4493
867.317	4413
867.448	4367
867.579	4379
867.71	4421
867.841	4348
867.972	4481
868.103	4481
868.233	4459
868.364	4478
868.495	4493
868.625	4630
868.756	4801
868.886	4607
869.017	4622
869.147	4847
869.278	4812
869.408	4645
869.539	4698
869.669	4687
869.799	4706
869.929	4744
870.06	4774
870.19	4938
870.32	4976
870.45	4942
870.58	5018
870.71	5128
870.84	5067
870.97	5003
871.1	4938
871.23	5181
871.36	5159
871.489	5075
871.619	5071
871.749	5064
871.879	5143
872.008	5250
872.138	5086
872.267	5033
872.397	4896
872.526	4809
872.656	4748
872.785	4870
872.915	4968
873.044	5033
873.173	4972
873.303	4999
873.432	4965
873.561	4987
873.69	4927
873.819	4927
873.948	4961
874.077	4866
874.206	4797
874.335	4866
874.464	4961
874.593	5102
874.722	4999
874.851	5143
874.979	5136
875.108	5079
875.237	4927
875.365	4911
875.494	4957
875.623	5014
875.751	4896
875.88	4911
876.008	5003
876.136	5121
876.265	5220
876.393	5436
876.521	5307
876.65	5296
876.778	5151
876.906	5086
877.034	5075
877.162	5029
877.29	5086
877.418	5098
877.546	5079
877.674	5090
877.802	5090
877.93	5029
878.058	4999
878.185	4946
878.313	4984
878.441	4942
878.568	4839
878.696	4908
878.824	5003
878.951	5041
879.079	5193
879.206	5322
879.333	5143
879.461	5006
879.588	5018
879.715	5151
879.842	5258
879.97	5060
880.097	4797
880.224	4801
880.351	4858
880.478	4862
880.605	4881
880.732	4782
880.859	5128
880.986	4961
881.112	4957
881.239	4816
881.366	4717
881.493	4626
881.619	4698
881.746	4660
881.872	4694
881.999	4702
882.125	4714
882.252	4824
882.378	4866
882.505	4938
882.631	4866
882.757	4729
882.883	4786
883.01	4763
883.136	4687
883.262	4622
883.388	4653
883.514	4816
883.64	4934
883.766	4839
883.892	4736
884.018	4717
884.143	4946
884.269	4999
884.395	4683
884.52	4637
884.646	4698
884.772	4622
884.897	4599
885.023	4721
885.148	4847
885.274	4927
885.399	4805
885.524	4733
885.65	4752
885.775	4759
885.9	4714
886.025	4866
886.15	4805
886.275	4744
886.4	4679
886.525	4774
886.65	4725
886.775	4733
886.9	4908
887.025	5033
887.149	4835
887.274	4702
887.399	4580
887.523	4630
887.648	4615
887.773	4573
887.897	4733
888.021	4752
888.146	4729
888.27	4870
888.395	4927
888.519	4816
888.643	4835
888.767	4839
888.891	4706
889.015	4660
889.139	4710
889.263	4626
889.387	4763
889.511	4896
889.635	4782
889.759	4660
889.883	4702
890.006	4771
890.13	4900
890.254	4656
890.377	4729
890.501	4546
890.624	4554
890.748	4672
890.871	4538
890.995	4447
891.118	4424
891.241	4558
891.364	4588
891.488	4653
891.611	4535
891.734	4569
891.857	4645
891.98	4580
892.103	4672
892.226	4603
892.349	4565
892.471	4451
892.594	4592
892.717	4637
892.839	4615
892.962	4691
893.085	4729
893.207	4626
893.33	4481
893.452	4584
893.575	4691
893.697	4615
893.819	4843
893.941	4911
894.064	4778
894.186	4580
894.308	4618
894.43	4778
894.552	4896
894.674	4786
894.796	4561
894.918	4611
895.04	4607
895.161	4767
895.283	4626
895.405	4653
895.526	4637
895.648	4740
895.769	4721
895.891	4771
896.012	4778
896.134	4748
896.255	4706
896.376	4656
896.498	4649
896.619	4687
896.74	4626
896.861	4698
896.982	4911
897.103	5083
897.224	4820
897.345	4767
897.466	4706
897.587	4740
897.708	4843
897.828	4801
897.949	4733
898.07	4622
898.19	4675
898.311	4873
898.431	4733
898.552	4744
898.672	4850
898.792	4820
898.913	4778
899.033	4645
899.153	4561
899.273	4493
899.393	4527
899.513	4546
899.633	4546
899.753	4580
899.873	4561
899.993	4622
900.113	4550
900.232	4599
900.352	4626
900.472	4565
900.591	4462
900.711	4481
900.83	4432
900.95	4645
901.069	4778
901.189	4584
901.308	4440
901.427	4341
901.546	4375
901.665	4504
901.784	4538
901.904	4379
902.023	4363
902.141	4185
902.26	4204
902.379	4318
902.498	4242
902.617	4295
902.735	4379
902.854	4409
902.973	4383
903.091	4234
903.21	4242
903.328	4371
903.446	4322
903.565	4299
903.683	4386
903.801	4272
903.919	4409
904.038	4462
904.156	4352
904.274	4459
904.392	4436
904.51	4428
904.627	4470
904.745	4584
904.863	4656
904.981	4428
905.098	4337
905.216	4386
905.334	4466
905.451	4474
905.569	4440
905.686	4558
905.803	4588
905.921	4436
906.038	4584
906.155	4462
906.272	4421
906.389	4493
906.506	4348
906.623	4398
906.74	4451
906.857	4322
906.974	4440
907.091	4561
907.208	4717
907.324	4592
907.441	4481
907.557	4386
907.674	4383
907.79	4333
907.907	4398
908.023	4523
908.139	4489
908.256	4459
908.372	4481
908.488	4485
908.604	4344
908.72	4375
908.836	4386
908.952	4405
909.068	4455
909.184	4554
909.3	4504
909.415	4603
909.531	4558
909.647	4386
909.762	4428
909.878	4363
909.993	4519
910.108	4481
910.224	4451
910.339	4535
910.454	4424
910.57	4390
910.685	4287
910.8	4721
910.915	4649
911.03	4554
911.145	4352
911.259	4352
911.374	4428
911.489	4325
911.604	4303
911.718	4204
911.833	4223
911.947	4086
912.062	4086
912.176	4253
912.291	4238
912.405	4280
912.519	4455
912.633	4508
912.748	4417
912.862	4333
912.976	4230
913.09	4112
913.204	4211
913.318	4253
913.431	4375
913.545	4440
913.659	4512
913.772	4424
913.886	4284
914	4253
914.113	4394
914.226	4485
914.34	4409
914.453	4242
914.566	4470
914.68	4337
914.793	4341
914.906	4166
915.019	4124
915.132	4082
915.245	4204
915.358	4238
915.47	4242
915.583	4276
915.696	4333
915.809	4383
915.921	4421
916.034	4306
916.146	4268
916.259	4238
916.371	4383
916.483	4367
916.595	4322
916.708	4295
916.82	4356
916.932	4352
917.044	4386
917.156	4329
917.268	4242
917.38	4295
917.491	4291
917.603	4379
917.715	4436
917.826	4436
917.938	4375
918.049	4242
918.161	4443
918.272	4622
918.384	4580
918.495	4478
918.606	4303
918.717	4280
918.828	4348
918.939	4394
919.05	4291
919.161	4344
919.272	4173
919.383	4257
919.494	4497
919.604	4637
919.715	4436
919.826	4402
919.936	4447
920.047	4542
920.157	4561
920.267	4729
920.378	4561
920.488	4535
920.598	4683
920.708	4923
920.818	4721
920.928	4748
921.038	4972
921.148	4919
921.258	4649
921.368	4618
921.477	4569
921.587	4504
921.697	4428
921.806	4538
921.916	4470
922.025	4287
922.134	4310
922.244	4242
922.353	4344
922.462	4230
922.571	4135
922.68	4048
922.789	4029
922.898	4040
923.007	4017
923.116	4086
923.224	4101
923.333	4116
923.442	4006
923.55	4002
923.659	4067
923.767	4112
923.876	3979
923.984	4112
924.092	4021
924.201	4109
924.309	4124
924.417	4135
924.525	4078
924.633	4177
924.741	5064
924.849	3930
924.956	4131
925.064	3968
925.172	3915
925.279	3960
925.387	4078
925.494	4090
925.602	4200
925.709	4192
925.816	4090
925.924	4143
926.031	4234
926.138	4143
926.245	4204
926.352	4090
926.459	4257
926.566	4287
926.673	4204
926.779	4109
926.886	4109
926.993	3953
927.099	4006
927.206	3937
927.312	3934
927.419	4055
927.525	4048
927.631	4097
927.737	4002
927.843	4002
927.95	3861
928.056	3949
928.162	3975
928.267	4097
928.373	4622
928.479	4128
928.585	3907
928.69	4032
928.796	4097
928.901	3972
929.007	3842
929.112	3991
929.218	4017
929.323	3994
929.428	3960
929.533	4112
929.638	3930
929.743	3953
929.848	4051
929.953	4021
930.058	3876
930.163	3781
930.267	3854
930.372	3972
930.477	3797
930.581	4120
930.685	3922
930.79	3800
930.894	3896
930.998	3884
931.103	4063
931.207	3732
931.311	3724
931.415	3698
931.519	3526
931.623	3538
