Data from test_V78500241_2002.txt Node
Date: Fri Mar 25 17:02:55 CST 2022
User: usil
Spectrometer: V785-0024
Trigger mode: 0
Integration Time (sec): 4.000000E-1
Scans to average: 1
Nonlinearity correction enabled: false
Boxcar width: 0
Storing dark spectrum: false
XAxis mode: Wavelengths
Number of Pixels in Spectrum: 1024
>>>>>Begin Spectral Data<<<<<
801.071	8069
801.214	7997
801.356	7921
801.499	7894
801.641	7868
801.783	7849
801.926	7963
802.068	7921
802.211	7963
802.353	8043
802.496	7830
802.638	7921
802.78	7898
802.923	7940
803.065	7860
803.208	7818
803.35	8016
803.492	8107
803.635	8164
803.777	7997
803.919	8138
804.061	8476
804.204	8202
804.346	8039
804.488	8020
804.63	8149
804.773	8012
804.915	8180
805.057	8298
805.199	8183
805.341	8286
805.483	8320
805.626	8210
805.768	8103
805.91	8233
806.052	8210
806.194	8100
806.336	8290
806.478	8134
806.62	8100
806.762	8206
806.904	8355
807.046	8549
807.188	8377
807.33	8317
807.472	8290
807.614	8195
807.756	8229
807.898	8012
808.04	7875
808.182	7906
808.324	7993
808.465	7936
808.607	8058
808.749	8084
808.891	8199
809.033	8271
809.174	8240
809.316	8134
809.458	8134
809.6	8077
809.741	8107
809.883	8065
810.025	8062
810.166	7982
810.308	8027
810.45	8005
810.591	7887
810.733	7750
810.875	7685
811.016	7590
811.158	7510
811.299	7586
811.441	7723
811.582	7693
811.724	7586
811.865	7594
812.007	7605
812.148	7597
812.29	7704
812.431	7746
812.573	7959
812.714	7932
812.855	8157
812.997	8168
813.138	8317
813.279	8168
813.421	8058
813.562	7955
813.703	7875
813.845	7738
813.986	7422
814.127	7240
814.268	7247
814.41	7263
814.551	7228
814.692	7206
814.833	7133
814.974	7095
815.115	7129
815.256	7050
815.397	6943
815.539	6909
815.68	6821
815.821	6825
815.962	6886
816.103	6791
816.244	6738
816.385	6620
816.526	6593
816.666	6525
816.807	6311
816.948	6494
817.089	6460
817.23	6441
817.371	6384
817.512	6426
817.653	6384
817.793	6376
817.934	6422
818.075	6509
818.216	6403
818.356	6426
818.497	6258
818.638	6178
818.778	6175
818.919	6133
819.06	6194
819.2	6323
819.341	6296
819.481	6376
819.622	6559
819.762	6772
819.903	6734
820.043	6593
820.184	6551
820.324	6601
820.465	6757
820.605	6681
820.746	6650
820.886	6589
821.026	6635
821.167	6730
821.307	6829
821.447	6791
821.588	6681
821.728	6574
821.868	6528
822.008	6338
822.149	6388
822.289	6357
822.429	6159
822.569	6121
822.709	6136
822.849	5916
822.99	5954
823.13	5939
823.27	5912
823.41	5756
823.55	5794
823.69	5805
823.83	5798
823.97	5646
824.11	5581
824.25	5478
824.389	5577
824.529	5630
824.669	5532
824.809	5691
824.949	5684
825.089	5627
825.228	5592
825.368	5421
825.508	5376
825.648	5402
825.787	5341
825.927	5398
826.067	5311
826.206	5242
826.346	5372
826.485	5433
826.625	5467
826.765	5543
826.904	5452
827.044	5246
827.183	5212
827.323	5067
827.462	5277
827.601	5189
827.741	5193
827.88	5204
828.02	5132
828.159	5273
828.298	5341
828.437	5406
828.577	5296
828.716	5490
828.855	5357
828.994	5159
829.134	5216
829.273	5208
829.412	5159
829.551	5121
829.69	5151
829.829	5254
829.968	5364
830.107	5299
830.246	5368
830.385	5239
830.524	5162
830.663	5094
830.802	4995
830.941	4908
831.08	4870
831.219	5006
831.357	4965
831.496	5185
831.635	4972
831.774	4843
831.913	4858
832.051	4740
832.19	4729
832.329	4854
832.467	4668
832.606	4626
832.744	4717
832.883	4733
833.022	4698
833.16	4793
833.299	4805
833.437	4850
833.576	4839
833.714	4850
833.852	4850
833.991	4927
834.129	4957
834.267	4938
834.406	4919
834.544	4995
834.682	5006
834.821	4972
834.959	5204
835.097	5025
835.235	5166
835.373	5094
835.511	5117
835.65	5045
835.788	5003
835.926	4953
836.064	4923
836.202	4927
836.34	5273
836.478	5239
836.615	5121
836.753	5227
836.891	5269
837.029	5318
837.167	5235
837.305	5204
837.443	5185
837.58	5109
837.718	5246
837.856	5227
837.993	5181
838.131	5239
838.269	5227
838.406	5151
838.544	5197
838.681	5098
838.819	4987
838.956	4919
839.094	4919
839.231	4980
839.369	5113
839.506	5436
839.643	5250
839.781	5041
839.918	4984
840.055	5117
840.193	5083
840.33	5132
840.467	5147
840.604	5212
840.742	5421
840.879	5094
841.016	5128
841.153	5151
841.29	5391
841.427	5357
841.564	5288
841.701	5345
841.838	5265
841.975	5231
842.112	5307
842.249	5170
842.385	5140
842.522	5349
842.659	5174
842.796	5147
842.933	5151
843.069	5170
843.206	5147
843.343	5296
843.479	5258
843.616	5258
843.752	5033
843.889	4999
844.025	5235
844.162	5041
844.298	5140
844.435	5113
844.571	5090
844.708	5254
844.844	5318
844.98	5345
845.117	5330
845.253	5212
845.389	5071
845.525	5208
845.661	5117
845.798	5067
845.934	5132
846.07	5083
846.206	5208
846.342	5303
846.478	5220
846.614	5064
846.75	4930
846.886	4987
847.022	5181
847.158	5010
847.294	5098
847.429	5109
847.565	5098
847.701	5345
847.837	4938
847.972	4805
848.108	4965
848.244	4957
848.379	4801
848.515	4767
848.65	4778
848.786	4771
848.921	4820
849.057	4904
849.192	4843
849.328	4858
849.463	4862
849.598	4839
849.734	4790
849.869	4653
850.004	4630
850.14	4660
850.275	4649
850.41	4538
850.545	4577
850.68	4630
850.815	4668
850.95	4645
851.085	4862
851.22	4752
851.355	4736
851.49	4622
851.625	4596
851.76	4668
851.895	4569
852.03	4561
852.165	4683
852.299	4759
852.434	4809
852.569	4721
852.703	4820
852.838	4847
852.973	4942
853.107	4938
853.242	4733
853.376	4672
853.511	4573
853.645	4592
853.78	4809
853.914	4698
854.048	4660
854.183	4698
854.317	4683
854.451	4831
854.585	4656
854.72	4641
854.854	4698
854.988	4618
855.122	4698
855.256	4542
855.39	4660
855.524	4801
855.658	4710
855.792	4679
855.926	4694
856.06	4752
856.194	4850
856.327	4691
856.461	4592
856.595	4653
856.729	4626
856.862	4752
856.996	4691
857.13	4767
857.263	4843
857.397	4793
857.53	4607
857.664	4729
857.797	4778
857.931	4740
858.064	4725
858.197	4740
858.331	4702
858.464	4622
858.597	4542
858.731	4626
858.864	4660
858.997	4603
859.13	4683
859.263	4706
859.396	4717
859.529	4588
859.662	4580
859.795	4550
859.928	4565
860.061	4744
860.194	4774
860.327	4634
860.46	4554
860.592	4714
860.725	4706
860.858	4687
860.99	4618
861.123	4550
861.256	4569
861.388	4630
861.521	5181
861.653	4504
861.786	4474
861.918	4478
862.05	4523
862.183	4569
862.315	4687
862.447	4641
862.58	4516
862.712	4405
862.844	4383
862.976	4489
863.108	4462
863.24	4774
863.372	4390
863.504	4443
863.636	4413
863.768	4417
863.9	4497
864.032	4360
864.164	4409
864.296	4538
864.428	4561
864.559	4588
864.691	4519
864.823	4538
864.954	4554
865.086	4523
865.217	4436
865.349	4421
865.48	4459
865.612	4466
865.743	4611
865.875	4424
866.006	4443
866.137	4424
866.269	4459
866.4	4470
866.531	4413
866.662	4405
866.793	4424
866.924	4432
867.055	4504
867.186	4459
867.317	4451
867.448	4375
867.579	4417
867.71	4417
867.841	4356
867.972	4436
868.103	4474
868.233	4443
868.364	4466
868.495	4493
868.625	4634
868.756	4755
868.886	4603
869.017	4630
869.147	4805
869.278	4759
869.408	4679
869.539	4592
869.669	4763
869.799	4668
869.929	4748
870.06	4721
870.19	4957
870.32	4930
870.45	4915
870.58	4999
870.71	5109
870.84	5102
870.97	4896
871.1	4885
871.23	5143
871.36	5128
871.489	5102
871.619	5048
871.749	5140
871.879	5083
872.008	5189
872.138	5083
872.267	4980
872.397	4877
872.526	4793
872.656	4698
872.785	4820
872.915	4957
873.044	5117
873.173	4946
873.303	4980
873.432	4976
873.561	4968
873.69	4900
873.819	4812
873.948	4892
874.077	4820
874.206	4752
874.335	4786
874.464	4957
874.593	5052
874.722	4968
874.851	5128
874.979	5075
875.108	5060
875.237	4877
875.365	4858
875.494	4908
875.623	4946
875.751	4831
875.88	4892
876.008	4987
876.136	5029
876.265	5189
876.393	5326
876.521	5227
876.65	5193
876.778	5128
876.906	5071
877.034	5056
877.162	5033
877.29	4953
877.418	5037
877.546	5060
877.674	5014
877.802	5048
877.93	5052
878.058	4927
878.185	4896
878.313	4957
878.441	4984
878.568	4820
878.696	4896
878.824	4942
878.951	5025
879.079	5128
879.206	5273
879.333	5045
879.461	4987
879.588	5033
879.715	5094
879.842	5220
879.97	4999
880.097	4771
880.224	4755
880.351	4801
880.478	4820
880.605	4778
880.732	4839
880.859	5113
880.986	4870
881.112	4938
881.239	4729
881.366	4668
881.493	4607
881.619	4592
881.746	4637
881.872	4626
881.999	4660
882.125	4641
882.252	4771
882.378	4778
882.505	4961
882.631	4866
882.757	4683
882.883	4752
883.01	4736
883.136	4675
883.262	4618
883.388	4653
883.514	4797
883.64	4824
883.766	4782
883.892	4653
884.018	4687
884.143	4885
884.269	5006
884.395	4717
884.52	4596
884.646	4664
884.772	4554
884.897	4592
885.023	4664
885.148	4774
885.274	4858
885.399	4820
885.524	4740
885.65	4729
885.775	4736
885.9	4759
886.025	4908
886.15	4797
886.275	4725
886.4	4641
886.525	4721
886.65	4607
886.775	4672
886.9	4900
887.025	5006
887.149	4881
887.274	4630
887.399	4561
887.523	4618
887.648	4592
887.773	4599
887.897	4763
888.021	4797
888.146	4668
888.27	4835
888.395	4850
888.519	4816
888.643	4831
888.767	4809
888.891	4710
889.015	4569
889.139	4687
889.263	4607
889.387	4721
889.511	4847
889.635	4790
889.759	4683
889.883	4649
890.006	4767
890.13	4809
890.254	4580
890.377	4691
890.501	4538
890.624	4493
890.748	4634
890.871	4500
890.995	4466
891.118	4379
891.241	4474
891.364	4531
891.488	4626
891.611	4542
891.734	4519
891.857	4577
891.98	4538
892.103	4641
892.226	4584
892.349	4485
892.471	4428
892.594	4550
892.717	4634
892.839	4546
892.962	4592
893.085	4675
893.207	4615
893.33	4478
893.452	4500
893.575	4653
893.697	4592
893.819	4782
893.941	4839
894.064	4748
894.186	4577
894.308	4573
894.43	4698
894.552	4786
894.674	4752
894.796	4542
894.918	4599
895.04	4546
895.161	4721
895.283	4645
895.405	4580
895.526	4637
895.648	4698
895.769	4683
895.891	4694
896.012	4721
896.134	4691
896.255	4664
896.376	4641
896.498	4573
896.619	4721
896.74	4618
896.861	4675
896.982	4953
897.103	5064
897.224	4809
897.345	4755
897.466	4656
897.587	4675
897.708	4847
897.828	4774
897.949	4664
898.07	4550
898.19	4634
898.311	4778
898.431	4691
898.552	4744
898.672	4839
898.792	4812
898.913	4782
899.033	4634
899.153	4497
899.273	4394
899.393	4516
899.513	4474
899.633	4535
899.753	4542
899.873	4500
899.993	4599
900.113	4546
900.232	4607
900.352	4538
900.472	4474
900.591	4432
900.711	4489
900.83	4379
900.95	4599
901.069	4694
901.189	4550
901.308	4375
901.427	4341
901.546	4356
901.665	4451
901.784	4493
901.904	4390
902.023	4352
902.141	4196
902.26	4192
902.379	4287
902.498	4280
902.617	4246
902.735	4405
902.854	4360
902.973	4344
903.091	4204
903.21	4238
903.328	4329
903.446	4234
903.565	4253
903.683	4318
903.801	4249
903.919	4398
904.038	4447
904.156	4314
904.274	4470
904.392	4322
904.51	4466
904.627	4485
904.745	4588
904.863	4618
904.981	4371
905.098	4314
905.216	4333
905.334	4394
905.451	4436
905.569	4447
905.686	4527
905.803	4577
905.921	4424
906.038	4565
906.155	4428
906.272	4360
906.389	4462
906.506	4344
906.623	4333
906.74	4405
906.857	4280
906.974	4356
907.091	4542
907.208	4660
907.324	4588
907.441	4459
907.557	4310
907.674	4325
907.79	4375
907.907	4352
908.023	4523
908.139	4424
908.256	4451
908.372	4481
908.488	4451
908.604	4356
908.72	4318
908.836	4344
908.952	4341
909.068	4428
909.184	4519
909.3	4478
909.415	4611
909.531	4588
909.647	4322
909.762	4341
909.878	4318
909.993	4485
910.108	4409
910.224	4398
910.339	4489
910.454	4447
910.57	4367
910.685	4306
910.8	4672
910.915	4641
911.03	4531
911.145	4341
911.259	4299
911.374	4394
911.489	4280
911.604	4280
911.718	4162
911.833	4234
911.947	4109
912.062	4078
912.176	4211
912.291	4280
912.405	4276
912.519	4466
912.633	4500
912.748	4379
912.862	4295
912.976	4162
913.09	4101
913.204	4204
913.318	4249
913.431	4348
913.545	4386
913.659	4394
913.772	4356
913.886	4272
914	4238
914.113	4371
914.226	4474
914.34	4409
914.453	4249
914.566	4436
914.68	4280
914.793	4325
914.906	4112
915.019	4135
915.132	4074
915.245	4204
915.358	4188
915.47	4280
915.583	4268
915.696	4280
915.809	4405
915.921	4383
916.034	4257
916.146	4238
916.259	4215
916.371	4402
916.483	4367
916.595	4280
916.708	4310
916.82	4310
916.932	4341
917.044	4306
917.156	4333
917.268	4215
917.38	4287
917.491	4291
917.603	4344
917.715	4417
917.826	4424
917.938	4318
918.049	4215
918.161	4379
918.272	4542
918.384	4573
918.495	4413
918.606	4227
918.717	4200
918.828	4291
918.939	4356
919.05	4249
919.161	4314
919.272	4109
919.383	4204
919.494	4390
919.604	4607
919.715	4447
919.826	4303
919.936	4383
920.047	4523
920.157	4455
920.267	4714
920.378	4531
920.488	4523
920.598	4710
920.708	4885
920.818	4721
920.928	4790
921.038	4946
921.148	4858
921.258	4607
921.368	4580
921.477	4474
921.587	4462
921.697	4325
921.806	4550
921.916	4459
922.025	4261
922.134	4234
922.244	4196
922.353	4379
922.462	4227
922.571	4139
922.68	4010
922.789	3991
922.898	4063
923.007	4002
923.116	4097
923.224	4071
923.333	4063
923.442	3983
923.55	3972
923.659	4021
923.767	4093
923.876	3979
923.984	4120
924.092	3987
924.201	4051
924.309	4048
924.417	4074
924.525	4055
924.633	4090
924.741	5064
924.849	3934
924.956	4147
925.064	3945
925.172	3892
925.279	3953
925.387	4044
925.494	4055
925.602	4227
925.709	4204
925.816	4040
925.924	4101
926.031	4204
926.138	4154
926.245	4223
926.352	4055
926.459	4230
926.566	4295
926.673	4124
926.779	4067
926.886	4086
926.993	4010
927.099	3960
927.206	3934
927.312	3926
927.419	4044
927.525	4029
927.631	4044
927.737	3975
927.843	3975
927.95	3816
928.056	3937
928.162	4006
928.267	4055
928.373	4561
928.479	4128
928.585	3892
928.69	4025
928.796	4078
928.901	3979
929.007	3812
929.112	3998
929.218	3979
929.323	3968
929.428	3941
929.533	4128
929.638	3918
929.743	3960
929.848	4067
929.953	3972
930.058	3911
930.163	3755
930.267	3865
930.372	3968
930.477	3793
930.581	4082
930.685	3941
930.79	3781
930.894	3903
930.998	3846
931.103	4002
931.207	3667
931.311	3698
931.415	3679
931.519	3549
931.623	3519
