Data from test_V78500241_2799.txt Node
Date: Fri Mar 25 17:08:27 CST 2022
User: usil
Spectrometer: V785-0024
Trigger mode: 0
Integration Time (sec): 4.000000E-1
Scans to average: 1
Nonlinearity correction enabled: false
Boxcar width: 0
Storing dark spectrum: false
XAxis mode: Wavelengths
Number of Pixels in Spectrum: 1024
>>>>>Begin Spectral Data<<<<<
801.071	8005
801.214	7986
801.356	7875
801.499	7860
801.641	7814
801.783	7883
801.926	8039
802.068	7898
802.211	7970
802.353	7947
802.496	7879
802.638	7925
802.78	7906
802.923	7959
803.065	7852
803.208	7814
803.35	7963
803.492	8092
803.635	8157
803.777	8001
803.919	8115
804.061	8343
804.204	8119
804.346	8138
804.488	7978
804.63	8077
804.773	8039
804.915	8058
805.057	8229
805.199	8187
805.341	8206
805.483	8267
805.626	8218
805.768	8103
805.91	8172
806.052	8244
806.194	8111
806.336	8328
806.478	8126
806.62	8084
806.762	8130
806.904	8221
807.046	8427
807.188	8393
807.33	8290
807.472	8320
807.614	8195
807.756	8126
807.898	8008
808.04	7871
808.182	7826
808.324	7883
808.465	7932
808.607	8073
808.749	8168
808.891	8237
809.033	8286
809.174	8252
809.316	8100
809.458	8020
809.6	7963
809.741	8043
809.883	8005
810.025	8172
810.166	8016
810.308	8096
810.45	8062
810.591	7868
810.733	7788
810.875	7689
811.016	7578
811.158	7480
811.299	7525
811.441	7708
811.582	7693
811.724	7605
811.865	7571
812.007	7628
812.148	7578
812.29	7620
812.431	7788
812.573	7887
812.714	8005
812.855	8111
812.997	8210
813.138	8301
813.279	8218
813.421	8138
813.562	8005
813.703	7837
813.845	7776
813.986	7480
814.127	7244
814.268	7255
814.41	7266
814.551	7168
814.692	7228
814.833	7080
814.974	7107
815.115	7091
815.256	6985
815.397	6966
815.539	6958
815.68	6837
815.821	6783
815.962	6928
816.103	6913
816.244	6757
816.385	6616
816.526	6631
816.666	6509
816.807	6350
816.948	6441
817.089	6452
817.23	6460
817.371	6342
817.512	6315
817.653	6357
817.793	6273
817.934	6395
818.075	6422
818.216	6506
818.356	6395
818.497	6243
818.638	6152
818.778	6175
818.919	6148
819.06	6167
819.2	6323
819.341	6319
819.481	6369
819.622	6563
819.762	6749
819.903	6726
820.043	6582
820.184	6616
820.324	6604
820.465	6662
820.605	6688
820.746	6658
820.886	6513
821.026	6684
821.167	6715
821.307	6810
821.447	6726
821.588	6658
821.728	6525
821.868	6448
822.008	6296
822.149	6395
822.289	6334
822.429	6152
822.569	6079
822.709	6209
822.849	5901
822.99	5889
823.13	5885
823.27	5946
823.41	5733
823.55	5767
823.69	5836
823.83	5783
823.97	5714
824.11	5509
824.25	5543
824.389	5570
824.529	5562
824.669	5516
824.809	5627
824.949	5668
825.089	5589
825.228	5532
825.368	5410
825.508	5349
825.648	5360
825.787	5341
825.927	5360
826.067	5334
826.206	5258
826.346	5383
826.485	5417
826.625	5410
826.765	5520
826.904	5512
827.044	5231
827.183	5143
827.323	5121
827.462	5254
827.601	5181
827.741	5174
827.88	5220
828.02	5124
828.159	5220
828.298	5345
828.437	5296
828.577	5258
828.716	5463
828.855	5299
828.994	5162
829.134	5159
829.273	5159
829.412	5124
829.551	5090
829.69	5178
829.829	5235
829.968	5345
830.107	5254
830.246	5318
830.385	5227
830.524	5155
830.663	5064
830.802	4984
830.941	4927
831.08	4824
831.219	5014
831.357	4957
831.496	5162
831.635	4949
831.774	4831
831.913	4831
832.051	4694
832.19	4729
832.329	4786
832.467	4641
832.606	4634
832.744	4740
832.883	4706
833.022	4763
833.16	4820
833.299	4839
833.437	4790
833.576	4850
833.714	4858
833.852	4904
833.991	4892
834.129	4938
834.267	4927
834.406	4870
834.544	4968
834.682	4942
834.821	4995
834.959	5181
835.097	4968
835.235	5113
835.373	5075
835.511	5094
835.65	5006
835.788	4999
835.926	4812
836.064	4896
836.202	4949
836.34	5143
836.478	5254
836.615	5170
836.753	5216
836.891	5315
837.029	5201
837.167	5174
837.305	5174
837.443	5128
837.58	5102
837.718	5231
837.856	5223
837.993	5155
838.131	5242
838.269	5193
838.406	5124
838.544	5223
838.681	5006
838.819	4999
838.956	4923
839.094	4892
839.231	4976
839.369	5121
839.506	5406
839.643	5242
839.781	5014
839.918	5029
840.055	5071
840.193	5060
840.33	5075
840.467	5102
840.604	5189
840.742	5414
840.879	5083
841.016	5090
841.153	5124
841.29	5406
841.427	5383
841.564	5315
841.701	5345
841.838	5254
841.975	5261
842.112	5261
842.249	5151
842.385	5098
842.522	5318
842.659	5174
842.796	5117
842.933	5223
843.069	5147
843.206	5166
843.343	5311
843.479	5204
843.616	5307
843.752	5033
843.889	5045
844.025	5193
844.162	5022
844.298	5208
844.435	5128
844.571	5048
844.708	5162
844.844	5265
844.98	5311
845.117	5284
845.253	5098
845.389	5079
845.525	5185
845.661	5121
845.798	5048
845.934	5109
846.07	5022
846.206	5193
846.342	5292
846.478	5181
846.614	5048
846.75	5022
846.886	4934
847.022	5128
847.158	5010
847.294	5041
847.429	5098
847.565	5052
847.701	5330
847.837	4843
847.972	4877
848.108	4968
848.244	4938
848.379	4755
848.515	4714
848.65	4714
848.786	4744
848.921	4797
849.057	4889
849.192	4862
849.328	4786
849.463	4839
849.598	4786
849.734	4755
849.869	4672
850.004	4645
850.14	4656
850.275	4634
850.41	4504
850.545	4561
850.68	4607
850.815	4645
850.95	4611
851.085	4831
851.22	4744
851.355	4687
851.49	4577
851.625	4641
851.76	4634
851.895	4531
852.03	4516
852.165	4641
852.299	4706
852.434	4790
852.569	4748
852.703	4771
852.838	4824
852.973	4953
853.107	4923
853.242	4774
853.376	4714
853.511	4535
853.645	4592
853.78	4809
853.914	4702
854.048	4691
854.183	4626
854.317	4710
854.451	4881
854.585	4679
854.72	4660
854.854	4740
854.988	4596
855.122	4626
855.256	4561
855.39	4698
855.524	4733
855.658	4721
855.792	4691
855.926	4660
856.06	4733
856.194	4767
856.327	4668
856.461	4573
856.595	4618
856.729	4611
856.862	4755
856.996	4702
857.13	4744
857.263	4744
857.397	4831
857.53	4653
857.664	4706
857.797	4748
857.931	4755
858.064	4687
858.197	4759
858.331	4611
858.464	4626
858.597	4558
858.731	4672
858.864	4679
858.997	4558
859.13	4645
859.263	4649
859.396	4714
859.529	4573
859.662	4527
859.795	4504
859.928	4618
860.061	4694
860.194	4797
860.327	4588
860.46	4558
860.592	4687
860.725	4691
860.858	4675
860.99	4561
861.123	4512
861.256	4497
861.388	4603
861.521	5277
861.653	4508
861.786	4497
861.918	4440
862.05	4504
862.183	4531
862.315	4588
862.447	4577
862.58	4519
862.712	4409
862.844	4303
862.976	4493
863.108	4421
863.24	4778
863.372	4356
863.504	4409
863.636	4432
863.768	4523
863.9	4436
864.032	4383
864.164	4398
864.296	4470
864.428	4542
864.559	4577
864.691	4519
864.823	4527
864.954	4519
865.086	4500
865.217	4447
865.349	4436
865.48	4466
865.612	4485
865.743	4618
865.875	4470
866.006	4386
866.137	4443
866.269	4447
866.4	4455
866.531	4421
866.662	4432
866.793	4424
866.924	4428
867.055	4485
867.186	4474
867.317	4432
867.448	4375
867.579	4383
867.71	4394
867.841	4367
867.972	4459
868.103	4455
868.233	4447
868.364	4455
868.495	4500
868.625	4626
868.756	4790
868.886	4603
869.017	4653
869.147	4771
869.278	4801
869.408	4641
869.539	4660
869.669	4729
869.799	4630
869.929	4744
870.06	4736
870.19	4957
870.32	4889
870.45	4946
870.58	4987
870.71	5109
870.84	5064
870.97	4972
871.1	4870
871.23	5121
871.36	5159
871.489	5018
871.619	5083
871.749	5102
871.879	5086
872.008	5162
872.138	5041
872.267	5006
872.397	4858
872.526	4778
872.656	4736
872.785	4778
872.915	4949
873.044	5033
873.173	4968
873.303	4980
873.432	4965
873.561	4957
873.69	4873
873.819	4877
873.948	4923
874.077	4801
874.206	4763
874.335	4763
874.464	4908
874.593	5045
874.722	4919
874.851	5052
874.979	5060
875.108	5060
875.237	4927
875.365	4881
875.494	4889
875.623	4961
875.751	4816
875.88	4858
876.008	4999
876.136	5048
876.265	5204
876.393	5379
876.521	5254
876.65	5231
876.778	5174
876.906	5056
877.034	5014
877.162	5022
877.29	4957
877.418	5037
877.546	5033
877.674	5060
877.802	5067
877.93	5003
878.058	4892
878.185	4904
878.313	5010
878.441	4915
878.568	4801
878.696	4885
878.824	4968
878.951	4961
879.079	5102
879.206	5288
879.333	5060
879.461	5006
879.588	5010
879.715	5136
879.842	5220
879.97	4984
880.097	4748
880.224	4721
880.351	4786
880.478	4793
880.605	4778
880.732	4782
880.859	5079
880.986	4942
881.112	4953
881.239	4797
881.366	4672
881.493	4588
881.619	4618
881.746	4634
881.872	4683
881.999	4660
882.125	4679
882.252	4759
882.378	4828
882.505	4972
882.631	4801
882.757	4698
882.883	4733
883.01	4721
883.136	4683
883.262	4626
883.388	4588
883.514	4862
883.64	4854
883.766	4801
883.892	4637
884.018	4714
884.143	4919
884.269	5067
884.395	4698
884.52	4653
884.646	4596
884.772	4607
884.897	4565
885.023	4584
885.148	4816
885.274	4870
885.399	4759
885.524	4740
885.65	4736
885.775	4733
885.9	4733
886.025	4873
886.15	4805
886.275	4759
886.4	4679
886.525	4763
886.65	4691
886.775	4641
886.9	4850
887.025	5025
887.149	4831
887.274	4615
887.399	4542
887.523	4588
887.648	4599
887.773	4565
887.897	4744
888.021	4797
888.146	4675
888.27	4824
888.395	4915
888.519	4786
888.643	4839
888.767	4809
888.891	4698
889.015	4615
889.139	4637
889.263	4611
889.387	4774
889.511	4839
889.635	4885
889.759	4618
889.883	4634
890.006	4729
890.13	4870
890.254	4611
890.377	4645
890.501	4527
890.624	4519
890.748	4637
890.871	4493
890.995	4421
891.118	4421
891.241	4489
891.364	4561
891.488	4603
891.611	4512
891.734	4577
891.857	4596
891.98	4569
892.103	4599
892.226	4569
892.349	4538
892.471	4409
892.594	4565
892.717	4561
892.839	4546
892.962	4599
893.085	4615
893.207	4561
893.33	4436
893.452	4523
893.575	4656
893.697	4546
893.819	4778
893.941	4839
894.064	4759
894.186	4565
894.308	4523
894.43	4725
894.552	4793
894.674	4740
894.796	4592
894.918	4618
895.04	4554
895.161	4717
895.283	4679
895.405	4580
895.526	4645
895.648	4721
895.769	4694
895.891	4687
896.012	4736
896.134	4767
896.255	4645
896.376	4653
896.498	4592
896.619	4714
896.74	4599
896.861	4656
896.982	4908
897.103	5117
897.224	4847
897.345	4778
897.466	4698
897.587	4717
897.708	4797
897.828	4790
897.949	4679
898.07	4561
898.19	4656
898.311	4809
898.431	4710
898.552	4653
898.672	4812
898.792	4805
898.913	4721
899.033	4615
899.153	4535
899.273	4485
899.393	4500
899.513	4546
899.633	4523
899.753	4550
899.873	4527
899.993	4569
900.113	4535
900.232	4603
900.352	4516
900.472	4519
900.591	4432
900.711	4462
900.83	4466
900.95	4599
901.069	4694
901.189	4523
901.308	4348
901.427	4363
901.546	4417
901.665	4462
901.784	4508
901.904	4405
902.023	4333
902.141	4227
902.26	4173
902.379	4318
902.498	4261
902.617	4230
902.735	4402
902.854	4348
902.973	4386
903.091	4211
903.21	4257
903.328	4291
903.446	4276
903.565	4253
903.683	4375
903.801	4230
903.919	4367
904.038	4440
904.156	4276
904.274	4436
904.392	4436
904.51	4428
904.627	4500
904.745	4561
904.863	4615
904.981	4394
905.098	4280
905.216	4341
905.334	4451
905.451	4462
905.569	4459
905.686	4538
905.803	4561
905.921	4428
906.038	4618
906.155	4470
906.272	4428
906.389	4462
906.506	4348
906.623	4363
906.74	4363
906.857	4303
906.974	4398
907.091	4580
907.208	4691
907.324	4603
907.441	4527
907.557	4341
907.674	4356
907.79	4325
907.907	4360
908.023	4451
908.139	4489
908.256	4428
908.372	4459
908.488	4451
908.604	4348
908.72	4348
908.836	4367
908.952	4360
909.068	4405
909.184	4592
909.3	4474
909.415	4569
909.531	4565
909.647	4344
909.762	4386
909.878	4386
909.993	4489
910.108	4432
910.224	4409
910.339	4455
910.454	4417
910.57	4356
910.685	4287
910.8	4641
910.915	4538
911.03	4485
911.145	4329
911.259	4299
911.374	4363
911.489	4272
911.604	4284
911.718	4215
911.833	4268
911.947	4067
912.062	4040
912.176	4166
912.291	4238
912.405	4227
912.519	4417
912.633	4481
912.748	4371
912.862	4310
912.976	4173
913.09	4071
913.204	4185
913.318	4242
913.431	4371
913.545	4367
913.659	4432
913.772	4348
913.886	4284
914	4238
914.113	4402
914.226	4443
914.34	4394
914.453	4234
914.566	4474
914.68	4318
914.793	4352
914.906	4154
915.019	4139
915.132	4086
915.245	4188
915.358	4223
915.47	4219
915.583	4268
915.696	4287
915.809	4394
915.921	4455
916.034	4246
916.146	4268
916.259	4211
916.371	4360
916.483	4371
916.595	4253
916.708	4314
916.82	4325
916.932	4303
917.044	4383
917.156	4306
917.268	4204
917.38	4265
917.491	4276
917.603	4352
917.715	4428
917.826	4424
917.938	4329
918.049	4234
918.161	4405
918.272	4523
918.384	4558
918.495	4489
918.606	4322
918.717	4230
918.828	4322
918.939	4360
919.05	4249
919.161	4280
919.272	4131
919.383	4249
919.494	4432
919.604	4660
919.715	4424
919.826	4337
919.936	4386
920.047	4527
920.157	4500
920.267	4664
920.378	4592
920.488	4512
920.598	4717
920.708	4877
920.818	4706
920.928	4759
921.038	4946
921.148	4991
921.258	4596
921.368	4561
921.477	4485
921.587	4462
921.697	4398
921.806	4577
921.916	4440
922.025	4295
922.134	4238
922.244	4230
922.353	4329
922.462	4181
922.571	4131
922.68	4021
922.789	3987
922.898	4059
923.007	3994
923.116	4112
923.224	4040
923.333	4097
923.442	3960
923.55	3956
923.659	3991
923.767	4093
923.876	4002
923.984	4139
924.092	3994
924.201	4093
924.309	4090
924.417	4128
924.525	4090
924.633	4101
924.741	4892
924.849	3941
924.956	4101
925.064	3922
925.172	3884
925.279	4006
925.387	4063
925.494	4059
925.602	4223
925.709	4192
925.816	4017
925.924	4166
926.031	4185
926.138	4196
926.245	4223
926.352	4135
926.459	4246
926.566	4287
926.673	4154
926.779	4082
926.886	4074
926.993	3968
927.099	3975
927.206	3899
927.312	3922
927.419	4074
927.525	4029
927.631	4086
927.737	3979
927.843	3975
927.95	3861
928.056	3953
928.162	4006
928.267	4112
928.373	4748
928.479	4105
928.585	3937
928.69	4006
928.796	4090
928.901	3994
929.007	3884
929.112	4055
929.218	3972
929.323	3949
929.428	3975
929.533	4105
929.638	3922
929.743	4006
929.848	4040
929.953	4002
930.058	3937
930.163	3797
930.267	3800
930.372	4002
930.477	3789
930.581	4101
930.685	3896
930.79	3816
930.894	3899
930.998	3865
931.103	4051
931.207	3713
931.311	3709
931.415	3682
931.519	3511
931.623	3515
