Data from test_V78500241_1697.txt Node
Date: Fri Mar 25 17:00:48 CST 2022
User: usil
Spectrometer: V785-0024
Trigger mode: 0
Integration Time (sec): 4.000000E-1
Scans to average: 1
Nonlinearity correction enabled: false
Boxcar width: 0
Storing dark spectrum: false
XAxis mode: Wavelengths
Number of Pixels in Spectrum: 1024
>>>>>Begin Spectral Data<<<<<
801.071	7959
801.214	7993
801.356	7811
801.499	7898
801.641	7776
801.783	7814
801.926	7936
802.068	7887
802.211	8043
802.353	7970
802.496	7879
802.638	7875
802.78	7902
802.923	7909
803.065	7890
803.208	7830
803.35	7947
803.492	8119
803.635	8164
803.777	8054
803.919	8126
804.061	8446
804.204	8138
804.346	7989
804.488	7989
804.63	8020
804.773	8065
804.915	8065
805.057	8267
805.199	8153
805.341	8161
805.483	8244
805.626	8225
805.768	8100
805.91	8149
806.052	8210
806.194	8073
806.336	8183
806.478	8092
806.62	8031
806.762	8138
806.904	8240
807.046	8431
807.188	8339
807.33	8267
807.472	8225
807.614	8149
807.756	8161
807.898	7947
808.04	7864
808.182	7894
808.324	7864
808.465	7944
808.607	8039
808.749	8111
808.891	8149
809.033	8244
809.174	8172
809.316	8050
809.458	8031
809.6	8008
809.741	7989
809.883	8046
810.025	8126
810.166	8073
810.308	7955
810.45	8039
810.591	7795
810.733	7696
810.875	7655
811.016	7514
811.158	7495
811.299	7613
811.441	7742
811.582	7700
811.724	7578
811.865	7537
812.007	7499
812.148	7578
812.29	7655
812.431	7757
812.573	7860
812.714	7982
812.855	8157
812.997	8248
813.138	8301
813.279	8180
813.421	8016
813.562	7887
813.703	7856
813.845	7670
813.986	7472
814.127	7266
814.268	7217
814.41	7103
814.551	7179
814.692	7221
814.833	7164
814.974	7072
815.115	7053
815.256	6981
815.397	6954
815.539	6954
815.68	6764
815.821	6745
815.962	6829
816.103	6772
816.244	6662
816.385	6585
816.526	6578
816.666	6460
816.807	6353
816.948	6452
817.089	6486
817.23	6410
817.371	6353
817.512	6372
817.653	6403
817.793	6384
817.934	6376
818.075	6479
818.216	6418
818.356	6418
818.497	6273
818.638	6083
818.778	6159
818.919	6144
819.06	6197
819.2	6289
819.341	6277
819.481	6308
819.622	6604
819.762	6715
819.903	6700
820.043	6616
820.184	6601
820.324	6566
820.465	6692
820.605	6639
820.746	6604
820.886	6471
821.026	6681
821.167	6684
821.307	6814
821.447	6757
821.588	6642
821.728	6540
821.868	6498
822.008	6331
822.149	6319
822.289	6391
822.429	6178
822.569	6064
822.709	6076
822.849	5882
822.99	5904
823.13	5935
823.27	5939
823.41	5783
823.55	5775
823.69	5752
823.83	5756
823.97	5657
824.11	5554
824.25	5501
824.389	5501
824.529	5589
824.669	5539
824.809	5592
824.949	5623
825.089	5608
825.228	5543
825.368	5330
825.508	5383
825.648	5334
825.787	5368
825.927	5372
826.067	5303
826.206	5269
826.346	5425
826.485	5345
826.625	5410
826.765	5493
826.904	5459
827.044	5303
827.183	5170
827.323	5136
827.462	5227
827.601	5102
827.741	5185
827.88	5136
828.02	5124
828.159	5277
828.298	5277
828.437	5322
828.577	5246
828.716	5482
828.855	5311
828.994	5128
829.134	5140
829.273	5193
829.412	5124
829.551	5117
829.69	5162
829.829	5239
829.968	5326
830.107	5280
830.246	5292
830.385	5170
830.524	5113
830.663	5052
830.802	4961
830.941	4873
831.08	4885
831.219	4972
831.357	4972
831.496	5128
831.635	4896
831.774	4824
831.913	4824
832.051	4694
832.19	4774
832.329	4805
832.467	4725
832.606	4618
832.744	4733
832.883	4744
833.022	4672
833.16	4736
833.299	4790
833.437	4801
833.576	4835
833.714	4797
833.852	4850
833.991	4908
834.129	4938
834.267	4908
834.406	4934
834.544	4919
834.682	5022
834.821	4930
834.959	5174
835.097	4938
835.235	5121
835.373	5086
835.511	5025
835.65	5041
835.788	4957
835.926	4877
836.064	4828
836.202	4828
836.34	5185
836.478	5140
836.615	5124
836.753	5162
836.891	5288
837.029	5220
837.167	5170
837.305	5197
837.443	5151
837.58	5037
837.718	5231
837.856	5166
837.993	5174
838.131	5231
838.269	5174
838.406	5223
838.544	5174
838.681	5018
838.819	4999
838.956	4908
839.094	4877
839.231	4938
839.369	5064
839.506	5341
839.643	5227
839.781	5060
839.918	5010
840.055	5064
840.193	5060
840.33	5060
840.467	5143
840.604	5223
840.742	5429
840.879	5105
841.016	5045
841.153	5117
841.29	5372
841.427	5326
841.564	5379
841.701	5311
841.838	5250
841.975	5223
842.112	5231
842.249	5098
842.385	5109
842.522	5334
842.659	5136
842.796	5128
842.933	5193
843.069	5181
843.206	5204
843.343	5284
843.479	5208
843.616	5337
843.752	4968
843.889	4987
844.025	5235
844.162	5018
844.298	5254
844.435	5086
844.571	5075
844.708	5155
844.844	5303
844.98	5334
845.117	5242
845.253	5151
845.389	5018
845.525	5155
845.661	5117
845.798	4995
845.934	5079
846.07	5033
846.206	5166
846.342	5261
846.478	5212
846.614	4972
846.75	4957
846.886	4881
847.022	5136
847.158	4961
847.294	5045
847.429	5067
847.565	5045
847.701	5299
847.837	4835
847.972	4782
848.108	4934
848.244	4915
848.379	4767
848.515	4714
848.65	4649
848.786	4793
848.921	4744
849.057	4793
849.192	4877
849.328	4797
849.463	4858
849.598	4774
849.734	4714
849.869	4607
850.004	4630
850.14	4687
850.275	4611
850.41	4538
850.545	4554
850.68	4637
850.815	4584
850.95	4603
851.085	4790
851.22	4721
851.355	4664
851.49	4596
851.625	4607
851.76	4618
851.895	4546
852.03	4550
852.165	4645
852.299	4672
852.434	4771
852.569	4744
852.703	4721
852.838	4881
852.973	4961
853.107	4915
853.242	4683
853.376	4656
853.511	4565
853.645	4626
853.78	4790
853.914	4683
854.048	4683
854.183	4584
854.317	4641
854.451	4809
854.585	4637
854.72	4634
854.854	4744
854.988	4615
855.122	4603
855.256	4542
855.39	4679
855.524	4797
855.658	4740
855.792	4664
855.926	4755
856.06	4763
856.194	4786
856.327	4733
856.461	4637
856.595	4603
856.729	4649
856.862	4717
856.996	4649
857.13	4687
857.263	4759
857.397	4782
857.53	4618
857.664	4683
857.797	4733
857.931	4748
858.064	4679
858.197	4706
858.331	4672
858.464	4618
858.597	4512
858.731	4603
858.864	4615
858.997	4630
859.13	4641
859.263	4649
859.396	4702
859.529	4573
859.662	4523
859.795	4558
859.928	4660
860.061	4797
860.194	4702
860.327	4584
860.46	4573
860.592	4675
860.725	4694
860.858	4706
860.99	4573
861.123	4519
861.256	4523
861.388	4618
861.521	5181
861.653	4451
861.786	4421
861.918	4489
862.05	4580
862.183	4500
862.315	4588
862.447	4630
862.58	4577
862.712	4405
862.844	4390
862.976	4474
863.108	4405
863.24	4930
863.372	4379
863.504	4386
863.636	4398
863.768	4440
863.9	4459
864.032	4394
864.164	4443
864.296	4432
864.428	4516
864.559	4538
864.691	4558
864.823	4531
864.954	4500
865.086	4493
865.217	4428
865.349	4398
865.48	4462
865.612	4516
865.743	4660
865.875	4440
866.006	4451
866.137	4478
866.269	4451
866.4	4440
866.531	4424
866.662	4409
866.793	4341
866.924	4398
867.055	4497
867.186	4428
867.317	4462
867.448	4367
867.579	4367
867.71	4390
867.841	4367
867.972	4432
868.103	4440
868.233	4440
868.364	4436
868.495	4474
868.625	4672
868.756	4744
868.886	4577
869.017	4592
869.147	4767
869.278	4721
869.408	4611
869.539	4615
869.669	4687
869.799	4656
869.929	4763
870.06	4740
870.19	4938
870.32	4904
870.45	4919
870.58	4999
870.71	5090
870.84	5048
870.97	4904
871.1	4892
871.23	5143
871.36	5060
871.489	4980
871.619	5071
871.749	5090
871.879	5029
872.008	5113
872.138	5033
872.267	4976
872.397	4786
872.526	4778
872.656	4740
872.785	4778
872.915	4915
873.044	5033
873.173	4965
873.303	4968
873.432	4968
873.561	4949
873.69	4896
873.819	4870
873.948	4881
874.077	4824
874.206	4752
874.335	4801
874.464	4881
874.593	5071
874.722	4938
874.851	5045
874.979	5052
875.108	5006
875.237	4915
875.365	4873
875.494	4889
875.623	4942
875.751	4793
875.88	4866
876.008	4923
876.136	5025
876.265	5193
876.393	5303
876.521	5220
876.65	5204
876.778	5124
876.906	5041
877.034	4972
877.162	5033
877.29	4942
877.418	5060
877.546	5006
877.674	4987
877.802	5006
877.93	5029
878.058	4942
878.185	4816
878.313	4972
878.441	4934
878.568	4790
878.696	4828
878.824	4984
878.951	5006
879.079	5102
879.206	5269
879.333	5060
879.461	4972
879.588	4980
879.715	5067
879.842	5193
879.97	5022
880.097	4752
880.224	4710
880.351	4824
880.478	4812
880.605	4797
880.732	4778
880.859	5090
880.986	4870
881.112	4938
881.239	4782
881.366	4630
881.493	4622
881.619	4580
881.746	4626
881.872	4683
881.999	4660
882.125	4672
882.252	4733
882.378	4824
882.505	4938
882.631	4782
882.757	4656
882.883	4687
883.01	4755
883.136	4645
883.262	4577
883.388	4596
883.514	4805
883.64	4839
883.766	4805
883.892	4641
884.018	4717
884.143	4854
884.269	4976
884.395	4668
884.52	4592
884.646	4584
884.772	4558
884.897	4531
885.023	4691
885.148	4759
885.274	4831
885.399	4847
885.524	4721
885.65	4656
885.775	4691
885.9	4675
886.025	4831
886.15	4755
886.275	4748
886.4	4603
886.525	4691
886.65	4656
886.775	4702
886.9	4877
887.025	4946
887.149	4793
887.274	4653
887.399	4550
887.523	4546
887.648	4599
887.773	4580
887.897	4729
888.021	4809
888.146	4691
888.27	4847
888.395	4881
888.519	4782
888.643	4793
888.767	4767
888.891	4672
889.015	4584
889.139	4653
889.263	4626
889.387	4782
889.511	4892
889.635	4774
889.759	4687
889.883	4660
890.006	4759
890.13	4847
890.254	4603
890.377	4683
890.501	4561
890.624	4516
890.748	4641
890.871	4561
890.995	4455
891.118	4417
891.241	4512
891.364	4542
891.488	4656
891.611	4535
891.734	4485
891.857	4649
891.98	4538
892.103	4649
892.226	4588
892.349	4603
892.471	4478
892.594	4546
892.717	4634
892.839	4569
892.962	4618
893.085	4694
893.207	4580
893.33	4523
893.452	4542
893.575	4679
893.697	4615
893.819	4843
893.941	4889
894.064	4828
894.186	4584
894.308	4626
894.43	4771
894.552	4809
894.674	4774
894.796	4660
894.918	4584
895.04	4618
895.161	4748
895.283	4740
895.405	4626
895.526	4653
895.648	4759
895.769	4725
895.891	4694
896.012	4812
896.134	4759
896.255	4721
896.376	4687
896.498	4656
896.619	4672
896.74	4672
896.861	4729
896.982	4908
897.103	5079
897.224	4892
897.345	4763
897.466	4725
897.587	4774
897.708	4835
897.828	4790
897.949	4729
898.07	4630
898.19	4675
898.311	4873
898.431	4714
898.552	4744
898.672	4847
898.792	4820
898.913	4778
899.033	4645
899.153	4538
899.273	4436
899.393	4527
899.513	4535
899.633	4535
899.753	4558
899.873	4519
899.993	4637
900.113	4531
900.232	4626
900.352	4603
900.472	4489
900.591	4440
900.711	4531
900.83	4497
900.95	4615
901.069	4786
901.189	4554
901.308	4398
901.427	4386
901.546	4405
901.665	4489
901.784	4546
901.904	4375
902.023	4341
902.141	4196
902.26	4173
902.379	4314
902.498	4291
902.617	4234
902.735	4440
902.854	4379
902.973	4409
903.091	4223
903.21	4219
903.328	4310
903.446	4272
903.565	4238
903.683	4421
903.801	4341
903.919	4481
904.038	4459
904.156	4303
904.274	4462
904.392	4424
904.51	4478
904.627	4497
904.745	4615
904.863	4672
904.981	4455
905.098	4322
905.216	4363
905.334	4417
905.451	4474
905.569	4504
905.686	4546
905.803	4603
905.921	4459
906.038	4584
906.155	4519
906.272	4390
906.389	4500
906.506	4386
906.623	4413
906.74	4443
906.857	4337
906.974	4360
907.091	4584
907.208	4729
907.324	4599
907.441	4519
907.557	4402
907.674	4371
907.79	4325
907.907	4394
908.023	4523
908.139	4504
908.256	4440
908.372	4489
908.488	4447
908.604	4398
908.72	4367
908.836	4390
908.952	4436
909.068	4451
909.184	4622
909.3	4546
909.415	4603
909.531	4603
909.647	4394
909.762	4421
909.878	4360
909.993	4466
910.108	4432
910.224	4436
910.339	4519
910.454	4436
910.57	4424
910.685	4344
910.8	4714
910.915	4641
911.03	4538
911.145	4291
911.259	4322
911.374	4417
911.489	4299
911.604	4325
911.718	4204
911.833	4257
911.947	4093
912.062	4021
912.176	4238
912.291	4291
912.405	4276
912.519	4523
912.633	4550
912.748	4398
912.862	4375
912.976	4234
913.09	4124
913.204	4215
913.318	4272
913.431	4447
913.545	4371
913.659	4478
913.772	4459
913.886	4291
914	4280
914.113	4363
914.226	4421
914.34	4413
914.453	4253
914.566	4440
914.68	4383
914.793	4337
914.906	4158
915.019	4131
915.132	4112
915.245	4242
915.358	4219
915.47	4253
915.583	4291
915.696	4291
915.809	4405
915.921	4481
916.034	4272
916.146	4291
916.259	4284
916.371	4390
916.483	4398
916.595	4284
916.708	4337
916.82	4360
916.932	4322
917.044	4360
917.156	4344
917.268	4272
917.38	4284
917.491	4363
917.603	4333
917.715	4413
917.826	4489
917.938	4344
918.049	4306
918.161	4428
918.272	4569
918.384	4542
918.495	4516
918.606	4329
918.717	4299
918.828	4325
918.939	4383
919.05	4280
919.161	4371
919.272	4169
919.383	4249
919.494	4447
919.604	4630
919.715	4481
919.826	4363
919.936	4417
920.047	4535
920.157	4523
920.267	4729
920.378	4554
920.488	4546
920.598	4759
920.708	4923
920.818	4801
920.928	4786
921.038	5014
921.148	4927
921.258	4675
921.368	4538
921.477	4500
921.587	4478
921.697	4383
921.806	4573
921.916	4485
922.025	4257
922.134	4318
922.244	4230
922.353	4329
922.462	4215
922.571	4169
922.68	4055
922.789	3964
922.898	4032
923.007	3998
923.116	4101
923.224	4101
923.333	4078
923.442	4040
923.55	4013
923.659	4006
923.767	4090
923.876	4029
923.984	4124
924.092	3998
924.201	4105
924.309	4090
924.417	4105
924.525	4078
924.633	4120
924.741	4934
924.849	3915
924.956	4128
925.064	3960
925.172	3926
925.279	4017
925.387	4067
925.494	4074
925.602	4230
925.709	4200
925.816	4097
925.924	4135
926.031	4238
926.138	4177
926.245	4173
926.352	4162
926.459	4238
926.566	4344
926.673	4223
926.779	4082
926.886	4143
926.993	4010
927.099	3949
927.206	3994
927.312	3983
927.419	4074
927.525	4086
927.631	4063
927.737	4040
927.843	3956
927.95	3854
928.056	3953
928.162	3994
928.267	4112
928.373	4710
928.479	4147
928.585	3869
928.69	4048
928.796	4109
928.901	3972
929.007	3865
929.112	4013
929.218	3979
929.323	3960
929.428	3945
929.533	4097
929.638	3934
929.743	4002
929.848	4093
929.953	3998
930.058	3915
930.163	3808
930.267	3827
930.372	3983
930.477	3861
930.581	4131
930.685	4002
930.79	3850
930.894	3907
930.998	3835
931.103	4082
931.207	3747
931.311	3732
931.415	3671
931.519	3523
931.623	3584
