Data from test_V78500241_638.txt Node
Date: Fri Mar 25 16:53:26 CST 2022
User: usil
Spectrometer: V785-0024
Trigger mode: 0
Integration Time (sec): 4.000000E-1
Scans to average: 1
Nonlinearity correction enabled: false
Boxcar width: 0
Storing dark spectrum: false
XAxis mode: Wavelengths
Number of Pixels in Spectrum: 1024
>>>>>Begin Spectral Data<<<<<
801.071	8058
801.214	8039
801.356	7856
801.499	7894
801.641	7818
801.783	7807
801.926	8043
802.068	8031
802.211	8035
802.353	8058
802.496	7814
802.638	7940
802.78	7887
802.923	7947
803.065	7841
803.208	7856
803.35	8035
803.492	8149
803.635	8103
803.777	8062
803.919	8100
804.061	8461
804.204	8168
804.346	8111
804.488	8005
804.63	8103
804.773	7967
804.915	8088
805.057	8305
805.199	8130
805.341	8206
805.483	8320
805.626	8229
805.768	8126
805.91	8191
806.052	8218
806.194	8092
806.336	8366
806.478	8103
806.62	8062
806.762	8119
806.904	8282
807.046	8511
807.188	8454
807.33	8370
807.472	8358
807.614	8145
807.756	8225
807.898	8012
808.04	7860
808.182	7967
808.324	7944
808.465	7917
808.607	8069
808.749	8100
808.891	8225
809.033	8290
809.174	8229
809.316	8065
809.458	8084
809.6	7997
809.741	8081
809.883	8031
810.025	8084
810.166	8081
810.308	8046
810.45	8054
810.591	7856
810.733	7792
810.875	7704
811.016	7544
811.158	7480
811.299	7609
811.441	7731
811.582	7723
811.724	7601
811.865	7571
812.007	7628
812.148	7586
812.29	7601
812.431	7738
812.573	7871
812.714	7989
812.855	8161
812.997	8157
813.138	8343
813.279	8138
813.421	8145
813.562	8050
813.703	7951
813.845	7780
813.986	7499
814.127	7274
814.268	7228
814.41	7206
814.551	7122
814.692	7122
814.833	7034
814.974	7107
815.115	7099
815.256	7012
815.397	6977
815.539	7019
815.68	6818
815.821	6814
815.962	6871
816.103	6806
816.244	6753
816.385	6612
816.526	6608
816.666	6566
816.807	6388
816.948	6494
817.089	6448
817.23	6441
817.371	6388
817.512	6391
817.653	6342
817.793	6350
817.934	6498
818.075	6418
818.216	6433
818.356	6426
818.497	6186
818.638	6110
818.778	6194
818.919	6163
819.06	6125
819.2	6342
819.341	6304
819.481	6319
819.622	6536
819.762	6734
819.903	6738
820.043	6696
820.184	6597
820.324	6544
820.465	6711
820.605	6662
820.746	6616
820.886	6433
821.026	6665
821.167	6681
821.307	6791
821.447	6692
821.588	6726
821.728	6513
821.868	6448
822.008	6372
822.149	6384
822.289	6365
822.429	6148
822.569	6114
822.709	6117
822.849	5920
822.99	5923
823.13	5927
823.27	5908
823.41	5798
823.55	5802
823.69	5767
823.83	5809
823.97	5665
824.11	5573
824.25	5528
824.389	5497
824.529	5611
824.669	5566
824.809	5589
824.949	5642
825.089	5642
825.228	5596
825.368	5376
825.508	5383
825.648	5318
825.787	5402
825.927	5387
826.067	5326
826.206	5318
826.346	5398
826.485	5436
826.625	5345
826.765	5505
826.904	5490
827.044	5269
827.183	5201
827.323	5140
827.462	5239
827.601	5140
827.741	5151
827.88	5246
828.02	5105
828.159	5189
828.298	5322
828.437	5360
828.577	5322
828.716	5532
828.855	5318
828.994	5128
829.134	5060
829.273	5174
829.412	5136
829.551	5147
829.69	5178
829.829	5239
829.968	5379
830.107	5280
830.246	5273
830.385	5170
830.524	5136
830.663	5045
830.802	4980
830.941	4866
831.08	4828
831.219	4995
831.357	4980
831.496	5170
831.635	4889
831.774	4828
831.913	4809
832.051	4698
832.19	4771
832.329	4885
832.467	4714
832.606	4645
832.744	4679
832.883	4710
833.022	4755
833.16	4793
833.299	4824
833.437	4824
833.576	4881
833.714	4896
833.852	4885
833.991	4824
834.129	4976
834.267	4938
834.406	4892
834.544	5010
834.682	4987
834.821	4957
834.959	5128
835.097	4949
835.235	5140
835.373	5147
835.511	5147
835.65	5006
835.788	5064
835.926	4870
836.064	4847
836.202	4904
836.34	5105
836.478	5250
836.615	5094
836.753	5212
836.891	5258
837.029	5185
837.167	5204
837.305	5121
837.443	5151
837.58	5056
837.718	5254
837.856	5174
837.993	5170
838.131	5235
838.269	5220
838.406	5185
838.544	5223
838.681	5029
838.819	5006
838.956	4915
839.094	4919
839.231	4965
839.369	5067
839.506	5406
839.643	5204
839.781	5018
839.918	5071
840.055	5090
840.193	5086
840.33	5117
840.467	5132
840.604	5216
840.742	5410
840.879	5052
841.016	5109
841.153	5140
841.29	5383
841.427	5353
841.564	5337
841.701	5322
841.838	5258
841.975	5239
842.112	5250
842.249	5113
842.385	5094
842.522	5330
842.659	5105
842.796	5162
842.933	5197
843.069	5083
843.206	5147
843.343	5292
843.479	5201
843.616	5254
843.752	5033
843.889	4999
844.025	5223
844.162	5041
844.298	5159
844.435	5033
844.571	5041
844.708	5227
844.844	5292
844.98	5337
845.117	5261
845.253	5105
845.389	5037
845.525	5166
845.661	5143
845.798	5006
845.934	5147
846.07	5060
846.206	5208
846.342	5311
846.478	5147
846.614	4957
846.75	5010
846.886	4972
847.022	5170
847.158	4999
847.294	5022
847.429	5159
847.565	5060
847.701	5337
847.837	4843
847.972	4820
848.108	4987
848.244	4976
848.379	4786
848.515	4748
848.65	4717
848.786	4733
848.921	4748
849.057	4858
849.192	4930
849.328	4824
849.463	4847
849.598	4778
849.734	4744
849.869	4668
850.004	4653
850.14	4641
850.275	4634
850.41	4508
850.545	4546
850.68	4622
850.815	4630
850.95	4626
851.085	4881
851.22	4759
851.355	4675
851.49	4607
851.625	4645
851.76	4641
851.895	4550
852.03	4485
852.165	4626
852.299	4672
852.434	4774
852.569	4790
852.703	4786
852.838	4877
852.973	4927
853.107	4828
853.242	4771
853.376	4706
853.511	4573
853.645	4626
853.78	4809
853.914	4691
854.048	4630
854.183	4637
854.317	4691
854.451	4911
854.585	4683
854.72	4634
854.854	4782
854.988	4618
855.122	4622
855.256	4546
855.39	4691
855.524	4816
855.658	4721
855.792	4725
855.926	4733
856.06	4733
856.194	4801
856.327	4672
856.461	4558
856.595	4580
856.729	4691
856.862	4778
856.996	4656
857.13	4725
857.263	4748
857.397	4831
857.53	4679
857.664	4725
857.797	4786
857.931	4755
858.064	4710
858.197	4740
858.331	4641
858.464	4634
858.597	4535
858.731	4599
858.864	4618
858.997	4603
859.13	4664
859.263	4702
859.396	4691
859.529	4611
859.662	4508
859.795	4523
859.928	4675
860.061	4759
860.194	4748
860.327	4641
860.46	4527
860.592	4721
860.725	4767
860.858	4733
860.99	4561
861.123	4508
861.256	4504
861.388	4630
861.521	5337
861.653	4523
861.786	4443
861.918	4421
862.05	4538
862.183	4573
862.315	4542
862.447	4618
862.58	4558
862.712	4379
862.844	4390
862.976	4459
863.108	4466
863.24	4866
863.372	4363
863.504	4443
863.636	4371
863.768	4455
863.9	4455
864.032	4371
864.164	4383
864.296	4497
864.428	4554
864.559	4561
864.691	4542
864.823	4577
864.954	4466
865.086	4500
865.217	4466
865.349	4367
865.48	4455
865.612	4478
865.743	4656
865.875	4489
866.006	4409
866.137	4470
866.269	4409
866.4	4428
866.531	4417
866.662	4367
866.793	4413
866.924	4402
867.055	4508
867.186	4417
867.317	4455
867.448	4352
867.579	4462
867.71	4356
867.841	4318
867.972	4440
868.103	4428
868.233	4447
868.364	4459
868.495	4500
868.625	4683
868.756	4755
868.886	4569
869.017	4607
869.147	4774
869.278	4752
869.408	4660
869.539	4698
869.669	4691
869.799	4664
869.929	4790
870.06	4782
870.19	4972
870.32	4919
870.45	4968
870.58	5037
870.71	5060
870.84	5079
870.97	4957
871.1	4908
871.23	5143
871.36	5216
871.489	4987
871.619	5105
871.749	5128
871.879	5162
872.008	5189
872.138	5037
872.267	4949
872.397	4850
872.526	4782
872.656	4710
872.785	4812
872.915	4987
873.044	5056
873.173	4949
873.303	4961
873.432	4904
873.561	4961
873.69	4831
873.819	4828
873.948	4892
874.077	4831
874.206	4812
874.335	4812
874.464	4908
874.593	5041
874.722	4930
874.851	5102
874.979	5052
875.108	5006
875.237	4873
875.365	4873
875.494	4900
875.623	4934
875.751	4881
875.88	4904
876.008	4953
876.136	5018
876.265	5223
876.393	5330
876.521	5197
876.65	5204
876.778	5185
876.906	5094
877.034	5029
877.162	5067
877.29	5037
877.418	5003
877.546	5090
877.674	5064
877.802	5109
877.93	5014
878.058	4915
878.185	4870
878.313	4961
878.441	4942
878.568	4801
878.696	4911
878.824	4984
878.951	4980
879.079	5121
879.206	5292
879.333	5136
879.461	4999
879.588	5003
879.715	5117
879.842	5197
879.97	4980
880.097	4824
880.224	4782
880.351	4839
880.478	4828
880.605	4767
880.732	4786
880.859	5083
880.986	4850
881.112	4934
881.239	4790
881.366	4622
881.493	4615
881.619	4588
881.746	4649
881.872	4660
881.999	4577
882.125	4702
882.252	4793
882.378	4816
882.505	4961
882.631	4778
882.757	4675
882.883	4736
883.01	4744
883.136	4691
883.262	4580
883.388	4637
883.514	4801
883.64	4831
883.766	4812
883.892	4668
884.018	4691
884.143	4858
884.269	5006
884.395	4706
884.52	4641
884.646	4637
884.772	4577
884.897	4558
885.023	4675
885.148	4767
885.274	4892
885.399	4782
885.524	4786
885.65	4725
885.775	4759
885.9	4729
886.025	4820
886.15	4809
886.275	4710
886.4	4660
886.525	4714
886.65	4698
886.775	4679
886.9	4862
887.025	4976
887.149	4797
887.274	4733
887.399	4630
887.523	4599
887.648	4584
887.773	4626
887.897	4793
888.021	4759
888.146	4664
888.27	4809
888.395	4938
888.519	4790
888.643	4835
888.767	4854
888.891	4702
889.015	4656
889.139	4603
889.263	4630
889.387	4786
889.511	4866
889.635	4812
889.759	4653
889.883	4641
890.006	4683
890.13	4805
890.254	4634
890.377	4641
890.501	4550
890.624	4527
890.748	4653
890.871	4504
890.995	4459
891.118	4394
891.241	4546
891.364	4538
891.488	4637
891.611	4516
891.734	4538
891.857	4641
891.98	4538
892.103	4653
892.226	4580
892.349	4493
892.471	4371
892.594	4588
892.717	4558
892.839	4561
892.962	4573
893.085	4630
893.207	4611
893.33	4447
893.452	4493
893.575	4698
893.697	4550
893.819	4755
893.941	4858
894.064	4786
894.186	4622
894.308	4573
894.43	4736
894.552	4790
894.674	4736
894.796	4546
894.918	4546
895.04	4607
895.161	4710
895.283	4637
895.405	4607
895.526	4679
895.648	4656
895.769	4691
895.891	4706
896.012	4721
896.134	4736
896.255	4672
896.376	4630
896.498	4611
896.619	4687
896.74	4592
896.861	4618
896.982	4938
897.103	5052
897.224	4847
897.345	4740
897.466	4675
897.587	4717
897.708	4820
897.828	4721
897.949	4672
898.07	4573
898.19	4649
898.311	4812
898.431	4668
898.552	4812
898.672	4797
898.792	4771
898.913	4725
899.033	4622
899.153	4558
899.273	4424
899.393	4470
899.513	4519
899.633	4531
899.753	4592
899.873	4508
899.993	4535
900.113	4565
900.232	4607
900.352	4523
900.472	4421
900.591	4402
900.711	4493
900.83	4428
900.95	4599
901.069	4645
901.189	4546
901.308	4398
901.427	4352
901.546	4398
901.665	4466
901.784	4523
901.904	4341
902.023	4341
902.141	4207
902.26	4143
902.379	4375
902.498	4249
902.617	4207
902.735	4379
902.854	4383
902.973	4367
903.091	4185
903.21	4291
903.328	4303
903.446	4276
903.565	4253
903.683	4371
903.801	4261
903.919	4386
904.038	4436
904.156	4337
904.274	4436
904.392	4398
904.51	4421
904.627	4489
904.745	4550
904.863	4622
904.981	4363
905.098	4265
905.216	4383
905.334	4402
905.451	4424
905.569	4436
905.686	4550
905.803	4580
905.921	4379
906.038	4580
906.155	4500
906.272	4417
906.389	4451
906.506	4344
906.623	4383
906.74	4356
906.857	4284
906.974	4337
907.091	4569
907.208	4672
907.324	4554
907.441	4512
907.557	4314
907.674	4363
907.79	4337
907.907	4386
908.023	4493
908.139	4554
908.256	4432
908.372	4474
908.488	4481
908.604	4386
908.72	4280
908.836	4322
908.952	4325
909.068	4432
909.184	4561
909.3	4485
909.415	4577
909.531	4538
909.647	4341
909.762	4363
909.878	4333
909.993	4436
910.108	4436
910.224	4375
910.339	4508
910.454	4436
910.57	4344
910.685	4314
910.8	4653
910.915	4596
911.03	4504
911.145	4333
911.259	4276
911.374	4360
911.489	4268
911.604	4318
911.718	4188
911.833	4219
911.947	4086
912.062	3983
912.176	4261
912.291	4265
912.405	4242
912.519	4470
912.633	4512
912.748	4341
912.862	4348
912.976	4230
913.09	4101
913.204	4162
913.318	4249
913.431	4360
913.545	4371
913.659	4466
913.772	4348
913.886	4249
914	4181
914.113	4375
914.226	4428
914.34	4352
914.453	4265
914.566	4424
914.68	4295
914.793	4306
914.906	4143
915.019	4082
915.132	4078
915.245	4200
915.358	4253
915.47	4185
915.583	4261
915.696	4306
915.809	4375
915.921	4421
916.034	4238
916.146	4261
916.259	4246
916.371	4421
916.483	4367
916.595	4287
916.708	4318
916.82	4299
916.932	4280
917.044	4344
917.156	4314
917.268	4287
917.38	4284
917.491	4280
917.603	4360
917.715	4432
917.826	4436
917.938	4344
918.049	4207
918.161	4417
918.272	4531
918.384	4531
918.495	4462
918.606	4287
918.717	4234
918.828	4344
918.939	4360
919.05	4272
919.161	4295
919.272	4135
919.383	4211
919.494	4451
919.604	4626
919.715	4409
919.826	4337
919.936	4367
920.047	4554
920.157	4470
920.267	4698
920.378	4584
920.488	4493
920.598	4740
920.708	4828
920.818	4733
920.928	4778
921.038	4930
921.148	4957
921.258	4630
921.368	4569
921.477	4504
921.587	4447
921.697	4379
921.806	4519
921.916	4470
922.025	4287
922.134	4261
922.244	4215
922.353	4360
922.462	4166
922.571	4109
922.68	4010
922.789	3998
922.898	3998
923.007	3949
923.116	4086
923.224	4059
923.333	4086
923.442	3972
923.55	3945
923.659	4040
923.767	4074
923.876	4059
923.984	4166
924.092	3994
924.201	4093
924.309	4074
924.417	4147
924.525	4055
924.633	4082
924.741	5037
924.849	3934
924.956	4131
925.064	3998
925.172	3930
925.279	3937
925.387	4048
925.494	4025
925.602	4211
925.709	4211
925.816	4036
925.924	4120
926.031	4188
926.138	4192
926.245	4200
926.352	4059
926.459	4272
926.566	4310
926.673	4093
926.779	4150
926.886	4040
926.993	4010
927.099	4010
927.206	3930
927.312	3937
927.419	4051
927.525	4025
927.631	4086
927.737	3998
927.843	3979
927.95	3823
928.056	3899
928.162	3964
928.267	4021
928.373	4660
928.479	4135
928.585	3896
928.69	4032
928.796	4025
928.901	3987
929.007	3846
929.112	4017
929.218	4048
929.323	3945
929.428	3949
929.533	4071
929.638	3907
929.743	3972
929.848	4006
929.953	4021
930.058	3960
930.163	3804
930.267	3835
930.372	3953
930.477	3804
930.581	4086
930.685	3960
930.79	3854
930.894	3865
930.998	3842
931.103	4055
931.207	3720
931.311	3660
931.415	3663
931.519	3507
931.623	3519
