Data from test_V78500241_2620.txt Node
Date: Fri Mar 25 17:07:13 CST 2022
User: usil
Spectrometer: V785-0024
Trigger mode: 0
Integration Time (sec): 4.000000E-1
Scans to average: 1
Nonlinearity correction enabled: false
Boxcar width: 0
Storing dark spectrum: false
XAxis mode: Wavelengths
Number of Pixels in Spectrum: 1024
>>>>>Begin Spectral Data<<<<<
801.071	8001
801.214	7982
801.356	7917
801.499	7845
801.641	7833
801.783	7860
801.926	7928
802.068	7928
802.211	7986
802.353	8016
802.496	7902
802.638	7887
802.78	7917
802.923	7803
803.065	7860
803.208	7852
803.35	7928
803.492	8062
803.635	8168
803.777	7989
803.919	8187
804.061	8419
804.204	8084
804.346	8035
804.488	7932
804.63	8031
804.773	8050
804.915	8096
805.057	8313
805.199	8161
805.341	8221
805.483	8248
805.626	8195
805.768	8164
805.91	8176
806.052	8218
806.194	8020
806.336	8328
806.478	8054
806.62	8092
806.762	8069
806.904	8218
807.046	8469
807.188	8385
807.33	8286
807.472	8343
807.614	8176
807.756	8142
807.898	7967
808.04	7879
808.182	7852
808.324	7830
808.465	7841
808.607	8050
808.749	8161
808.891	8199
809.033	8339
809.174	8180
809.316	8081
809.458	8039
809.6	7974
809.741	8039
809.883	7997
810.025	8187
810.166	8031
810.308	8031
810.45	7986
810.591	7898
810.733	7696
810.875	7712
811.016	7540
811.158	7441
811.299	7537
811.441	7742
811.582	7723
811.724	7548
811.865	7506
812.007	7571
812.148	7613
812.29	7597
812.431	7742
812.573	7871
812.714	8020
812.855	8100
812.997	8164
813.138	8267
813.279	8107
813.421	8149
813.562	8027
813.703	7784
813.845	7715
813.986	7510
814.127	7213
814.268	7240
814.41	7175
814.551	7164
814.692	7217
814.833	7095
814.974	7122
815.115	7149
815.256	6943
815.397	6962
815.539	6989
815.68	6776
815.821	6829
815.962	6806
816.103	6818
816.244	6715
816.385	6662
816.526	6642
816.666	6426
816.807	6262
816.948	6460
817.089	6464
817.23	6433
817.371	6357
817.512	6361
817.653	6403
817.793	6350
817.934	6448
818.075	6456
818.216	6448
818.356	6429
818.497	6270
818.638	6133
818.778	6129
818.919	6167
819.06	6197
819.2	6338
819.341	6384
819.481	6369
819.622	6532
819.762	6833
819.903	6738
820.043	6547
820.184	6593
820.324	6604
820.465	6688
820.605	6688
820.746	6665
820.886	6559
821.026	6684
821.167	6703
821.307	6798
821.447	6764
821.588	6684
821.728	6578
821.868	6521
822.008	6369
822.149	6407
822.289	6346
822.429	6190
822.569	6167
822.709	6095
822.849	5946
822.99	5935
823.13	5946
823.27	5946
823.41	5828
823.55	5794
823.69	5817
823.83	5832
823.97	5699
824.11	5543
824.25	5554
824.389	5551
824.529	5604
824.669	5528
824.809	5604
824.949	5688
825.089	5668
825.228	5516
825.368	5414
825.508	5326
825.648	5360
825.787	5364
825.927	5360
826.067	5273
826.206	5292
826.346	5425
826.485	5391
826.625	5433
826.765	5516
826.904	5486
827.044	5288
827.183	5174
827.323	5124
827.462	5273
827.601	5189
827.741	5220
827.88	5220
828.02	5189
828.159	5284
828.298	5288
828.437	5383
828.577	5357
828.716	5486
828.855	5292
828.994	5151
829.134	5151
829.273	5178
829.412	5121
829.551	5132
829.69	5170
829.829	5220
829.968	5368
830.107	5216
830.246	5239
830.385	5174
830.524	5109
830.663	5075
830.802	4904
830.941	4889
831.08	4892
831.219	4968
831.357	4953
831.496	5162
831.635	4961
831.774	4881
831.913	4850
832.051	4710
832.19	4733
832.329	4839
832.467	4679
832.606	4641
832.744	4733
832.883	4744
833.022	4672
833.16	4793
833.299	4831
833.437	4824
833.576	4873
833.714	4850
833.852	4862
833.991	4900
834.129	4942
834.267	4995
834.406	4927
834.544	5010
834.682	4968
834.821	4949
834.959	5181
835.097	4999
835.235	5147
835.373	5060
835.511	5109
835.65	5041
835.788	4995
835.926	4961
836.064	4870
836.202	4908
836.34	5208
836.478	5250
836.615	5132
836.753	5223
836.891	5284
837.029	5246
837.167	5178
837.305	5178
837.443	5151
837.58	5056
837.718	5246
837.856	5181
837.993	5117
838.131	5162
838.269	5223
838.406	5204
838.544	5170
838.681	5018
838.819	5052
838.956	4919
839.094	4927
839.231	4995
839.369	5056
839.506	5444
839.643	5296
839.781	5048
839.918	4976
840.055	5079
840.193	5132
840.33	5079
840.467	5121
840.604	5174
840.742	5433
840.879	5052
841.016	5105
841.153	5166
841.29	5402
841.427	5364
841.564	5326
841.701	5360
841.838	5307
841.975	5204
842.112	5303
842.249	5132
842.385	5067
842.522	5322
842.659	5181
842.796	5189
842.933	5197
843.069	5151
843.206	5143
843.343	5246
843.479	5231
843.616	5265
843.752	5033
843.889	5041
844.025	5239
844.162	5014
844.298	5250
844.435	5079
844.571	5052
844.708	5235
844.844	5277
844.98	5330
845.117	5307
845.253	5170
845.389	5052
845.525	5204
845.661	5117
845.798	5060
845.934	5147
846.07	5003
846.206	5159
846.342	5288
846.478	5181
846.614	5022
846.75	4957
846.886	4942
847.022	5162
847.158	5029
847.294	5071
847.429	5124
847.565	5060
847.701	5269
847.837	4862
847.972	4816
848.108	4938
848.244	4984
848.379	4782
848.515	4759
848.65	4736
848.786	4721
848.921	4771
849.057	4870
849.192	4946
849.328	4839
849.463	4900
849.598	4801
849.734	4774
849.869	4706
850.004	4622
850.14	4664
850.275	4626
850.41	4519
850.545	4550
850.68	4622
850.815	4599
850.95	4653
851.085	4843
851.22	4736
851.355	4656
851.49	4592
851.625	4660
851.76	4611
851.895	4573
852.03	4535
852.165	4687
852.299	4710
852.434	4786
852.569	4736
852.703	4771
852.838	4831
852.973	4915
853.107	4942
853.242	4736
853.376	4679
853.511	4558
853.645	4626
853.78	4809
853.914	4691
854.048	4630
854.183	4656
854.317	4694
854.451	4835
854.585	4687
854.72	4622
854.854	4763
854.988	4584
855.122	4637
855.256	4519
855.39	4683
855.524	4771
855.658	4763
855.792	4675
855.926	4733
856.06	4744
856.194	4816
856.327	4672
856.461	4607
856.595	4603
856.729	4634
856.862	4752
856.996	4675
857.13	4733
857.263	4714
857.397	4797
857.53	4672
857.664	4694
857.797	4752
857.931	4755
858.064	4706
858.197	4805
858.331	4675
858.464	4626
858.597	4546
858.731	4630
858.864	4698
858.997	4615
859.13	4611
859.263	4656
859.396	4736
859.529	4630
859.662	4573
859.795	4554
859.928	4611
860.061	4786
860.194	4721
860.327	4615
860.46	4546
860.592	4729
860.725	4710
860.858	4721
860.99	4561
861.123	4489
861.256	4508
861.388	4630
861.521	5372
861.653	4459
861.786	4443
861.918	4455
862.05	4459
862.183	4542
862.315	4603
862.447	4622
862.58	4561
862.712	4417
862.844	4314
862.976	4485
863.108	4462
863.24	4736
863.372	4314
863.504	4379
863.636	4405
863.768	4470
863.9	4398
864.032	4383
864.164	4432
864.296	4474
864.428	4535
864.559	4588
864.691	4500
864.823	4535
864.954	4508
865.086	4531
865.217	4459
865.349	4417
865.48	4478
865.612	4470
865.743	4603
865.875	4459
866.006	4417
866.137	4428
866.269	4462
866.4	4440
866.531	4409
866.662	4394
866.793	4394
866.924	4455
867.055	4485
867.186	4405
867.317	4394
867.448	4367
867.579	4371
867.71	4379
867.841	4398
867.972	4462
868.103	4451
868.233	4455
868.364	4474
868.495	4478
868.625	4615
868.756	4763
868.886	4561
869.017	4668
869.147	4805
869.278	4774
869.408	4649
869.539	4607
869.669	4691
869.799	4672
869.929	4733
870.06	4740
870.19	4949
870.32	4919
870.45	4911
870.58	4972
870.71	5071
870.84	5056
870.97	4915
871.1	4919
871.23	5128
871.36	5155
871.489	4991
871.619	5045
871.749	5132
871.879	5109
872.008	5174
872.138	5060
872.267	4976
872.397	4854
872.526	4755
872.656	4759
872.785	4809
872.915	4911
873.044	5071
873.173	4892
873.303	4946
873.432	4923
873.561	4965
873.69	4915
873.819	4854
873.948	4961
874.077	4847
874.206	4736
874.335	4805
874.464	4934
874.593	5083
874.722	4984
874.851	5094
874.979	5037
875.108	4984
875.237	4881
875.365	4835
875.494	4889
875.623	4976
875.751	4873
875.88	4839
876.008	5022
876.136	5037
876.265	5201
876.393	5311
876.521	5239
876.65	5151
876.778	5166
876.906	5071
877.034	5033
877.162	5064
877.29	4923
877.418	5098
877.546	5018
877.674	5037
877.802	4999
877.93	5045
878.058	4930
878.185	4896
878.313	4976
878.441	4957
878.568	4797
878.696	4923
878.824	4930
878.951	5006
879.079	5147
879.206	5288
879.333	5079
879.461	4938
879.588	4987
879.715	5109
879.842	5242
879.97	4995
880.097	4793
880.224	4778
880.351	4801
880.478	4828
880.605	4790
880.732	4797
880.859	5117
880.986	4896
881.112	4927
881.239	4797
881.366	4649
881.493	4573
881.619	4622
881.746	4634
881.872	4683
881.999	4637
882.125	4706
882.252	4831
882.378	4786
882.505	4968
882.631	4797
882.757	4656
882.883	4694
883.01	4763
883.136	4653
883.262	4599
883.388	4596
883.514	4824
883.64	4862
883.766	4733
883.892	4664
884.018	4702
884.143	4938
884.269	5037
884.395	4710
884.52	4630
884.646	4656
884.772	4626
884.897	4538
885.023	4615
885.148	4797
885.274	4854
885.399	4820
885.524	4733
885.65	4702
885.775	4736
885.9	4687
886.025	4892
886.15	4774
886.275	4691
886.4	4634
886.525	4668
886.65	4675
886.775	4702
886.9	4915
887.025	5037
887.149	4771
887.274	4664
887.399	4592
887.523	4618
887.648	4592
887.773	4577
887.897	4820
888.021	4790
888.146	4664
888.27	4805
888.395	4873
888.519	4828
888.643	4801
888.767	4824
888.891	4683
889.015	4622
889.139	4656
889.263	4577
889.387	4759
889.511	4850
889.635	4793
889.759	4607
889.883	4637
890.006	4694
890.13	4850
890.254	4653
890.377	4698
890.501	4519
890.624	4481
890.748	4675
890.871	4481
890.995	4386
891.118	4356
891.241	4512
891.364	4527
891.488	4664
891.611	4474
891.734	4493
891.857	4622
891.98	4497
892.103	4641
892.226	4535
892.349	4558
892.471	4436
892.594	4554
892.717	4615
892.839	4596
892.962	4622
893.085	4603
893.207	4603
893.33	4489
893.452	4546
893.575	4645
893.697	4573
893.819	4828
893.941	4831
894.064	4778
894.186	4615
894.308	4519
894.43	4721
894.552	4862
894.674	4778
894.796	4558
894.918	4611
895.04	4527
895.161	4725
895.283	4653
895.405	4565
895.526	4626
895.648	4714
895.769	4675
895.891	4714
896.012	4721
896.134	4752
896.255	4668
896.376	4637
896.498	4637
896.619	4687
896.74	4588
896.861	4683
896.982	4957
897.103	5079
897.224	4858
897.345	4744
897.466	4634
897.587	4816
897.708	4843
897.828	4774
897.949	4714
898.07	4607
898.19	4656
898.311	4850
898.431	4645
898.552	4717
898.672	4862
898.792	4828
898.913	4733
899.033	4592
899.153	4542
899.273	4428
899.393	4466
899.513	4516
899.633	4527
899.753	4546
899.873	4512
899.993	4550
900.113	4531
900.232	4554
900.352	4523
900.472	4478
900.591	4432
900.711	4443
900.83	4432
900.95	4584
901.069	4721
901.189	4538
901.308	4371
901.427	4310
901.546	4348
901.665	4489
901.784	4485
901.904	4375
902.023	4322
902.141	4181
902.26	4166
902.379	4310
902.498	4280
902.617	4257
902.735	4394
902.854	4398
902.973	4383
903.091	4200
903.21	4265
903.328	4276
903.446	4318
903.565	4272
903.683	4341
903.801	4284
903.919	4405
904.038	4424
904.156	4284
904.274	4409
904.392	4341
904.51	4398
904.627	4481
904.745	4516
904.863	4630
904.981	4417
905.098	4314
905.216	4386
905.334	4405
905.451	4436
905.569	4470
905.686	4527
905.803	4592
905.921	4421
906.038	4504
906.155	4573
906.272	4428
906.389	4459
906.506	4344
906.623	4371
906.74	4386
906.857	4314
906.974	4386
907.091	4561
907.208	4679
907.324	4588
907.441	4504
907.557	4322
907.674	4379
907.79	4322
907.907	4402
908.023	4451
908.139	4519
908.256	4421
908.372	4447
908.488	4462
908.604	4386
908.72	4341
908.836	4386
908.952	4367
909.068	4371
909.184	4607
909.3	4558
909.415	4558
909.531	4573
909.647	4363
909.762	4367
909.878	4344
909.993	4417
910.108	4417
910.224	4417
910.339	4512
910.454	4459
910.57	4383
910.685	4314
910.8	4683
910.915	4580
911.03	4497
911.145	4417
911.259	4371
911.374	4390
911.489	4261
911.604	4295
911.718	4166
911.833	4162
911.947	4082
912.062	4044
912.176	4215
912.291	4230
912.405	4272
912.519	4443
912.633	4497
912.748	4379
912.862	4287
912.976	4242
913.09	4082
913.204	4207
913.318	4291
913.431	4390
913.545	4383
913.659	4398
913.772	4337
913.886	4242
914	4268
914.113	4394
914.226	4455
914.34	4390
914.453	4230
914.566	4462
914.68	4306
914.793	4325
914.906	4173
915.019	4093
915.132	4101
915.245	4177
915.358	4200
915.47	4207
915.583	4257
915.696	4280
915.809	4394
915.921	4436
916.034	4280
916.146	4261
916.259	4242
916.371	4390
916.483	4337
916.595	4280
916.708	4314
916.82	4314
916.932	4299
917.044	4329
917.156	4341
917.268	4215
917.38	4268
917.491	4310
917.603	4341
917.715	4451
917.826	4413
917.938	4394
918.049	4261
918.161	4356
918.272	4561
918.384	4523
918.495	4440
918.606	4299
918.717	4253
918.828	4306
918.939	4356
919.05	4276
919.161	4322
919.272	4120
919.383	4238
919.494	4466
919.604	4622
919.715	4466
919.826	4329
919.936	4394
920.047	4512
920.157	4481
920.267	4694
920.378	4497
920.488	4481
920.598	4653
920.708	4870
920.818	4744
920.928	4702
921.038	4968
921.148	4942
921.258	4649
921.368	4569
921.477	4500
921.587	4436
921.697	4405
921.806	4569
921.916	4413
922.025	4261
922.134	4291
922.244	4238
922.353	4337
922.462	4124
922.571	4139
922.68	4002
922.789	3964
922.898	4048
923.007	3983
923.116	4109
923.224	4051
923.333	4071
923.442	3983
923.55	3972
923.659	3998
923.767	4074
923.876	4040
923.984	4086
924.092	3991
924.201	4093
924.309	4067
924.417	4150
924.525	4059
924.633	4086
924.741	5094
924.849	3915
924.956	4150
925.064	3964
925.172	3892
925.279	3953
925.387	4063
925.494	4105
925.602	4242
925.709	4162
925.816	4074
925.924	4109
926.031	4207
926.138	4177
926.245	4223
926.352	4097
926.459	4227
926.566	4291
926.673	4166
926.779	4071
926.886	4048
926.993	4021
927.099	3953
927.206	3945
927.312	3983
927.419	4059
927.525	4029
927.631	4109
927.737	3979
927.843	3941
927.95	3838
928.056	3960
928.162	4032
928.267	4048
928.373	4546
928.479	4139
928.585	3888
928.69	4036
928.796	4029
928.901	3953
929.007	3846
929.112	3991
929.218	3934
929.323	3972
929.428	3937
929.533	4097
929.638	3972
929.743	3964
929.848	4010
929.953	3994
930.058	3926
930.163	3774
930.267	3842
930.372	3960
930.477	3800
930.581	4067
930.685	3956
930.79	3819
930.894	3850
930.998	3888
931.103	4051
931.207	3663
931.311	3701
931.415	3663
931.519	3511
931.623	3557
