Data from test_V78500241_1605.txt Node
Date: Fri Mar 25 17:00:09 CST 2022
User: usil
Spectrometer: V785-0024
Trigger mode: 0
Integration Time (sec): 4.000000E-1
Scans to average: 1
Nonlinearity correction enabled: false
Boxcar width: 0
Storing dark spectrum: false
XAxis mode: Wavelengths
Number of Pixels in Spectrum: 1024
>>>>>Begin Spectral Data<<<<<
801.071	7978
801.214	7982
801.356	7879
801.499	7898
801.641	7837
801.783	7852
801.926	7928
802.068	7875
802.211	8043
802.353	7944
802.496	7852
802.638	7852
802.78	7883
802.923	7837
803.065	7837
803.208	7830
803.35	7986
803.492	8054
803.635	8111
803.777	7974
803.919	8119
804.061	8423
804.204	8176
804.346	8012
804.488	8043
804.63	8111
804.773	7978
804.915	8126
805.057	8298
805.199	8225
805.341	8218
805.483	8328
805.626	8225
805.768	8096
805.91	8172
806.052	8218
806.194	8142
806.336	8233
806.478	8046
806.62	8077
806.762	8119
806.904	8347
807.046	8511
807.188	8446
807.33	8317
807.472	8282
807.614	8164
807.756	8126
807.898	7989
808.04	7826
808.182	7856
808.324	7894
808.465	7898
808.607	8081
808.749	8096
808.891	8202
809.033	8290
809.174	8172
809.316	8035
809.458	8073
809.6	8024
809.741	8069
809.883	7970
810.025	8073
810.166	8008
810.308	8016
810.45	7951
810.591	7784
810.733	7738
810.875	7712
811.016	7506
811.158	7472
811.299	7544
811.441	7704
811.582	7647
811.724	7559
811.865	7506
812.007	7525
812.148	7575
812.29	7594
812.431	7788
812.573	7917
812.714	8016
812.855	8142
812.997	8123
813.138	8233
813.279	8202
813.421	8088
813.562	7982
813.703	7811
813.845	7712
813.986	7457
814.127	7236
814.268	7217
814.41	7228
814.551	7183
814.692	7217
814.833	7088
814.974	7080
815.115	7122
815.256	6932
815.397	6943
815.539	6951
815.68	6734
815.821	6795
815.962	6947
816.103	6825
816.244	6700
816.385	6612
816.526	6620
816.666	6437
816.807	6304
816.948	6388
817.089	6536
817.23	6410
817.371	6372
817.512	6357
817.653	6399
817.793	6319
817.934	6414
818.075	6464
818.216	6414
818.356	6441
818.497	6304
818.638	6133
818.778	6186
818.919	6197
819.06	6152
819.2	6346
819.341	6327
819.481	6403
819.622	6513
819.762	6768
819.903	6749
820.043	6559
820.184	6566
820.324	6551
820.465	6730
820.605	6650
820.746	6696
820.886	6509
821.026	6658
821.167	6681
821.307	6798
821.447	6745
821.588	6673
821.728	6490
821.868	6456
822.008	6350
822.149	6380
822.289	6346
822.429	6209
822.569	6068
822.709	6110
822.849	5866
822.99	5817
823.13	5908
823.27	5954
823.41	5707
823.55	5767
823.69	5786
823.83	5809
823.97	5630
824.11	5505
824.25	5459
824.389	5547
824.529	5524
824.669	5505
824.809	5638
824.949	5707
825.089	5649
825.228	5524
825.368	5391
825.508	5353
825.648	5330
825.787	5440
825.927	5425
826.067	5326
826.206	5349
826.346	5410
826.485	5372
826.625	5379
826.765	5543
826.904	5474
827.044	5223
827.183	5178
827.323	5109
827.462	5254
827.601	5178
827.741	5136
827.88	5246
828.02	5094
828.159	5220
828.298	5280
828.437	5379
828.577	5239
828.716	5486
828.855	5334
828.994	5166
829.134	5174
829.273	5178
829.412	5136
829.551	5174
829.69	5174
829.829	5216
829.968	5326
830.107	5284
830.246	5277
830.385	5174
830.524	5155
830.663	5014
830.802	4953
830.941	4915
831.08	4854
831.219	4968
831.357	4968
831.496	5151
831.635	4953
831.774	4862
831.913	4831
832.051	4755
832.19	4752
832.329	4793
832.467	4698
832.606	4649
832.744	4721
832.883	4725
833.022	4752
833.16	4790
833.299	4831
833.437	4801
833.576	4786
833.714	4835
833.852	4854
833.991	4927
834.129	4927
834.267	4881
834.406	4938
834.544	4965
834.682	5006
834.821	4934
834.959	5109
835.097	4972
835.235	5174
835.373	5086
835.511	5136
835.65	4984
835.788	5003
835.926	4847
836.064	4850
836.202	4904
836.34	5197
836.478	5189
836.615	5128
836.753	5174
836.891	5254
837.029	5250
837.167	5231
837.305	5151
837.443	5155
837.58	5079
837.718	5193
837.856	5220
837.993	5132
838.131	5254
838.269	5174
838.406	5189
838.544	5151
838.681	5056
838.819	4999
838.956	4942
839.094	4904
839.231	4987
839.369	5094
839.506	5433
839.643	5250
839.781	5090
839.918	5014
840.055	5090
840.193	5143
840.33	5109
840.467	5159
840.604	5147
840.742	5524
840.879	5037
841.016	5025
841.153	5155
841.29	5353
841.427	5307
841.564	5261
841.701	5307
841.838	5299
841.975	5174
842.112	5231
842.249	5140
842.385	5090
842.522	5311
842.659	5178
842.796	5178
842.933	5204
843.069	5102
843.206	5216
843.343	5284
843.479	5280
843.616	5239
843.752	5048
843.889	4991
844.025	5204
844.162	5075
844.298	5212
844.435	5124
844.571	5037
844.708	5181
844.844	5269
844.98	5360
845.117	5277
845.253	5162
845.389	5075
845.525	5178
845.661	5117
845.798	5048
845.934	5136
846.07	5041
846.206	5231
846.342	5242
846.478	5159
846.614	5010
846.75	4980
846.886	4923
847.022	5083
847.158	4995
847.294	5071
847.429	5098
847.565	5041
847.701	5337
847.837	4854
847.972	4812
848.108	4949
848.244	4980
848.379	4812
848.515	4706
848.65	4752
848.786	4778
848.921	4786
849.057	4805
849.192	4904
849.328	4828
849.463	4877
849.598	4767
849.734	4816
849.869	4702
850.004	4622
850.14	4668
850.275	4607
850.41	4596
850.545	4630
850.68	4596
850.815	4592
850.95	4675
851.085	4847
851.22	4771
851.355	4645
851.49	4641
851.625	4599
851.76	4622
851.895	4516
852.03	4535
852.165	4675
852.299	4733
852.434	4733
852.569	4748
852.703	4767
852.838	4831
852.973	4934
853.107	4961
853.242	4702
853.376	4626
853.511	4558
853.645	4637
853.78	4820
853.914	4675
854.048	4641
854.183	4577
854.317	4683
854.451	4858
854.585	4672
854.72	4649
854.854	4778
854.988	4599
855.122	4618
855.256	4535
855.39	4668
855.524	4767
855.658	4744
855.792	4710
855.926	4710
856.06	4733
856.194	4786
856.327	4664
856.461	4577
856.595	4558
856.729	4584
856.862	4759
856.996	4679
857.13	4774
857.263	4763
857.397	4793
857.53	4611
857.664	4736
857.797	4702
857.931	4778
858.064	4717
858.197	4721
858.331	4615
858.464	4611
858.597	4485
858.731	4637
858.864	4641
858.997	4596
859.13	4634
859.263	4664
859.396	4649
859.529	4611
859.662	4577
859.795	4516
859.928	4599
860.061	4816
860.194	4736
860.327	4569
860.46	4561
860.592	4660
860.725	4687
860.858	4702
860.99	4569
861.123	4523
861.256	4493
861.388	4626
861.521	5136
861.653	4481
861.786	4421
861.918	4466
862.05	4489
862.183	4554
862.315	4584
862.447	4656
862.58	4538
862.712	4367
862.844	4360
862.976	4466
863.108	4455
863.24	4755
863.372	4325
863.504	4394
863.636	4390
863.768	4462
863.9	4424
864.032	4383
864.164	4417
864.296	4474
864.428	4523
864.559	4508
864.691	4588
864.823	4478
864.954	4535
865.086	4531
865.217	4478
865.349	4386
865.48	4424
865.612	4489
865.743	4656
865.875	4447
866.006	4417
866.137	4428
866.269	4489
866.4	4451
866.531	4413
866.662	4363
866.793	4409
866.924	4428
867.055	4478
867.186	4443
867.317	4432
867.448	4352
867.579	4398
867.71	4447
867.841	4402
867.972	4462
868.103	4436
868.233	4455
868.364	4413
868.495	4512
868.625	4664
868.756	4740
868.886	4569
869.017	4645
869.147	4786
869.278	4721
869.408	4714
869.539	4664
869.669	4717
869.799	4736
869.929	4763
870.06	4702
870.19	4976
870.32	4923
870.45	4934
870.58	5022
870.71	5075
870.84	5090
870.97	4934
871.1	4854
871.23	5090
871.36	5181
871.489	5025
871.619	5071
871.749	5094
871.879	5094
872.008	5109
872.138	5041
872.267	4968
872.397	4873
872.526	4786
872.656	4755
872.785	4816
872.915	4972
873.044	5025
873.173	4934
873.303	4991
873.432	4961
873.561	5010
873.69	4919
873.819	4850
873.948	4923
874.077	4809
874.206	4812
874.335	4778
874.464	4949
874.593	5083
874.722	4946
874.851	5060
874.979	5071
875.108	5037
875.237	4923
875.365	4892
875.494	4866
875.623	4995
875.751	4793
875.88	4870
876.008	5037
876.136	5006
876.265	5178
876.393	5307
876.521	5261
876.65	5201
876.778	5136
876.906	5071
877.034	5010
877.162	5052
877.29	5003
877.418	5056
877.546	5079
877.674	5060
877.802	5022
877.93	4984
878.058	4953
878.185	4854
878.313	5014
878.441	4957
878.568	4786
878.696	4877
878.824	4946
878.951	5025
879.079	5166
879.206	5299
879.333	5117
879.461	4991
879.588	5018
879.715	5098
879.842	5258
879.97	4953
880.097	4763
880.224	4767
880.351	4778
880.478	4786
880.605	4805
880.732	4759
880.859	5022
880.986	4877
881.112	4877
881.239	4771
881.366	4687
881.493	4626
881.619	4573
881.746	4626
881.872	4622
881.999	4656
882.125	4710
882.252	4809
882.378	4858
882.505	4961
882.631	4782
882.757	4645
882.883	4740
883.01	4698
883.136	4653
883.262	4630
883.388	4596
883.514	4824
883.64	4850
883.766	4812
883.892	4615
884.018	4706
884.143	4866
884.269	5033
884.395	4691
884.52	4607
884.646	4668
884.772	4592
884.897	4561
885.023	4698
885.148	4733
885.274	4866
885.399	4843
885.524	4755
885.65	4649
885.775	4767
885.9	4706
886.025	4896
886.15	4812
886.275	4740
886.4	4611
886.525	4755
886.65	4675
886.775	4694
886.9	4881
887.025	5048
887.149	4748
887.274	4634
887.399	4622
887.523	4611
887.648	4554
887.773	4527
887.897	4786
888.021	4771
888.146	4660
888.27	4812
888.395	4881
888.519	4774
888.643	4782
888.767	4850
888.891	4687
889.015	4561
889.139	4672
889.263	4599
889.387	4710
889.511	4862
889.635	4774
889.759	4622
889.883	4618
890.006	4702
890.13	4881
890.254	4584
890.377	4698
890.501	4542
890.624	4504
890.748	4641
890.871	4512
890.995	4481
891.118	4402
891.241	4523
891.364	4531
891.488	4630
891.611	4497
891.734	4512
891.857	4630
891.98	4527
892.103	4615
892.226	4580
892.349	4485
892.471	4383
892.594	4577
892.717	4577
892.839	4550
892.962	4637
893.085	4630
893.207	4577
893.33	4500
893.452	4546
893.575	4641
893.697	4558
893.819	4854
893.941	4771
894.064	4782
894.186	4558
894.308	4565
894.43	4778
894.552	4778
894.674	4767
894.796	4538
894.918	4565
895.04	4580
895.161	4702
895.283	4717
895.405	4546
895.526	4660
895.648	4698
895.769	4672
895.891	4736
896.012	4714
896.134	4710
896.255	4630
896.376	4691
896.498	4584
896.619	4630
896.74	4618
896.861	4672
896.982	4892
897.103	5060
897.224	4828
897.345	4733
897.466	4736
897.587	4752
897.708	4850
897.828	4771
897.949	4679
898.07	4531
898.19	4626
898.311	4771
898.431	4668
898.552	4778
898.672	4767
898.792	4835
898.913	4683
899.033	4634
899.153	4512
899.273	4390
899.393	4493
899.513	4500
899.633	4516
899.753	4531
899.873	4512
899.993	4538
900.113	4538
900.232	4573
900.352	4516
900.472	4474
900.591	4371
900.711	4508
900.83	4409
900.95	4622
901.069	4694
901.189	4561
901.308	4417
901.427	4337
901.546	4402
901.665	4428
901.784	4519
901.904	4383
902.023	4318
902.141	4227
902.26	4105
902.379	4310
902.498	4276
902.617	4249
902.735	4344
902.854	4352
902.973	4375
903.091	4223
903.21	4230
903.328	4291
903.446	4246
903.565	4291
903.683	4356
903.801	4261
903.919	4432
904.038	4440
904.156	4303
904.274	4432
904.392	4413
904.51	4421
904.627	4421
904.745	4603
904.863	4634
904.981	4379
905.098	4299
905.216	4375
905.334	4455
905.451	4413
905.569	4470
905.686	4596
905.803	4580
905.921	4386
906.038	4550
906.155	4478
906.272	4440
906.389	4451
906.506	4344
906.623	4367
906.74	4413
906.857	4303
906.974	4329
907.091	4527
907.208	4698
907.324	4565
907.441	4466
907.557	4303
907.674	4314
907.79	4348
907.907	4379
908.023	4493
908.139	4462
908.256	4447
908.372	4447
908.488	4451
908.604	4383
908.72	4322
908.836	4379
908.952	4405
909.068	4383
909.184	4584
909.3	4459
909.415	4569
909.531	4519
909.647	4341
909.762	4344
909.878	4341
909.993	4421
910.108	4440
910.224	4352
910.339	4409
910.454	4383
910.57	4295
910.685	4352
910.8	4645
910.915	4603
911.03	4455
911.145	4291
911.259	4325
911.374	4363
911.489	4303
911.604	4276
911.718	4188
911.833	4200
911.947	4078
912.062	4101
912.176	4154
912.291	4261
912.405	4280
912.519	4432
912.633	4504
912.748	4367
912.862	4314
912.976	4234
913.09	4124
913.204	4188
913.318	4234
913.431	4390
913.545	4348
913.659	4375
913.772	4344
913.886	4227
914	4234
914.113	4348
914.226	4451
914.34	4459
914.453	4272
914.566	4443
914.68	4272
914.793	4367
914.906	4124
915.019	4128
915.132	4074
915.245	4227
915.358	4219
915.47	4215
915.583	4261
915.696	4322
915.809	4371
915.921	4402
916.034	4268
916.146	4246
916.259	4177
916.371	4367
916.483	4341
916.595	4227
916.708	4295
916.82	4344
916.932	4367
917.044	4268
917.156	4352
917.268	4227
917.38	4253
917.491	4253
917.603	4280
917.715	4424
917.826	4386
917.938	4356
918.049	4196
918.161	4360
918.272	4592
918.384	4504
918.495	4459
918.606	4280
918.717	4242
918.828	4314
918.939	4360
919.05	4227
919.161	4291
919.272	4143
919.383	4204
919.494	4428
919.604	4706
919.715	4402
919.826	4306
919.936	4379
920.047	4500
920.157	4447
920.267	4664
920.378	4546
920.488	4489
920.598	4702
920.708	4866
920.818	4778
920.928	4782
921.038	4972
921.148	4961
921.258	4615
921.368	4554
921.477	4421
921.587	4424
921.697	4363
921.806	4577
921.916	4405
922.025	4276
922.134	4257
922.244	4192
922.353	4363
922.462	4162
922.571	4116
922.68	4002
922.789	4017
922.898	3994
923.007	3960
923.116	4097
923.224	4032
923.333	4078
923.442	4002
923.55	3960
923.659	4036
923.767	4097
923.876	3994
923.984	4131
924.092	3960
924.201	4086
924.309	4101
924.417	4082
924.525	4109
924.633	4044
924.741	4908
924.849	3926
924.956	4139
925.064	3945
925.172	3888
925.279	3960
925.387	4013
925.494	4055
925.602	4249
925.709	4162
925.816	4059
925.924	4162
926.031	4204
926.138	4181
926.245	4181
926.352	4067
926.459	4234
926.566	4310
926.673	4177
926.779	4074
926.886	4025
926.993	3968
927.099	3949
927.206	3972
927.312	3983
927.419	4078
927.525	4051
927.631	4109
927.737	3975
927.843	3972
927.95	3827
928.056	3987
928.162	3972
928.267	4082
928.373	4577
928.479	4135
928.585	3819
928.69	3991
928.796	4112
928.901	3998
929.007	3842
929.112	4055
929.218	3998
929.323	3968
929.428	3941
929.533	4128
929.638	3922
929.743	3991
929.848	4029
929.953	4044
930.058	3915
930.163	3808
930.267	3819
930.372	3964
930.477	3808
930.581	4078
930.685	3926
930.79	3778
930.894	3903
930.998	3842
931.103	4059
931.207	3705
931.311	3682
931.415	3690
931.519	3504
931.623	3561
