Data from test_V78500241_2675.txt Node
Date: Fri Mar 25 17:07:36 CST 2022
User: usil
Spectrometer: V785-0024
Trigger mode: 0
Integration Time (sec): 4.000000E-1
Scans to average: 1
Nonlinearity correction enabled: false
Boxcar width: 0
Storing dark spectrum: false
XAxis mode: Wavelengths
Number of Pixels in Spectrum: 1024
>>>>>Begin Spectral Data<<<<<
801.071	8012
801.214	7989
801.356	7837
801.499	7902
801.641	7742
801.783	7849
801.926	8043
802.068	8005
802.211	8001
802.353	8073
802.496	7921
802.638	7856
802.78	7890
802.923	7944
803.065	7883
803.208	7871
803.35	8005
803.492	8180
803.635	8233
803.777	8005
803.919	8195
804.061	8492
804.204	8187
804.346	8096
804.488	7921
804.63	8115
804.773	8062
804.915	8046
805.057	8229
805.199	8142
805.341	8210
805.483	8298
805.626	8191
805.768	8187
805.91	8229
806.052	8206
806.194	8153
806.336	8332
806.478	8092
806.62	8035
806.762	8168
806.904	8279
807.046	8408
807.188	8381
807.33	8252
807.472	8320
807.614	8119
807.756	8157
807.898	8016
808.04	7841
808.182	7883
808.324	7879
808.465	7921
808.607	8138
808.749	8168
808.891	8240
809.033	8263
809.174	8206
809.316	8134
809.458	8123
809.6	7917
809.741	8016
809.883	8046
810.025	8210
810.166	8065
810.308	8073
810.45	7967
810.591	7860
810.733	7757
810.875	7655
811.016	7575
811.158	7468
811.299	7578
811.441	7731
811.582	7693
811.724	7548
811.865	7567
812.007	7563
812.148	7636
812.29	7605
812.431	7723
812.573	7860
812.714	7993
812.855	8168
812.997	8183
813.138	8286
813.279	8229
813.421	8077
813.562	8020
813.703	7936
813.845	7704
813.986	7426
814.127	7305
814.268	7202
814.41	7164
814.551	7194
814.692	7190
814.833	7091
814.974	7103
815.115	7099
815.256	6985
815.397	6897
815.539	6920
815.68	6791
815.821	6745
815.962	6821
816.103	6829
816.244	6719
816.385	6608
816.526	6593
816.666	6570
816.807	6289
816.948	6437
817.089	6521
817.23	6410
817.371	6365
817.512	6380
817.653	6414
817.793	6357
817.934	6460
818.075	6464
818.216	6414
818.356	6460
818.497	6251
818.638	6136
818.778	6163
818.919	6106
819.06	6190
819.2	6300
819.341	6342
819.481	6350
819.622	6574
819.762	6715
819.903	6688
820.043	6578
820.184	6635
820.324	6555
820.465	6726
820.605	6703
820.746	6707
820.886	6471
821.026	6726
821.167	6692
821.307	6810
821.447	6715
821.588	6612
821.728	6566
821.868	6456
822.008	6262
822.149	6350
822.289	6334
822.429	6171
822.569	6102
822.709	6083
822.849	5942
822.99	5931
823.13	5961
823.27	5897
823.41	5783
823.55	5844
823.69	5771
823.83	5775
823.97	5634
824.11	5474
824.25	5524
824.389	5562
824.529	5562
824.669	5520
824.809	5608
824.949	5657
825.089	5634
825.228	5547
825.368	5417
825.508	5357
825.648	5383
825.787	5417
825.927	5391
826.067	5322
826.206	5288
826.346	5357
826.485	5383
826.625	5395
826.765	5520
826.904	5512
827.044	5242
827.183	5216
827.323	5189
827.462	5231
827.601	5174
827.741	5181
827.88	5212
828.02	5121
828.159	5212
828.298	5280
828.437	5391
828.577	5242
828.716	5573
828.855	5311
828.994	5166
829.134	5132
829.273	5189
829.412	5155
829.551	5178
829.69	5151
829.829	5250
829.968	5349
830.107	5284
830.246	5296
830.385	5197
830.524	5155
830.663	5064
830.802	4953
830.941	4900
831.08	4816
831.219	4961
831.357	4927
831.496	5185
831.635	4968
831.774	4854
831.913	4850
832.051	4752
832.19	4767
832.329	4812
832.467	4698
832.606	4615
832.744	4736
832.883	4729
833.022	4748
833.16	4752
833.299	4820
833.437	4805
833.576	4873
833.714	4839
833.852	4843
833.991	4873
834.129	4961
834.267	4953
834.406	4904
834.544	4995
834.682	4991
834.821	4957
834.959	5132
835.097	4961
835.235	5159
835.373	5075
835.511	5045
835.65	5079
835.788	5033
835.926	4885
836.064	4877
836.202	4908
836.34	5155
836.478	5185
836.615	5124
836.753	5197
836.891	5307
837.029	5277
837.167	5189
837.305	5178
837.443	5155
837.58	5079
837.718	5311
837.856	5155
837.993	5174
838.131	5227
838.269	5250
838.406	5246
838.544	5143
838.681	5056
838.819	5010
838.956	4896
839.094	4892
839.231	4968
839.369	5064
839.506	5398
839.643	5239
839.781	5090
839.918	4999
840.055	5105
840.193	5128
840.33	5075
840.467	5155
840.604	5124
840.742	5433
840.879	5102
841.016	5124
841.153	5117
841.29	5368
841.427	5387
841.564	5296
841.701	5349
841.838	5277
841.975	5231
842.112	5246
842.249	5159
842.385	5075
842.522	5261
842.659	5166
842.796	5121
842.933	5185
843.069	5124
843.206	5193
843.343	5284
843.479	5258
843.616	5239
843.752	5037
843.889	5056
844.025	5178
844.162	4942
844.298	5246
844.435	5086
844.571	5037
844.708	5193
844.844	5284
844.98	5284
845.117	5296
845.253	5166
845.389	5109
845.525	5170
845.661	5155
845.798	5045
845.934	5128
846.07	5033
846.206	5162
846.342	5292
846.478	5208
846.614	5052
846.75	5010
846.886	4938
847.022	5128
847.158	5022
847.294	5037
847.429	5098
847.565	5052
847.701	5299
847.837	4862
847.972	4824
848.108	4946
848.244	4908
848.379	4790
848.515	4729
848.65	4740
848.786	4748
848.921	4774
849.057	4866
849.192	4915
849.328	4793
849.463	4805
849.598	4767
849.734	4755
849.869	4748
850.004	4691
850.14	4645
850.275	4607
850.41	4558
850.545	4546
850.68	4592
850.815	4596
850.95	4634
851.085	4873
851.22	4748
851.355	4656
851.49	4649
851.625	4668
851.76	4611
851.895	4580
852.03	4580
852.165	4637
852.299	4748
852.434	4778
852.569	4744
852.703	4778
852.838	4847
852.973	4896
853.107	4889
853.242	4774
853.376	4645
853.511	4512
853.645	4592
853.78	4759
853.914	4630
854.048	4679
854.183	4645
854.317	4702
854.451	4866
854.585	4687
854.72	4626
854.854	4729
854.988	4615
855.122	4611
855.256	4516
855.39	4660
855.524	4782
855.658	4679
855.792	4729
855.926	4733
856.06	4778
856.194	4797
856.327	4679
856.461	4573
856.595	4565
856.729	4634
856.862	4744
856.996	4717
857.13	4736
857.263	4748
857.397	4835
857.53	4626
857.664	4694
857.797	4748
857.931	4748
858.064	4710
858.197	4717
858.331	4649
858.464	4611
858.597	4508
858.731	4649
858.864	4656
858.997	4599
859.13	4679
859.263	4687
859.396	4675
859.529	4584
859.662	4588
859.795	4558
859.928	4645
860.061	4824
860.194	4736
860.327	4592
860.46	4599
860.592	4740
860.725	4752
860.858	4698
860.99	4599
861.123	4474
861.256	4523
861.388	4599
861.521	5440
861.653	4489
861.786	4470
861.918	4462
862.05	4527
862.183	4535
862.315	4596
862.447	4706
862.58	4512
862.712	4402
862.844	4322
862.976	4489
863.108	4428
863.24	4752
863.372	4322
863.504	4405
863.636	4398
863.768	4485
863.9	4405
864.032	4329
864.164	4443
864.296	4462
864.428	4558
864.559	4558
864.691	4546
864.823	4538
864.954	4542
865.086	4531
865.217	4447
865.349	4402
865.48	4436
865.612	4481
865.743	4653
865.875	4421
866.006	4409
866.137	4478
866.269	4424
866.4	4428
866.531	4455
866.662	4375
866.793	4398
866.924	4424
867.055	4451
867.186	4440
867.317	4478
867.448	4375
867.579	4383
867.71	4398
867.841	4394
867.972	4447
868.103	4466
868.233	4443
868.364	4447
868.495	4462
868.625	4653
868.756	4710
868.886	4561
869.017	4637
869.147	4782
869.278	4786
869.408	4645
869.539	4618
869.669	4725
869.799	4668
869.929	4755
870.06	4740
870.19	4930
870.32	4877
870.45	4896
870.58	4980
870.71	5109
870.84	5052
870.97	4923
871.1	4919
871.23	5109
871.36	5159
871.489	5022
871.619	5109
871.749	5140
871.879	5166
872.008	5155
872.138	5113
872.267	5025
872.397	4839
872.526	4763
872.656	4714
872.785	4801
872.915	4972
873.044	5041
873.173	4938
873.303	4980
873.432	4915
873.561	5041
873.69	4942
873.819	4862
873.948	4866
874.077	4835
874.206	4812
874.335	4820
874.464	4889
874.593	5064
874.722	4991
874.851	5117
874.979	5056
875.108	5014
875.237	4942
875.365	4881
875.494	4892
875.623	4961
875.751	4790
875.88	4877
876.008	4980
876.136	5052
876.265	5204
876.393	5334
876.521	5258
876.65	5216
876.778	5132
876.906	5014
877.034	4999
877.162	5067
877.29	5022
877.418	5033
877.546	5048
877.674	5033
877.802	4980
877.93	5022
878.058	4923
878.185	4862
878.313	4923
878.441	4930
878.568	4793
878.696	4927
878.824	4873
878.951	5018
879.079	5098
879.206	5341
879.333	5064
879.461	5022
879.588	5033
879.715	5090
879.842	5162
879.97	5045
880.097	4786
880.224	4694
880.351	4858
880.478	4843
880.605	4771
880.732	4790
880.859	5041
880.986	4908
881.112	4847
881.239	4774
881.366	4668
881.493	4649
881.619	4512
881.746	4649
881.872	4626
881.999	4664
882.125	4626
882.252	4759
882.378	4820
882.505	4968
882.631	4801
882.757	4725
882.883	4755
883.01	4744
883.136	4637
883.262	4577
883.388	4603
883.514	4786
883.64	4862
883.766	4767
883.892	4656
884.018	4797
884.143	4809
884.269	5083
884.395	4645
884.52	4622
884.646	4687
884.772	4558
884.897	4565
885.023	4641
885.148	4812
885.274	4843
885.399	4812
885.524	4725
885.65	4694
885.775	4740
885.9	4691
886.025	4877
886.15	4805
886.275	4698
886.4	4626
886.525	4721
886.65	4672
886.775	4729
886.9	4900
887.025	5033
887.149	4812
887.274	4683
887.399	4592
887.523	4603
887.648	4565
887.773	4592
887.897	4752
888.021	4778
888.146	4626
888.27	4835
888.395	4911
888.519	4801
888.643	4809
888.767	4820
888.891	4664
889.015	4599
889.139	4653
889.263	4599
889.387	4748
889.511	4870
889.635	4793
889.759	4672
889.883	4622
890.006	4706
890.13	4854
890.254	4645
890.377	4679
890.501	4550
890.624	4550
890.748	4599
890.871	4485
890.995	4413
891.118	4409
891.241	4512
891.364	4580
891.488	4656
891.611	4466
891.734	4546
891.857	4611
891.98	4569
892.103	4615
892.226	4588
892.349	4561
892.471	4409
892.594	4565
892.717	4611
892.839	4596
892.962	4565
893.085	4641
893.207	4588
893.33	4440
893.452	4554
893.575	4660
893.697	4607
893.819	4782
893.941	4816
894.064	4763
894.186	4630
894.308	4573
894.43	4767
894.552	4805
894.674	4725
894.796	4592
894.918	4603
895.04	4577
895.161	4706
895.283	4641
895.405	4588
895.526	4637
895.648	4672
895.769	4615
895.891	4752
896.012	4729
896.134	4725
896.255	4653
896.376	4626
896.498	4645
896.619	4691
896.74	4641
896.861	4660
896.982	4923
897.103	5079
897.224	4828
897.345	4736
897.466	4641
897.587	4691
897.708	4828
897.828	4755
897.949	4664
898.07	4580
898.19	4637
898.311	4824
898.431	4603
898.552	4717
898.672	4812
898.792	4793
898.913	4733
899.033	4592
899.153	4500
899.273	4462
899.393	4485
899.513	4554
899.633	4531
899.753	4538
899.873	4546
899.993	4565
900.113	4527
900.232	4592
900.352	4573
900.472	4470
900.591	4462
900.711	4489
900.83	4432
900.95	4603
901.069	4725
901.189	4462
901.308	4352
901.427	4344
901.546	4367
901.665	4447
901.784	4546
901.904	4356
902.023	4333
902.141	4204
902.26	4169
902.379	4333
902.498	4227
902.617	4234
902.735	4344
902.854	4352
902.973	4383
903.091	4196
903.21	4223
903.328	4318
903.446	4272
903.565	4287
903.683	4314
903.801	4299
903.919	4367
904.038	4417
904.156	4329
904.274	4394
904.392	4394
904.51	4478
904.627	4432
904.745	4569
904.863	4675
904.981	4443
905.098	4306
905.216	4402
905.334	4455
905.451	4451
905.569	4375
905.686	4569
905.803	4569
905.921	4394
906.038	4603
906.155	4485
906.272	4390
906.389	4470
906.506	4348
906.623	4348
906.74	4398
906.857	4318
906.974	4325
907.091	4550
907.208	4660
907.324	4554
907.441	4489
907.557	4360
907.674	4356
907.79	4367
907.907	4356
908.023	4451
908.139	4478
908.256	4436
908.372	4443
908.488	4451
908.604	4322
908.72	4295
908.836	4344
908.952	4413
909.068	4413
909.184	4569
909.3	4470
909.415	4603
909.531	4565
909.647	4306
909.762	4390
909.878	4333
909.993	4474
910.108	4417
910.224	4436
910.339	4516
910.454	4383
910.57	4356
910.685	4314
910.8	4744
910.915	4596
911.03	4523
911.145	4341
911.259	4322
911.374	4379
911.489	4318
911.604	4280
911.718	4188
911.833	4196
911.947	4082
912.062	4002
912.176	4204
912.291	4261
912.405	4265
912.519	4493
912.633	4497
912.748	4356
912.862	4287
912.976	4227
913.09	4067
913.204	4219
913.318	4268
913.431	4390
913.545	4379
913.659	4428
913.772	4367
913.886	4249
914	4246
914.113	4363
914.226	4451
914.34	4363
914.453	4219
914.566	4481
914.68	4280
914.793	4268
914.906	4105
915.019	4135
915.132	4063
915.245	4196
915.358	4200
915.47	4253
915.583	4265
915.696	4268
915.809	4383
915.921	4421
916.034	4242
916.146	4207
916.259	4211
916.371	4363
916.483	4390
916.595	4268
916.708	4329
916.82	4322
916.932	4329
917.044	4341
917.156	4295
917.268	4246
917.38	4280
917.491	4295
917.603	4356
917.715	4424
917.826	4474
917.938	4352
918.049	4261
918.161	4383
918.272	4573
918.384	4592
918.495	4478
918.606	4318
918.717	4238
918.828	4333
918.939	4329
919.05	4249
919.161	4310
919.272	4139
919.383	4188
919.494	4504
919.604	4653
919.715	4424
919.826	4329
919.936	4386
920.047	4596
920.157	4466
920.267	4656
920.378	4554
920.488	4462
920.598	4702
920.708	4854
920.818	4736
920.928	4748
921.038	4980
921.148	4938
921.258	4603
921.368	4546
921.477	4535
921.587	4493
921.697	4417
921.806	4538
921.916	4398
922.025	4268
922.134	4265
922.244	4223
922.353	4356
922.462	4143
922.571	4173
922.68	4010
922.789	3964
922.898	4013
923.007	3956
923.116	4105
923.224	4036
923.333	4067
923.442	3987
923.55	3964
923.659	4029
923.767	4131
923.876	3991
923.984	4078
924.092	4010
924.201	4139
924.309	4067
924.417	4093
924.525	4059
924.633	4101
924.741	5094
924.849	3922
924.956	4150
925.064	3964
925.172	3896
925.279	3968
925.387	4040
925.494	4082
925.602	4204
925.709	4154
925.816	4021
925.924	4143
926.031	4215
926.138	4177
926.245	4238
926.352	4116
926.459	4257
926.566	4306
926.673	4192
926.779	4082
926.886	4078
926.993	4006
927.099	3968
927.206	3972
927.312	3994
927.419	4051
927.525	4006
927.631	4135
927.737	3941
927.843	3994
927.95	3789
928.056	3983
928.162	4013
928.267	4044
928.373	4592
928.479	4105
928.585	3835
928.69	4013
928.796	4082
928.901	3956
929.007	3838
929.112	3956
929.218	4002
929.323	3884
929.428	3968
929.533	4071
929.638	3926
929.743	3972
929.848	3991
929.953	4010
930.058	3915
930.163	3827
930.267	3800
930.372	3964
930.477	3838
930.581	4097
930.685	3972
930.79	3819
930.894	3865
930.998	3846
931.103	4013
931.207	3637
931.311	3637
931.415	3648
931.519	3523
931.623	3511
