Data from test_V78500241_2836.txt Node
Date: Fri Mar 25 17:08:43 CST 2022
User: usil
Spectrometer: V785-0024
Trigger mode: 0
Integration Time (sec): 4.000000E-1
Scans to average: 1
Nonlinearity correction enabled: false
Boxcar width: 0
Storing dark spectrum: false
XAxis mode: Wavelengths
Number of Pixels in Spectrum: 1024
>>>>>Begin Spectral Data<<<<<
801.071	7997
801.214	8027
801.356	7902
801.499	7890
801.641	7837
801.783	7860
801.926	7978
802.068	7940
802.211	7993
802.353	7967
802.496	7860
802.638	7883
802.78	7909
802.923	7913
803.065	7883
803.208	7860
803.35	7932
803.492	8069
803.635	8138
803.777	8103
803.919	8153
804.061	8419
804.204	8123
804.346	8050
804.488	7917
804.63	8073
804.773	8035
804.915	8107
805.057	8271
805.199	8138
805.341	8214
805.483	8263
805.626	8176
805.768	8115
805.91	8229
806.052	8240
806.194	8088
806.336	8271
806.478	8119
806.62	8081
806.762	8107
806.904	8229
807.046	8503
807.188	8362
807.33	8339
807.472	8419
807.614	8168
807.756	8157
807.898	8088
808.04	7852
808.182	7864
808.324	7944
808.465	7932
808.607	8088
808.749	8142
808.891	8244
809.033	8381
809.174	8191
809.316	8088
809.458	8103
809.6	7982
809.741	8039
809.883	8050
810.025	8103
810.166	8119
810.308	8027
810.45	8012
810.591	7860
810.733	7826
810.875	7651
811.016	7601
811.158	7559
811.299	7632
811.441	7776
811.582	7723
811.724	7563
811.865	7537
812.007	7658
812.148	7537
812.29	7613
812.431	7818
812.573	7822
812.714	7986
812.855	8077
812.997	8237
813.138	8343
813.279	8153
813.421	8088
813.562	8046
813.703	7890
813.845	7799
813.986	7384
814.127	7266
814.268	7221
814.41	7206
814.551	7217
814.692	7225
814.833	7072
814.974	7118
815.115	7107
815.256	6970
815.397	6985
815.539	6966
815.68	6818
815.821	6745
815.962	6844
816.103	6875
816.244	6734
816.385	6677
816.526	6627
816.666	6513
816.807	6365
816.948	6395
817.089	6426
817.23	6410
817.371	6414
817.512	6426
817.653	6399
817.793	6353
817.934	6418
818.075	6429
818.216	6399
818.356	6448
818.497	6281
818.638	6125
818.778	6220
818.919	6125
819.06	6110
819.2	6311
819.341	6270
819.481	6350
819.622	6494
819.762	6776
819.903	6665
820.043	6589
820.184	6566
820.324	6574
820.465	6757
820.605	6711
820.746	6681
820.886	6532
821.026	6639
821.167	6719
821.307	6776
821.447	6837
821.588	6684
821.728	6593
821.868	6506
822.008	6338
822.149	6433
822.289	6350
822.429	6159
822.569	6110
822.709	6133
822.849	5927
822.99	5878
823.13	5946
823.27	5958
823.41	5908
823.55	5775
823.69	5737
823.83	5756
823.97	5634
824.11	5512
824.25	5505
824.389	5566
824.529	5638
824.669	5543
824.809	5638
824.949	5646
825.089	5589
825.228	5604
825.368	5379
825.508	5391
825.648	5357
825.787	5379
825.927	5376
826.067	5318
826.206	5353
826.346	5364
826.485	5395
826.625	5436
826.765	5532
826.904	5429
827.044	5273
827.183	5181
827.323	5147
827.462	5212
827.601	5162
827.741	5197
827.88	5250
828.02	5102
828.159	5242
828.298	5292
828.437	5349
828.577	5258
828.716	5482
828.855	5383
828.994	5143
829.134	5140
829.273	5155
829.412	5132
829.551	5113
829.69	5159
829.829	5296
829.968	5376
830.107	5284
830.246	5250
830.385	5162
830.524	5113
830.663	5071
830.802	4961
830.941	4915
831.08	4862
831.219	4999
831.357	5014
831.496	5162
831.635	4908
831.774	4862
831.913	4801
832.051	4748
832.19	4748
832.329	4850
832.467	4702
832.606	4630
832.744	4729
832.883	4744
833.022	4694
833.16	4782
833.299	4862
833.437	4847
833.576	4805
833.714	4850
833.852	4854
833.991	4892
834.129	4968
834.267	4927
834.406	4923
834.544	4953
834.682	4957
834.821	4965
834.959	5166
835.097	4995
835.235	5102
835.373	5090
835.511	5109
835.65	4991
835.788	5025
835.926	4881
836.064	4828
836.202	4911
836.34	5193
836.478	5208
836.615	5117
836.753	5147
836.891	5242
837.029	5292
837.167	5231
837.305	5155
837.443	5170
837.58	5052
837.718	5269
837.856	5178
837.993	5162
838.131	5212
838.269	5220
838.406	5235
838.544	5174
838.681	5037
838.819	5018
838.956	4896
839.094	4908
839.231	4987
839.369	5067
839.506	5410
839.643	5303
839.781	5033
839.918	4995
840.055	5067
840.193	5083
840.33	5094
840.467	5147
840.604	5090
840.742	5436
840.879	5083
841.016	5117
841.153	5159
841.29	5379
841.427	5349
841.564	5277
841.701	5322
841.838	5299
841.975	5269
842.112	5273
842.249	5083
842.385	5121
842.522	5277
842.659	5162
842.796	5185
842.933	5170
843.069	5113
843.206	5136
843.343	5280
843.479	5208
843.616	5265
843.752	5022
843.889	5003
844.025	5261
844.162	4976
844.298	5197
844.435	5086
844.571	5025
844.708	5197
844.844	5284
844.98	5277
845.117	5299
845.253	5083
845.389	5071
845.525	5132
845.661	5067
845.798	5037
845.934	5136
846.07	5014
846.206	5147
846.342	5284
846.478	5242
846.614	4972
846.75	4965
846.886	4930
847.022	5151
847.158	4980
847.294	5037
847.429	5056
847.565	5071
847.701	5307
847.837	4881
847.972	4771
848.108	4934
848.244	4930
848.379	4748
848.515	4702
848.65	4717
848.786	4755
848.921	4771
849.057	4843
849.192	4908
849.328	4850
849.463	4866
849.598	4759
849.734	4767
849.869	4679
850.004	4596
850.14	4630
850.275	4588
850.41	4500
850.545	4542
850.68	4577
850.815	4641
850.95	4672
851.085	4854
851.22	4733
851.355	4672
851.49	4599
851.625	4603
851.76	4653
851.895	4584
852.03	4569
852.165	4630
852.299	4759
852.434	4812
852.569	4698
852.703	4786
852.838	4786
852.973	4911
853.107	4953
853.242	4698
853.376	4664
853.511	4580
853.645	4634
853.78	4805
853.914	4714
854.048	4641
854.183	4622
854.317	4691
854.451	4862
854.585	4687
854.72	4630
854.854	4706
854.988	4607
855.122	4603
855.256	4500
855.39	4668
855.524	4801
855.658	4752
855.792	4683
855.926	4744
856.06	4771
856.194	4767
856.327	4679
856.461	4611
856.595	4584
856.729	4645
856.862	4736
856.996	4660
857.13	4744
857.263	4694
857.397	4793
857.53	4649
857.664	4740
857.797	4763
857.931	4763
858.064	4675
858.197	4759
858.331	4596
858.464	4596
858.597	4538
858.731	4603
858.864	4630
858.997	4634
859.13	4630
859.263	4672
859.396	4679
859.529	4497
859.662	4542
859.795	4535
859.928	4634
860.061	4733
860.194	4755
860.327	4561
860.46	4577
860.592	4691
860.725	4653
860.858	4744
860.99	4592
861.123	4523
861.256	4516
861.388	4577
861.521	5246
861.653	4443
861.786	4443
861.918	4451
862.05	4500
862.183	4565
862.315	4637
862.447	4634
862.58	4573
862.712	4394
862.844	4325
862.976	4489
863.108	4451
863.24	4706
863.372	4375
863.504	4417
863.636	4413
863.768	4500
863.9	4436
864.032	4360
864.164	4390
864.296	4481
864.428	4550
864.559	4538
864.691	4538
864.823	4504
864.954	4542
865.086	4485
865.217	4474
865.349	4432
865.48	4398
865.612	4485
865.743	4603
865.875	4500
866.006	4402
866.137	4481
866.269	4440
866.4	4481
866.531	4405
866.662	4409
866.793	4409
866.924	4398
867.055	4516
867.186	4443
867.317	4417
867.448	4333
867.579	4413
867.71	4367
867.841	4375
867.972	4398
868.103	4474
868.233	4432
868.364	4436
868.495	4459
868.625	4717
868.756	4725
868.886	4550
869.017	4649
869.147	4812
869.278	4786
869.408	4687
869.539	4637
869.669	4736
869.799	4698
869.929	4748
870.06	4740
870.19	4889
870.32	4858
870.45	4930
870.58	5003
870.71	5132
870.84	5113
870.97	4942
871.1	4873
871.23	5128
871.36	5113
871.489	4984
871.619	5060
871.749	5071
871.879	5136
872.008	5174
872.138	5060
872.267	4984
872.397	4824
872.526	4790
872.656	4679
872.785	4786
872.915	4908
873.044	5022
873.173	4957
873.303	4938
873.432	4953
873.561	4957
873.69	4850
873.819	4889
873.948	4908
874.077	4759
874.206	4729
874.335	4805
874.464	4877
874.593	5025
874.722	4984
874.851	5105
874.979	5025
875.108	4980
875.237	4946
875.365	4858
875.494	4873
875.623	4942
875.751	4866
875.88	4873
876.008	4957
876.136	5025
876.265	5128
876.393	5391
876.521	5220
876.65	5201
876.778	5174
876.906	5075
877.034	5003
877.162	5045
877.29	4946
877.418	5071
877.546	5022
877.674	5033
877.802	5033
877.93	5003
878.058	4919
878.185	4858
878.313	4946
878.441	4889
878.568	4782
878.696	4839
878.824	4976
878.951	4965
879.079	5128
879.206	5315
879.333	5117
879.461	5022
879.588	4968
879.715	5090
879.842	5246
879.97	4995
880.097	4755
880.224	4717
880.351	4816
880.478	4790
880.605	4763
880.732	4805
880.859	5075
880.986	4930
881.112	4919
881.239	4767
881.366	4645
881.493	4596
881.619	4596
881.746	4694
881.872	4653
881.999	4649
882.125	4691
882.252	4790
882.378	4881
882.505	4968
882.631	4850
882.757	4698
882.883	4759
883.01	4729
883.136	4691
883.262	4626
883.388	4630
883.514	4828
883.64	4892
883.766	4812
883.892	4729
884.018	4706
884.143	4915
884.269	5048
884.395	4717
884.52	4691
884.646	4664
884.772	4584
884.897	4599
885.023	4687
885.148	4824
885.274	4889
885.399	4847
885.524	4744
885.65	4706
885.775	4797
885.9	4733
886.025	4919
886.15	4877
886.275	4763
886.4	4721
886.525	4778
886.65	4740
886.775	4748
886.9	4961
887.025	5102
887.149	4885
887.274	4744
887.399	4561
887.523	4622
887.648	4588
887.773	4615
887.897	4877
888.021	4793
888.146	4694
888.27	4850
888.395	4915
888.519	4812
888.643	4892
888.767	4847
888.891	4702
889.015	4630
889.139	4653
889.263	4653
889.387	4748
889.511	4858
889.635	4862
889.759	4656
889.883	4717
890.006	4710
890.13	4946
890.254	4656
890.377	4694
890.501	4630
890.624	4580
890.748	4717
890.871	4508
890.995	4497
891.118	4470
891.241	4554
891.364	4558
891.488	4653
891.611	4546
891.734	4580
891.857	4634
891.98	4592
892.103	4687
892.226	4664
892.349	4523
892.471	4424
892.594	4577
892.717	4672
892.839	4622
892.962	4592
893.085	4641
893.207	4615
893.33	4519
893.452	4558
893.575	4714
893.697	4599
893.819	4824
893.941	4847
894.064	4805
894.186	4607
894.308	4599
894.43	4755
894.552	4870
894.674	4763
894.796	4565
894.918	4611
895.04	4565
895.161	4752
895.283	4710
895.405	4607
895.526	4706
895.648	4664
895.769	4687
895.891	4759
896.012	4717
896.134	4771
896.255	4706
896.376	4710
896.498	4641
896.619	4721
896.74	4675
896.861	4679
896.982	4923
897.103	5071
897.224	4885
897.345	4786
897.466	4717
897.587	4778
897.708	4938
897.828	4843
897.949	4675
898.07	4561
898.19	4691
898.311	4854
898.431	4740
898.552	4755
898.672	4816
898.792	4839
898.913	4774
899.033	4630
899.153	4489
899.273	4478
899.393	4531
899.513	4550
899.633	4558
899.753	4596
899.873	4493
899.993	4588
900.113	4577
900.232	4611
900.352	4592
900.472	4550
900.591	4443
900.711	4523
900.83	4447
900.95	4622
901.069	4675
901.189	4561
901.308	4383
901.427	4299
901.546	4436
901.665	4470
901.784	4519
901.904	4424
902.023	4356
902.141	4268
902.26	4173
902.379	4344
902.498	4246
902.617	4291
902.735	4394
902.854	4443
902.973	4383
903.091	4223
903.21	4253
903.328	4352
903.446	4265
903.565	4234
903.683	4379
903.801	4284
903.919	4440
904.038	4474
904.156	4337
904.274	4478
904.392	4413
904.51	4481
904.627	4538
904.745	4596
904.863	4706
904.981	4424
905.098	4325
905.216	4432
905.334	4462
905.451	4470
905.569	4447
905.686	4622
905.803	4622
905.921	4459
906.038	4626
906.155	4493
906.272	4470
906.389	4527
906.506	4371
906.623	4417
906.74	4413
906.857	4386
906.974	4367
907.091	4577
907.208	4729
907.324	4588
907.441	4512
907.557	4333
907.674	4394
907.79	4379
907.907	4451
908.023	4550
908.139	4611
908.256	4485
908.372	4485
908.488	4504
908.604	4390
908.72	4367
908.836	4443
908.952	4421
909.068	4428
909.184	4561
909.3	4485
909.415	4618
909.531	4550
909.647	4440
909.762	4413
909.878	4333
909.993	4455
910.108	4443
910.224	4424
910.339	4504
910.454	4466
910.57	4417
910.685	4333
910.8	4721
910.915	4664
911.03	4550
911.145	4333
911.259	4367
911.374	4356
911.489	4356
911.604	4295
911.718	4223
911.833	4234
911.947	4078
912.062	4029
912.176	4272
912.291	4249
912.405	4310
912.519	4489
912.633	4561
912.748	4402
912.862	4306
912.976	4173
913.09	4177
913.204	4211
913.318	4280
913.431	4405
913.545	4405
913.659	4436
913.772	4356
913.886	4287
914	4253
914.113	4390
914.226	4440
914.34	4424
914.453	4272
914.566	4459
914.68	4348
914.793	4386
914.906	4185
915.019	4188
915.132	4071
915.245	4173
915.358	4249
915.47	4265
915.583	4333
915.696	4329
915.809	4413
915.921	4478
916.034	4287
916.146	4257
916.259	4223
916.371	4428
916.483	4383
916.595	4310
916.708	4337
916.82	4310
916.932	4375
917.044	4363
917.156	4360
917.268	4238
917.38	4337
917.491	4287
917.603	4386
917.715	4432
917.826	4462
917.938	4360
918.049	4276
918.161	4424
918.272	4519
918.384	4546
918.495	4466
918.606	4322
918.717	4249
918.828	4344
918.939	4383
919.05	4272
919.161	4341
919.272	4135
919.383	4215
919.494	4451
919.604	4645
919.715	4462
919.826	4390
919.936	4386
920.047	4565
920.157	4565
920.267	4702
920.378	4622
920.488	4535
920.598	4748
920.708	4908
920.818	4744
920.928	4790
921.038	4965
921.148	4908
921.258	4637
921.368	4561
921.477	4508
921.587	4485
921.697	4394
921.806	4596
921.916	4481
922.025	4272
922.134	4310
922.244	4253
922.353	4371
922.462	4177
922.571	4135
922.68	4074
922.789	4010
922.898	4055
923.007	4017
923.116	4120
923.224	4074
923.333	4071
923.442	4036
923.55	3964
923.659	4040
923.767	4105
923.876	4051
923.984	4173
924.092	3987
924.201	4154
924.309	4097
924.417	4147
924.525	4105
924.633	4166
924.741	4866
924.849	3911
924.956	4162
925.064	3979
925.172	3922
925.279	4002
925.387	4067
925.494	4086
925.602	4230
925.709	4249
925.816	4029
925.924	4128
926.031	4249
926.138	4188
926.245	4280
926.352	4093
926.459	4261
926.566	4337
926.673	4200
926.779	4116
926.886	4055
926.993	3975
927.099	3972
927.206	3915
927.312	3949
927.419	4051
927.525	3994
927.631	4105
927.737	3956
927.843	3979
927.95	3888
928.056	3953
928.162	3960
928.267	4063
928.373	4538
928.479	4116
928.585	3857
928.69	4021
928.796	4101
928.901	3960
929.007	3876
929.112	4040
929.218	4025
929.323	3983
929.428	3964
929.533	4150
929.638	3934
929.743	3968
929.848	4044
929.953	4055
930.058	3915
930.163	3808
930.267	3861
930.372	4002
930.477	3869
930.581	4101
930.685	3972
930.79	3835
930.894	3907
930.998	3892
931.103	4055
931.207	3728
931.311	3717
931.415	3660
931.519	3496
931.623	3576
