Data from test_V78500241_457.txt Node
Date: Fri Mar 25 16:52:10 CST 2022
User: usil
Spectrometer: V785-0024
Trigger mode: 0
Integration Time (sec): 4.000000E-1
Scans to average: 1
Nonlinearity correction enabled: false
Boxcar width: 0
Storing dark spectrum: false
XAxis mode: Wavelengths
Number of Pixels in Spectrum: 1024
>>>>>Begin Spectral Data<<<<<
801.071	8062
801.214	7978
801.356	7849
801.499	7871
801.641	7833
801.783	7845
801.926	8031
802.068	7898
802.211	8024
802.353	8012
802.496	7818
802.638	7852
802.78	7944
802.923	7894
803.065	7871
803.208	7807
803.35	7986
803.492	8069
803.635	8107
803.777	7970
803.919	8096
804.061	8381
804.204	8130
804.346	7993
804.488	7932
804.63	8054
804.773	7978
804.915	8058
805.057	8317
805.199	8187
805.341	8229
805.483	8358
805.626	8134
805.768	8069
805.91	8111
806.052	8206
806.194	8138
806.336	8275
806.478	8123
806.62	8058
806.762	8126
806.904	8282
807.046	8431
807.188	8347
807.33	8225
807.472	8233
807.614	8050
807.756	8119
807.898	7986
808.04	7894
808.182	7928
808.324	7978
808.465	7978
808.607	8035
808.749	8065
808.891	8176
809.033	8229
809.174	8123
809.316	8065
809.458	8054
809.6	8020
809.741	8111
809.883	8008
810.025	8073
810.166	8062
810.308	8027
810.45	7989
810.591	7909
810.733	7693
810.875	7666
811.016	7510
811.158	7480
811.299	7597
811.441	7731
811.582	7693
811.724	7586
811.865	7590
812.007	7662
812.148	7636
812.29	7609
812.431	7769
812.573	7887
812.714	8092
812.855	8138
812.997	8256
813.138	8362
813.279	8271
813.421	8107
813.562	8100
813.703	7947
813.845	7811
813.986	7483
814.127	7293
814.268	7263
814.41	7213
814.551	7187
814.692	7240
814.833	7061
814.974	7118
815.115	7126
815.256	6966
815.397	6928
815.539	6943
815.68	6795
815.821	6764
815.962	6871
816.103	6825
816.244	6772
816.385	6631
816.526	6665
816.666	6536
816.807	6346
816.948	6490
817.089	6464
817.23	6460
817.371	6441
817.512	6342
817.653	6391
817.793	6399
817.934	6380
818.075	6479
818.216	6483
818.356	6399
818.497	6254
818.638	6133
818.778	6121
818.919	6136
819.06	6175
819.2	6266
819.341	6296
819.481	6353
819.622	6521
819.762	6772
819.903	6719
820.043	6574
820.184	6563
820.324	6559
820.465	6608
820.605	6635
820.746	6696
820.886	6536
821.026	6669
821.167	6749
821.307	6795
821.447	6745
821.588	6616
821.728	6593
821.868	6502
822.008	6342
822.149	6410
822.289	6353
822.429	6209
822.569	6102
822.709	6144
822.849	5946
822.99	5923
823.13	5950
823.27	5882
823.41	5783
823.55	5775
823.69	5794
823.83	5821
823.97	5684
824.11	5524
824.25	5535
824.389	5562
824.529	5558
824.669	5566
824.809	5649
824.949	5684
825.089	5596
825.228	5551
825.368	5349
825.508	5360
825.648	5349
825.787	5398
825.927	5337
826.067	5349
826.206	5296
826.346	5387
826.485	5417
826.625	5402
826.765	5566
826.904	5383
827.044	5280
827.183	5208
827.323	5105
827.462	5235
827.601	5189
827.741	5204
827.88	5216
828.02	5132
828.159	5265
828.298	5288
828.437	5383
828.577	5269
828.716	5528
828.855	5376
828.994	5140
829.134	5109
829.273	5201
829.412	5140
829.551	5136
829.69	5113
829.829	5254
829.968	5398
830.107	5265
830.246	5288
830.385	5208
830.524	5181
830.663	5121
830.802	4999
830.941	4911
831.08	4881
831.219	4965
831.357	4965
831.496	5174
831.635	4934
831.774	4873
831.913	4828
832.051	4744
832.19	4725
832.329	4873
832.467	4683
832.606	4660
832.744	4740
832.883	4736
833.022	4729
833.16	4740
833.299	4835
833.437	4809
833.576	4797
833.714	4854
833.852	4831
833.991	4900
834.129	4976
834.267	4953
834.406	4885
834.544	4984
834.682	4980
834.821	4987
834.959	5178
835.097	4999
835.235	5178
835.373	5006
835.511	5117
835.65	5022
835.788	5018
835.926	4892
836.064	4892
836.202	4904
836.34	5124
836.478	5216
836.615	5121
836.753	5197
836.891	5292
837.029	5280
837.167	5151
837.305	5162
837.443	5117
837.58	5075
837.718	5223
837.856	5201
837.993	5223
838.131	5269
838.269	5212
838.406	5220
838.544	5189
838.681	5033
838.819	5018
838.956	4896
839.094	4870
839.231	4953
839.369	5052
839.506	5436
839.643	5235
839.781	5067
839.918	5010
840.055	5159
840.193	5132
840.33	5147
840.467	5162
840.604	5204
840.742	5414
840.879	5083
841.016	5086
841.153	5132
841.29	5357
841.427	5311
841.564	5311
841.701	5357
841.838	5258
841.975	5258
842.112	5250
842.249	5124
842.385	5098
842.522	5318
842.659	5155
842.796	5178
842.933	5223
843.069	5140
843.206	5159
843.343	5337
843.479	5231
843.616	5250
843.752	5086
843.889	5033
844.025	5242
844.162	4991
844.298	5170
844.435	5121
844.571	5045
844.708	5181
844.844	5277
844.98	5322
845.117	5345
845.253	5151
845.389	5124
845.525	5185
845.661	5124
845.798	5067
845.934	5140
846.07	5048
846.206	5208
846.342	5292
846.478	5185
846.614	5045
846.75	5029
846.886	4961
847.022	5102
847.158	5018
847.294	5071
847.429	5162
847.565	5045
847.701	5299
847.837	4870
847.972	4809
848.108	4961
848.244	4961
848.379	4805
848.515	4774
848.65	4687
848.786	4797
848.921	4790
849.057	4877
849.192	4873
849.328	4812
849.463	4824
849.598	4790
849.734	4786
849.869	4710
850.004	4668
850.14	4634
850.275	4622
850.41	4508
850.545	4561
850.68	4596
850.815	4573
850.95	4637
851.085	4828
851.22	4736
851.355	4672
851.49	4611
851.625	4611
851.76	4599
851.895	4493
852.03	4554
852.165	4599
852.299	4687
852.434	4782
852.569	4767
852.703	4771
852.838	4870
852.973	4900
853.107	4984
853.242	4691
853.376	4679
853.511	4497
853.645	4634
853.78	4782
853.914	4672
854.048	4698
854.183	4660
854.317	4717
854.451	4839
854.585	4721
854.72	4660
854.854	4714
854.988	4603
855.122	4668
855.256	4504
855.39	4626
855.524	4782
855.658	4672
855.792	4694
855.926	4664
856.06	4771
856.194	4812
856.327	4702
856.461	4588
856.595	4615
856.729	4630
856.862	4733
856.996	4687
857.13	4717
857.263	4736
857.397	4801
857.53	4717
857.664	4672
857.797	4748
857.931	4782
858.064	4714
858.197	4736
858.331	4672
858.464	4675
858.597	4592
858.731	4649
858.864	4668
858.997	4611
859.13	4675
859.263	4710
859.396	4656
859.529	4603
859.662	4580
859.795	4550
859.928	4660
860.061	4721
860.194	4778
860.327	4615
860.46	4580
860.592	4710
860.725	4771
860.858	4763
860.99	4565
861.123	4527
861.256	4504
861.388	4630
861.521	5360
861.653	4512
861.786	4512
861.918	4447
862.05	4519
862.183	4523
862.315	4558
862.447	4698
862.58	4577
862.712	4421
862.844	4325
862.976	4447
863.108	4462
863.24	4778
863.372	4375
863.504	4451
863.636	4409
863.768	4485
863.9	4466
864.032	4398
864.164	4417
864.296	4493
864.428	4588
864.559	4569
864.691	4485
864.823	4558
864.954	4523
865.086	4504
865.217	4436
865.349	4432
865.48	4470
865.612	4470
865.743	4603
865.875	4478
866.006	4443
866.137	4481
866.269	4440
866.4	4462
866.531	4421
866.662	4390
866.793	4428
866.924	4428
867.055	4500
867.186	4428
867.317	4379
867.448	4409
867.579	4417
867.71	4390
867.841	4390
867.972	4451
868.103	4516
868.233	4424
868.364	4489
868.495	4485
868.625	4683
868.756	4782
868.886	4649
869.017	4622
869.147	4771
869.278	4778
869.408	4618
869.539	4675
869.669	4694
869.799	4634
869.929	4755
870.06	4748
870.19	4968
870.32	4904
870.45	4949
870.58	4999
870.71	5132
870.84	5162
870.97	4930
871.1	4900
871.23	5189
871.36	5117
871.489	5010
871.619	5117
871.749	5109
871.879	5113
872.008	5174
872.138	5075
872.267	4991
872.397	4805
872.526	4816
872.656	4778
872.785	4782
872.915	4934
873.044	4999
873.173	4930
873.303	4938
873.432	4953
873.561	4987
873.69	4904
873.819	4858
873.948	4858
874.077	4835
874.206	4752
874.335	4805
874.464	4976
874.593	5075
874.722	4976
874.851	5045
874.979	5037
875.108	5048
875.237	4915
875.365	4828
875.494	4946
875.623	4987
875.751	4881
875.88	4862
876.008	4934
876.136	5018
876.265	5189
876.393	5273
876.521	5235
876.65	5265
876.778	5151
876.906	5117
877.034	5102
877.162	5045
877.29	4976
877.418	5014
877.546	5071
877.674	5037
877.802	5086
877.93	5060
878.058	4892
878.185	4881
878.313	5010
878.441	4938
878.568	4801
878.696	4896
878.824	4965
878.951	5018
879.079	5113
879.206	5292
879.333	5121
879.461	5014
879.588	5033
879.715	5083
879.842	5246
879.97	5048
880.097	4755
880.224	4797
880.351	4771
880.478	4839
880.605	4801
880.732	4812
880.859	5079
880.986	4927
881.112	4915
881.239	4797
881.366	4691
881.493	4634
881.619	4637
881.746	4668
881.872	4679
881.999	4668
882.125	4710
882.252	4767
882.378	4835
882.505	4946
882.631	4801
882.757	4687
882.883	4721
883.01	4725
883.136	4672
883.262	4622
883.388	4641
883.514	4771
883.64	4885
883.766	4786
883.892	4653
884.018	4759
884.143	4934
884.269	5010
884.395	4641
884.52	4615
884.646	4645
884.772	4603
884.897	4531
885.023	4675
885.148	4771
885.274	4892
885.399	4782
885.524	4748
885.65	4683
885.775	4721
885.9	4717
886.025	4900
886.15	4870
886.275	4702
886.4	4634
886.525	4702
886.65	4721
886.775	4702
886.9	4892
887.025	4995
887.149	4778
887.274	4733
887.399	4580
887.523	4588
887.648	4558
887.773	4596
887.897	4786
888.021	4820
888.146	4683
888.27	4873
888.395	4870
888.519	4809
888.643	4790
888.767	4839
888.891	4683
889.015	4626
889.139	4634
889.263	4603
889.387	4736
889.511	4881
889.635	4805
889.759	4679
889.883	4611
890.006	4721
890.13	4847
890.254	4630
890.377	4679
890.501	4519
890.624	4527
890.748	4599
890.871	4489
890.995	4402
891.118	4383
891.241	4565
891.364	4561
891.488	4664
891.611	4500
891.734	4523
891.857	4649
891.98	4561
892.103	4645
892.226	4592
892.349	4584
892.471	4383
892.594	4554
892.717	4664
892.839	4577
892.962	4607
893.085	4649
893.207	4637
893.33	4462
893.452	4519
893.575	4691
893.697	4565
893.819	4816
893.941	4877
894.064	4767
894.186	4565
894.308	4569
894.43	4736
894.552	4801
894.674	4759
894.796	4527
894.918	4580
895.04	4584
895.161	4645
895.283	4641
895.405	4599
895.526	4694
895.648	4710
895.769	4653
895.891	4763
896.012	4702
896.134	4763
896.255	4656
896.376	4626
896.498	4634
896.619	4717
896.74	4599
896.861	4615
896.982	4900
897.103	5041
897.224	4828
897.345	4733
897.466	4653
897.587	4744
897.708	4801
897.828	4763
897.949	4645
898.07	4573
898.19	4649
898.311	4774
898.431	4694
898.552	4752
898.672	4801
898.792	4820
898.913	4763
899.033	4649
899.153	4504
899.273	4459
899.393	4500
899.513	4561
899.633	4531
899.753	4538
899.873	4531
899.993	4634
900.113	4569
900.232	4622
900.352	4535
900.472	4550
900.591	4383
900.711	4436
900.83	4459
900.95	4603
901.069	4717
901.189	4558
901.308	4390
901.427	4314
901.546	4360
901.665	4485
901.784	4516
901.904	4344
902.023	4329
902.141	4173
902.26	4143
902.379	4318
902.498	4280
902.617	4249
902.735	4356
902.854	4394
902.973	4379
903.091	4200
903.21	4238
903.328	4329
903.446	4299
903.565	4284
903.683	4363
903.801	4325
903.919	4394
904.038	4432
904.156	4276
904.274	4455
904.392	4405
904.51	4428
904.627	4497
904.745	4603
904.863	4622
904.981	4379
905.098	4325
905.216	4398
905.334	4413
905.451	4432
905.569	4478
905.686	4569
905.803	4580
905.921	4367
906.038	4596
906.155	4512
906.272	4390
906.389	4493
906.506	4348
906.623	4348
906.74	4390
906.857	4276
906.974	4371
907.091	4531
907.208	4687
907.324	4596
907.441	4504
907.557	4371
907.674	4341
907.79	4314
907.907	4428
908.023	4478
908.139	4504
908.256	4478
908.372	4432
908.488	4459
908.604	4371
908.72	4360
908.836	4390
908.952	4367
909.068	4421
909.184	4573
909.3	4481
909.415	4554
909.531	4523
909.647	4348
909.762	4344
909.878	4344
909.993	4451
910.108	4428
910.224	4462
910.339	4497
910.454	4424
910.57	4337
910.685	4344
910.8	4630
910.915	4596
911.03	4489
911.145	4341
911.259	4329
911.374	4371
911.489	4303
911.604	4325
911.718	4192
911.833	4196
911.947	4063
912.062	4040
912.176	4227
912.291	4211
912.405	4219
912.519	4459
912.633	4531
912.748	4417
912.862	4295
912.976	4234
913.09	4109
913.204	4150
913.318	4207
913.431	4398
913.545	4352
913.659	4394
913.772	4398
913.886	4234
914	4246
914.113	4367
914.226	4398
914.34	4325
914.453	4261
914.566	4428
914.68	4299
914.793	4329
914.906	4181
915.019	4124
915.132	4067
915.245	4185
915.358	4249
915.47	4227
915.583	4299
915.696	4287
915.809	4424
915.921	4424
916.034	4223
916.146	4207
916.259	4227
916.371	4383
916.483	4371
916.595	4291
916.708	4303
916.82	4367
916.932	4344
917.044	4325
917.156	4352
917.268	4253
917.38	4322
917.491	4344
917.603	4344
917.715	4417
917.826	4405
917.938	4390
918.049	4280
918.161	4478
918.272	4542
918.384	4508
918.495	4424
918.606	4284
918.717	4280
918.828	4371
918.939	4394
919.05	4200
919.161	4333
919.272	4162
919.383	4230
919.494	4447
919.604	4615
919.715	4432
919.826	4367
919.936	4409
920.047	4538
920.157	4500
920.267	4691
920.378	4554
920.488	4542
920.598	4721
920.708	4862
920.818	4744
920.928	4740
921.038	4953
921.148	4911
921.258	4637
921.368	4558
921.477	4538
921.587	4478
921.697	4367
921.806	4558
921.916	4440
922.025	4268
922.134	4268
922.244	4223
922.353	4310
922.462	4177
922.571	4124
922.68	3998
922.789	3987
922.898	4010
923.007	4036
923.116	4036
923.224	4109
923.333	4063
923.442	3994
923.55	4017
923.659	3987
923.767	4116
923.876	4021
923.984	4128
924.092	3975
924.201	4101
924.309	4071
924.417	4154
924.525	4090
924.633	4143
924.741	5056
924.849	3888
924.956	4090
925.064	3975
925.172	3896
925.279	3968
925.387	4105
925.494	4086
925.602	4200
925.709	4150
925.816	4048
925.924	4074
926.031	4211
926.138	4147
926.245	4188
926.352	4105
926.459	4234
926.566	4303
926.673	4177
926.779	4078
926.886	4059
926.993	3953
927.099	3998
927.206	3911
927.312	3956
927.419	4051
927.525	4036
927.631	4112
927.737	3953
927.843	3949
927.95	3778
928.056	3945
928.162	3987
928.267	4090
928.373	4675
928.479	4124
928.585	3854
928.69	4048
928.796	4067
928.901	4010
929.007	3842
929.112	4063
929.218	3945
929.323	3937
929.428	3869
929.533	4101
929.638	3884
929.743	3937
929.848	4044
929.953	4029
930.058	3903
930.163	3770
930.267	3823
930.372	3975
930.477	3812
930.581	4105
930.685	3964
930.79	3865
930.894	3876
930.998	3876
931.103	4032
931.207	3720
931.311	3713
931.415	3698
931.519	3557
931.623	3519
