Data from test_V78500241_812.txt Node
Date: Fri Mar 25 16:54:38 CST 2022
User: usil
Spectrometer: V785-0024
Trigger mode: 0
Integration Time (sec): 4.000000E-1
Scans to average: 1
Nonlinearity correction enabled: false
Boxcar width: 0
Storing dark spectrum: false
XAxis mode: Wavelengths
Number of Pixels in Spectrum: 1024
>>>>>Begin Spectral Data<<<<<
801.071	8005
801.214	7955
801.356	7883
801.499	7898
801.641	7856
801.783	7822
801.926	8031
802.068	7974
802.211	7890
802.353	7951
802.496	7913
802.638	7852
802.78	7875
802.923	7944
803.065	7860
803.208	7890
803.35	8020
803.492	8126
803.635	8202
803.777	8046
803.919	8081
804.061	8328
804.204	8145
804.346	8012
804.488	7955
804.63	8088
804.773	7997
804.915	8096
805.057	8210
805.199	8183
805.341	8225
805.483	8256
805.626	8267
805.768	8103
805.91	8183
806.052	8191
806.194	8096
806.336	8290
806.478	8168
806.62	8062
806.762	8195
806.904	8206
807.046	8465
807.188	8381
807.33	8355
807.472	8324
807.614	8168
807.756	8119
807.898	7913
808.04	7906
808.182	7795
808.324	7928
808.465	7898
808.607	7989
808.749	8077
808.891	8210
809.033	8279
809.174	8176
809.316	8103
809.458	8054
809.6	7959
809.741	8020
809.883	8073
810.025	8111
810.166	8103
810.308	8065
810.45	8046
810.591	7845
810.733	7674
810.875	7708
811.016	7563
811.158	7453
811.299	7567
811.441	7757
811.582	7647
811.724	7499
811.865	7540
812.007	7544
812.148	7559
812.29	7578
812.431	7712
812.573	7799
812.714	8031
812.855	8142
812.997	8244
813.138	8256
813.279	8176
813.421	8107
813.562	8005
813.703	7845
813.845	7757
813.986	7430
814.127	7327
814.268	7217
814.41	7217
814.551	7103
814.692	7129
814.833	7046
814.974	7080
815.115	7057
815.256	6947
815.397	6935
815.539	6981
815.68	6798
815.821	6791
815.962	6947
816.103	6783
816.244	6681
816.385	6582
816.526	6623
816.666	6479
816.807	6319
816.948	6437
817.089	6403
817.23	6418
817.371	6403
817.512	6407
817.653	6369
817.793	6418
817.934	6407
818.075	6433
818.216	6422
818.356	6372
818.497	6201
818.638	6125
818.778	6136
818.919	6148
819.06	6136
819.2	6338
819.341	6315
819.481	6346
819.622	6521
819.762	6669
819.903	6684
820.043	6662
820.184	6582
820.324	6608
820.465	6722
820.605	6654
820.746	6620
820.886	6513
821.026	6616
821.167	6608
821.307	6802
821.447	6726
821.588	6696
821.728	6604
821.868	6513
822.008	6319
822.149	6357
822.289	6350
822.429	6163
822.569	6102
822.709	6083
822.849	5923
822.99	5954
823.13	5916
823.27	5893
823.41	5821
823.55	5828
823.69	5722
823.83	5775
823.97	5646
824.11	5547
824.25	5497
824.389	5554
824.529	5615
824.669	5478
824.809	5672
824.949	5691
825.089	5585
825.228	5619
825.368	5376
825.508	5322
825.648	5368
825.787	5379
825.927	5357
826.067	5296
826.206	5315
826.346	5402
826.485	5452
826.625	5429
826.765	5516
826.904	5505
827.044	5315
827.183	5242
827.323	5162
827.462	5250
827.601	5174
827.741	5193
827.88	5170
828.02	5132
828.159	5216
828.298	5277
828.437	5410
828.577	5349
828.716	5429
828.855	5318
828.994	5128
829.134	5174
829.273	5220
829.412	5197
829.551	5121
829.69	5147
829.829	5250
829.968	5372
830.107	5303
830.246	5322
830.385	5197
830.524	5166
830.663	5105
830.802	4927
830.941	4919
831.08	4923
831.219	4984
831.357	4972
831.496	5128
831.635	4949
831.774	4866
831.913	4805
832.051	4740
832.19	4714
832.329	4812
832.467	4710
832.606	4634
832.744	4683
832.883	4748
833.022	4752
833.16	4824
833.299	4759
833.437	4805
833.576	4828
833.714	4763
833.852	4862
833.991	4923
834.129	4972
834.267	4972
834.406	4889
834.544	4991
834.682	4919
834.821	4984
834.959	5193
835.097	4980
835.235	5132
835.373	5079
835.511	5151
835.65	5045
835.788	5052
835.926	4911
836.064	4900
836.202	4949
836.34	5193
836.478	5216
836.615	5136
836.753	5193
836.891	5242
837.029	5235
837.167	5193
837.305	5117
837.443	5128
837.58	5048
837.718	5239
837.856	5208
837.993	5151
838.131	5254
838.269	5121
838.406	5223
838.544	5162
838.681	5025
838.819	5006
838.956	4938
839.094	4881
839.231	4968
839.369	5090
839.506	5391
839.643	5269
839.781	4999
839.918	5029
840.055	5147
840.193	5151
840.33	5124
840.467	5147
840.604	5105
840.742	5448
840.879	5090
841.016	5052
841.153	5121
841.29	5360
841.427	5364
841.564	5330
841.701	5345
841.838	5307
841.975	5280
842.112	5254
842.249	5170
842.385	5143
842.522	5337
842.659	5193
842.796	5159
842.933	5204
843.069	5155
843.206	5124
843.343	5280
843.479	5201
843.616	5227
843.752	5064
843.889	4991
844.025	5246
844.162	5056
844.298	5235
844.435	5083
844.571	5045
844.708	5220
844.844	5303
844.98	5364
845.117	5292
845.253	5143
845.389	5060
845.525	5147
845.661	5159
845.798	5018
845.934	5162
846.07	5052
846.206	5189
846.342	5284
846.478	5185
846.614	4999
846.75	4968
846.886	4904
847.022	5147
847.158	5052
847.294	5075
847.429	5121
847.565	5048
847.701	5315
847.837	4896
847.972	4809
848.108	4942
848.244	4885
848.379	4835
848.515	4725
848.65	4683
848.786	4706
848.921	4759
849.057	4858
849.192	4900
849.328	4771
849.463	4858
849.598	4706
849.734	4717
849.869	4656
850.004	4626
850.14	4683
850.275	4618
850.41	4504
850.545	4527
850.68	4542
850.815	4637
850.95	4611
851.085	4870
851.22	4763
851.355	4679
851.49	4675
851.625	4607
851.76	4634
851.895	4538
852.03	4527
852.165	4672
852.299	4740
852.434	4759
852.569	4733
852.703	4771
852.838	4870
852.973	4930
853.107	4908
853.242	4755
853.376	4653
853.511	4538
853.645	4611
853.78	4793
853.914	4694
854.048	4656
854.183	4634
854.317	4691
854.451	4843
854.585	4687
854.72	4622
854.854	4748
854.988	4584
855.122	4618
855.256	4531
855.39	4675
855.524	4778
855.658	4725
855.792	4656
855.926	4740
856.06	4790
856.194	4733
856.327	4714
856.461	4607
856.595	4626
856.729	4660
856.862	4744
856.996	4694
857.13	4687
857.263	4767
857.397	4820
857.53	4626
857.664	4721
857.797	4782
857.931	4733
858.064	4736
858.197	4725
858.331	4698
858.464	4615
858.597	4500
858.731	4607
858.864	4637
858.997	4599
859.13	4675
859.263	4668
859.396	4668
859.529	4599
859.662	4565
859.795	4512
859.928	4645
860.061	4774
860.194	4782
860.327	4558
860.46	4546
860.592	4714
860.725	4706
860.858	4664
860.99	4596
861.123	4550
861.256	4565
861.388	4641
861.521	5273
861.653	4519
861.786	4413
861.918	4500
862.05	4451
862.183	4516
862.315	4618
862.447	4618
862.58	4523
862.712	4413
862.844	4333
862.976	4481
863.108	4512
863.24	4892
863.372	4306
863.504	4379
863.636	4386
863.768	4481
863.9	4409
864.032	4344
864.164	4413
864.296	4424
864.428	4558
864.559	4531
864.691	4489
864.823	4512
864.954	4485
865.086	4512
865.217	4504
865.349	4379
865.48	4440
865.612	4493
865.743	4607
865.875	4462
866.006	4478
866.137	4417
866.269	4383
866.4	4443
866.531	4421
866.662	4390
866.793	4394
866.924	4428
867.055	4421
867.186	4462
867.317	4367
867.448	4344
867.579	4417
867.71	4398
867.841	4318
867.972	4409
868.103	4417
868.233	4474
868.364	4451
868.495	4470
868.625	4679
868.756	4729
868.886	4577
869.017	4603
869.147	4786
869.278	4755
869.408	4660
869.539	4622
869.669	4668
869.799	4645
869.929	4774
870.06	4702
870.19	4930
870.32	4938
870.45	4938
870.58	5045
870.71	5086
870.84	5056
870.97	4976
871.1	4911
871.23	5140
871.36	5162
871.489	5025
871.619	5048
871.749	5109
871.879	5094
872.008	5162
872.138	5045
872.267	4976
872.397	4839
872.526	4755
872.656	4721
872.785	4771
872.915	4938
873.044	5010
873.173	4934
873.303	4942
873.432	4930
873.561	4972
873.69	4915
873.819	4831
873.948	4877
874.077	4786
874.206	4752
874.335	4797
874.464	4923
874.593	5132
874.722	4908
874.851	5132
874.979	5052
875.108	5029
875.237	4904
875.365	4881
875.494	4801
875.623	4976
875.751	4793
875.88	4877
876.008	5018
876.136	4999
876.265	5227
876.393	5337
876.521	5258
876.65	5193
876.778	5140
876.906	5010
877.034	4980
877.162	5003
877.29	4987
877.418	5022
877.546	5067
877.674	5037
877.802	5041
877.93	5014
878.058	4908
878.185	4866
878.313	4919
878.441	4987
878.568	4805
878.696	4877
878.824	4923
878.951	4965
879.079	5159
879.206	5307
879.333	5083
879.461	4987
879.588	5025
879.715	5086
879.842	5197
879.97	4968
880.097	4828
880.224	4733
880.351	4797
880.478	4835
880.605	4778
880.732	4805
880.859	5109
880.986	4850
881.112	4904
881.239	4786
881.366	4660
881.493	4615
881.619	4569
881.746	4592
881.872	4634
881.999	4653
882.125	4710
882.252	4816
882.378	4786
882.505	4984
882.631	4805
882.757	4717
882.883	4740
883.01	4755
883.136	4641
883.262	4626
883.388	4561
883.514	4812
883.64	4873
883.766	4729
883.892	4664
884.018	4706
884.143	4896
884.269	4991
884.395	4634
884.52	4641
884.646	4637
884.772	4611
884.897	4500
885.023	4637
885.148	4752
885.274	4862
885.399	4790
885.524	4702
885.65	4672
885.775	4771
885.9	4691
886.025	4873
886.15	4786
886.275	4702
886.4	4668
886.525	4683
886.65	4694
886.775	4683
886.9	4885
887.025	5029
887.149	4816
887.274	4683
887.399	4573
887.523	4618
887.648	4607
887.773	4561
887.897	4755
888.021	4790
888.146	4672
888.27	4812
888.395	4885
888.519	4767
888.643	4790
888.767	4843
888.891	4668
889.015	4588
889.139	4634
889.263	4618
889.387	4729
889.511	4877
889.635	4759
889.759	4637
889.883	4653
890.006	4736
890.13	4839
890.254	4577
890.377	4630
890.501	4504
890.624	4519
890.748	4592
890.871	4485
890.995	4383
891.118	4348
891.241	4500
891.364	4561
891.488	4611
891.611	4470
891.734	4561
891.857	4599
891.98	4542
892.103	4641
892.226	4558
892.349	4527
892.471	4470
892.594	4569
892.717	4519
892.839	4538
892.962	4565
893.085	4630
893.207	4626
893.33	4493
893.452	4573
893.575	4630
893.697	4561
893.819	4778
893.941	4824
894.064	4698
894.186	4558
894.308	4565
894.43	4710
894.552	4782
894.674	4717
894.796	4508
894.918	4596
895.04	4561
895.161	4687
895.283	4668
895.405	4500
895.526	4656
895.648	4664
895.769	4645
895.891	4748
896.012	4710
896.134	4710
896.255	4653
896.376	4645
896.498	4603
896.619	4656
896.74	4588
896.861	4702
896.982	4942
897.103	5071
897.224	4839
897.345	4702
897.466	4645
897.587	4714
897.708	4847
897.828	4763
897.949	4653
898.07	4561
898.19	4626
898.311	4820
898.431	4634
898.552	4725
898.672	4805
898.792	4771
898.913	4767
899.033	4630
899.153	4519
899.273	4447
899.393	4485
899.513	4519
899.633	4493
899.753	4565
899.873	4485
899.993	4523
900.113	4565
900.232	4500
900.352	4535
900.472	4443
900.591	4390
900.711	4485
900.83	4421
900.95	4622
901.069	4698
901.189	4493
901.308	4402
901.427	4299
901.546	4390
901.665	4436
901.784	4516
901.904	4383
902.023	4333
902.141	4181
902.26	4158
902.379	4287
902.498	4223
902.617	4253
902.735	4348
902.854	4360
902.973	4318
903.091	4238
903.21	4215
903.328	4276
903.446	4223
903.565	4246
903.683	4356
903.801	4272
903.919	4371
904.038	4443
904.156	4310
904.274	4413
904.392	4360
904.51	4428
904.627	4489
904.745	4550
904.863	4615
904.981	4394
905.098	4306
905.216	4303
905.334	4409
905.451	4443
905.569	4451
905.686	4565
905.803	4478
905.921	4405
906.038	4512
906.155	4459
906.272	4360
906.389	4428
906.506	4344
906.623	4375
906.74	4360
906.857	4287
906.974	4333
907.091	4588
907.208	4626
907.324	4599
907.441	4474
907.557	4371
907.674	4356
907.79	4310
907.907	4428
908.023	4451
908.139	4447
908.256	4421
908.372	4489
908.488	4485
908.604	4348
908.72	4333
908.836	4371
908.952	4348
909.068	4390
909.184	4607
909.3	4481
909.415	4565
909.531	4596
909.647	4337
909.762	4375
909.878	4337
909.993	4436
910.108	4432
910.224	4409
910.339	4443
910.454	4367
910.57	4379
910.685	4299
910.8	4637
910.915	4622
911.03	4508
911.145	4360
911.259	4337
911.374	4417
911.489	4314
911.604	4280
911.718	4196
911.833	4234
911.947	4086
912.062	4036
912.176	4185
912.291	4268
912.405	4257
912.519	4462
912.633	4478
912.748	4375
912.862	4299
912.976	4181
913.09	4086
913.204	4204
913.318	4238
913.431	4367
913.545	4383
913.659	4409
913.772	4287
913.886	4265
914	4227
914.113	4363
914.226	4417
914.34	4360
914.453	4272
914.566	4421
914.68	4314
914.793	4322
914.906	4158
915.019	4097
915.132	4116
915.245	4135
915.358	4211
915.47	4242
915.583	4253
915.696	4322
915.809	4413
915.921	4394
916.034	4276
916.146	4261
916.259	4173
916.371	4344
916.483	4360
916.595	4192
916.708	4322
916.82	4299
916.932	4306
917.044	4333
917.156	4295
917.268	4257
917.38	4253
917.491	4268
917.603	4314
917.715	4421
917.826	4447
917.938	4379
918.049	4310
918.161	4402
918.272	4508
918.384	4531
918.495	4436
918.606	4261
918.717	4223
918.828	4341
918.939	4383
919.05	4238
919.161	4417
919.272	4120
919.383	4276
919.494	4447
919.604	4649
919.715	4451
919.826	4329
919.936	4375
920.047	4516
920.157	4424
920.267	4702
920.378	4527
920.488	4470
920.598	4717
920.708	4877
920.818	4706
920.928	4691
921.038	4911
921.148	4881
921.258	4569
921.368	4603
921.477	4497
921.587	4421
921.697	4360
921.806	4485
921.916	4455
922.025	4223
922.134	4246
922.244	4215
922.353	4344
922.462	4173
922.571	4120
922.68	4074
922.789	3956
922.898	4048
923.007	3994
923.116	4093
923.224	4078
923.333	4021
923.442	3972
923.55	4010
923.659	4032
923.767	4074
923.876	3987
923.984	4147
924.092	4017
924.201	4032
924.309	4040
924.417	4112
924.525	4044
924.633	4074
924.741	4911
924.849	3918
924.956	4131
925.064	3953
925.172	3869
925.279	3949
925.387	4021
925.494	4105
925.602	4207
925.709	4181
925.816	4078
925.924	4143
926.031	4257
926.138	4173
926.245	4200
926.352	4128
926.459	4227
926.566	4306
926.673	4162
926.779	4055
926.886	4071
926.993	4006
927.099	3975
927.206	3964
927.312	3953
927.419	4055
927.525	4013
927.631	4032
927.737	3972
927.843	3907
927.95	3831
928.056	3953
928.162	3991
928.267	4048
928.373	4691
928.479	4128
928.585	3842
928.69	3998
928.796	4071
928.901	3964
929.007	3823
929.112	3987
929.218	3983
929.323	3975
929.428	3922
929.533	4078
929.638	3903
929.743	3983
929.848	4040
929.953	3968
930.058	3968
930.163	3804
930.267	3762
930.372	3994
930.477	3785
930.581	4090
930.685	3934
930.79	3797
930.894	3888
930.998	3850
931.103	4006
931.207	3736
931.311	3713
931.415	3656
931.519	3534
931.623	3568
