Data from test_V78500241_2072.txt Node
Date: Fri Mar 25 17:03:24 CST 2022
User: usil
Spectrometer: V785-0024
Trigger mode: 0
Integration Time (sec): 4.000000E-1
Scans to average: 1
Nonlinearity correction enabled: false
Boxcar width: 0
Storing dark spectrum: false
XAxis mode: Wavelengths
Number of Pixels in Spectrum: 1024
>>>>>Begin Spectral Data<<<<<
801.071	7951
801.214	7894
801.356	7845
801.499	7837
801.641	7776
801.783	7807
801.926	7978
802.068	7902
802.211	7951
802.353	8005
802.496	7795
802.638	7871
802.78	7902
802.923	7978
803.065	7887
803.208	7841
803.35	7989
803.492	8035
803.635	8134
803.777	8046
803.919	8081
804.061	8438
804.204	8164
804.346	8058
804.488	7955
804.63	8130
804.773	7967
804.915	8062
805.057	8252
805.199	8195
805.341	8153
805.483	8244
805.626	8206
805.768	8195
805.91	8172
806.052	8229
806.194	8043
806.336	8301
806.478	8115
806.62	7982
806.762	8180
806.904	8290
807.046	8522
807.188	8370
807.33	8336
807.472	8332
807.614	8168
807.756	8134
807.898	7951
808.04	7845
808.182	7860
808.324	7890
808.465	7883
808.607	8084
808.749	8024
808.891	8187
809.033	8301
809.174	8248
809.316	8046
809.458	8157
809.6	8031
809.741	8031
809.883	7989
810.025	8123
810.166	7974
810.308	8058
810.45	7928
810.591	7868
810.733	7761
810.875	7677
811.016	7502
811.158	7415
811.299	7563
811.441	7715
811.582	7651
811.724	7559
811.865	7533
812.007	7563
812.148	7597
812.29	7658
812.431	7780
812.573	7849
812.714	7909
812.855	8138
812.997	8187
813.138	8320
813.279	8195
813.421	8062
813.562	8073
813.703	7883
813.845	7753
813.986	7396
814.127	7213
814.268	7206
814.41	7183
814.551	7190
814.692	7194
814.833	7076
814.974	7072
815.115	7118
815.256	6977
815.397	6894
815.539	6943
815.68	6798
815.821	6646
815.962	6848
816.103	6818
816.244	6669
816.385	6544
816.526	6620
816.666	6452
816.807	6350
816.948	6521
817.089	6467
817.23	6418
817.371	6353
817.512	6452
817.653	6372
817.793	6365
817.934	6490
818.075	6479
818.216	6441
818.356	6357
818.497	6311
818.638	6178
818.778	6144
818.919	6159
819.06	6182
819.2	6277
819.341	6338
819.481	6331
819.622	6498
819.762	6707
819.903	6734
820.043	6574
820.184	6547
820.324	6490
820.465	6692
820.605	6658
820.746	6669
820.886	6536
821.026	6707
821.167	6719
821.307	6772
821.447	6787
821.588	6665
821.728	6616
821.868	6464
822.008	6292
822.149	6365
822.289	6292
822.429	6148
822.569	6091
822.709	6110
822.849	5923
822.99	5866
823.13	5954
823.27	5973
823.41	5745
823.55	5771
823.69	5786
823.83	5767
823.97	5642
824.11	5524
824.25	5493
824.389	5615
824.529	5581
824.669	5554
824.809	5604
824.949	5691
825.089	5604
825.228	5558
825.368	5391
825.508	5288
825.648	5330
825.787	5402
825.927	5383
826.067	5315
826.206	5334
826.346	5368
826.485	5376
826.625	5429
826.765	5524
826.904	5516
827.044	5170
827.183	5128
827.323	5124
827.462	5216
827.601	5185
827.741	5166
827.88	5185
828.02	5124
828.159	5193
828.298	5277
828.437	5387
828.577	5284
828.716	5471
828.855	5288
828.994	5124
829.134	5147
829.273	5162
829.412	5124
829.551	5128
829.69	5166
829.829	5235
829.968	5360
830.107	5292
830.246	5216
830.385	5155
830.524	5140
830.663	5102
830.802	5052
830.941	4885
831.08	4870
831.219	4957
831.357	4946
831.496	5174
831.635	4949
831.774	4801
831.913	4839
832.051	4748
832.19	4733
832.329	4824
832.467	4679
832.606	4675
832.744	4740
832.883	4763
833.022	4698
833.16	4748
833.299	4843
833.437	4854
833.576	4797
833.714	4850
833.852	4778
833.991	4911
834.129	4984
834.267	4965
834.406	4908
834.544	4942
834.682	4946
834.821	4930
834.959	5162
835.097	4900
835.235	5189
835.373	5090
835.511	5098
835.65	5140
835.788	5056
835.926	4904
836.064	4919
836.202	4946
836.34	5132
836.478	5162
836.615	5090
836.753	5193
836.891	5296
837.029	5269
837.167	5235
837.305	5155
837.443	5162
837.58	5067
837.718	5216
837.856	5155
837.993	5128
838.131	5185
838.269	5185
838.406	5178
838.544	5204
838.681	5079
838.819	5025
838.956	4908
839.094	4885
839.231	4976
839.369	5060
839.506	5417
839.643	5220
839.781	5090
839.918	4980
840.055	5098
840.193	5098
840.33	5075
840.467	5113
840.604	5174
840.742	5421
840.879	5132
841.016	5060
841.153	5162
841.29	5391
841.427	5376
841.564	5273
841.701	5326
841.838	5315
841.975	5204
842.112	5254
842.249	5113
842.385	5067
842.522	5334
842.659	5178
842.796	5197
842.933	5143
843.069	5181
843.206	5155
843.343	5265
843.479	5292
843.616	5269
843.752	5018
843.889	5014
844.025	5231
844.162	4987
844.298	5212
844.435	5117
844.571	5056
844.708	5250
844.844	5303
844.98	5349
845.117	5254
845.253	5181
845.389	5071
845.525	5178
845.661	5147
845.798	5003
845.934	5151
846.07	5025
846.206	5162
846.342	5277
846.478	5178
846.614	5003
846.75	4961
846.886	4942
847.022	5201
847.158	4984
847.294	5071
847.429	5109
847.565	5045
847.701	5345
847.837	4847
847.972	4801
848.108	4972
848.244	4942
848.379	4801
848.515	4771
848.65	4721
848.786	4771
848.921	4778
849.057	4843
849.192	4896
849.328	4809
849.463	4828
849.598	4778
849.734	4850
849.869	4668
850.004	4599
850.14	4656
850.275	4656
850.41	4527
850.545	4550
850.68	4607
850.815	4580
850.95	4592
851.085	4797
851.22	4729
851.355	4679
851.49	4630
851.625	4630
851.76	4634
851.895	4535
852.03	4523
852.165	4645
852.299	4694
852.434	4763
852.569	4752
852.703	4793
852.838	4862
852.973	4911
853.107	4862
853.242	4721
853.376	4656
853.511	4580
853.645	4615
853.78	4797
853.914	4687
854.048	4649
854.183	4649
854.317	4694
854.451	4847
854.585	4702
854.72	4645
854.854	4733
854.988	4546
855.122	4603
855.256	4500
855.39	4656
855.524	4793
855.658	4691
855.792	4668
855.926	4725
856.06	4774
856.194	4809
856.327	4698
856.461	4599
856.595	4626
856.729	4599
856.862	4706
856.996	4679
857.13	4759
857.263	4752
857.397	4793
857.53	4645
857.664	4679
857.797	4729
857.931	4767
858.064	4687
858.197	4752
858.331	4653
858.464	4592
858.597	4523
858.731	4577
858.864	4630
858.997	4558
859.13	4641
859.263	4710
859.396	4691
859.529	4596
859.662	4569
859.795	4546
859.928	4603
860.061	4759
860.194	4763
860.327	4599
860.46	4565
860.592	4706
860.725	4672
860.858	4717
860.99	4561
861.123	4554
861.256	4508
861.388	4626
861.521	5288
861.653	4497
861.786	4447
861.918	4474
862.05	4561
862.183	4565
862.315	4607
862.447	4622
862.58	4550
862.712	4443
862.844	4352
862.976	4485
863.108	4455
863.24	4767
863.372	4375
863.504	4447
863.636	4394
863.768	4466
863.9	4405
864.032	4341
864.164	4417
864.296	4440
864.428	4554
864.559	4554
864.691	4481
864.823	4497
864.954	4489
865.086	4516
865.217	4459
865.349	4394
865.48	4421
865.612	4462
865.743	4622
865.875	4432
866.006	4424
866.137	4451
866.269	4383
866.4	4451
866.531	4402
866.662	4424
866.793	4398
866.924	4432
867.055	4489
867.186	4447
867.317	4428
867.448	4360
867.579	4417
867.71	4390
867.841	4360
867.972	4500
868.103	4443
868.233	4421
868.364	4481
868.495	4512
868.625	4675
868.756	4752
868.886	4535
869.017	4675
869.147	4759
869.278	4717
869.408	4622
869.539	4607
869.669	4653
869.799	4706
869.929	4725
870.06	4729
870.19	4919
870.32	4942
870.45	4987
870.58	5003
870.71	5071
870.84	5067
870.97	4976
871.1	4919
871.23	5117
871.36	5090
871.489	5022
871.619	5052
871.749	5083
871.879	5098
872.008	5178
872.138	5018
872.267	4919
872.397	4873
872.526	4843
872.656	4672
872.785	4793
872.915	4942
873.044	5041
873.173	4938
873.303	4915
873.432	4889
873.561	4938
873.69	4850
873.819	4866
873.948	4866
874.077	4850
874.206	4729
874.335	4858
874.464	4915
874.593	5045
874.722	4991
874.851	5109
874.979	4995
875.108	5037
875.237	4911
875.365	4904
875.494	4896
875.623	4961
875.751	4812
875.88	4866
876.008	5018
876.136	5010
876.265	5204
876.393	5296
876.521	5288
876.65	5250
876.778	5193
876.906	5086
877.034	5071
877.162	5052
877.29	5014
877.418	5052
877.546	5048
877.674	5064
877.802	5025
877.93	5006
878.058	4908
878.185	4904
878.313	5003
878.441	4946
878.568	4786
878.696	4915
878.824	4968
878.951	4965
879.079	5162
879.206	5242
879.333	5124
879.461	4908
879.588	4972
879.715	5102
879.842	5185
879.97	4987
880.097	4778
880.224	4725
880.351	4843
880.478	4771
880.605	4843
880.732	4797
880.859	5105
880.986	4881
881.112	4889
881.239	4767
881.366	4660
881.493	4569
881.619	4599
881.746	4588
881.872	4645
881.999	4622
882.125	4675
882.252	4778
882.378	4824
882.505	4999
882.631	4767
882.757	4649
882.883	4740
883.01	4771
883.136	4698
883.262	4573
883.388	4622
883.514	4790
883.64	4862
883.766	4771
883.892	4649
884.018	4687
884.143	4862
884.269	4995
884.395	4679
884.52	4672
884.646	4653
884.772	4634
884.897	4611
885.023	4653
885.148	4790
885.274	4831
885.399	4801
885.524	4694
885.65	4653
885.775	4714
885.9	4698
886.025	4858
886.15	4767
886.275	4729
886.4	4645
886.525	4744
886.65	4668
886.775	4660
886.9	4870
887.025	5014
887.149	4809
887.274	4645
887.399	4569
887.523	4565
887.648	4546
887.773	4577
887.897	4733
888.021	4729
888.146	4645
888.27	4752
888.395	4930
888.519	4801
888.643	4831
888.767	4797
888.891	4649
889.015	4615
889.139	4596
889.263	4618
889.387	4755
889.511	4835
889.635	4797
889.759	4626
889.883	4706
890.006	4679
890.13	4797
890.254	4607
890.377	4664
890.501	4550
890.624	4493
890.748	4603
890.871	4516
890.995	4455
891.118	4363
891.241	4527
891.364	4550
891.488	4645
891.611	4546
891.734	4508
891.857	4588
891.98	4577
892.103	4626
892.226	4607
892.349	4504
892.471	4390
892.594	4527
892.717	4622
892.839	4603
892.962	4558
893.085	4653
893.207	4630
893.33	4436
893.452	4500
893.575	4649
893.697	4580
893.819	4801
893.941	4828
894.064	4801
894.186	4599
894.308	4588
894.43	4740
894.552	4831
894.674	4767
894.796	4569
894.918	4599
895.04	4577
895.161	4702
895.283	4679
895.405	4592
895.526	4664
895.648	4736
895.769	4664
895.891	4717
896.012	4755
896.134	4714
896.255	4653
896.376	4683
896.498	4634
896.619	4649
896.74	4584
896.861	4653
896.982	4919
897.103	5033
897.224	4812
897.345	4793
897.466	4664
897.587	4736
897.708	4850
897.828	4786
897.949	4641
898.07	4558
898.19	4626
898.311	4816
898.431	4645
898.552	4725
898.672	4816
898.792	4790
898.913	4736
899.033	4599
899.153	4481
899.273	4424
899.393	4466
899.513	4489
899.633	4527
899.753	4531
899.873	4481
899.993	4584
900.113	4573
900.232	4542
900.352	4561
900.472	4512
900.591	4417
900.711	4462
900.83	4455
900.95	4603
901.069	4660
901.189	4554
901.308	4398
901.427	4299
901.546	4432
901.665	4451
901.784	4538
901.904	4390
902.023	4303
902.141	4166
902.26	4196
902.379	4284
902.498	4246
902.617	4211
902.735	4363
902.854	4383
902.973	4360
903.091	4181
903.21	4238
903.328	4299
903.446	4261
903.565	4295
903.683	4352
903.801	4295
903.919	4371
904.038	4432
904.156	4287
904.274	4440
904.392	4417
904.51	4470
904.627	4447
904.745	4550
904.863	4645
904.981	4367
905.098	4310
905.216	4367
905.334	4459
905.451	4443
905.569	4462
905.686	4523
905.803	4550
905.921	4466
906.038	4535
906.155	4451
906.272	4409
906.389	4459
906.506	4318
906.623	4402
906.74	4402
906.857	4306
906.974	4348
907.091	4554
907.208	4664
907.324	4538
907.441	4531
907.557	4329
907.674	4333
907.79	4325
907.907	4409
908.023	4489
908.139	4497
908.256	4424
908.372	4424
908.488	4447
908.604	4333
908.72	4322
908.836	4402
908.952	4386
909.068	4443
909.184	4577
909.3	4489
909.415	4569
909.531	4588
909.647	4344
909.762	4379
909.878	4333
909.993	4455
910.108	4386
910.224	4417
910.339	4493
910.454	4409
910.57	4352
910.685	4306
910.8	4668
910.915	4599
911.03	4489
911.145	4329
911.259	4314
911.374	4363
911.489	4341
911.604	4261
911.718	4181
911.833	4223
911.947	4093
912.062	4093
912.176	4207
912.291	4261
912.405	4230
912.519	4413
912.633	4516
912.748	4402
912.862	4356
912.976	4188
913.09	4112
913.204	4162
913.318	4272
913.431	4390
913.545	4390
913.659	4405
913.772	4329
913.886	4223
914	4211
914.113	4329
914.226	4436
914.34	4409
914.453	4246
914.566	4413
914.68	4322
914.793	4363
914.906	4154
915.019	4109
915.132	4074
915.245	4173
915.358	4162
915.47	4295
915.583	4253
915.696	4291
915.809	4383
915.921	4402
916.034	4242
916.146	4227
916.259	4177
916.371	4322
916.483	4367
916.595	4268
916.708	4306
916.82	4333
916.932	4287
917.044	4325
917.156	4341
917.268	4246
917.38	4272
917.491	4310
917.603	4363
917.715	4428
917.826	4485
917.938	4367
918.049	4246
918.161	4409
918.272	4550
918.384	4527
918.495	4440
918.606	4318
918.717	4204
918.828	4303
918.939	4348
919.05	4246
919.161	4329
919.272	4135
919.383	4249
919.494	4428
919.604	4599
919.715	4478
919.826	4337
919.936	4386
920.047	4535
920.157	4489
920.267	4679
920.378	4550
920.488	4500
920.598	4698
920.708	4885
920.818	4782
920.928	4744
921.038	4961
921.148	4904
921.258	4634
921.368	4538
921.477	4504
921.587	4519
921.697	4360
921.806	4527
921.916	4421
922.025	4295
922.134	4227
922.244	4223
922.353	4310
922.462	4143
922.571	4112
922.68	3979
922.789	3960
922.898	4082
923.007	4017
923.116	4078
923.224	4063
923.333	4101
923.442	4040
923.55	3956
923.659	4017
923.767	4097
923.876	4006
923.984	4105
924.092	3983
924.201	4090
924.309	4093
924.417	4097
924.525	4021
924.633	4040
924.741	5041
924.849	3911
924.956	4143
925.064	3930
925.172	3937
925.279	3987
925.387	4025
925.494	4051
925.602	4196
925.709	4147
925.816	4025
925.924	4109
926.031	4177
926.138	4154
926.245	4200
926.352	4101
926.459	4219
926.566	4261
926.673	4188
926.779	4078
926.886	4078
926.993	3945
927.099	3983
927.206	3937
927.312	3934
927.419	4055
927.525	4051
927.631	4116
927.737	3915
927.843	3880
927.95	3838
928.056	3945
928.162	3964
928.267	4071
928.373	4603
928.479	4116
928.585	3838
928.69	4059
928.796	4048
928.901	4010
929.007	3793
929.112	4025
929.218	3907
929.323	3972
929.428	3949
929.533	4059
929.638	3937
929.743	3987
929.848	4055
929.953	4006
930.058	3972
930.163	3789
930.267	3854
930.372	3953
930.477	3793
930.581	4082
930.685	3930
930.79	3819
930.894	3869
930.998	3842
931.103	4097
931.207	3717
931.311	3675
931.415	3675
931.519	3523
931.623	3564
