Data from test_V78500241_1331.txt Node
Date: Fri Mar 25 16:58:15 CST 2022
User: usil
Spectrometer: V785-0024
Trigger mode: 0
Integration Time (sec): 4.000000E-1
Scans to average: 1
Nonlinearity correction enabled: false
Boxcar width: 0
Storing dark spectrum: false
XAxis mode: Wavelengths
Number of Pixels in Spectrum: 1024
>>>>>Begin Spectral Data<<<<<
801.071	8005
801.214	8001
801.356	7890
801.499	7845
801.641	7723
801.783	7753
801.926	7917
802.068	7883
802.211	7928
802.353	8005
802.496	7727
802.638	7837
802.78	7875
802.923	7944
803.065	7902
803.208	7856
803.35	7997
803.492	8092
803.635	8187
803.777	8035
803.919	8069
804.061	8404
804.204	8157
804.346	8043
804.488	7959
804.63	8096
804.773	8043
804.915	8142
805.057	8275
805.199	8119
805.341	8210
805.483	8313
805.626	8214
805.768	8145
805.91	8210
806.052	8210
806.194	8134
806.336	8229
806.478	8077
806.62	8046
806.762	8157
806.904	8271
807.046	8431
807.188	8412
807.33	8282
807.472	8324
807.614	8142
807.756	8142
807.898	7970
808.04	7909
808.182	7894
808.324	7928
808.465	7951
808.607	8138
808.749	8008
808.891	8161
809.033	8305
809.174	8282
809.316	8050
809.458	7970
809.6	7951
809.741	8031
809.883	7997
810.025	8046
810.166	8024
810.308	8126
810.45	7932
810.591	7822
810.733	7715
810.875	7666
811.016	7556
811.158	7571
811.299	7666
811.441	7746
811.582	7715
811.724	7533
811.865	7559
812.007	7578
812.148	7636
812.29	7643
812.431	7746
812.573	7875
812.714	8005
812.855	8134
812.997	8161
813.138	8313
813.279	8191
813.421	8016
813.562	7955
813.703	7818
813.845	7761
813.986	7510
814.127	7263
814.268	7228
814.41	7187
814.551	7145
814.692	7129
814.833	7080
814.974	6985
815.115	6993
815.256	7015
815.397	6954
815.539	6924
815.68	6856
815.821	6745
815.962	6886
816.103	6798
816.244	6734
816.385	6608
816.526	6658
816.666	6521
816.807	6327
816.948	6407
817.089	6460
817.23	6429
817.371	6361
817.512	6403
817.653	6391
817.793	6296
817.934	6407
818.075	6448
818.216	6429
818.356	6350
818.497	6209
818.638	6110
818.778	6186
818.919	6133
819.06	6148
819.2	6304
819.341	6311
819.481	6296
819.622	6513
819.762	6753
819.903	6734
820.043	6642
820.184	6555
820.324	6582
820.465	6726
820.605	6700
820.746	6604
820.886	6498
821.026	6623
821.167	6654
821.307	6768
821.447	6730
821.588	6585
821.728	6536
821.868	6506
822.008	6273
822.149	6384
822.289	6391
822.429	6163
822.569	6114
822.709	6136
822.849	5954
822.99	5836
823.13	5904
823.27	5954
823.41	5745
823.55	5767
823.69	5745
823.83	5756
823.97	5680
824.11	5577
824.25	5486
824.389	5520
824.529	5611
824.669	5543
824.809	5642
824.949	5657
825.089	5646
825.228	5577
825.368	5425
825.508	5349
825.648	5307
825.787	5360
825.927	5402
826.067	5299
826.206	5288
826.346	5398
826.485	5414
826.625	5391
826.765	5539
826.904	5429
827.044	5250
827.183	5227
827.323	5151
827.462	5284
827.601	5216
827.741	5170
827.88	5220
828.02	5128
828.159	5223
828.298	5334
828.437	5417
828.577	5277
828.716	5444
828.855	5353
828.994	5117
829.134	5136
829.273	5155
829.412	5102
829.551	5109
829.69	5151
829.829	5185
829.968	5337
830.107	5239
830.246	5242
830.385	5166
830.524	5124
830.663	5071
830.802	4942
830.941	4835
831.08	4797
831.219	4980
831.357	4991
831.496	5113
831.635	4896
831.774	4854
831.913	4816
832.051	4698
832.19	4717
832.329	4797
832.467	4733
832.606	4603
832.744	4683
832.883	4702
833.022	4710
833.16	4771
833.299	4816
833.437	4782
833.576	4786
833.714	4843
833.852	4858
833.991	4816
834.129	4949
834.267	4919
834.406	4854
834.544	4942
834.682	4965
834.821	4896
834.959	5147
835.097	4991
835.235	5102
835.373	5003
835.511	5075
835.65	5014
835.788	5037
835.926	4828
836.064	4885
836.202	4896
836.34	5143
836.478	5239
836.615	5083
836.753	5170
836.891	5288
837.029	5197
837.167	5170
837.305	5140
837.443	5170
837.58	5041
837.718	5258
837.856	5140
837.993	5102
838.131	5227
838.269	5239
838.406	5151
838.544	5136
838.681	5033
838.819	4957
838.956	4889
839.094	4870
839.231	5006
839.369	5079
839.506	5448
839.643	5269
839.781	5056
839.918	5052
840.055	5109
840.193	5117
840.33	5094
840.467	5064
840.604	5166
840.742	5398
840.879	5025
841.016	5060
841.153	5204
841.29	5337
841.427	5311
841.564	5246
841.701	5330
841.838	5292
841.975	5181
842.112	5239
842.249	5140
842.385	5041
842.522	5322
842.659	5162
842.796	5117
842.933	5162
843.069	5121
843.206	5147
843.343	5269
843.479	5216
843.616	5223
843.752	5014
843.889	5003
844.025	5197
844.162	5029
844.298	5212
844.435	5098
844.571	5079
844.708	5193
844.844	5326
844.98	5379
845.117	5280
845.253	5102
845.389	5067
845.525	5197
845.661	5132
845.798	5037
845.934	5128
846.07	5029
846.206	5143
846.342	5265
846.478	5185
846.614	5022
846.75	4953
846.886	4949
847.022	5102
847.158	4965
847.294	5056
847.429	5083
847.565	5033
847.701	5372
847.837	4850
847.972	4820
848.108	4930
848.244	4946
848.379	4767
848.515	4702
848.65	4691
848.786	4725
848.921	4786
849.057	4881
849.192	4873
849.328	4793
849.463	4847
849.598	4767
849.734	4763
849.869	4683
850.004	4637
850.14	4645
850.275	4656
850.41	4554
850.545	4550
850.68	4577
850.815	4607
850.95	4603
851.085	4805
851.22	4748
851.355	4653
851.49	4618
851.625	4615
851.76	4645
851.895	4554
852.03	4504
852.165	4672
852.299	4672
852.434	4790
852.569	4748
852.703	4774
852.838	4843
852.973	4873
853.107	4934
853.242	4717
853.376	4675
853.511	4535
853.645	4637
853.78	4790
853.914	4660
854.048	4653
854.183	4637
854.317	4630
854.451	4892
854.585	4664
854.72	4569
854.854	4752
854.988	4573
855.122	4637
855.256	4531
855.39	4603
855.524	4748
855.658	4702
855.792	4656
855.926	4736
856.06	4736
856.194	4809
856.327	4664
856.461	4588
856.595	4592
856.729	4630
856.862	4755
856.996	4683
857.13	4717
857.263	4763
857.397	4816
857.53	4645
857.664	4649
857.797	4729
857.931	4824
858.064	4698
858.197	4740
858.331	4645
858.464	4634
858.597	4504
858.731	4649
858.864	4630
858.997	4550
859.13	4672
859.263	4668
859.396	4694
859.529	4577
859.662	4584
859.795	4546
859.928	4611
860.061	4721
860.194	4748
860.327	4603
860.46	4481
860.592	4672
860.725	4698
860.858	4721
860.99	4558
861.123	4504
861.256	4523
861.388	4603
861.521	5181
861.653	4474
861.786	4451
861.918	4428
862.05	4531
862.183	4474
862.315	4588
862.447	4565
862.58	4550
862.712	4443
862.844	4333
862.976	4451
863.108	4443
863.24	4858
863.372	4344
863.504	4436
863.636	4344
863.768	4485
863.9	4436
864.032	4344
864.164	4398
864.296	4466
864.428	4489
864.559	4550
864.691	4519
864.823	4462
864.954	4485
865.086	4481
865.217	4462
865.349	4417
865.48	4474
865.612	4485
865.743	4611
865.875	4447
866.006	4470
866.137	4455
866.269	4428
866.4	4402
866.531	4440
866.662	4367
866.793	4375
866.924	4383
867.055	4436
867.186	4440
867.317	4428
867.448	4386
867.579	4352
867.71	4371
867.841	4363
867.972	4466
868.103	4470
868.233	4485
868.364	4462
868.495	4508
868.625	4660
868.756	4748
868.886	4558
869.017	4615
869.147	4801
869.278	4740
869.408	4679
869.539	4565
869.669	4649
869.799	4622
869.929	4755
870.06	4710
870.19	4946
870.32	4866
870.45	4892
870.58	4987
870.71	5140
870.84	5052
870.97	4995
871.1	4896
871.23	5159
871.36	5136
871.489	4995
871.619	5094
871.749	5056
871.879	5098
872.008	5166
872.138	5037
872.267	4987
872.397	4828
872.526	4801
872.656	4717
872.785	4790
872.915	5003
873.044	5060
873.173	4923
873.303	4991
873.432	4930
873.561	4972
873.69	4862
873.819	4820
873.948	4885
874.077	4816
874.206	4801
874.335	4782
874.464	4915
874.593	5033
874.722	4942
874.851	5102
874.979	5083
875.108	5018
875.237	4900
875.365	4866
875.494	4896
875.623	4980
875.751	4771
875.88	4904
876.008	5014
876.136	5033
876.265	5170
876.393	5322
876.521	5242
876.65	5208
876.778	5159
876.906	5010
877.034	5010
877.162	4999
877.29	4972
877.418	5010
877.546	5056
877.674	4987
877.802	5018
877.93	4961
878.058	4915
878.185	4850
878.313	4946
878.441	4911
878.568	4740
878.696	4900
878.824	4919
878.951	4987
879.079	5105
879.206	5284
879.333	5071
879.461	4995
879.588	4968
879.715	5098
879.842	5212
879.97	4999
880.097	4793
880.224	4740
880.351	4820
880.478	4752
880.605	4752
880.732	4748
880.859	5071
880.986	4908
881.112	4889
881.239	4740
881.366	4679
881.493	4550
881.619	4554
881.746	4668
881.872	4622
881.999	4592
882.125	4702
882.252	4824
882.378	4759
882.505	4949
882.631	4790
882.757	4664
882.883	4706
883.01	4759
883.136	4656
883.262	4603
883.388	4603
883.514	4778
883.64	4835
883.766	4782
883.892	4660
884.018	4714
884.143	4877
884.269	4984
884.395	4660
884.52	4584
884.646	4637
884.772	4573
884.897	4535
885.023	4649
885.148	4812
885.274	4862
885.399	4801
885.524	4714
885.65	4679
885.775	4710
885.9	4675
886.025	4847
886.15	4790
886.275	4691
886.4	4611
886.525	4698
886.65	4645
886.775	4672
886.9	4908
887.025	5056
887.149	4816
887.274	4622
887.399	4618
887.523	4607
887.648	4542
887.773	4592
887.897	4744
888.021	4733
888.146	4660
888.27	4812
888.395	4866
888.519	4767
888.643	4759
888.767	4824
888.891	4645
889.015	4653
889.139	4645
889.263	4615
889.387	4744
889.511	4854
889.635	4828
889.759	4656
889.883	4641
890.006	4702
890.13	4850
890.254	4592
890.377	4672
890.501	4535
890.624	4508
890.748	4656
890.871	4485
890.995	4409
891.118	4379
891.241	4447
891.364	4489
891.488	4634
891.611	4497
891.734	4538
891.857	4584
891.98	4569
892.103	4664
892.226	4618
892.349	4478
892.471	4489
892.594	4535
892.717	4584
892.839	4519
892.962	4569
893.085	4645
893.207	4588
893.33	4447
893.452	4478
893.575	4584
893.697	4527
893.819	4801
893.941	4820
894.064	4744
894.186	4546
894.308	4561
894.43	4729
894.552	4801
894.674	4767
894.796	4546
894.918	4538
895.04	4542
895.161	4679
895.283	4637
895.405	4561
895.526	4626
895.648	4656
895.769	4641
895.891	4641
896.012	4729
896.134	4740
896.255	4656
896.376	4637
896.498	4630
896.619	4691
896.74	4554
896.861	4615
896.982	4896
897.103	5041
897.224	4763
897.345	4694
897.466	4679
897.587	4637
897.708	4835
897.828	4790
897.949	4672
898.07	4577
898.19	4618
898.311	4877
898.431	4694
898.552	4714
898.672	4820
898.792	4801
898.913	4763
899.033	4630
899.153	4500
899.273	4398
899.393	4474
899.513	4519
899.633	4462
899.753	4569
899.873	4485
899.993	4603
900.113	4546
900.232	4558
900.352	4569
900.472	4478
900.591	4360
900.711	4459
900.83	4447
900.95	4580
901.069	4649
901.189	4466
901.308	4348
901.427	4329
901.546	4375
901.665	4466
901.784	4519
901.904	4344
902.023	4344
902.141	4219
902.26	4143
902.379	4261
902.498	4234
902.617	4185
902.735	4398
902.854	4398
902.973	4367
903.091	4162
903.21	4242
903.328	4291
903.446	4265
903.565	4249
903.683	4356
903.801	4287
903.919	4352
904.038	4409
904.156	4291
904.274	4424
904.392	4398
904.51	4413
904.627	4497
904.745	4550
904.863	4622
904.981	4405
905.098	4310
905.216	4352
905.334	4432
905.451	4356
905.569	4436
905.686	4554
905.803	4565
905.921	4386
906.038	4573
906.155	4470
906.272	4375
906.389	4474
906.506	4310
906.623	4379
906.74	4383
906.857	4329
906.974	4303
907.091	4546
907.208	4668
907.324	4550
907.441	4516
907.557	4344
907.674	4314
907.79	4272
907.907	4394
908.023	4451
908.139	4440
908.256	4447
908.372	4474
908.488	4386
908.604	4325
908.72	4295
908.836	4379
908.952	4383
909.068	4455
909.184	4565
909.3	4493
909.415	4588
909.531	4535
909.647	4344
909.762	4386
909.878	4348
909.993	4371
910.108	4394
910.224	4409
910.339	4470
910.454	4413
910.57	4360
910.685	4306
910.8	4630
910.915	4611
911.03	4504
911.145	4325
911.259	4284
911.374	4371
911.489	4291
911.604	4272
911.718	4150
911.833	4207
911.947	4074
912.062	4040
912.176	4230
912.291	4227
912.405	4249
912.519	4466
912.633	4474
912.748	4341
912.862	4253
912.976	4227
913.09	4055
913.204	4112
913.318	4215
913.431	4363
913.545	4352
913.659	4436
913.772	4375
913.886	4223
914	4223
914.113	4405
914.226	4459
914.34	4398
914.453	4200
914.566	4428
914.68	4276
914.793	4310
914.906	4139
915.019	4116
915.132	4036
915.245	4185
915.358	4211
915.47	4234
915.583	4257
915.696	4280
915.809	4379
915.921	4436
916.034	4234
916.146	4246
916.259	4192
916.371	4356
916.483	4341
916.595	4215
916.708	4310
916.82	4314
916.932	4287
917.044	4333
917.156	4306
917.268	4185
917.38	4238
917.491	4310
917.603	4314
917.715	4360
917.826	4405
917.938	4341
918.049	4230
918.161	4363
918.272	4542
918.384	4554
918.495	4398
918.606	4303
918.717	4238
918.828	4356
918.939	4348
919.05	4257
919.161	4287
919.272	4158
919.383	4196
919.494	4424
919.604	4573
919.715	4417
919.826	4337
919.936	4367
920.047	4527
920.157	4455
920.267	4714
920.378	4558
920.488	4478
920.598	4721
920.708	4870
920.818	4729
920.928	4801
921.038	4980
921.148	4881
921.258	4611
921.368	4538
921.477	4504
921.587	4447
921.697	4367
921.806	4504
921.916	4455
922.025	4230
922.134	4223
922.244	4246
922.353	4325
922.462	4150
922.571	4143
922.68	4021
922.789	3934
922.898	4013
923.007	4010
923.116	4109
923.224	4040
923.333	4105
923.442	4021
923.55	3953
923.659	4013
923.767	4116
923.876	3987
923.984	4082
924.092	3956
924.201	4071
924.309	4071
924.417	4128
924.525	4082
924.633	4105
924.741	5048
924.849	3907
924.956	4101
925.064	3949
925.172	3892
925.279	3956
925.387	4040
925.494	4059
925.602	4242
925.709	4150
925.816	4021
925.924	4082
926.031	4223
926.138	4177
926.245	4238
926.352	4086
926.459	4249
926.566	4341
926.673	4181
926.779	4036
926.886	4040
926.993	3994
927.099	3911
927.206	3922
927.312	3915
927.419	4017
927.525	4010
927.631	4051
927.737	3934
927.843	3937
927.95	3804
928.056	3953
928.162	3975
928.267	4036
928.373	4729
928.479	4101
928.585	3911
928.69	4029
928.796	4074
928.901	3979
929.007	3842
929.112	3956
929.218	4010
929.323	3968
929.428	3956
929.533	4074
929.638	3899
929.743	3930
929.848	3998
929.953	3987
930.058	3953
930.163	3728
930.267	3819
930.372	3953
930.477	3808
930.581	4059
930.685	3903
930.79	3819
930.894	3846
930.998	3842
931.103	4036
931.207	3717
931.311	3663
931.415	3656
931.519	3511
931.623	3538
