Data from test_V78500241_1943.txt Node
Date: Fri Mar 25 17:02:30 CST 2022
User: usil
Spectrometer: V785-0024
Trigger mode: 0
Integration Time (sec): 4.000000E-1
Scans to average: 1
Nonlinearity correction enabled: false
Boxcar width: 0
Storing dark spectrum: false
XAxis mode: Wavelengths
Number of Pixels in Spectrum: 1024
>>>>>Begin Spectral Data<<<<<
801.071	7993
801.214	7947
801.356	7849
801.499	7818
801.641	7753
801.783	7803
801.926	8016
802.068	7925
802.211	7982
802.353	8043
802.496	7887
802.638	7887
802.78	7860
802.923	7925
803.065	7898
803.208	7833
803.35	7974
803.492	8046
803.635	8096
803.777	8005
803.919	8062
804.061	8381
804.204	8092
804.346	8069
804.488	7936
804.63	8016
804.773	8012
804.915	8142
805.057	8298
805.199	8195
805.341	8153
805.483	8271
805.626	8172
805.768	8134
805.91	8187
806.052	8240
806.194	8077
806.336	8267
806.478	8084
806.62	8043
806.762	8134
806.904	8233
807.046	8393
807.188	8347
807.33	8317
807.472	8400
807.614	8115
807.756	8126
807.898	7978
808.04	7860
808.182	7868
808.324	7818
808.465	7906
808.607	8096
808.749	8062
808.891	8221
809.033	8286
809.174	8176
809.316	8077
809.458	8069
809.6	8008
809.741	8077
809.883	8008
810.025	8046
810.166	8043
810.308	8008
810.45	8027
810.591	7837
810.733	7658
810.875	7693
811.016	7514
811.158	7487
811.299	7643
811.441	7704
811.582	7620
811.724	7540
811.865	7533
812.007	7586
812.148	7563
812.29	7643
812.431	7712
812.573	7860
812.714	7989
812.855	8206
812.997	8298
813.138	8286
813.279	8172
813.421	8077
813.562	7944
813.703	7792
813.845	7696
813.986	7472
814.127	7266
814.268	7297
814.41	7171
814.551	7156
814.692	7171
814.833	7053
814.974	7080
815.115	7126
815.256	6973
815.397	6951
815.539	6916
815.68	6753
815.821	6745
815.962	6821
816.103	6806
816.244	6730
816.385	6593
816.526	6631
816.666	6525
816.807	6304
816.948	6426
817.089	6544
817.23	6388
817.371	6391
817.512	6388
817.653	6433
817.793	6353
817.934	6369
818.075	6403
818.216	6467
818.356	6407
818.497	6273
818.638	6133
818.778	6186
818.919	6098
819.06	6125
819.2	6270
819.341	6342
819.481	6300
819.622	6551
819.762	6779
819.903	6639
820.043	6582
820.184	6574
820.324	6532
820.465	6711
820.605	6646
820.746	6620
820.886	6513
821.026	6635
821.167	6700
821.307	6798
821.447	6722
821.588	6703
821.728	6563
821.868	6448
822.008	6319
822.149	6407
822.289	6357
822.429	6213
822.569	6106
822.709	6133
822.849	5855
822.99	5893
823.13	5874
823.27	5939
823.41	5802
823.55	5779
823.69	5707
823.83	5775
823.97	5611
824.11	5493
824.25	5516
824.389	5516
824.529	5581
824.669	5524
824.809	5623
824.949	5695
825.089	5573
825.228	5528
825.368	5391
825.508	5303
825.648	5296
825.787	5379
825.927	5391
826.067	5315
826.206	5280
826.346	5368
826.485	5364
826.625	5337
826.765	5577
826.904	5486
827.044	5239
827.183	5159
827.323	5113
827.462	5208
827.601	5212
827.741	5140
827.88	5143
828.02	5109
828.159	5277
828.298	5307
828.437	5379
828.577	5280
828.716	5452
828.855	5330
828.994	5113
829.134	5151
829.273	5227
829.412	5121
829.551	5155
829.69	5174
829.829	5258
829.968	5391
830.107	5242
830.246	5265
830.385	5178
830.524	5113
830.663	5064
830.802	5018
830.941	4870
831.08	4858
831.219	4999
831.357	5003
831.496	5128
831.635	4942
831.774	4809
831.913	4820
832.051	4748
832.19	4752
832.329	4816
832.467	4672
832.606	4664
832.744	4744
832.883	4736
833.022	4790
833.16	4748
833.299	4854
833.437	4790
833.576	4850
833.714	4831
833.852	4835
833.991	4908
834.129	4900
834.267	4991
834.406	4953
834.544	4949
834.682	4961
834.821	4934
834.959	5132
835.097	4995
835.235	5181
835.373	5056
835.511	5060
835.65	5045
835.788	4987
835.926	4885
836.064	4831
836.202	4927
836.34	5151
836.478	5220
836.615	5136
836.753	5178
836.891	5307
837.029	5269
837.167	5250
837.305	5132
837.443	5105
837.58	5124
837.718	5265
837.856	5223
837.993	5117
838.131	5258
838.269	5189
838.406	5185
838.544	5204
838.681	5056
838.819	4957
838.956	4866
839.094	4919
839.231	4923
839.369	5086
839.506	5383
839.643	5273
839.781	5052
839.918	4991
840.055	5109
840.193	5086
840.33	5071
840.467	5151
840.604	5174
840.742	5417
840.879	5117
841.016	5113
841.153	5132
841.29	5364
841.427	5349
841.564	5277
841.701	5349
841.838	5250
841.975	5235
842.112	5246
842.249	5117
842.385	5132
842.522	5318
842.659	5178
842.796	5136
842.933	5201
843.069	5155
843.206	5140
843.343	5330
843.479	5189
843.616	5307
843.752	4961
843.889	4999
844.025	5212
844.162	4987
844.298	5231
844.435	5064
844.571	5064
844.708	5159
844.844	5303
844.98	5349
845.117	5277
845.253	5124
845.389	5136
845.525	5178
845.661	5090
845.798	5029
845.934	5121
846.07	5045
846.206	5212
846.342	5239
846.478	5193
846.614	4980
846.75	4984
846.886	4900
847.022	5124
847.158	5025
847.294	5067
847.429	5075
847.565	5067
847.701	5322
847.837	4915
847.972	4831
848.108	4965
848.244	4923
848.379	4797
848.515	4698
848.65	4649
848.786	4729
848.921	4812
849.057	4881
849.192	4965
849.328	4774
849.463	4835
849.598	4820
849.734	4740
849.869	4694
850.004	4622
850.14	4675
850.275	4588
850.41	4546
850.545	4538
850.68	4584
850.815	4645
850.95	4615
851.085	4824
851.22	4752
851.355	4656
851.49	4607
851.625	4580
851.76	4653
851.895	4523
852.03	4565
852.165	4664
852.299	4687
852.434	4809
852.569	4725
852.703	4790
852.838	4881
852.973	4923
853.107	4923
853.242	4797
853.376	4645
853.511	4542
853.645	4645
853.78	4778
853.914	4702
854.048	4675
854.183	4664
854.317	4752
854.451	4828
854.585	4637
854.72	4653
854.854	4710
854.988	4592
855.122	4611
855.256	4535
855.39	4653
855.524	4797
855.658	4698
855.792	4729
855.926	4706
856.06	4774
856.194	4793
856.327	4698
856.461	4603
856.595	4569
856.729	4577
856.862	4740
856.996	4714
857.13	4744
857.263	4759
857.397	4820
857.53	4618
857.664	4721
857.797	4774
857.931	4790
858.064	4687
858.197	4736
858.331	4649
858.464	4573
858.597	4538
858.731	4603
858.864	4618
858.997	4618
859.13	4649
859.263	4634
859.396	4679
859.529	4569
859.662	4577
859.795	4523
859.928	4611
860.061	4774
860.194	4755
860.327	4641
860.46	4603
860.592	4733
860.725	4691
860.858	4679
860.99	4569
861.123	4470
861.256	4554
861.388	4577
861.521	5273
861.653	4516
861.786	4413
861.918	4436
862.05	4508
862.183	4527
862.315	4577
862.447	4710
862.58	4599
862.712	4413
862.844	4306
862.976	4459
863.108	4451
863.24	4710
863.372	4322
863.504	4383
863.636	4363
863.768	4474
863.9	4478
864.032	4383
864.164	4375
864.296	4462
864.428	4573
864.559	4561
864.691	4531
864.823	4527
864.954	4462
865.086	4523
865.217	4481
865.349	4455
865.48	4440
865.612	4516
865.743	4645
865.875	4481
866.006	4493
866.137	4459
866.269	4466
866.4	4462
866.531	4428
866.662	4371
866.793	4474
866.924	4424
867.055	4462
867.186	4447
867.317	4375
867.448	4356
867.579	4432
867.71	4386
867.841	4356
867.972	4459
868.103	4470
868.233	4413
868.364	4447
868.495	4516
868.625	4717
868.756	4733
868.886	4573
869.017	4615
869.147	4755
869.278	4729
869.408	4714
869.539	4656
869.669	4744
869.799	4637
869.929	4733
870.06	4702
870.19	4930
870.32	4919
870.45	4923
870.58	5033
870.71	5109
870.84	5079
870.97	4976
871.1	4870
871.23	5113
871.36	5136
871.489	4980
871.619	5083
871.749	5094
871.879	5071
872.008	5220
872.138	5048
872.267	4965
872.397	4824
872.526	4847
872.656	4744
872.785	4809
872.915	4927
873.044	5006
873.173	4927
873.303	4934
873.432	4911
873.561	4995
873.69	4885
873.819	4881
873.948	4953
874.077	4778
874.206	4774
874.335	4805
874.464	4873
874.593	5041
874.722	4999
874.851	5128
874.979	5014
875.108	5025
875.237	4919
875.365	4858
875.494	4850
875.623	4949
875.751	4816
875.88	4892
876.008	4976
876.136	5006
876.265	5220
876.393	5322
876.521	5292
876.65	5242
876.778	5128
876.906	5105
877.034	5003
877.162	5025
877.29	4984
877.418	5018
877.546	5075
877.674	4999
877.802	5056
877.93	5014
878.058	4923
878.185	4858
878.313	4938
878.441	4938
878.568	4767
878.696	4881
878.824	4965
878.951	4949
879.079	5094
879.206	5242
879.333	5071
879.461	4972
879.588	4946
879.715	5128
879.842	5250
879.97	5003
880.097	4782
880.224	4729
880.351	4793
880.478	4835
880.605	4786
880.732	4763
880.859	5105
880.986	4881
881.112	4877
881.239	4748
881.366	4691
881.493	4656
881.619	4599
881.746	4645
881.872	4637
881.999	4630
882.125	4721
882.252	4797
882.378	4786
882.505	4980
882.631	4835
882.757	4611
882.883	4717
883.01	4702
883.136	4679
883.262	4607
883.388	4592
883.514	4801
883.64	4889
883.766	4816
883.892	4668
884.018	4653
884.143	4896
884.269	5037
884.395	4679
884.52	4641
884.646	4672
884.772	4546
884.897	4569
885.023	4664
885.148	4748
885.274	4831
885.399	4801
885.524	4694
885.65	4698
885.775	4744
885.9	4752
886.025	4858
886.15	4839
886.275	4714
886.4	4603
886.525	4683
886.65	4702
886.775	4660
886.9	4927
887.025	5029
887.149	4809
887.274	4675
887.399	4577
887.523	4603
887.648	4577
887.773	4596
887.897	4744
888.021	4759
888.146	4641
888.27	4774
888.395	4889
888.519	4793
888.643	4892
888.767	4793
888.891	4698
889.015	4618
889.139	4634
889.263	4588
889.387	4759
889.511	4828
889.635	4797
889.759	4653
889.883	4626
890.006	4755
890.13	4820
890.254	4603
890.377	4637
890.501	4569
890.624	4489
890.748	4630
890.871	4504
890.995	4459
891.118	4386
891.241	4504
891.364	4554
891.488	4626
891.611	4504
891.734	4523
891.857	4580
891.98	4497
892.103	4649
892.226	4588
892.349	4512
892.471	4402
892.594	4546
892.717	4573
892.839	4573
892.962	4573
893.085	4618
893.207	4634
893.33	4485
893.452	4527
893.575	4664
893.697	4569
893.819	4744
893.941	4793
894.064	4801
894.186	4519
894.308	4561
894.43	4714
894.552	4835
894.674	4744
894.796	4531
894.918	4584
895.04	4550
895.161	4668
895.283	4675
895.405	4561
895.526	4656
895.648	4672
895.769	4679
895.891	4675
896.012	4748
896.134	4752
896.255	4702
896.376	4675
896.498	4607
896.619	4679
896.74	4577
896.861	4675
896.982	4984
897.103	5048
897.224	4850
897.345	4774
897.466	4691
897.587	4664
897.708	4870
897.828	4782
897.949	4691
898.07	4584
898.19	4618
898.311	4870
898.431	4702
898.552	4706
898.672	4847
898.792	4744
898.913	4759
899.033	4660
899.153	4485
899.273	4402
899.393	4474
899.513	4527
899.633	4516
899.753	4508
899.873	4493
899.993	4535
900.113	4573
900.232	4558
900.352	4561
900.472	4470
900.591	4432
900.711	4485
900.83	4470
900.95	4588
901.069	4691
901.189	4508
901.308	4318
901.427	4314
901.546	4394
901.665	4455
901.784	4462
901.904	4344
902.023	4272
902.141	4147
902.26	4185
902.379	4303
902.498	4268
902.617	4223
902.735	4363
902.854	4409
902.973	4318
903.091	4192
903.21	4249
903.328	4284
903.446	4268
903.565	4249
903.683	4314
903.801	4238
903.919	4421
904.038	4436
904.156	4306
904.274	4409
904.392	4386
904.51	4394
904.627	4470
904.745	4584
904.863	4607
904.981	4360
905.098	4337
905.216	4367
905.334	4383
905.451	4413
905.569	4421
905.686	4592
905.803	4542
905.921	4443
906.038	4554
906.155	4462
906.272	4371
906.389	4485
906.506	4314
906.623	4360
906.74	4375
906.857	4276
906.974	4341
907.091	4538
907.208	4687
907.324	4573
907.441	4504
907.557	4367
907.674	4318
907.79	4348
907.907	4371
908.023	4481
908.139	4481
908.256	4455
908.372	4417
908.488	4455
908.604	4352
908.72	4325
908.836	4348
908.952	4390
909.068	4402
909.184	4584
909.3	4424
909.415	4573
909.531	4588
909.647	4348
909.762	4375
909.878	4360
909.993	4443
910.108	4386
910.224	4455
910.339	4466
910.454	4432
910.57	4379
910.685	4310
910.8	4649
910.915	4580
911.03	4497
911.145	4383
911.259	4303
911.374	4379
911.489	4280
911.604	4246
911.718	4166
911.833	4204
911.947	4044
912.062	4040
912.176	4173
912.291	4299
912.405	4249
912.519	4500
912.633	4485
912.748	4367
912.862	4314
912.976	4211
913.09	4078
913.204	4162
913.318	4291
913.431	4379
913.545	4390
913.659	4459
913.772	4344
913.886	4276
914	4249
914.113	4356
914.226	4436
914.34	4383
914.453	4219
914.566	4417
914.68	4322
914.793	4318
914.906	4139
915.019	4101
915.132	4074
915.245	4154
915.358	4246
915.47	4238
915.583	4230
915.696	4287
915.809	4371
915.921	4421
916.034	4261
916.146	4223
916.259	4215
916.371	4306
916.483	4360
916.595	4246
916.708	4310
916.82	4352
916.932	4318
917.044	4310
917.156	4352
917.268	4211
917.38	4310
917.491	4284
917.603	4318
917.715	4379
917.826	4440
917.938	4379
918.049	4265
918.161	4375
918.272	4599
918.384	4523
918.495	4462
918.606	4257
918.717	4280
918.828	4310
918.939	4360
919.05	4280
919.161	4329
919.272	4147
919.383	4253
919.494	4440
919.604	4577
919.715	4466
919.826	4306
919.936	4322
920.047	4565
920.157	4478
920.267	4733
920.378	4500
920.488	4497
920.598	4729
920.708	4885
920.818	4725
920.928	4755
921.038	4930
921.148	4881
921.258	4596
921.368	4561
921.477	4577
921.587	4462
921.697	4329
921.806	4588
921.916	4451
922.025	4249
922.134	4257
922.244	4215
922.353	4344
922.462	4196
922.571	4131
922.68	3987
922.789	3953
922.898	4032
923.007	4021
923.116	4044
923.224	4093
923.333	4090
923.442	3956
923.55	3972
923.659	4048
923.767	4112
923.876	4013
923.984	4147
924.092	3968
924.201	4063
924.309	4120
924.417	4169
924.525	4074
924.633	4093
924.741	5060
924.849	3911
924.956	4120
925.064	3934
925.172	3903
925.279	3937
925.387	4063
925.494	4055
925.602	4211
925.709	4162
925.816	4032
925.924	4090
926.031	4196
926.138	4166
926.245	4230
926.352	4097
926.459	4280
926.566	4295
926.673	4158
926.779	4067
926.886	4097
926.993	3968
927.099	3968
927.206	3888
927.312	3922
927.419	4021
927.525	4029
927.631	4120
927.737	3956
927.843	3937
927.95	3816
928.056	3960
928.162	3960
928.267	4048
928.373	4603
928.479	4112
928.585	3850
928.69	4048
928.796	4048
928.901	3987
929.007	3884
929.112	4021
929.218	3960
929.323	3964
929.428	3937
929.533	4101
929.638	3903
929.743	3930
929.848	4036
929.953	3994
930.058	3896
930.163	3850
930.267	3842
930.372	4017
930.477	3819
930.581	4101
930.685	3911
930.79	3808
930.894	3884
930.998	3865
931.103	4002
931.207	3736
931.311	3663
931.415	3675
931.519	3545
931.623	3576
