Data from test_V78500241_1433.txt Node
Date: Fri Mar 25 16:58:57 CST 2022
User: usil
Spectrometer: V785-0024
Trigger mode: 0
Integration Time (sec): 4.000000E-1
Scans to average: 1
Nonlinearity correction enabled: false
Boxcar width: 0
Storing dark spectrum: false
XAxis mode: Wavelengths
Number of Pixels in Spectrum: 1024
>>>>>Begin Spectral Data<<<<<
801.071	8008
801.214	8008
801.356	7871
801.499	7833
801.641	7807
801.783	7845
801.926	7959
802.068	7818
802.211	8005
802.353	7959
802.496	7830
802.638	7818
802.78	7909
802.923	7902
803.065	7890
803.208	7879
803.35	7932
803.492	8111
803.635	8168
803.777	8039
803.919	8100
804.061	8408
804.204	8138
804.346	8062
804.488	7909
804.63	8016
804.773	8001
804.915	8134
805.057	8267
805.199	8229
805.341	8164
805.483	8259
805.626	8191
805.768	8111
805.91	8191
806.052	8202
806.194	8084
806.336	8252
806.478	8073
806.62	8035
806.762	8183
806.904	8240
807.046	8488
807.188	8324
807.33	8290
807.472	8305
807.614	8119
807.756	8111
807.898	8012
808.04	7909
808.182	7894
808.324	7921
808.465	7913
808.607	8107
808.749	8088
808.891	8195
809.033	8286
809.174	8153
809.316	8077
809.458	7997
809.6	7951
809.741	8016
809.883	8062
810.025	8111
810.166	8027
810.308	7993
810.45	7932
810.591	7860
810.733	7700
810.875	7639
811.016	7506
811.158	7487
811.299	7647
811.441	7693
811.582	7655
811.724	7601
811.865	7502
812.007	7544
812.148	7624
812.29	7597
812.431	7696
812.573	7868
812.714	7974
812.855	8088
812.997	8164
813.138	8332
813.279	8130
813.421	8172
813.562	8046
813.703	7837
813.845	7814
813.986	7491
814.127	7221
814.268	7244
814.41	7183
814.551	7122
814.692	7221
814.833	7107
814.974	7076
815.115	7099
815.256	6951
815.397	6958
815.539	6924
815.68	6897
815.821	6791
815.962	6840
816.103	6818
816.244	6760
816.385	6582
816.526	6642
816.666	6448
816.807	6319
816.948	6445
817.089	6513
817.23	6372
817.371	6342
817.512	6365
817.653	6357
817.793	6353
817.934	6407
818.075	6460
818.216	6422
818.356	6441
818.497	6235
818.638	6091
818.778	6175
818.919	6129
819.06	6129
819.2	6353
819.341	6247
819.481	6395
819.622	6513
819.762	6681
819.903	6696
820.043	6570
820.184	6528
820.324	6566
820.465	6623
820.605	6688
820.746	6673
820.886	6464
821.026	6665
821.167	6665
821.307	6776
821.447	6738
821.588	6734
821.728	6559
821.868	6467
822.008	6254
822.149	6399
822.289	6331
822.429	6148
822.569	6087
822.709	6106
822.849	5965
822.99	5824
823.13	5923
823.27	5885
823.41	5805
823.55	5722
823.69	5752
823.83	5752
823.97	5619
824.11	5512
824.25	5516
824.389	5539
824.529	5539
824.669	5505
824.809	5604
824.949	5623
825.089	5592
825.228	5539
825.368	5376
825.508	5311
825.648	5303
825.787	5387
825.927	5376
826.067	5239
826.206	5235
826.346	5406
826.485	5341
826.625	5406
826.765	5554
826.904	5467
827.044	5227
827.183	5193
827.323	5117
827.462	5235
827.601	5136
827.741	5185
827.88	5181
828.02	5048
828.159	5220
828.298	5284
828.437	5341
828.577	5231
828.716	5459
828.855	5296
828.994	5181
829.134	5102
829.273	5212
829.412	5117
829.551	5155
829.69	5185
829.829	5204
829.968	5357
830.107	5273
830.246	5315
830.385	5189
830.524	5124
830.663	5014
830.802	4965
830.941	4911
831.08	4870
831.219	4980
831.357	4923
831.496	5151
831.635	4930
831.774	4820
831.913	4847
832.051	4729
832.19	4748
832.329	4850
832.467	4675
832.606	4592
832.744	4736
832.883	4725
833.022	4740
833.16	4790
833.299	4752
833.437	4824
833.576	4824
833.714	4828
833.852	4805
833.991	4908
834.129	4949
834.267	4957
834.406	4873
834.544	4927
834.682	4961
834.821	4968
834.959	5189
835.097	5033
835.235	5128
835.373	5102
835.511	5075
835.65	4987
835.788	4999
835.926	4892
836.064	4850
836.202	4862
836.34	5136
836.478	5231
836.615	5090
836.753	5201
836.891	5246
837.029	5254
837.167	5155
837.305	5140
837.443	5128
837.58	5041
837.718	5261
837.856	5181
837.993	5147
838.131	5246
838.269	5174
838.406	5197
838.544	5208
838.681	5022
838.819	4984
838.956	4900
839.094	4908
839.231	4949
839.369	5113
839.506	5402
839.643	5277
839.781	5037
839.918	5037
840.055	5124
840.193	5071
840.33	5075
840.467	5128
840.604	5155
840.742	5398
840.879	5060
841.016	5041
841.153	5147
841.29	5372
841.427	5326
841.564	5246
841.701	5326
841.838	5299
841.975	5235
842.112	5239
842.249	5121
842.385	5124
842.522	5349
842.659	5147
842.796	5117
842.933	5140
843.069	5189
843.206	5174
843.343	5292
843.479	5174
843.616	5246
843.752	5052
843.889	4972
844.025	5185
844.162	4972
844.298	5197
844.435	5025
844.571	5033
844.708	5201
844.844	5307
844.98	5330
845.117	5261
845.253	5128
845.389	5060
845.525	5109
845.661	5086
845.798	5022
845.934	5128
846.07	5060
846.206	5159
846.342	5231
846.478	5136
846.614	4991
846.75	4911
846.886	4900
847.022	5075
847.158	4961
847.294	5029
847.429	5113
847.565	5022
847.701	5254
847.837	4866
847.972	4774
848.108	4953
848.244	4938
848.379	4717
848.515	4691
848.65	4710
848.786	4698
848.921	4839
849.057	4892
849.192	4839
849.328	4786
849.463	4786
849.598	4774
849.734	4733
849.869	4656
850.004	4626
850.14	4660
850.275	4607
850.41	4523
850.545	4577
850.68	4615
850.815	4645
850.95	4573
851.085	4782
851.22	4725
851.355	4679
851.49	4565
851.625	4611
851.76	4611
851.895	4554
852.03	4550
852.165	4630
852.299	4691
852.434	4755
852.569	4748
852.703	4790
852.838	4809
852.973	4911
853.107	4881
853.242	4744
853.376	4660
853.511	4588
853.645	4603
853.78	4771
853.914	4691
854.048	4698
854.183	4645
854.317	4672
854.451	4801
854.585	4645
854.72	4649
854.854	4759
854.988	4607
855.122	4622
855.256	4523
855.39	4660
855.524	4809
855.658	4683
855.792	4694
855.926	4725
856.06	4763
856.194	4824
856.327	4672
856.461	4573
856.595	4641
856.729	4615
856.862	4736
856.996	4656
857.13	4683
857.263	4744
857.397	4790
857.53	4637
857.664	4687
857.797	4778
857.931	4729
858.064	4683
858.197	4744
858.331	4615
858.464	4607
858.597	4443
858.731	4565
858.864	4615
858.997	4542
859.13	4649
859.263	4615
859.396	4706
859.529	4569
859.662	4542
859.795	4558
859.928	4618
860.061	4744
860.194	4744
860.327	4565
860.46	4535
860.592	4664
860.725	4714
860.858	4725
860.99	4531
861.123	4474
861.256	4516
861.388	4592
861.521	5436
861.653	4497
861.786	4421
861.918	4436
862.05	4504
862.183	4523
862.315	4618
862.447	4603
862.58	4535
862.712	4417
862.844	4318
862.976	4462
863.108	4485
863.24	4828
863.372	4352
863.504	4447
863.636	4394
863.768	4451
863.9	4394
864.032	4341
864.164	4405
864.296	4440
864.428	4569
864.559	4497
864.691	4512
864.823	4527
864.954	4485
865.086	4451
865.217	4455
865.349	4417
865.48	4421
865.612	4489
865.743	4611
865.875	4462
866.006	4428
866.137	4500
866.269	4428
866.4	4409
866.531	4424
866.662	4367
866.793	4383
866.924	4390
867.055	4478
867.186	4451
867.317	4386
867.448	4371
867.579	4402
867.71	4375
867.841	4306
867.972	4424
868.103	4436
868.233	4478
868.364	4428
868.495	4436
868.625	4637
868.756	4767
868.886	4546
869.017	4672
869.147	4763
869.278	4786
869.408	4615
869.539	4645
869.669	4702
869.799	4611
869.929	4763
870.06	4698
870.19	4927
870.32	4835
870.45	4881
870.58	4984
870.71	5079
870.84	5045
870.97	4923
871.1	4919
871.23	5109
871.36	5128
871.489	5018
871.619	5102
871.749	5083
871.879	5132
872.008	5140
872.138	5064
872.267	4927
872.397	4835
872.526	4774
872.656	4698
872.785	4790
872.915	4946
873.044	4976
873.173	4885
873.303	4972
873.432	4957
873.561	4953
873.69	4870
873.819	4801
873.948	4889
874.077	4847
874.206	4805
874.335	4721
874.464	4904
874.593	5041
874.722	4919
874.851	5090
874.979	5071
875.108	4999
875.237	4854
875.365	4889
875.494	4870
875.623	4968
875.751	4797
875.88	4930
876.008	4900
876.136	5006
876.265	5208
876.393	5337
876.521	5269
876.65	5201
876.778	5140
876.906	5060
877.034	5022
877.162	5056
877.29	4984
877.418	5075
877.546	4999
877.674	5025
877.802	5037
877.93	4999
878.058	4938
878.185	4889
878.313	4930
878.441	4934
878.568	4767
878.696	4839
878.824	4984
878.951	5018
879.079	5102
879.206	5250
879.333	5029
879.461	4976
879.588	4976
879.715	5048
879.842	5189
879.97	4942
880.097	4771
880.224	4714
880.351	4759
880.478	4793
880.605	4809
880.732	4786
880.859	5060
880.986	4831
881.112	4889
881.239	4782
881.366	4672
881.493	4611
881.619	4546
881.746	4618
881.872	4615
881.999	4607
882.125	4641
882.252	4752
882.378	4801
882.505	4934
882.631	4812
882.757	4660
882.883	4714
883.01	4736
883.136	4691
883.262	4626
883.388	4607
883.514	4820
883.64	4839
883.766	4778
883.892	4668
884.018	4698
884.143	4831
884.269	4968
884.395	4668
884.52	4607
884.646	4622
884.772	4546
884.897	4584
885.023	4668
885.148	4763
885.274	4892
885.399	4774
885.524	4721
885.65	4653
885.775	4721
885.9	4710
886.025	4877
886.15	4759
886.275	4744
886.4	4687
886.525	4725
886.65	4706
886.775	4702
886.9	4904
887.025	5037
887.149	4809
887.274	4691
887.399	4622
887.523	4588
887.648	4588
887.773	4599
887.897	4786
888.021	4778
888.146	4694
888.27	4881
888.395	4919
888.519	4774
888.643	4801
888.767	4881
888.891	4694
889.015	4664
889.139	4672
889.263	4634
889.387	4816
889.511	4892
889.635	4831
889.759	4710
889.883	4702
890.006	4755
890.13	4816
890.254	4641
890.377	4683
890.501	4573
890.624	4577
890.748	4702
890.871	4523
890.995	4436
891.118	4417
891.241	4535
891.364	4588
891.488	4656
891.611	4538
891.734	4615
891.857	4630
891.98	4603
892.103	4714
892.226	4637
892.349	4569
892.471	4474
892.594	4554
892.717	4672
892.839	4592
892.962	4592
893.085	4729
893.207	4645
893.33	4535
893.452	4569
893.575	4683
893.697	4603
893.819	4790
893.941	4858
894.064	4793
894.186	4626
894.308	4634
894.43	4778
894.552	4809
894.674	4793
894.796	4573
894.918	4634
895.04	4618
895.161	4752
895.283	4691
895.405	4615
895.526	4618
895.648	4717
895.769	4683
895.891	4725
896.012	4752
896.134	4767
896.255	4653
896.376	4656
896.498	4634
896.619	4714
896.74	4634
896.861	4683
896.982	4938
897.103	5098
897.224	4858
897.345	4805
897.466	4668
897.587	4744
897.708	4904
897.828	4820
897.949	4721
898.07	4634
898.19	4672
898.311	4816
898.431	4679
898.552	4793
898.672	4809
898.792	4805
898.913	4782
899.033	4645
899.153	4542
899.273	4512
899.393	4538
899.513	4550
899.633	4554
899.753	4565
899.873	4603
899.993	4596
900.113	4538
900.232	4615
900.352	4599
900.472	4466
900.591	4417
900.711	4504
900.83	4466
900.95	4668
901.069	4702
901.189	4588
901.308	4409
901.427	4337
901.546	4470
901.665	4516
901.784	4569
901.904	4371
902.023	4348
902.141	4234
902.26	4169
902.379	4333
902.498	4291
902.617	4238
902.735	4352
902.854	4405
902.973	4394
903.091	4253
903.21	4280
903.328	4318
903.446	4280
903.565	4287
903.683	4379
903.801	4329
903.919	4459
904.038	4459
904.156	4322
904.274	4447
904.392	4409
904.51	4455
904.627	4512
904.745	4637
904.863	4687
904.981	4390
905.098	4325
905.216	4383
905.334	4428
905.451	4440
905.569	4489
905.686	4588
905.803	4577
905.921	4417
906.038	4565
906.155	4462
906.272	4421
906.389	4504
906.506	4398
906.623	4451
906.74	4402
906.857	4322
906.974	4356
907.091	4523
907.208	4717
907.324	4618
907.441	4493
907.557	4386
907.674	4383
907.79	4344
907.907	4367
908.023	4493
908.139	4481
908.256	4489
908.372	4497
908.488	4447
908.604	4371
908.72	4337
908.836	4402
908.952	4383
909.068	4474
909.184	4599
909.3	4466
909.415	4584
909.531	4675
909.647	4344
909.762	4421
909.878	4363
909.993	4462
910.108	4443
910.224	4497
910.339	4497
910.454	4436
910.57	4447
910.685	4344
910.8	4634
910.915	4630
911.03	4519
911.145	4363
911.259	4352
911.374	4375
911.489	4295
911.604	4348
911.718	4261
911.833	4219
911.947	4150
912.062	4067
912.176	4253
912.291	4272
912.405	4238
912.519	4500
912.633	4508
912.748	4417
912.862	4314
912.976	4200
913.09	4147
913.204	4196
913.318	4276
913.431	4455
913.545	4402
913.659	4455
913.772	4447
913.886	4253
914	4234
914.113	4348
914.226	4466
914.34	4371
914.453	4299
914.566	4432
914.68	4318
914.793	4363
914.906	4158
915.019	4139
915.132	4124
915.245	4188
915.358	4253
915.47	4295
915.583	4325
915.696	4325
915.809	4478
915.921	4447
916.034	4207
916.146	4284
916.259	4276
916.371	4344
916.483	4367
916.595	4234
916.708	4356
916.82	4367
916.932	4375
917.044	4322
917.156	4356
917.268	4230
917.38	4322
917.491	4318
917.603	4367
917.715	4440
917.826	4455
917.938	4371
918.049	4299
918.161	4356
918.272	4561
918.384	4527
918.495	4481
918.606	4329
918.717	4242
918.828	4360
918.939	4394
919.05	4287
919.161	4394
919.272	4143
919.383	4287
919.494	4493
919.604	4645
919.715	4436
919.826	4383
919.936	4421
920.047	4546
920.157	4554
920.267	4759
920.378	4519
920.488	4531
920.598	4782
920.708	4862
920.818	4778
920.928	4771
921.038	4938
921.148	4968
921.258	4664
921.368	4535
921.477	4527
921.587	4500
921.697	4390
921.806	4561
921.916	4398
922.025	4314
922.134	4261
922.244	4261
922.353	4421
922.462	4158
922.571	4139
922.68	4067
922.789	4017
922.898	4067
923.007	4017
923.116	4131
923.224	4082
923.333	4093
923.442	4017
923.55	4010
923.659	4029
923.767	4143
923.876	4029
923.984	4131
924.092	4017
924.201	4109
924.309	4135
924.417	4135
924.525	4093
924.633	4139
924.741	5064
924.849	3926
924.956	4147
925.064	3983
925.172	3918
925.279	3998
925.387	4078
925.494	4071
925.602	4246
925.709	4169
925.816	4051
925.924	4143
926.031	4234
926.138	4173
926.245	4234
926.352	4120
926.459	4261
926.566	4299
926.673	4196
926.779	4093
926.886	4074
926.993	3972
927.099	3979
927.206	4013
927.312	3979
927.419	4029
927.525	4048
927.631	4116
927.737	3983
927.843	3907
927.95	3899
928.056	3964
928.162	4010
928.267	4071
928.373	4615
928.479	4128
928.585	3884
928.69	4025
928.796	4093
928.901	4044
929.007	3888
929.112	4025
929.218	3998
929.323	3934
929.428	3941
929.533	4150
929.638	3945
929.743	3953
929.848	4021
929.953	4029
930.058	3941
930.163	3774
930.267	3846
930.372	3991
930.477	3831
930.581	4112
930.685	4025
930.79	3842
930.894	3911
930.998	3865
931.103	4040
931.207	3747
931.311	3732
931.415	3686
931.519	3545
931.623	3572
