Data from test_V78500241_1933.txt Node
Date: Fri Mar 25 17:02:26 CST 2022
User: usil
Spectrometer: V785-0024
Trigger mode: 0
Integration Time (sec): 4.000000E-1
Scans to average: 1
Nonlinearity correction enabled: false
Boxcar width: 0
Storing dark spectrum: false
XAxis mode: Wavelengths
Number of Pixels in Spectrum: 1024
>>>>>Begin Spectral Data<<<<<
801.071	7963
801.214	7959
801.356	7841
801.499	7860
801.641	7769
801.783	7772
801.926	7909
802.068	7921
802.211	8027
802.353	7974
802.496	7887
802.638	7795
802.78	7849
802.923	7898
803.065	7845
803.208	7830
803.35	7986
803.492	8024
803.635	8077
803.777	7970
803.919	8084
804.061	8492
804.204	8176
804.346	8027
804.488	7970
804.63	8096
804.773	8031
804.915	8100
805.057	8263
805.199	8164
805.341	8271
805.483	8240
805.626	8218
805.768	8149
805.91	8210
806.052	8191
806.194	8130
806.336	8332
806.478	8062
806.62	8107
806.762	8119
806.904	8252
807.046	8590
807.188	8434
807.33	8377
807.472	8404
807.614	8191
807.756	8191
807.898	8092
808.04	7951
808.182	7947
808.324	7928
808.465	7932
808.607	8084
808.749	8111
808.891	8206
809.033	8320
809.174	8187
809.316	8138
809.458	8126
809.6	8088
809.741	8046
809.883	8027
810.025	8142
810.166	8058
810.308	8046
810.45	7967
810.591	7856
810.733	7780
810.875	7674
811.016	7559
811.158	7495
811.299	7601
811.441	7708
811.582	7719
811.724	7605
811.865	7521
812.007	7582
812.148	7590
812.29	7647
812.431	7776
812.573	7993
812.714	7955
812.855	8149
812.997	8176
813.138	8286
813.279	8134
813.421	8088
813.562	7925
813.703	7833
813.845	7750
813.986	7388
814.127	7244
814.268	7240
814.41	7171
814.551	7194
814.692	7301
814.833	7133
814.974	7080
815.115	7126
815.256	6958
815.397	6996
815.539	6981
815.68	6821
815.821	6837
815.962	6878
816.103	6848
816.244	6757
816.385	6646
816.526	6578
816.666	6483
816.807	6350
816.948	6475
817.089	6574
817.23	6452
817.371	6361
817.512	6376
817.653	6441
817.793	6380
817.934	6414
818.075	6475
818.216	6460
818.356	6410
818.497	6243
818.638	6148
818.778	6201
818.919	6155
819.06	6125
819.2	6323
819.341	6365
819.481	6376
819.622	6532
819.762	6791
819.903	6757
820.043	6601
820.184	6658
820.324	6525
820.465	6722
820.605	6719
820.746	6692
820.886	6521
821.026	6681
821.167	6673
821.307	6825
821.447	6783
821.588	6707
821.728	6604
821.868	6536
822.008	6346
822.149	6422
822.289	6372
822.429	6220
822.569	6087
822.709	6148
822.849	5984
822.99	5946
823.13	5927
823.27	5939
823.41	5855
823.55	5786
823.69	5821
823.83	5764
823.97	5684
824.11	5570
824.25	5520
824.389	5554
824.529	5676
824.669	5532
824.809	5646
824.949	5676
825.089	5642
825.228	5558
825.368	5410
825.508	5406
825.648	5330
825.787	5398
825.927	5387
826.067	5318
826.206	5349
826.346	5387
826.485	5425
826.625	5448
826.765	5581
826.904	5532
827.044	5277
827.183	5216
827.323	5155
827.462	5258
827.601	5181
827.741	5242
827.88	5231
828.02	5155
828.159	5307
828.298	5349
828.437	5383
828.577	5311
828.716	5509
828.855	5307
828.994	5178
829.134	5162
829.273	5223
829.412	5227
829.551	5147
829.69	5201
829.829	5239
829.968	5341
830.107	5299
830.246	5284
830.385	5151
830.524	5124
830.663	5067
830.802	5014
830.941	4949
831.08	4908
831.219	5037
831.357	5003
831.496	5185
831.635	4984
831.774	4854
831.913	4892
832.051	4733
832.19	4752
832.329	4847
832.467	4664
832.606	4672
832.744	4759
832.883	4717
833.022	4793
833.16	4820
833.299	4858
833.437	4824
833.576	4873
833.714	4881
833.852	4896
833.991	4976
834.129	4980
834.267	5022
834.406	4934
834.544	4957
834.682	4991
834.821	4965
834.959	5189
835.097	4957
835.235	5132
835.373	5083
835.511	5147
835.65	5037
835.788	5041
835.926	4919
836.064	4896
836.202	4980
836.34	5159
836.478	5235
836.615	5121
836.753	5227
836.891	5239
837.029	5284
837.167	5250
837.305	5147
837.443	5155
837.58	5128
837.718	5261
837.856	5216
837.993	5174
838.131	5231
838.269	5254
838.406	5261
838.544	5170
838.681	5071
838.819	5029
838.956	4915
839.094	4946
839.231	4995
839.369	5086
839.506	5440
839.643	5296
839.781	5086
839.918	5014
840.055	5124
840.193	5121
840.33	5147
840.467	5170
840.604	5162
840.742	5440
840.879	5102
841.016	5109
841.153	5166
841.29	5406
841.427	5383
841.564	5353
841.701	5376
841.838	5307
841.975	5223
842.112	5318
842.249	5197
842.385	5132
842.522	5337
842.659	5136
842.796	5117
842.933	5197
843.069	5208
843.206	5178
843.343	5326
843.479	5235
843.616	5288
843.752	5022
843.889	5075
844.025	5216
844.162	5041
844.298	5216
844.435	5094
844.571	5060
844.708	5227
844.844	5326
844.98	5299
845.117	5284
845.253	5223
845.389	5098
845.525	5216
845.661	5151
845.798	5094
845.934	5109
846.07	5048
846.206	5223
846.342	5288
846.478	5178
846.614	5025
846.75	4987
846.886	4953
847.022	5197
847.158	5033
847.294	5102
847.429	5147
847.565	5083
847.701	5277
847.837	4873
847.972	4809
848.108	4980
848.244	4934
848.379	4767
848.515	4763
848.65	4733
848.786	4763
848.921	4771
849.057	4896
849.192	4885
849.328	4828
849.463	4915
849.598	4809
849.734	4752
849.869	4691
850.004	4660
850.14	4729
850.275	4683
850.41	4596
850.545	4580
850.68	4584
850.815	4637
850.95	4630
851.085	4831
851.22	4793
851.355	4698
851.49	4622
851.625	4672
851.76	4668
851.895	4554
852.03	4538
852.165	4656
852.299	4736
852.434	4793
852.569	4793
852.703	4835
852.838	4828
852.973	4946
853.107	4949
853.242	4717
853.376	4630
853.511	4569
853.645	4618
853.78	4809
853.914	4717
854.048	4675
854.183	4664
854.317	4691
854.451	4843
854.585	4725
854.72	4580
854.854	4752
854.988	4599
855.122	4630
855.256	4542
855.39	4668
855.524	4763
855.658	4721
855.792	4706
855.926	4763
856.06	4736
856.194	4801
856.327	4729
856.461	4622
856.595	4630
856.729	4641
856.862	4748
856.996	4694
857.13	4748
857.263	4805
857.397	4816
857.53	4645
857.664	4740
857.797	4778
857.931	4797
858.064	4694
858.197	4771
858.331	4660
858.464	4615
858.597	4577
858.731	4668
858.864	4630
858.997	4637
859.13	4664
859.263	4634
859.396	4736
859.529	4630
859.662	4592
859.795	4550
859.928	4668
860.061	4801
860.194	4767
860.327	4607
860.46	4577
860.592	4694
860.725	4736
860.858	4710
860.99	4626
861.123	4535
861.256	4554
861.388	4683
861.521	5292
861.653	4516
861.786	4455
861.918	4402
862.05	4512
862.183	4523
862.315	4645
862.447	4710
862.58	4561
862.712	4405
862.844	4337
862.976	4481
863.108	4455
863.24	4809
863.372	4383
863.504	4386
863.636	4386
863.768	4516
863.9	4485
864.032	4405
864.164	4447
864.296	4459
864.428	4569
864.559	4641
864.691	4584
864.823	4527
864.954	4504
865.086	4523
865.217	4478
865.349	4440
865.48	4436
865.612	4478
865.743	4622
865.875	4474
866.006	4428
866.137	4443
866.269	4424
866.4	4466
866.531	4428
866.662	4436
866.793	4424
866.924	4440
867.055	4519
867.186	4443
867.317	4405
867.448	4394
867.579	4402
867.71	4383
867.841	4386
867.972	4474
868.103	4459
868.233	4432
868.364	4481
868.495	4489
868.625	4649
868.756	4740
868.886	4584
869.017	4630
869.147	4729
869.278	4740
869.408	4664
869.539	4626
869.669	4721
869.799	4596
869.929	4736
870.06	4736
870.19	4908
870.32	4953
870.45	4942
870.58	5006
870.71	5090
870.84	5162
870.97	4942
871.1	4965
871.23	5178
871.36	5143
871.489	5022
871.619	5102
871.749	5121
871.879	5132
872.008	5204
872.138	5052
872.267	5052
872.397	4870
872.526	4831
872.656	4736
872.785	4820
872.915	4968
873.044	5094
873.173	4866
873.303	4965
873.432	4976
873.561	4957
873.69	4900
873.819	4843
873.948	4927
874.077	4828
874.206	4801
874.335	4797
874.464	4999
874.593	5041
874.722	4949
874.851	5060
874.979	5075
875.108	5048
875.237	4892
875.365	4858
875.494	4892
875.623	5003
875.751	4831
875.88	4843
876.008	5003
876.136	5052
876.265	5212
876.393	5360
876.521	5277
876.65	5201
876.778	5151
876.906	5151
877.034	5025
877.162	5033
877.29	4949
877.418	5105
877.546	5079
877.674	5048
877.802	5060
877.93	5025
878.058	5003
878.185	4889
878.313	4991
878.441	4934
878.568	4763
878.696	4889
878.824	4934
878.951	5033
879.079	5090
879.206	5254
879.333	5113
879.461	5003
879.588	4984
879.715	5140
879.842	5216
879.97	5022
880.097	4801
880.224	4771
880.351	4790
880.478	4854
880.605	4812
880.732	4816
880.859	5094
880.986	4908
881.112	4961
881.239	4774
881.366	4714
881.493	4618
881.619	4630
881.746	4615
881.872	4634
881.999	4675
882.125	4725
882.252	4801
882.378	4862
882.505	4953
882.631	4820
882.757	4702
882.883	4740
883.01	4809
883.136	4679
883.262	4615
883.388	4641
883.514	4896
883.64	4862
883.766	4782
883.892	4725
884.018	4820
884.143	4957
884.269	5052
884.395	4714
884.52	4664
884.646	4721
884.772	4649
884.897	4584
885.023	4721
885.148	4820
885.274	4904
885.399	4850
885.524	4721
885.65	4736
885.775	4816
885.9	4748
886.025	4911
886.15	4866
886.275	4736
886.4	4714
886.525	4790
886.65	4752
886.775	4694
886.9	4934
887.025	5064
887.149	4854
887.274	4717
887.399	4626
887.523	4630
887.648	4626
887.773	4603
887.897	4805
888.021	4831
888.146	4733
888.27	4870
888.395	4938
888.519	4824
888.643	4862
888.767	4797
888.891	4725
889.015	4611
889.139	4675
889.263	4626
889.387	4824
889.511	4908
889.635	4828
889.759	4653
889.883	4721
890.006	4767
890.13	4858
890.254	4660
890.377	4717
890.501	4554
890.624	4599
890.748	4645
890.871	4565
890.995	4451
891.118	4478
891.241	4550
891.364	4538
891.488	4672
891.611	4512
891.734	4577
891.857	4641
891.98	4592
892.103	4679
892.226	4649
892.349	4584
892.471	4474
892.594	4641
892.717	4675
892.839	4607
892.962	4603
893.085	4694
893.207	4637
893.33	4519
893.452	4546
893.575	4706
893.697	4630
893.819	4786
893.941	4854
894.064	4778
894.186	4634
894.308	4584
894.43	4820
894.552	4866
894.674	4774
894.796	4584
894.918	4584
895.04	4607
895.161	4733
895.283	4691
895.405	4580
895.526	4660
895.648	4714
895.769	4748
895.891	4694
896.012	4835
896.134	4752
896.255	4683
896.376	4672
896.498	4668
896.619	4679
896.74	4649
896.861	4694
896.982	4942
897.103	5071
897.224	4866
897.345	4752
897.466	4725
897.587	4736
897.708	4858
897.828	4828
897.949	4687
898.07	4577
898.19	4672
898.311	4896
898.431	4698
898.552	4740
898.672	4854
898.792	4866
898.913	4809
899.033	4698
899.153	4512
899.273	4481
899.393	4558
899.513	4565
899.633	4596
899.753	4615
899.873	4554
899.993	4626
900.113	4561
900.232	4645
900.352	4569
900.472	4519
900.591	4424
900.711	4561
900.83	4493
900.95	4653
901.069	4694
901.189	4573
901.308	4390
901.427	4386
901.546	4436
901.665	4535
901.784	4485
901.904	4428
902.023	4379
902.141	4230
902.26	4196
902.379	4337
902.498	4268
902.617	4246
902.735	4375
902.854	4409
902.973	4348
903.091	4257
903.21	4253
903.328	4303
903.446	4333
903.565	4276
903.683	4371
903.801	4333
903.919	4409
904.038	4497
904.156	4325
904.274	4470
904.392	4424
904.51	4405
904.627	4508
904.745	4599
904.863	4653
904.981	4394
905.098	4299
905.216	4379
905.334	4459
905.451	4447
905.569	4455
905.686	4538
905.803	4554
905.921	4489
906.038	4531
906.155	4508
906.272	4443
906.389	4497
906.506	4367
906.623	4402
906.74	4405
906.857	4352
906.974	4390
907.091	4588
907.208	4710
907.324	4641
907.441	4558
907.557	4367
907.674	4360
907.79	4306
907.907	4383
908.023	4538
908.139	4504
908.256	4478
908.372	4493
908.488	4424
908.604	4394
908.72	4363
908.836	4383
908.952	4367
909.068	4424
909.184	4649
909.3	4516
909.415	4592
909.531	4596
909.647	4363
909.762	4371
909.878	4375
909.993	4516
910.108	4428
910.224	4436
910.339	4573
910.454	4459
910.57	4394
910.685	4333
910.8	4683
910.915	4626
911.03	4516
911.145	4363
911.259	4337
911.374	4352
911.489	4360
911.604	4257
911.718	4143
911.833	4204
911.947	4135
912.062	4086
912.176	4253
912.291	4238
912.405	4291
912.519	4531
912.633	4550
912.748	4386
912.862	4333
912.976	4280
913.09	4120
913.204	4219
913.318	4318
913.431	4386
913.545	4386
913.659	4462
913.772	4375
913.886	4234
914	4257
914.113	4383
914.226	4485
914.34	4402
914.453	4261
914.566	4474
914.68	4352
914.793	4337
914.906	4196
915.019	4188
915.132	4101
915.245	4234
915.358	4227
915.47	4318
915.583	4253
915.696	4295
915.809	4474
915.921	4409
916.034	4295
916.146	4246
916.259	4253
916.371	4398
916.483	4413
916.595	4268
916.708	4363
916.82	4363
916.932	4348
917.044	4386
917.156	4348
917.268	4265
917.38	4299
917.491	4257
917.603	4383
917.715	4428
917.826	4485
917.938	4337
918.049	4227
918.161	4447
918.272	4554
918.384	4538
918.495	4428
918.606	4299
918.717	4261
918.828	4360
918.939	4371
919.05	4314
919.161	4352
919.272	4109
919.383	4265
919.494	4443
919.604	4645
919.715	4459
919.826	4360
919.936	4383
920.047	4561
920.157	4489
920.267	4710
920.378	4573
920.488	4512
920.598	4687
920.708	4908
920.818	4790
920.928	4748
921.038	4987
921.148	4915
921.258	4664
921.368	4523
921.477	4538
921.587	4527
921.697	4402
921.806	4588
921.916	4451
922.025	4303
922.134	4284
922.244	4223
922.353	4325
922.462	4211
922.571	4143
922.68	4025
922.789	3964
922.898	4093
923.007	3979
923.116	4093
923.224	4071
923.333	4116
923.442	3994
923.55	3998
923.659	4105
923.767	4101
923.876	3998
923.984	4147
924.092	4036
924.201	4090
924.309	4093
924.417	4158
924.525	4044
924.633	4143
924.741	5132
924.849	3907
924.956	4177
925.064	3956
925.172	3945
925.279	3964
925.387	4090
925.494	4044
925.602	4242
925.709	4204
925.816	4051
925.924	4204
926.031	4249
926.138	4207
926.245	4196
926.352	4120
926.459	4303
926.566	4299
926.673	4196
926.779	4124
926.886	4120
926.993	4029
927.099	3987
927.206	3983
927.312	3987
927.419	4051
927.525	4040
927.631	4105
927.737	3975
927.843	3968
927.95	3850
928.056	3960
928.162	4025
928.267	4105
928.373	4596
928.479	4128
928.585	3876
928.69	4040
928.796	4063
928.901	3987
929.007	3869
929.112	4048
929.218	3979
929.323	3934
929.428	3953
929.533	4131
929.638	3911
929.743	3945
929.848	4067
929.953	3998
930.058	3907
930.163	3736
930.267	3808
930.372	3960
930.477	3850
930.581	4139
930.685	3949
930.79	3842
930.894	3873
930.998	3873
931.103	4082
931.207	3724
931.311	3671
931.415	3698
931.519	3481
931.623	3595
