Data from test_V78500241_2685.txt Node
Date: Fri Mar 25 17:07:40 CST 2022
User: usil
Spectrometer: V785-0024
Trigger mode: 0
Integration Time (sec): 4.000000E-1
Scans to average: 1
Nonlinearity correction enabled: false
Boxcar width: 0
Storing dark spectrum: false
XAxis mode: Wavelengths
Number of Pixels in Spectrum: 1024
>>>>>Begin Spectral Data<<<<<
801.071	8020
801.214	7940
801.356	7921
801.499	7925
801.641	7830
801.783	7845
801.926	8058
802.068	7917
802.211	8031
802.353	7982
802.496	7906
802.638	7917
802.78	7925
802.923	7883
803.065	7894
803.208	7849
803.35	8016
803.492	8058
803.635	8248
803.777	8069
803.919	8161
804.061	8507
804.204	8176
804.346	8069
804.488	7932
804.63	8100
804.773	8050
804.915	8126
805.057	8237
805.199	8214
805.341	8214
805.483	8294
805.626	8286
805.768	8134
805.91	8210
806.052	8294
806.194	8153
806.336	8343
806.478	8111
806.62	7989
806.762	8081
806.904	8233
807.046	8552
807.188	8355
807.33	8313
807.472	8317
807.614	8115
807.756	8210
807.898	8008
808.04	7959
808.182	7932
808.324	7928
808.465	7944
808.607	8134
808.749	8176
808.891	8252
809.033	8309
809.174	8183
809.316	8088
809.458	8084
809.6	8008
809.741	8103
809.883	8001
810.025	8149
810.166	8088
810.308	8012
810.45	8012
810.591	7894
810.733	7655
810.875	7636
811.016	7601
811.158	7518
811.299	7643
811.441	7753
811.582	7715
811.724	7597
811.865	7521
812.007	7696
812.148	7605
812.29	7651
812.431	7833
812.573	7883
812.714	7997
812.855	8176
812.997	8244
813.138	8370
813.279	8176
813.421	8123
813.562	8084
813.703	7871
813.845	7712
813.986	7525
814.127	7335
814.268	7282
814.41	7259
814.551	7164
814.692	7175
814.833	7110
814.974	7110
815.115	7129
815.256	7000
815.397	6932
815.539	6989
815.68	6882
815.821	6787
815.962	6882
816.103	6867
816.244	6745
816.385	6612
816.526	6620
816.666	6540
816.807	6323
816.948	6391
817.089	6433
817.23	6475
817.371	6448
817.512	6391
817.653	6361
817.793	6395
817.934	6395
818.075	6464
818.216	6426
818.356	6391
818.497	6224
818.638	6224
818.778	6224
818.919	6152
819.06	6186
819.2	6388
819.341	6346
819.481	6380
819.622	6517
819.762	6715
819.903	6734
820.043	6593
820.184	6665
820.324	6585
820.465	6730
820.605	6749
820.746	6673
820.886	6544
821.026	6627
821.167	6658
821.307	6825
821.447	6783
821.588	6692
821.728	6620
821.868	6517
822.008	6346
822.149	6391
822.289	6399
822.429	6159
822.569	6133
822.709	6049
822.849	5980
822.99	5942
823.13	5999
823.27	5939
823.41	5756
823.55	5775
823.69	5741
823.83	5802
823.97	5657
824.11	5573
824.25	5505
824.389	5490
824.529	5642
824.669	5558
824.809	5600
824.949	5691
825.089	5615
825.228	5596
825.368	5387
825.508	5364
825.648	5376
825.787	5387
825.927	5364
826.067	5353
826.206	5307
826.346	5383
826.485	5395
826.625	5452
826.765	5554
826.904	5474
827.044	5280
827.183	5231
827.323	5128
827.462	5265
827.601	5178
827.741	5189
827.88	5216
828.02	5132
828.159	5261
828.298	5273
828.437	5360
828.577	5315
828.716	5482
828.855	5334
828.994	5189
829.134	5223
829.273	5204
829.412	5170
829.551	5098
829.69	5178
829.829	5284
829.968	5368
830.107	5357
830.246	5330
830.385	5208
830.524	5166
830.663	5140
830.802	5006
830.941	4870
831.08	4915
831.219	4999
831.357	4987
831.496	5159
831.635	4900
831.774	4850
831.913	4847
832.051	4763
832.19	4809
832.329	4850
832.467	4733
832.606	4626
832.744	4755
832.883	4733
833.022	4721
833.16	4782
833.299	4782
833.437	4805
833.576	4870
833.714	4812
833.852	4919
833.991	4854
834.129	4995
834.267	4965
834.406	4938
834.544	4984
834.682	5010
834.821	5003
834.959	5242
835.097	5060
835.235	5174
835.373	5098
835.511	5071
835.65	5060
835.788	5052
835.926	4934
836.064	4862
836.202	4911
836.34	5155
836.478	5239
836.615	5102
836.753	5170
836.891	5303
837.029	5269
837.167	5201
837.305	5155
837.443	5170
837.58	5079
837.718	5239
837.856	5197
837.993	5151
838.131	5254
838.269	5201
838.406	5162
838.544	5155
838.681	5045
838.819	5025
838.956	4911
839.094	4896
839.231	4927
839.369	5094
839.506	5398
839.643	5223
839.781	5086
839.918	5048
840.055	5056
840.193	5060
840.33	5105
840.467	5170
840.604	5223
840.742	5387
840.879	5124
841.016	5098
841.153	5109
841.29	5364
841.427	5345
841.564	5265
841.701	5368
841.838	5349
841.975	5223
842.112	5280
842.249	5185
842.385	5128
842.522	5322
842.659	5220
842.796	5189
842.933	5220
843.069	5132
843.206	5143
843.343	5288
843.479	5242
843.616	5299
843.752	5048
843.889	4995
844.025	5181
844.162	5052
844.298	5250
844.435	5113
844.571	5033
844.708	5178
844.844	5292
844.98	5311
845.117	5277
845.253	5140
845.389	5071
845.525	5178
845.661	5166
845.798	5060
845.934	5143
846.07	5045
846.206	5254
846.342	5265
846.478	5246
846.614	4995
846.75	4995
846.886	4953
847.022	5140
847.158	5003
847.294	5048
847.429	5094
847.565	5079
847.701	5303
847.837	4889
847.972	4831
848.108	4957
848.244	4946
848.379	4809
848.515	4702
848.65	4790
848.786	4759
848.921	4778
849.057	4889
849.192	4915
849.328	4831
849.463	4873
849.598	4763
849.734	4778
849.869	4710
850.004	4596
850.14	4672
850.275	4603
850.41	4493
850.545	4580
850.68	4645
850.815	4626
850.95	4607
851.085	4839
851.22	4748
851.355	4706
851.49	4653
851.625	4641
851.76	4611
851.895	4554
852.03	4504
852.165	4668
852.299	4710
852.434	4866
852.569	4717
852.703	4774
852.838	4877
852.973	4965
853.107	4938
853.242	4774
853.376	4683
853.511	4584
853.645	4611
853.78	4824
853.914	4694
854.048	4660
854.183	4698
854.317	4691
854.451	4854
854.585	4698
854.72	4668
854.854	4733
854.988	4558
855.122	4668
855.256	4500
855.39	4656
855.524	4771
855.658	4729
855.792	4691
855.926	4714
856.06	4729
856.194	4805
856.327	4733
856.461	4656
856.595	4649
856.729	4641
856.862	4702
856.996	4698
857.13	4717
857.263	4759
857.397	4778
857.53	4679
857.664	4771
857.797	4778
857.931	4786
858.064	4714
858.197	4763
858.331	4653
858.464	4615
858.597	4546
858.731	4611
858.864	4596
858.997	4596
859.13	4653
859.263	4672
859.396	4687
859.529	4558
859.662	4508
859.795	4584
859.928	4649
860.061	4759
860.194	4721
860.327	4660
860.46	4599
860.592	4733
860.725	4717
860.858	4714
860.99	4592
861.123	4466
861.256	4500
861.388	4653
861.521	5258
861.653	4466
861.786	4447
861.918	4451
862.05	4538
862.183	4535
862.315	4558
862.447	4656
862.58	4535
862.712	4398
862.844	4291
862.976	4497
863.108	4462
863.24	4782
863.372	4318
863.504	4440
863.636	4417
863.768	4451
863.9	4428
864.032	4367
864.164	4409
864.296	4466
864.428	4535
864.559	4550
864.691	4550
864.823	4519
864.954	4504
865.086	4478
865.217	4470
865.349	4405
865.48	4455
865.612	4478
865.743	4615
865.875	4424
866.006	4413
866.137	4455
866.269	4489
866.4	4474
866.531	4443
866.662	4424
866.793	4424
866.924	4489
867.055	4497
867.186	4474
867.317	4417
867.448	4386
867.579	4371
867.71	4363
867.841	4413
867.972	4462
868.103	4443
868.233	4470
868.364	4440
868.495	4478
868.625	4691
868.756	4767
868.886	4561
869.017	4599
869.147	4752
869.278	4816
869.408	4637
869.539	4687
869.669	4702
869.799	4668
869.929	4801
870.06	4752
870.19	4915
870.32	4923
870.45	4904
870.58	5079
870.71	5052
870.84	5083
870.97	4930
871.1	4915
871.23	5102
871.36	5174
871.489	5056
871.619	5105
871.749	5102
871.879	5117
872.008	5212
872.138	5018
872.267	4980
872.397	4839
872.526	4816
872.656	4763
872.785	4809
872.915	4957
873.044	5014
873.173	4946
873.303	4984
873.432	4980
873.561	4968
873.69	4847
873.819	4831
873.948	4923
874.077	4835
874.206	4793
874.335	4820
874.464	4942
874.593	5067
874.722	4938
874.851	5113
874.979	5003
875.108	4999
875.237	4991
875.365	4858
875.494	4911
875.623	4923
875.751	4812
875.88	4854
876.008	4965
876.136	5037
876.265	5227
876.393	5353
876.521	5265
876.65	5250
876.778	5166
876.906	5102
877.034	5045
877.162	5064
877.29	4965
877.418	5071
877.546	5075
877.674	5037
877.802	4968
877.93	5056
878.058	4938
878.185	4873
878.313	4968
878.441	4972
878.568	4831
878.696	4858
878.824	4965
878.951	5018
879.079	5124
879.206	5307
879.333	5132
879.461	4949
879.588	5045
879.715	5128
879.842	5223
879.97	5037
880.097	4782
880.224	4740
880.351	4820
880.478	4812
880.605	4816
880.732	4759
880.859	5067
880.986	4938
881.112	4980
881.239	4801
881.366	4740
881.493	4580
881.619	4599
881.746	4664
881.872	4634
881.999	4717
882.125	4668
882.252	4771
882.378	4828
882.505	4942
882.631	4843
882.757	4679
882.883	4748
883.01	4710
883.136	4664
883.262	4607
883.388	4588
883.514	4835
883.64	4892
883.766	4790
883.892	4649
884.018	4744
884.143	4889
884.269	5006
884.395	4645
884.52	4615
884.646	4622
884.772	4618
884.897	4546
885.023	4641
885.148	4797
885.274	4870
885.399	4820
885.524	4721
885.65	4679
885.775	4736
885.9	4687
886.025	4839
886.15	4816
886.275	4752
886.4	4649
886.525	4683
886.65	4691
886.775	4668
886.9	4892
887.025	4976
887.149	4782
887.274	4672
887.399	4573
887.523	4569
887.648	4573
887.773	4607
887.897	4721
888.021	4786
888.146	4668
888.27	4812
888.395	4900
888.519	4786
888.643	4816
888.767	4850
888.891	4687
889.015	4634
889.139	4615
889.263	4611
889.387	4736
889.511	4854
889.635	4763
889.759	4611
889.883	4637
890.006	4721
890.13	4805
890.254	4599
890.377	4687
890.501	4519
890.624	4497
890.748	4634
890.871	4485
890.995	4459
891.118	4402
891.241	4512
891.364	4546
891.488	4607
891.611	4497
891.734	4580
891.857	4615
891.98	4577
892.103	4664
892.226	4577
892.349	4538
892.471	4421
892.594	4554
892.717	4599
892.839	4538
892.962	4634
893.085	4694
893.207	4599
893.33	4466
893.452	4569
893.575	4683
893.697	4573
893.819	4763
893.941	4835
894.064	4771
894.186	4596
894.308	4599
894.43	4744
894.552	4801
894.674	4729
894.796	4573
894.918	4607
895.04	4538
895.161	4706
895.283	4660
895.405	4542
895.526	4683
895.648	4675
895.769	4679
895.891	4683
896.012	4744
896.134	4736
896.255	4653
896.376	4622
896.498	4592
896.619	4687
896.74	4660
896.861	4630
896.982	4953
897.103	5083
897.224	4850
897.345	4733
897.466	4630
897.587	4687
897.708	4854
897.828	4805
897.949	4641
898.07	4561
898.19	4645
898.311	4885
898.431	4694
898.552	4763
898.672	4847
898.792	4809
898.913	4710
899.033	4580
899.153	4523
899.273	4398
899.393	4459
899.513	4500
899.633	4546
899.753	4546
899.873	4497
899.993	4599
900.113	4535
900.232	4615
900.352	4550
900.472	4485
900.591	4417
900.711	4523
900.83	4466
900.95	4611
901.069	4710
901.189	4489
901.308	4348
901.427	4329
901.546	4409
901.665	4478
901.784	4527
901.904	4394
902.023	4306
902.141	4166
902.26	4192
902.379	4329
902.498	4261
902.617	4223
902.735	4360
902.854	4421
902.973	4367
903.091	4181
903.21	4253
903.328	4265
903.446	4242
903.565	4280
903.683	4383
903.801	4287
903.919	4424
904.038	4443
904.156	4295
904.274	4481
904.392	4421
904.51	4447
904.627	4523
904.745	4615
904.863	4656
904.981	4443
905.098	4322
905.216	4356
905.334	4443
905.451	4421
905.569	4421
905.686	4523
905.803	4561
905.921	4375
906.038	4565
906.155	4462
906.272	4432
906.389	4451
906.506	4325
906.623	4379
906.74	4394
906.857	4322
906.974	4375
907.091	4592
907.208	4679
907.324	4573
907.441	4516
907.557	4344
907.674	4398
907.79	4291
907.907	4386
908.023	4523
908.139	4527
908.256	4405
908.372	4474
908.488	4436
908.604	4344
908.72	4291
908.836	4428
908.952	4371
909.068	4432
909.184	4577
909.3	4447
909.415	4599
909.531	4592
909.647	4360
909.762	4379
909.878	4333
909.993	4497
910.108	4386
910.224	4421
910.339	4440
910.454	4409
910.57	4325
910.685	4360
910.8	4660
910.915	4565
911.03	4470
911.145	4314
911.259	4341
911.374	4379
911.489	4337
911.604	4272
911.718	4200
911.833	4215
911.947	4082
912.062	3994
912.176	4223
912.291	4268
912.405	4284
912.519	4424
912.633	4489
912.748	4367
912.862	4295
912.976	4200
913.09	4109
913.204	4158
913.318	4265
913.431	4375
913.545	4352
913.659	4447
913.772	4360
913.886	4280
914	4234
914.113	4371
914.226	4462
914.34	4356
914.453	4257
914.566	4424
914.68	4310
914.793	4303
914.906	4158
915.019	4150
915.132	4105
915.245	4196
915.358	4265
915.47	4253
915.583	4242
915.696	4257
915.809	4417
915.921	4485
916.034	4287
916.146	4249
916.259	4207
916.371	4424
916.483	4390
916.595	4261
916.708	4356
916.82	4303
916.932	4341
917.044	4303
917.156	4337
917.268	4253
917.38	4276
917.491	4268
917.603	4341
917.715	4405
917.826	4462
917.938	4356
918.049	4219
918.161	4383
918.272	4538
918.384	4542
918.495	4466
918.606	4325
918.717	4234
918.828	4344
918.939	4367
919.05	4234
919.161	4344
919.272	4124
919.383	4223
919.494	4428
919.604	4618
919.715	4436
919.826	4371
919.936	4375
920.047	4569
920.157	4478
920.267	4675
920.378	4577
920.488	4481
920.598	4706
920.708	4870
920.818	4755
920.928	4736
921.038	4946
921.148	4923
921.258	4584
921.368	4580
921.477	4474
921.587	4504
921.697	4398
921.806	4558
921.916	4417
922.025	4261
922.134	4272
922.244	4219
922.353	4344
922.462	4169
922.571	4188
922.68	4029
922.789	3968
922.898	4074
923.007	3972
923.116	4124
923.224	4051
923.333	4078
923.442	3972
923.55	3972
923.659	4044
923.767	4120
923.876	4044
923.984	4124
924.092	3949
924.201	4082
924.309	4093
924.417	4105
924.525	4032
924.633	4131
924.741	5056
924.849	3884
924.956	4128
925.064	3930
925.172	3911
925.279	3960
925.387	4051
925.494	4097
925.602	4276
925.709	4139
925.816	4048
925.924	4097
926.031	4196
926.138	4120
926.245	4246
926.352	4105
926.459	4215
926.566	4329
926.673	4162
926.779	4109
926.886	4090
926.993	3934
927.099	4002
927.206	3953
927.312	3945
927.419	4090
927.525	4074
927.631	4101
927.737	3972
927.843	3911
927.95	3880
928.056	3968
928.162	3968
928.267	4101
928.373	4577
928.479	4109
928.585	3880
928.69	4006
928.796	4097
928.901	3918
929.007	3823
929.112	4021
929.218	4017
929.323	3926
929.428	3884
929.533	4090
929.638	3876
929.743	3956
929.848	4059
929.953	3968
930.058	3960
930.163	3778
930.267	3899
930.372	3998
930.477	3797
930.581	4071
930.685	3941
930.79	3835
930.894	3850
930.998	3838
931.103	4048
931.207	3652
931.311	3751
931.415	3694
931.519	3515
931.623	3549
