Data from test_V78500241_1967.txt Node
Date: Fri Mar 25 17:02:40 CST 2022
User: usil
Spectrometer: V785-0024
Trigger mode: 0
Integration Time (sec): 4.000000E-1
Scans to average: 1
Nonlinearity correction enabled: false
Boxcar width: 0
Storing dark spectrum: false
XAxis mode: Wavelengths
Number of Pixels in Spectrum: 1024
>>>>>Begin Spectral Data<<<<<
801.071	7978
801.214	7963
801.356	7875
801.499	7837
801.641	7769
801.783	7803
801.926	7989
802.068	8001
802.211	7967
802.353	7986
802.496	7883
802.638	7944
802.78	7864
802.923	7887
803.065	7887
803.208	7902
803.35	7974
803.492	8039
803.635	8187
803.777	7963
803.919	8164
804.061	8427
804.204	8172
804.346	8077
804.488	7944
804.63	8054
804.773	8001
804.915	8119
805.057	8309
805.199	8183
805.341	8168
805.483	8286
805.626	8256
805.768	8077
805.91	8267
806.052	8229
806.194	8138
806.336	8381
806.478	8107
806.62	8069
806.762	8126
806.904	8355
807.046	8465
807.188	8374
807.33	8290
807.472	8271
807.614	8202
807.756	8195
807.898	8062
808.04	7894
808.182	8005
808.324	7928
808.465	7982
808.607	8050
808.749	8065
808.891	8191
809.033	8263
809.174	8252
809.316	8119
809.458	8081
809.6	8020
809.741	8024
809.883	8096
810.025	8115
810.166	8058
810.308	8039
810.45	7967
810.591	7849
810.733	7788
810.875	7681
811.016	7495
811.158	7552
811.299	7552
811.441	7715
811.582	7712
811.724	7643
811.865	7567
812.007	7571
812.148	7605
812.29	7704
812.431	7750
812.573	7921
812.714	7997
812.855	8130
812.997	8267
813.138	8298
813.279	8138
813.421	8081
813.562	7940
813.703	7841
813.845	7723
813.986	7422
814.127	7263
814.268	7183
814.41	7149
814.551	7118
814.692	7266
814.833	7126
814.974	7118
815.115	7118
815.256	6935
815.397	7023
815.539	6970
815.68	6829
815.821	6760
815.962	6859
816.103	6810
816.244	6722
816.385	6639
816.526	6612
816.666	6555
816.807	6311
816.948	6502
817.089	6490
817.23	6475
817.371	6384
817.512	6384
817.653	6372
817.793	6300
817.934	6426
818.075	6410
818.216	6486
818.356	6410
818.497	6235
818.638	6114
818.778	6186
818.919	6148
819.06	6194
819.2	6304
819.341	6281
819.481	6357
819.622	6479
819.762	6703
819.903	6684
820.043	6639
820.184	6544
820.324	6540
820.465	6688
820.605	6658
820.746	6726
820.886	6517
821.026	6662
821.167	6688
821.307	6791
821.447	6768
821.588	6700
821.728	6570
821.868	6559
822.008	6369
822.149	6452
822.289	6346
822.429	6175
822.569	6095
822.709	6117
822.849	5939
822.99	5923
823.13	5878
823.27	5874
823.41	5828
823.55	5794
823.69	5813
823.83	5824
823.97	5657
824.11	5535
824.25	5520
824.389	5562
824.529	5562
824.669	5535
824.809	5604
824.949	5688
825.089	5668
825.228	5547
825.368	5440
825.508	5345
825.648	5383
825.787	5387
825.927	5406
826.067	5322
826.206	5357
826.346	5414
826.485	5448
826.625	5444
826.765	5547
826.904	5474
827.044	5261
827.183	5204
827.323	5185
827.462	5216
827.601	5189
827.741	5181
827.88	5220
828.02	5181
828.159	5258
828.298	5307
828.437	5341
828.577	5307
828.716	5509
828.855	5337
828.994	5174
829.134	5090
829.273	5208
829.412	5155
829.551	5121
829.69	5170
829.829	5258
829.968	5353
830.107	5280
830.246	5299
830.385	5197
830.524	5159
830.663	5064
830.802	4995
830.941	4919
831.08	4839
831.219	5006
831.357	4984
831.496	5208
831.635	4991
831.774	4850
831.913	4839
832.051	4721
832.19	4824
832.329	4843
832.467	4721
832.606	4698
832.744	4668
832.883	4740
833.022	4694
833.16	4782
833.299	4831
833.437	4801
833.576	4862
833.714	4862
833.852	4881
833.991	4862
834.129	4980
834.267	4999
834.406	4972
834.544	4968
834.682	4991
834.821	4949
834.959	5136
835.097	4999
835.235	5143
835.373	5124
835.511	5117
835.65	4957
835.788	5010
835.926	4908
836.064	4915
836.202	4904
836.34	5143
836.478	5254
836.615	5151
836.753	5223
836.891	5292
837.029	5284
837.167	5162
837.305	5162
837.443	5208
837.58	5094
837.718	5269
837.856	5185
837.993	5193
838.131	5227
838.269	5212
838.406	5246
838.544	5201
838.681	5045
838.819	5014
838.956	4919
839.094	4862
839.231	4980
839.369	5064
839.506	5414
839.643	5288
839.781	5060
839.918	5022
840.055	5128
840.193	5052
840.33	5121
840.467	5128
840.604	5216
840.742	5425
840.879	5128
841.016	5128
841.153	5140
841.29	5383
841.427	5417
841.564	5311
841.701	5334
841.838	5284
841.975	5246
842.112	5296
842.249	5174
842.385	5037
842.522	5372
842.659	5178
842.796	5193
842.933	5216
843.069	5060
843.206	5159
843.343	5303
843.479	5220
843.616	5261
843.752	5048
843.889	5060
844.025	5239
844.162	4991
844.298	5231
844.435	5128
844.571	4995
844.708	5235
844.844	5292
844.98	5315
845.117	5265
845.253	5132
845.389	5086
845.525	5189
845.661	5136
845.798	5018
845.934	5128
846.07	5086
846.206	5189
846.342	5273
846.478	5193
846.614	4999
846.75	4980
846.886	4915
847.022	5189
847.158	5018
847.294	5079
847.429	5140
847.565	5075
847.701	5372
847.837	4873
847.972	4793
848.108	4976
848.244	4930
848.379	4809
848.515	4759
848.65	4717
848.786	4793
848.921	4778
849.057	4885
849.192	4927
849.328	4816
849.463	4835
849.598	4843
849.734	4755
849.869	4729
850.004	4630
850.14	4694
850.275	4668
850.41	4523
850.545	4596
850.68	4599
850.815	4645
850.95	4615
851.085	4843
851.22	4801
851.355	4649
851.49	4622
851.625	4630
851.76	4641
851.895	4599
852.03	4527
852.165	4679
852.299	4725
852.434	4790
852.569	4710
852.703	4778
852.838	4870
852.973	4927
853.107	4919
853.242	4717
853.376	4645
853.511	4565
853.645	4618
853.78	4809
853.914	4702
854.048	4717
854.183	4668
854.317	4725
854.451	4839
854.585	4698
854.72	4656
854.854	4786
854.988	4596
855.122	4637
855.256	4519
855.39	4698
855.524	4771
855.658	4691
855.792	4679
855.926	4721
856.06	4714
856.194	4809
856.327	4725
856.461	4626
856.595	4603
856.729	4656
856.862	4759
856.996	4717
857.13	4702
857.263	4748
857.397	4774
857.53	4679
857.664	4740
857.797	4767
857.931	4767
858.064	4679
858.197	4774
858.331	4645
858.464	4645
858.597	4542
858.731	4630
858.864	4634
858.997	4558
859.13	4675
859.263	4634
859.396	4675
859.529	4580
859.662	4569
859.795	4535
859.928	4577
860.061	4733
860.194	4748
860.327	4653
860.46	4592
860.592	4687
860.725	4717
860.858	4714
860.99	4603
861.123	4527
861.256	4542
861.388	4596
861.521	5299
861.653	4481
861.786	4478
861.918	4413
862.05	4527
862.183	4531
862.315	4596
862.447	4588
862.58	4584
862.712	4386
862.844	4341
862.976	4443
863.108	4462
863.24	4797
863.372	4291
863.504	4432
863.636	4421
863.768	4462
863.9	4417
864.032	4383
864.164	4398
864.296	4470
864.428	4516
864.559	4481
864.691	4531
864.823	4519
864.954	4497
865.086	4512
865.217	4523
865.349	4440
865.48	4470
865.612	4493
865.743	4618
865.875	4459
866.006	4417
866.137	4466
866.269	4455
866.4	4436
866.531	4413
866.662	4390
866.793	4455
866.924	4432
867.055	4516
867.186	4455
867.317	4462
867.448	4424
867.579	4417
867.71	4424
867.841	4360
867.972	4466
868.103	4424
868.233	4478
868.364	4489
868.495	4497
868.625	4653
868.756	4763
868.886	4546
869.017	4637
869.147	4797
869.278	4782
869.408	4687
869.539	4592
869.669	4752
869.799	4683
869.929	4733
870.06	4717
870.19	4927
870.32	4968
870.45	4900
870.58	5018
870.71	5075
870.84	5075
870.97	4953
871.1	4938
871.23	5124
871.36	5098
871.489	5025
871.619	5045
871.749	5121
871.879	5132
872.008	5170
872.138	5090
872.267	4995
872.397	4885
872.526	4805
872.656	4698
872.785	4774
872.915	4972
873.044	5010
873.173	4930
873.303	4987
873.432	4980
873.561	4965
873.69	4831
873.819	4797
873.948	4923
874.077	4854
874.206	4752
874.335	4835
874.464	4881
874.593	5052
874.722	5025
874.851	5113
874.979	5052
875.108	5067
875.237	4904
875.365	4900
875.494	4866
875.623	4942
875.751	4835
875.88	4858
876.008	4934
876.136	4995
876.265	5216
876.393	5322
876.521	5261
876.65	5239
876.778	5185
876.906	5067
877.034	5025
877.162	5018
877.29	4987
877.418	5079
877.546	5098
877.674	5045
877.802	5064
877.93	4991
878.058	4919
878.185	4873
878.313	4919
878.441	4930
878.568	4790
878.696	4881
878.824	4953
878.951	4987
879.079	5147
879.206	5265
879.333	5090
879.461	5052
879.588	5003
879.715	5147
879.842	5201
879.97	5018
880.097	4805
880.224	4729
880.351	4774
880.478	4805
880.605	4774
880.732	4793
880.859	5067
880.986	4961
881.112	4908
881.239	4782
881.366	4637
881.493	4656
881.619	4641
881.746	4626
881.872	4660
881.999	4634
882.125	4656
882.252	4809
882.378	4805
882.505	4915
882.631	4801
882.757	4641
882.883	4706
883.01	4710
883.136	4664
883.262	4561
883.388	4637
883.514	4809
883.64	4892
883.766	4831
883.892	4717
884.018	4687
884.143	4843
884.269	5033
884.395	4668
884.52	4618
884.646	4611
884.772	4626
884.897	4546
885.023	4630
885.148	4801
885.274	4892
885.399	4828
885.524	4744
885.65	4683
885.775	4748
885.9	4702
886.025	4873
886.15	4820
886.275	4729
886.4	4675
886.525	4710
886.65	4714
886.775	4664
886.9	4843
887.025	5037
887.149	4786
887.274	4649
887.399	4599
887.523	4611
887.648	4622
887.773	4565
887.897	4668
888.021	4797
888.146	4691
888.27	4835
888.395	4881
888.519	4805
888.643	4805
888.767	4881
888.891	4649
889.015	4599
889.139	4653
889.263	4618
889.387	4759
889.511	4930
889.635	4797
889.759	4710
889.883	4622
890.006	4702
890.13	4831
890.254	4577
890.377	4668
890.501	4523
890.624	4523
890.748	4672
890.871	4550
890.995	4424
891.118	4386
891.241	4523
891.364	4584
891.488	4645
891.611	4432
891.734	4558
891.857	4542
891.98	4531
892.103	4626
892.226	4603
892.349	4558
892.471	4352
892.594	4577
892.717	4554
892.839	4558
892.962	4607
893.085	4660
893.207	4569
893.33	4481
893.452	4584
893.575	4645
893.697	4584
893.819	4793
893.941	4831
894.064	4729
894.186	4561
894.308	4565
894.43	4733
894.552	4828
894.674	4759
894.796	4573
894.918	4588
895.04	4558
895.161	4698
895.283	4645
895.405	4580
895.526	4618
895.648	4675
895.769	4683
895.891	4694
896.012	4687
896.134	4706
896.255	4694
896.376	4584
896.498	4592
896.619	4645
896.74	4630
896.861	4660
896.982	4949
897.103	5075
897.224	4809
897.345	4752
897.466	4694
897.587	4710
897.708	4831
897.828	4774
897.949	4668
898.07	4561
898.19	4664
898.311	4831
898.431	4668
898.552	4755
898.672	4816
898.792	4805
898.913	4687
899.033	4618
899.153	4538
899.273	4398
899.393	4493
899.513	4508
899.633	4535
899.753	4573
899.873	4512
899.993	4607
900.113	4550
900.232	4588
900.352	4554
900.472	4466
900.591	4386
900.711	4504
900.83	4409
900.95	4630
901.069	4694
901.189	4538
901.308	4386
901.427	4360
901.546	4367
901.665	4470
901.784	4531
901.904	4367
902.023	4344
902.141	4169
902.26	4166
902.379	4322
902.498	4204
902.617	4185
902.735	4333
902.854	4424
902.973	4379
903.091	4211
903.21	4200
903.328	4360
903.446	4299
903.565	4291
903.683	4341
903.801	4223
903.919	4371
904.038	4421
904.156	4329
904.274	4481
904.392	4413
904.51	4462
904.627	4455
904.745	4584
904.863	4592
904.981	4379
905.098	4329
905.216	4383
905.334	4436
905.451	4417
905.569	4417
905.686	4569
905.803	4565
905.921	4405
906.038	4558
906.155	4489
906.272	4462
906.389	4424
906.506	4314
906.623	4398
906.74	4394
906.857	4344
906.974	4379
907.091	4596
907.208	4626
907.324	4558
907.441	4489
907.557	4344
907.674	4314
907.79	4341
907.907	4428
908.023	4493
908.139	4493
908.256	4405
908.372	4481
908.488	4428
908.604	4333
908.72	4356
908.836	4337
908.952	4367
909.068	4440
909.184	4558
909.3	4478
909.415	4573
909.531	4554
909.647	4344
909.762	4386
909.878	4348
909.993	4440
910.108	4417
910.224	4390
910.339	4436
910.454	4402
910.57	4386
910.685	4287
910.8	4634
910.915	4599
911.03	4455
911.145	4318
911.259	4310
911.374	4363
911.489	4303
911.604	4325
911.718	4185
911.833	4173
911.947	4097
912.062	4010
912.176	4150
912.291	4246
912.405	4249
912.519	4485
912.633	4508
912.748	4367
912.862	4337
912.976	4192
913.09	4124
913.204	4158
913.318	4227
913.431	4367
913.545	4367
913.659	4485
913.772	4356
913.886	4223
914	4219
914.113	4360
914.226	4428
914.34	4371
914.453	4215
914.566	4455
914.68	4268
914.793	4318
914.906	4173
915.019	4109
915.132	4067
915.245	4200
915.358	4177
915.47	4230
915.583	4291
915.696	4291
915.809	4417
915.921	4405
916.034	4215
916.146	4272
916.259	4200
916.371	4405
916.483	4344
916.595	4246
916.708	4314
916.82	4325
916.932	4360
917.044	4322
917.156	4322
917.268	4223
917.38	4306
917.491	4249
917.603	4284
917.715	4428
917.826	4443
917.938	4379
918.049	4249
918.161	4417
918.272	4554
918.384	4542
918.495	4493
918.606	4295
918.717	4238
918.828	4383
918.939	4375
919.05	4242
919.161	4329
919.272	4116
919.383	4169
919.494	4428
919.604	4660
919.715	4421
919.826	4398
919.936	4409
920.047	4516
920.157	4504
920.267	4694
920.378	4504
920.488	4565
920.598	4698
920.708	4831
920.818	4774
920.928	4729
921.038	4949
921.148	4930
921.258	4634
921.368	4569
921.477	4500
921.587	4474
921.697	4363
921.806	4523
921.916	4413
922.025	4268
922.134	4223
922.244	4196
922.353	4337
922.462	4169
922.571	4128
922.68	4017
922.789	3964
922.898	4051
923.007	3941
923.116	4109
923.224	4040
923.333	3998
923.442	4044
923.55	3937
923.659	4025
923.767	4097
923.876	3979
923.984	4128
924.092	3998
924.201	4120
924.309	4090
924.417	4135
924.525	4010
924.633	4082
924.741	5067
924.849	3918
924.956	4131
925.064	3918
925.172	3896
925.279	3994
925.387	4010
925.494	4048
925.602	4227
925.709	4154
925.816	4040
925.924	4105
926.031	4234
926.138	4169
926.245	4211
926.352	4093
926.459	4253
926.566	4265
926.673	4158
926.779	4071
926.886	4051
926.993	3983
927.099	3937
927.206	3945
927.312	3915
927.419	4082
927.525	4029
927.631	4036
927.737	3953
927.843	3964
927.95	3827
928.056	3907
928.162	3979
928.267	4090
928.373	4531
928.479	4116
928.585	3880
928.69	4021
928.796	4044
928.901	3956
929.007	3854
929.112	4032
929.218	4013
929.323	3937
929.428	3960
929.533	4097
929.638	3896
929.743	3960
929.848	4002
929.953	3983
930.058	3880
930.163	3800
930.267	3793
930.372	3979
930.477	3793
930.581	4101
930.685	3896
930.79	3831
930.894	3869
930.998	3850
931.103	4010
931.207	3720
931.311	3698
931.415	3663
931.519	3466
931.623	3576
