Data from test_V78500241_2829.txt Node
Date: Fri Mar 25 17:08:40 CST 2022
User: usil
Spectrometer: V785-0024
Trigger mode: 0
Integration Time (sec): 4.000000E-1
Scans to average: 1
Nonlinearity correction enabled: false
Boxcar width: 0
Storing dark spectrum: false
XAxis mode: Wavelengths
Number of Pixels in Spectrum: 1024
>>>>>Begin Spectral Data<<<<<
801.071	7982
801.214	7967
801.356	7868
801.499	7898
801.641	7814
801.783	7856
801.926	7940
802.068	7982
802.211	8008
802.353	7967
802.496	7860
802.638	7902
802.78	7936
802.923	7925
803.065	7940
803.208	7822
803.35	7951
803.492	8103
803.635	8168
803.777	8081
803.919	8187
804.061	8492
804.204	8168
804.346	8103
804.488	7947
804.63	8103
804.773	8001
804.915	8172
805.057	8233
805.199	8195
805.341	8294
805.483	8259
805.626	8248
805.768	8161
805.91	8252
806.052	8267
806.194	8149
806.336	8294
806.478	8084
806.62	8103
806.762	8138
806.904	8210
807.046	8442
807.188	8385
807.33	8317
807.472	8305
807.614	8176
807.756	8199
807.898	7989
808.04	7928
808.182	8001
808.324	7925
808.465	7947
808.607	8081
808.749	8149
808.891	8202
809.033	8370
809.174	8263
809.316	8073
809.458	7959
809.6	7940
809.741	8103
809.883	8069
810.025	8138
810.166	8100
810.308	8024
810.45	7936
810.591	7978
810.733	7753
810.875	7651
811.016	7578
811.158	7510
811.299	7632
811.441	7769
811.582	7772
811.724	7590
811.865	7575
812.007	7586
812.148	7605
812.29	7651
812.431	7753
812.573	7940
812.714	7959
812.855	8195
812.997	8180
813.138	8324
813.279	8126
813.421	8130
813.562	8077
813.703	7963
813.845	7807
813.986	7434
814.127	7289
814.268	7259
814.41	7301
814.551	7190
814.692	7255
814.833	7137
814.974	7103
815.115	7114
815.256	6905
815.397	6973
815.539	6993
815.68	6852
815.821	6818
815.962	6821
816.103	6852
816.244	6745
816.385	6642
816.526	6635
816.666	6551
816.807	6357
816.948	6471
817.089	6532
817.23	6414
817.371	6395
817.512	6369
817.653	6414
817.793	6369
817.934	6437
818.075	6445
818.216	6445
818.356	6380
818.497	6247
818.638	6163
818.778	6144
818.919	6152
819.06	6178
819.2	6342
819.341	6292
819.481	6388
819.622	6506
819.762	6802
819.903	6734
820.043	6627
820.184	6635
820.324	6578
820.465	6791
820.605	6738
820.746	6623
820.886	6498
821.026	6681
821.167	6779
821.307	6856
821.447	6818
821.588	6642
821.728	6559
821.868	6483
822.008	6361
822.149	6365
822.289	6334
822.429	6125
822.569	6076
822.709	6117
822.849	5897
822.99	5950
823.13	6007
823.27	5904
823.41	5783
823.55	5786
823.69	5771
823.83	5748
823.97	5672
824.11	5566
824.25	5505
824.389	5573
824.529	5581
824.669	5532
824.809	5653
824.949	5646
825.089	5623
825.228	5577
825.368	5421
825.508	5337
825.648	5349
825.787	5349
825.927	5376
826.067	5322
826.206	5273
826.346	5341
826.485	5398
826.625	5398
826.765	5497
826.904	5490
827.044	5223
827.183	5216
827.323	5105
827.462	5269
827.601	5239
827.741	5242
827.88	5216
828.02	5128
828.159	5239
828.298	5280
828.437	5376
828.577	5292
828.716	5433
828.855	5292
828.994	5170
829.134	5166
829.273	5261
829.412	5136
829.551	5159
829.69	5185
829.829	5201
829.968	5406
830.107	5231
830.246	5261
830.385	5204
830.524	5086
830.663	5098
830.802	4980
830.941	4908
831.08	4866
831.219	4976
831.357	4980
831.496	5155
831.635	4927
831.774	4885
831.913	4904
832.051	4675
832.19	4744
832.329	4812
832.467	4683
832.606	4649
832.744	4721
832.883	4748
833.022	4694
833.16	4790
833.299	4824
833.437	4828
833.576	4858
833.714	4866
833.852	4896
833.991	4892
834.129	4938
834.267	4934
834.406	4892
834.544	4923
834.682	5025
834.821	4999
834.959	5170
835.097	5010
835.235	5162
835.373	5037
835.511	5140
835.65	5010
835.788	5014
835.926	4885
836.064	4866
836.202	4908
836.34	5189
836.478	5242
836.615	5128
836.753	5261
836.891	5265
837.029	5239
837.167	5254
837.305	5147
837.443	5136
837.58	5117
837.718	5235
837.856	5201
837.993	5147
838.131	5246
838.269	5185
838.406	5227
838.544	5193
838.681	5109
838.819	5010
838.956	4908
839.094	4915
839.231	4991
839.369	5117
839.506	5398
839.643	5273
839.781	5041
839.918	5041
840.055	5105
840.193	5067
840.33	5113
840.467	5128
840.604	5178
840.742	5463
840.879	5113
841.016	5067
841.153	5136
841.29	5398
841.427	5311
841.564	5303
841.701	5334
841.838	5280
841.975	5185
842.112	5269
842.249	5132
842.385	5064
842.522	5368
842.659	5151
842.796	5147
842.933	5216
843.069	5162
843.206	5143
843.343	5330
843.479	5216
843.616	5318
843.752	5056
843.889	5018
844.025	5189
844.162	5003
844.298	5235
844.435	5067
844.571	5064
844.708	5193
844.844	5349
844.98	5292
845.117	5303
845.253	5170
845.389	5037
845.525	5109
845.661	5147
845.798	5029
845.934	5090
846.07	5041
846.206	5204
846.342	5273
846.478	5166
846.614	4999
846.75	4991
846.886	4915
847.022	5159
847.158	5018
847.294	5052
847.429	5128
847.565	5064
847.701	5311
847.837	4866
847.972	4793
848.108	4984
848.244	4930
848.379	4797
848.515	4672
848.65	4702
848.786	4752
848.921	4843
849.057	4877
849.192	4881
849.328	4839
849.463	4854
849.598	4782
849.734	4759
849.869	4687
850.004	4675
850.14	4664
850.275	4569
850.41	4542
850.545	4558
850.68	4588
850.815	4603
850.95	4653
851.085	4843
851.22	4721
851.355	4664
851.49	4634
851.625	4653
851.76	4634
851.895	4618
852.03	4542
852.165	4725
852.299	4706
852.434	4831
852.569	4774
852.703	4793
852.838	4873
852.973	4923
853.107	4862
853.242	4694
853.376	4717
853.511	4622
853.645	4611
853.78	4805
853.914	4698
854.048	4645
854.183	4653
854.317	4744
854.451	4812
854.585	4660
854.72	4641
854.854	4763
854.988	4584
855.122	4637
855.256	4584
855.39	4698
855.524	4736
855.658	4687
855.792	4702
855.926	4744
856.06	4805
856.194	4778
856.327	4679
856.461	4641
856.595	4615
856.729	4637
856.862	4771
856.996	4653
857.13	4687
857.263	4736
857.397	4831
857.53	4641
857.664	4733
857.797	4763
857.931	4797
858.064	4691
858.197	4736
858.331	4721
858.464	4641
858.597	4485
858.731	4656
858.864	4596
858.997	4588
859.13	4645
859.263	4694
859.396	4721
859.529	4577
859.662	4565
859.795	4558
859.928	4649
860.061	4725
860.194	4805
860.327	4592
860.46	4558
860.592	4721
860.725	4759
860.858	4721
860.99	4580
861.123	4561
861.256	4561
861.388	4630
861.521	5299
861.653	4523
861.786	4409
861.918	4455
862.05	4531
862.183	4531
862.315	4634
862.447	4588
862.58	4565
862.712	4398
862.844	4325
862.976	4485
863.108	4497
863.24	4786
863.372	4352
863.504	4447
863.636	4379
863.768	4474
863.9	4447
864.032	4402
864.164	4314
864.296	4447
864.428	4519
864.559	4558
864.691	4550
864.823	4565
864.954	4493
865.086	4550
865.217	4455
865.349	4436
865.48	4451
865.612	4478
865.743	4588
865.875	4493
866.006	4417
866.137	4428
866.269	4428
866.4	4451
866.531	4436
866.662	4348
866.793	4436
866.924	4386
867.055	4474
867.186	4466
867.317	4417
867.448	4375
867.579	4398
867.71	4379
867.841	4390
867.972	4459
868.103	4481
868.233	4424
868.364	4466
868.495	4516
868.625	4679
868.756	4725
868.886	4550
869.017	4649
869.147	4771
869.278	4740
869.408	4637
869.539	4649
869.669	4687
869.799	4641
869.929	4748
870.06	4721
870.19	4946
870.32	4892
870.45	4980
870.58	5014
870.71	5060
870.84	5079
870.97	4942
871.1	4919
871.23	5140
871.36	5086
871.489	4984
871.619	5075
871.749	5113
871.879	5105
872.008	5170
872.138	5071
872.267	5010
872.397	4896
872.526	4793
872.656	4729
872.785	4831
872.915	4968
873.044	5029
873.173	4927
873.303	4946
873.432	4900
873.561	4949
873.69	4847
873.819	4870
873.948	4949
874.077	4835
874.206	4748
874.335	4820
874.464	4980
874.593	5083
874.722	4957
874.851	5079
874.979	5067
875.108	5014
875.237	4965
875.365	4877
875.494	4847
875.623	4942
875.751	4805
875.88	4858
876.008	4965
876.136	5022
876.265	5201
876.393	5383
876.521	5258
876.65	5201
876.778	5124
876.906	5067
877.034	5048
877.162	5071
877.29	5041
877.418	5045
877.546	5083
877.674	5033
877.802	5079
877.93	5056
878.058	4946
878.185	4858
878.313	5014
878.441	4972
878.568	4793
878.696	4862
878.824	4953
878.951	5006
879.079	5136
879.206	5254
879.333	5079
879.461	4968
879.588	4999
879.715	5117
879.842	5220
879.97	4987
880.097	4805
880.224	4736
880.351	4809
880.478	4797
880.605	4816
880.732	4778
880.859	5098
880.986	4850
881.112	4877
881.239	4752
881.366	4637
881.493	4603
881.619	4588
881.746	4656
881.872	4603
881.999	4641
882.125	4675
882.252	4790
882.378	4854
882.505	4961
882.631	4828
882.757	4660
882.883	4744
883.01	4717
883.136	4694
883.262	4622
883.388	4596
883.514	4801
883.64	4831
883.766	4824
883.892	4675
884.018	4740
884.143	4908
884.269	4968
884.395	4702
884.52	4584
884.646	4683
884.772	4622
884.897	4569
885.023	4687
885.148	4816
885.274	4850
885.399	4790
885.524	4790
885.65	4679
885.775	4767
885.9	4683
886.025	4866
886.15	4774
886.275	4740
886.4	4653
886.525	4752
886.65	4679
886.775	4683
886.9	4919
887.025	5064
887.149	4816
887.274	4641
887.399	4569
887.523	4565
887.648	4584
887.773	4588
887.897	4774
888.021	4816
888.146	4710
888.27	4824
888.395	4889
888.519	4797
888.643	4809
888.767	4793
888.891	4675
889.015	4599
889.139	4691
889.263	4611
889.387	4744
889.511	4847
889.635	4801
889.759	4637
889.883	4649
890.006	4683
890.13	4831
890.254	4634
890.377	4717
890.501	4569
890.624	4470
890.748	4656
890.871	4531
890.995	4424
891.118	4417
891.241	4531
891.364	4561
891.488	4634
891.611	4462
891.734	4512
891.857	4637
891.98	4584
892.103	4691
892.226	4565
892.349	4516
892.471	4443
892.594	4550
892.717	4618
892.839	4603
892.962	4577
893.085	4656
893.207	4573
893.33	4459
893.452	4523
893.575	4630
893.697	4611
893.819	4778
893.941	4805
894.064	4736
894.186	4558
894.308	4565
894.43	4752
894.552	4843
894.674	4702
894.796	4546
894.918	4580
895.04	4558
895.161	4683
895.283	4664
895.405	4546
895.526	4634
895.648	4710
895.769	4668
895.891	4694
896.012	4702
896.134	4687
896.255	4656
896.376	4645
896.498	4599
896.619	4721
896.74	4656
896.861	4687
896.982	4892
897.103	5090
897.224	4858
897.345	4744
897.466	4664
897.587	4706
897.708	4835
897.828	4763
897.949	4630
898.07	4519
898.19	4687
898.311	4843
898.431	4694
898.552	4729
898.672	4809
898.792	4790
898.913	4698
899.033	4618
899.153	4519
899.273	4462
899.393	4546
899.513	4550
899.633	4493
899.753	4538
899.873	4470
899.993	4622
900.113	4531
900.232	4569
900.352	4535
900.472	4470
900.591	4394
900.711	4459
900.83	4421
900.95	4630
901.069	4694
901.189	4546
901.308	4348
901.427	4333
901.546	4375
901.665	4466
901.784	4500
901.904	4394
902.023	4295
902.141	4158
902.26	4196
902.379	4284
902.498	4253
902.617	4219
902.735	4344
902.854	4383
902.973	4341
903.091	4223
903.21	4238
903.328	4306
903.446	4276
903.565	4276
903.683	4356
903.801	4314
903.919	4360
904.038	4440
904.156	4318
904.274	4474
904.392	4436
904.51	4455
904.627	4504
904.745	4588
904.863	4656
904.981	4417
905.098	4310
905.216	4398
905.334	4417
905.451	4440
905.569	4409
905.686	4569
905.803	4561
905.921	4428
906.038	4516
906.155	4474
906.272	4360
906.389	4478
906.506	4363
906.623	4375
906.74	4432
906.857	4276
906.974	4379
907.091	4588
907.208	4740
907.324	4592
907.441	4481
907.557	4367
907.674	4310
907.79	4337
907.907	4402
908.023	4542
908.139	4466
908.256	4436
908.372	4466
908.488	4428
908.604	4356
908.72	4363
908.836	4440
908.952	4363
909.068	4447
909.184	4561
909.3	4489
909.415	4527
909.531	4580
909.647	4344
909.762	4363
909.878	4333
909.993	4489
910.108	4402
910.224	4451
910.339	4550
910.454	4428
910.57	4360
910.685	4295
910.8	4660
910.915	4615
911.03	4478
911.145	4375
911.259	4375
911.374	4409
911.489	4234
911.604	4280
911.718	4192
911.833	4192
911.947	4086
912.062	4029
912.176	4196
912.291	4268
912.405	4268
912.519	4512
912.633	4500
912.748	4348
912.862	4314
912.976	4207
913.09	4097
913.204	4169
913.318	4207
913.431	4394
913.545	4344
913.659	4409
913.772	4363
913.886	4261
914	4227
914.113	4375
914.226	4447
914.34	4398
914.453	4234
914.566	4432
914.68	4314
914.793	4272
914.906	4124
915.019	4109
915.132	4071
915.245	4185
915.358	4181
915.47	4227
915.583	4238
915.696	4322
915.809	4356
915.921	4409
916.034	4249
916.146	4230
916.259	4207
916.371	4421
916.483	4337
916.595	4223
916.708	4371
916.82	4325
916.932	4318
917.044	4329
917.156	4310
917.268	4223
917.38	4287
917.491	4280
917.603	4337
917.715	4402
917.826	4459
917.938	4322
918.049	4272
918.161	4443
918.272	4584
918.384	4546
918.495	4432
918.606	4284
918.717	4287
918.828	4287
918.939	4405
919.05	4253
919.161	4344
919.272	4139
919.383	4169
919.494	4432
919.604	4645
919.715	4405
919.826	4348
919.936	4428
920.047	4519
920.157	4489
920.267	4649
920.378	4554
920.488	4436
920.598	4691
920.708	4934
920.818	4805
920.928	4771
921.038	4972
921.148	4919
921.258	4634
921.368	4573
921.477	4569
921.587	4466
921.697	4409
921.806	4523
921.916	4424
922.025	4265
922.134	4280
922.244	4200
922.353	4341
922.462	4131
922.571	4101
922.68	4002
922.789	4002
922.898	4029
923.007	3987
923.116	4124
923.224	4082
923.333	4025
923.442	3949
923.55	3953
923.659	4021
923.767	4063
923.876	3972
923.984	4116
924.092	3987
924.201	4090
924.309	4112
924.417	4120
924.525	4032
924.633	4154
924.741	4854
924.849	3915
924.956	4147
925.064	3953
925.172	3869
925.279	3915
925.387	4086
925.494	4055
925.602	4227
925.709	4200
925.816	4055
925.924	4150
926.031	4230
926.138	4204
926.245	4234
926.352	4082
926.459	4238
926.566	4306
926.673	4158
926.779	4131
926.886	4063
926.993	3987
927.099	3934
927.206	3953
927.312	3956
927.419	4029
927.525	4010
927.631	4097
927.737	3968
927.843	3896
927.95	3854
928.056	3941
928.162	4010
928.267	4048
928.373	4596
928.479	4112
928.585	3861
928.69	4025
928.796	4109
928.901	3956
929.007	3846
929.112	4002
929.218	3983
929.323	3949
929.428	3949
929.533	4086
929.638	3915
929.743	3953
929.848	4040
929.953	4006
930.058	3892
930.163	3781
930.267	3838
930.372	3972
930.477	3842
930.581	4112
930.685	3945
930.79	3835
930.894	3884
930.998	3896
931.103	4074
931.207	3724
931.311	3709
931.415	3686
931.519	3549
931.623	3591
