Data from test_V78500241_1642.txt Node
Date: Fri Mar 25 17:00:25 CST 2022
User: usil
Spectrometer: V785-0024
Trigger mode: 0
Integration Time (sec): 4.000000E-1
Scans to average: 1
Nonlinearity correction enabled: false
Boxcar width: 0
Storing dark spectrum: false
XAxis mode: Wavelengths
Number of Pixels in Spectrum: 1024
>>>>>Begin Spectral Data<<<<<
801.071	7947
801.214	8020
801.356	7852
801.499	7826
801.641	7753
801.783	7902
801.926	7936
802.068	7925
802.211	7989
802.353	7997
802.496	7917
802.638	7871
802.78	7906
802.923	7921
803.065	7814
803.208	7917
803.35	7936
803.492	8164
803.635	8164
803.777	7989
803.919	8111
804.061	8473
804.204	8233
804.346	8027
804.488	7909
804.63	8027
804.773	7982
804.915	8172
805.057	8309
805.199	8164
805.341	8191
805.483	8240
805.626	8225
805.768	8142
805.91	8240
806.052	8244
806.194	8161
806.336	8290
806.478	8054
806.62	8172
806.762	8149
806.904	8263
807.046	8480
807.188	8393
807.33	8328
807.472	8294
807.614	8123
807.756	8126
807.898	7963
808.04	7879
808.182	7875
808.324	7913
808.465	7875
808.607	8077
808.749	8081
808.891	8134
809.033	8347
809.174	8145
809.316	8084
809.458	8092
809.6	7928
809.741	7944
809.883	8039
810.025	8088
810.166	8077
810.308	8024
810.45	7959
810.591	7845
810.733	7803
810.875	7677
811.016	7487
811.158	7518
811.299	7609
811.441	7639
811.582	7658
811.724	7582
811.865	7518
812.007	7567
812.148	7571
812.29	7632
812.431	7765
812.573	7894
812.714	7993
812.855	8115
812.997	8210
813.138	8305
813.279	8157
813.421	8058
813.562	7944
813.703	7814
813.845	7708
813.986	7419
814.127	7221
814.268	7171
814.41	7152
814.551	7137
814.692	7190
814.833	7080
814.974	7133
815.115	7133
815.256	6996
815.397	6886
815.539	6924
815.68	6825
815.821	6719
815.962	6795
816.103	6798
816.244	6711
816.385	6578
816.526	6578
816.666	6532
816.807	6334
816.948	6456
817.089	6441
817.23	6456
817.371	6422
817.512	6350
817.653	6410
817.793	6384
817.934	6407
818.075	6456
818.216	6376
818.356	6372
818.497	6224
818.638	6087
818.778	6167
818.919	6152
819.06	6125
819.2	6289
819.341	6380
819.481	6296
819.622	6479
819.762	6753
819.903	6700
820.043	6616
820.184	6509
820.324	6639
820.465	6681
820.605	6669
820.746	6654
820.886	6509
821.026	6639
821.167	6658
821.307	6863
821.447	6760
821.588	6673
821.728	6574
821.868	6506
822.008	6319
822.149	6376
822.289	6414
822.429	6209
822.569	6102
822.709	6129
822.849	5965
822.99	5973
823.13	5897
823.27	5901
823.41	5790
823.55	5767
823.69	5764
823.83	5809
823.97	5661
824.11	5554
824.25	5486
824.389	5543
824.529	5520
824.669	5467
824.809	5657
824.949	5688
825.089	5627
825.228	5524
825.368	5429
825.508	5299
825.648	5353
825.787	5383
825.927	5372
826.067	5288
826.206	5258
826.346	5341
826.485	5425
826.625	5398
826.765	5547
826.904	5520
827.044	5269
827.183	5197
827.323	5170
827.462	5216
827.601	5159
827.741	5174
827.88	5197
828.02	5086
828.159	5246
828.298	5303
828.437	5357
828.577	5280
828.716	5444
828.855	5345
828.994	5197
829.134	5162
829.273	5185
829.412	5113
829.551	5105
829.69	5197
829.829	5261
829.968	5330
830.107	5265
830.246	5299
830.385	5140
830.524	5071
830.663	5079
830.802	4999
830.941	4820
831.08	4828
831.219	4949
831.357	4919
831.496	5151
831.635	4938
831.774	4854
831.913	4831
832.051	4725
832.19	4744
832.329	4828
832.467	4660
832.606	4634
832.744	4717
832.883	4687
833.022	4694
833.16	4774
833.299	4824
833.437	4763
833.576	4850
833.714	4870
833.852	4828
833.991	4896
834.129	4904
834.267	4942
834.406	4930
834.544	4934
834.682	5029
834.821	5018
834.959	5140
835.097	5010
835.235	5094
835.373	5113
835.511	5132
835.65	5041
835.788	4999
835.926	4877
836.064	4911
836.202	4927
836.34	5132
836.478	5216
836.615	5105
836.753	5216
836.891	5239
837.029	5212
837.167	5132
837.305	5151
837.443	5162
837.58	5083
837.718	5208
837.856	5159
837.993	5109
838.131	5220
838.269	5227
838.406	5204
838.544	5162
838.681	5045
838.819	5018
838.956	4870
839.094	4934
839.231	4972
839.369	5052
839.506	5383
839.643	5265
839.781	5083
839.918	5052
840.055	5064
840.193	5060
840.33	5124
840.467	5102
840.604	5170
840.742	5429
840.879	5121
841.016	5048
841.153	5098
841.29	5398
841.427	5239
841.564	5273
841.701	5303
841.838	5227
841.975	5181
842.112	5239
842.249	5155
842.385	5121
842.522	5299
842.659	5166
842.796	5132
842.933	5197
843.069	5174
843.206	5136
843.343	5299
843.479	5220
843.616	5269
843.752	4991
843.889	5010
844.025	5185
844.162	5029
844.298	5147
844.435	5056
844.571	5060
844.708	5121
844.844	5299
844.98	5322
845.117	5269
845.253	5121
845.389	5086
845.525	5067
845.661	5155
845.798	5025
845.934	5159
846.07	5067
846.206	5201
846.342	5269
846.478	5147
846.614	5014
846.75	4972
846.886	4961
847.022	5098
847.158	5014
847.294	5094
847.429	5079
847.565	5037
847.701	5307
847.837	4873
847.972	4812
848.108	4930
848.244	4938
848.379	4782
848.515	4763
848.65	4714
848.786	4736
848.921	4805
849.057	4892
849.192	4885
849.328	4774
849.463	4870
849.598	4786
849.734	4755
849.869	4679
850.004	4626
850.14	4645
850.275	4637
850.41	4554
850.545	4577
850.68	4542
850.815	4641
850.95	4615
851.085	4771
851.22	4774
851.355	4683
851.49	4603
851.625	4645
851.76	4615
851.895	4565
852.03	4569
852.165	4596
852.299	4656
852.434	4824
852.569	4721
852.703	4778
852.838	4824
852.973	4942
853.107	4911
853.242	4714
853.376	4672
853.511	4527
853.645	4584
853.78	4793
853.914	4664
854.048	4656
854.183	4683
854.317	4702
854.451	4816
854.585	4664
854.72	4615
854.854	4725
854.988	4580
855.122	4596
855.256	4535
855.39	4653
855.524	4717
855.658	4725
855.792	4714
855.926	4706
856.06	4736
856.194	4847
856.327	4683
856.461	4607
856.595	4565
856.729	4596
856.862	4721
856.996	4717
857.13	4672
857.263	4721
857.397	4790
857.53	4615
857.664	4714
857.797	4812
857.931	4778
858.064	4660
858.197	4748
858.331	4668
858.464	4569
858.597	4527
858.731	4641
858.864	4569
858.997	4596
859.13	4634
859.263	4683
859.396	4702
859.529	4565
859.662	4580
859.795	4535
859.928	4634
860.061	4748
860.194	4752
860.327	4580
860.46	4577
860.592	4717
860.725	4721
860.858	4733
860.99	4580
861.123	4516
861.256	4481
861.388	4596
861.521	5204
861.653	4508
861.786	4394
861.918	4424
862.05	4523
862.183	4489
862.315	4592
862.447	4626
862.58	4504
862.712	4436
862.844	4314
862.976	4466
863.108	4459
863.24	4774
863.372	4325
863.504	4424
863.636	4379
863.768	4481
863.9	4462
864.032	4344
864.164	4383
864.296	4519
864.428	4519
864.559	4565
864.691	4489
864.823	4474
864.954	4462
865.086	4470
865.217	4447
865.349	4379
865.48	4470
865.612	4474
865.743	4634
865.875	4466
866.006	4440
866.137	4478
866.269	4417
866.4	4428
866.531	4413
866.662	4436
866.793	4360
866.924	4394
867.055	4504
867.186	4436
867.317	4470
867.448	4375
867.579	4390
867.71	4386
867.841	4386
867.972	4451
868.103	4462
868.233	4428
868.364	4451
868.495	4459
868.625	4668
868.756	4733
868.886	4622
869.017	4618
869.147	4767
869.278	4710
869.408	4603
869.539	4607
869.669	4740
869.799	4637
869.929	4729
870.06	4702
870.19	4927
870.32	4892
870.45	4927
870.58	5014
870.71	5067
870.84	5052
870.97	4930
871.1	4927
871.23	5094
871.36	5083
871.489	5010
871.619	5071
871.749	5083
871.879	5102
872.008	5208
872.138	5014
872.267	4984
872.397	4877
872.526	4820
872.656	4717
872.785	4786
872.915	4949
873.044	5033
873.173	4908
873.303	4946
873.432	4972
873.561	4961
873.69	4892
873.819	4892
873.948	4889
874.077	4752
874.206	4733
874.335	4771
874.464	4938
874.593	5037
874.722	4984
874.851	5162
874.979	5041
875.108	5025
875.237	4949
875.365	4812
875.494	4881
875.623	4984
875.751	4850
875.88	4915
876.008	4949
876.136	5064
876.265	5212
876.393	5364
876.521	5208
876.65	5242
876.778	5162
876.906	5064
877.034	5022
877.162	5041
877.29	4946
877.418	5067
877.546	5033
877.674	5067
877.802	4987
877.93	4942
878.058	4953
878.185	4873
878.313	4949
878.441	4991
878.568	4786
878.696	4839
878.824	4961
878.951	4957
879.079	5109
879.206	5204
879.333	5064
879.461	5014
879.588	5018
879.715	5124
879.842	5212
879.97	4965
880.097	4748
880.224	4759
880.351	4759
880.478	4858
880.605	4759
880.732	4778
880.859	5102
880.986	4885
881.112	4938
881.239	4809
881.366	4607
881.493	4607
881.619	4615
881.746	4634
881.872	4649
881.999	4679
882.125	4649
882.252	4725
882.378	4862
882.505	4953
882.631	4771
882.757	4714
882.883	4733
883.01	4778
883.136	4687
883.262	4497
883.388	4588
883.514	4790
883.64	4839
883.766	4774
883.892	4653
884.018	4664
884.143	4881
884.269	5025
884.395	4653
884.52	4584
884.646	4630
884.772	4554
884.897	4538
885.023	4630
885.148	4809
885.274	4835
885.399	4786
885.524	4683
885.65	4622
885.775	4744
885.9	4691
886.025	4812
886.15	4824
886.275	4672
886.4	4683
886.525	4733
886.65	4691
886.775	4687
886.9	4881
887.025	5048
887.149	4809
887.274	4645
887.399	4577
887.523	4561
887.648	4573
887.773	4588
887.897	4805
888.021	4752
888.146	4634
888.27	4828
888.395	4889
888.519	4710
888.643	4843
888.767	4866
888.891	4702
889.015	4584
889.139	4611
889.263	4634
889.387	4752
889.511	4809
889.635	4801
889.759	4641
889.883	4580
890.006	4725
890.13	4820
890.254	4618
890.377	4656
890.501	4516
890.624	4531
890.748	4615
890.871	4493
890.995	4432
891.118	4383
891.241	4538
891.364	4500
891.488	4660
891.611	4466
891.734	4523
891.857	4565
891.98	4485
892.103	4626
892.226	4550
892.349	4523
892.471	4405
892.594	4512
892.717	4538
892.839	4584
892.962	4603
893.085	4607
893.207	4599
893.33	4481
893.452	4474
893.575	4653
893.697	4569
893.819	4782
893.941	4801
894.064	4774
894.186	4584
894.308	4580
894.43	4637
894.552	4850
894.674	4721
894.796	4531
894.918	4565
895.04	4577
895.161	4675
895.283	4668
895.405	4561
895.526	4645
895.648	4675
895.769	4698
895.891	4733
896.012	4698
896.134	4733
896.255	4672
896.376	4599
896.498	4584
896.619	4706
896.74	4561
896.861	4630
896.982	4946
897.103	5109
897.224	4866
897.345	4801
897.466	4649
897.587	4721
897.708	4835
897.828	4748
897.949	4637
898.07	4588
898.19	4615
898.311	4831
898.431	4729
898.552	4668
898.672	4797
898.792	4797
898.913	4736
899.033	4622
899.153	4470
899.273	4386
899.393	4489
899.513	4538
899.633	4516
899.753	4462
899.873	4504
899.993	4588
900.113	4512
900.232	4554
900.352	4523
900.472	4489
900.591	4402
900.711	4516
900.83	4432
900.95	4615
901.069	4694
901.189	4558
901.308	4379
901.427	4371
901.546	4325
901.665	4443
901.784	4466
901.904	4363
902.023	4276
902.141	4166
902.26	4173
902.379	4291
902.498	4261
902.617	4211
902.735	4325
902.854	4394
902.973	4306
903.091	4166
903.21	4230
903.328	4306
903.446	4204
903.565	4268
903.683	4341
903.801	4287
903.919	4447
904.038	4443
904.156	4246
904.274	4405
904.392	4375
904.51	4413
904.627	4466
904.745	4580
904.863	4622
904.981	4360
905.098	4314
905.216	4348
905.334	4424
905.451	4443
905.569	4443
905.686	4527
905.803	4538
905.921	4413
906.038	4527
906.155	4459
906.272	4356
906.389	4402
906.506	4341
906.623	4371
906.74	4405
906.857	4284
906.974	4337
907.091	4531
907.208	4679
907.324	4573
907.441	4489
907.557	4314
907.674	4341
907.79	4280
907.907	4398
908.023	4474
908.139	4462
908.256	4447
908.372	4504
908.488	4451
908.604	4356
908.72	4348
908.836	4348
908.952	4363
909.068	4405
909.184	4569
909.3	4485
909.415	4577
909.531	4538
909.647	4344
909.762	4409
909.878	4344
909.993	4440
910.108	4413
910.224	4405
910.339	4478
910.454	4413
910.57	4325
910.685	4348
910.8	4618
910.915	4542
911.03	4459
911.145	4329
911.259	4303
911.374	4344
911.489	4299
911.604	4325
911.718	4169
911.833	4219
911.947	4101
912.062	4036
912.176	4196
912.291	4215
912.405	4291
912.519	4436
912.633	4508
912.748	4337
912.862	4295
912.976	4181
913.09	4112
913.204	4181
913.318	4211
913.431	4360
913.545	4375
913.659	4432
913.772	4348
913.886	4234
914	4200
914.113	4413
914.226	4459
914.34	4386
914.453	4204
914.566	4432
914.68	4303
914.793	4360
914.906	4150
915.019	4131
915.132	4074
915.245	4158
915.358	4238
915.47	4284
915.583	4257
915.696	4287
915.809	4402
915.921	4421
916.034	4223
916.146	4219
916.259	4204
916.371	4398
916.483	4371
916.595	4276
916.708	4352
916.82	4303
916.932	4291
917.044	4341
917.156	4337
917.268	4257
917.38	4227
917.491	4246
917.603	4310
917.715	4379
917.826	4402
917.938	4295
918.049	4207
918.161	4371
918.272	4481
918.384	4493
918.495	4470
918.606	4268
918.717	4223
918.828	4325
918.939	4424
919.05	4207
919.161	4284
919.272	4097
919.383	4227
919.494	4421
919.604	4645
919.715	4409
919.826	4379
919.936	4413
920.047	4504
920.157	4459
920.267	4702
920.378	4546
920.488	4508
920.598	4694
920.708	4824
920.818	4755
920.928	4733
921.038	4957
921.148	4892
921.258	4565
921.368	4592
921.477	4478
921.587	4421
921.697	4386
921.806	4527
921.916	4394
922.025	4310
922.134	4272
922.244	4196
922.353	4322
922.462	4200
922.571	4139
922.68	4002
922.789	3991
922.898	4029
923.007	3949
923.116	4109
923.224	4063
923.333	4036
923.442	3960
923.55	3934
923.659	4021
923.767	4063
923.876	3975
923.984	4109
924.092	4025
924.201	4086
924.309	4074
924.417	4090
924.525	4071
924.633	4105
924.741	4885
924.849	3903
924.956	4109
925.064	3953
925.172	3911
925.279	3953
925.387	4055
925.494	4029
925.602	4204
925.709	4147
925.816	4040
925.924	4116
926.031	4200
926.138	4173
926.245	4169
926.352	4112
926.459	4253
926.566	4299
926.673	4166
926.779	4109
926.886	4097
926.993	3994
927.099	3937
927.206	3964
927.312	3907
927.419	4036
927.525	4059
927.631	4093
927.737	3930
927.843	3926
927.95	3838
928.056	3953
928.162	3987
928.267	4036
928.373	4573
928.479	4124
928.585	3838
928.69	3994
928.796	4010
928.901	3960
929.007	3861
929.112	4021
929.218	3987
929.323	3918
929.428	3911
929.533	4059
929.638	3926
929.743	3979
929.848	4044
929.953	3994
930.058	3934
930.163	3827
930.267	3793
930.372	4036
930.477	3804
930.581	4044
930.685	3922
930.79	3812
930.894	3873
930.998	3861
931.103	4032
931.207	3698
931.311	3709
931.415	3667
931.519	3515
931.623	3576
