Data from test_V78500241_2453.txt Node
Date: Fri Mar 25 17:06:03 CST 2022
User: usil
Spectrometer: V785-0024
Trigger mode: 0
Integration Time (sec): 4.000000E-1
Scans to average: 1
Nonlinearity correction enabled: false
Boxcar width: 0
Storing dark spectrum: false
XAxis mode: Wavelengths
Number of Pixels in Spectrum: 1024
>>>>>Begin Spectral Data<<<<<
801.071	8065
801.214	7997
801.356	7849
801.499	7868
801.641	7807
801.783	7860
801.926	7890
802.068	7902
802.211	7986
802.353	8016
802.496	7879
802.638	7879
802.78	7883
802.923	7951
803.065	7917
803.208	7830
803.35	7967
803.492	8157
803.635	8092
803.777	8016
803.919	8267
804.061	8393
804.204	8130
804.346	8130
804.488	7989
804.63	8119
804.773	8031
804.915	8084
805.057	8351
805.199	8172
805.341	8172
805.483	8305
805.626	8229
805.768	8138
805.91	8187
806.052	8237
806.194	8145
806.336	8279
806.478	8115
806.62	7993
806.762	8138
806.904	8328
807.046	8438
807.188	8328
807.33	8336
807.472	8271
807.614	8206
807.756	8130
807.898	7993
808.04	7936
808.182	7944
808.324	7852
808.465	7963
808.607	7963
808.749	8130
808.891	8271
809.033	8305
809.174	8240
809.316	8069
809.458	8096
809.6	7947
809.741	8035
809.883	8077
810.025	8111
810.166	8107
810.308	7997
810.45	8005
810.591	7837
810.733	7712
810.875	7616
811.016	7499
811.158	7434
811.299	7582
811.441	7712
811.582	7677
811.724	7544
811.865	7502
812.007	7586
812.148	7662
812.29	7609
812.431	7769
812.573	7852
812.714	7970
812.855	8130
812.997	8202
813.138	8267
813.279	8191
813.421	8115
813.562	7959
813.703	7898
813.845	7772
813.986	7415
814.127	7247
814.268	7221
814.41	7118
814.551	7266
814.692	7145
814.833	7141
814.974	7129
815.115	7046
815.256	6947
815.397	6928
815.539	6943
815.68	6875
815.821	6730
815.962	6916
816.103	6795
816.244	6681
816.385	6612
816.526	6616
816.666	6490
816.807	6296
816.948	6437
817.089	6460
817.23	6410
817.371	6414
817.512	6414
817.653	6342
817.793	6365
817.934	6407
818.075	6464
818.216	6475
818.356	6395
818.497	6270
818.638	6136
818.778	6148
818.919	6159
819.06	6144
819.2	6346
819.341	6319
819.481	6361
819.622	6570
819.762	6783
819.903	6719
820.043	6601
820.184	6635
820.324	6608
820.465	6741
820.605	6730
820.746	6650
820.886	6551
821.026	6642
821.167	6711
821.307	6840
821.447	6722
821.588	6688
821.728	6608
821.868	6551
822.008	6357
822.149	6369
822.289	6414
822.429	6209
822.569	6133
822.709	6197
822.849	5965
822.99	5992
823.13	5954
823.27	5950
823.41	5870
823.55	5798
823.69	5840
823.83	5851
823.97	5707
824.11	5608
824.25	5524
824.389	5638
824.529	5623
824.669	5589
824.809	5653
824.949	5676
825.089	5649
825.228	5547
825.368	5459
825.508	5387
825.648	5474
825.787	5383
825.927	5425
826.067	5353
826.206	5299
826.346	5421
826.485	5425
826.625	5501
826.765	5585
826.904	5463
827.044	5261
827.183	5258
827.323	5162
827.462	5296
827.601	5258
827.741	5174
827.88	5269
828.02	5143
828.159	5296
828.298	5326
828.437	5433
828.577	5254
828.716	5539
828.855	5417
828.994	5197
829.134	5204
829.273	5284
829.412	5178
829.551	5201
829.69	5265
829.829	5265
829.968	5379
830.107	5322
830.246	5269
830.385	5284
830.524	5258
830.663	5083
830.802	4987
830.941	4915
831.08	4911
831.219	5018
831.357	5006
831.496	5197
831.635	4889
831.774	4877
831.913	4862
832.051	4725
832.19	4774
832.329	4877
832.467	4786
832.606	4698
832.744	4801
832.883	4771
833.022	4797
833.16	4828
833.299	4850
833.437	4843
833.576	4896
833.714	4862
833.852	4911
833.991	4934
834.129	4953
834.267	4968
834.406	4968
834.544	5033
834.682	4980
834.821	4999
834.959	5159
835.097	5041
835.235	5185
835.373	5140
835.511	5121
835.65	5075
835.788	5090
835.926	4946
836.064	4949
836.202	4949
836.34	5189
836.478	5315
836.615	5117
836.753	5326
836.891	5307
837.029	5299
837.167	5231
837.305	5208
837.443	5235
837.58	5185
837.718	5349
837.856	5204
837.993	5178
838.131	5303
838.269	5223
838.406	5185
838.544	5208
838.681	5045
838.819	5067
838.956	4919
839.094	4965
839.231	5018
839.369	5132
839.506	5482
839.643	5246
839.781	5102
839.918	5113
840.055	5159
840.193	5136
840.33	5132
840.467	5227
840.604	5204
840.742	5433
840.879	5121
841.016	5094
841.153	5201
841.29	5395
841.427	5337
841.564	5364
841.701	5410
841.838	5326
841.975	5280
842.112	5254
842.249	5166
842.385	5140
842.522	5334
842.659	5246
842.796	5201
842.933	5246
843.069	5162
843.206	5143
843.343	5326
843.479	5292
843.616	5273
843.752	5102
843.889	5025
844.025	5261
844.162	5048
844.298	5273
844.435	5113
844.571	5109
844.708	5216
844.844	5326
844.98	5357
845.117	5334
845.253	5185
845.389	5189
845.525	5170
845.661	5189
845.798	5033
845.934	5193
846.07	5041
846.206	5258
846.342	5277
846.478	5231
846.614	5037
846.75	5006
846.886	4957
847.022	5197
847.158	5071
847.294	5102
847.429	5105
847.565	5090
847.701	5391
847.837	4885
847.972	4850
848.108	4968
848.244	4930
848.379	4790
848.515	4736
848.65	4702
848.786	4790
848.921	4858
849.057	4866
849.192	4976
849.328	4847
849.463	4885
849.598	4828
849.734	4782
849.869	4748
850.004	4630
850.14	4660
850.275	4637
850.41	4592
850.545	4550
850.68	4588
850.815	4645
850.95	4664
851.085	4858
851.22	4748
851.355	4694
851.49	4645
851.625	4672
851.76	4717
851.895	4550
852.03	4584
852.165	4656
852.299	4759
852.434	4797
852.569	4778
852.703	4854
852.838	4862
852.973	4976
853.107	4968
853.242	4816
853.376	4710
853.511	4645
853.645	4714
853.78	4812
853.914	4698
854.048	4698
854.183	4672
854.317	4725
854.451	4866
854.585	4714
854.72	4691
854.854	4812
854.988	4630
855.122	4649
855.256	4550
855.39	4660
855.524	4771
855.658	4740
855.792	4729
855.926	4721
856.06	4729
856.194	4839
856.327	4710
856.461	4691
856.595	4649
856.729	4656
856.862	4733
856.996	4717
857.13	4721
857.263	4767
857.397	4835
857.53	4725
857.664	4752
857.797	4812
857.931	4782
858.064	4649
858.197	4793
858.331	4634
858.464	4603
858.597	4558
858.731	4668
858.864	4626
858.997	4611
859.13	4706
859.263	4717
859.396	4706
859.529	4569
859.662	4611
859.795	4527
859.928	4691
860.061	4778
860.194	4774
860.327	4607
860.46	4615
860.592	4710
860.725	4763
860.858	4683
860.99	4603
861.123	4546
861.256	4577
861.388	4698
861.521	5311
861.653	4493
861.786	4489
861.918	4504
862.05	4519
862.183	4599
862.315	4641
862.447	4664
862.58	4565
862.712	4436
862.844	4333
862.976	4489
863.108	4500
863.24	4854
863.372	4363
863.504	4447
863.636	4413
863.768	4405
863.9	4504
864.032	4371
864.164	4424
864.296	4493
864.428	4535
864.559	4561
864.691	4622
864.823	4580
864.954	4481
865.086	4459
865.217	4474
865.349	4466
865.48	4455
865.612	4516
865.743	4637
865.875	4512
866.006	4489
866.137	4478
866.269	4478
866.4	4447
866.531	4436
866.662	4348
866.793	4436
866.924	4405
867.055	4508
867.186	4405
867.317	4428
867.448	4379
867.579	4436
867.71	4428
867.841	4360
867.972	4504
868.103	4474
868.233	4489
868.364	4436
868.495	4519
868.625	4698
868.756	4767
868.886	4607
869.017	4634
869.147	4774
869.278	4759
869.408	4694
869.539	4653
869.669	4748
869.799	4664
869.929	4805
870.06	4759
870.19	5003
870.32	4896
870.45	5006
870.58	5056
870.71	5075
870.84	5197
870.97	4942
871.1	4938
871.23	5159
871.36	5124
871.489	5045
871.619	5105
871.749	5128
871.879	5105
872.008	5235
872.138	5071
872.267	5006
872.397	4862
872.526	4816
872.656	4717
872.785	4801
872.915	4999
873.044	5022
873.173	4980
873.303	4957
873.432	4999
873.561	4991
873.69	4923
873.819	4889
873.948	4953
874.077	4839
874.206	4744
874.335	4820
874.464	4923
874.593	5048
874.722	5014
874.851	5117
874.979	5086
875.108	5060
875.237	4953
875.365	4904
875.494	4892
875.623	4995
875.751	4854
875.88	4908
876.008	4984
876.136	5067
876.265	5212
876.393	5364
876.521	5303
876.65	5231
876.778	5201
876.906	5117
877.034	5041
877.162	5067
877.29	5014
877.418	5090
877.546	5033
877.674	5060
877.802	5045
877.93	5056
878.058	4984
878.185	4908
878.313	4961
878.441	4934
878.568	4793
878.696	4866
878.824	4927
878.951	5086
879.079	5155
879.206	5315
879.333	5098
879.461	5018
879.588	4949
879.715	5147
879.842	5220
879.97	4987
880.097	4831
880.224	4771
880.351	4843
880.478	4782
880.605	4793
880.732	4805
880.859	5155
880.986	4923
881.112	4934
881.239	4774
881.366	4687
881.493	4637
881.619	4607
881.746	4615
881.872	4626
881.999	4687
882.125	4672
882.252	4809
882.378	4873
882.505	4946
882.631	4801
882.757	4721
882.883	4717
883.01	4824
883.136	4634
883.262	4592
883.388	4611
883.514	4831
883.64	4870
883.766	4831
883.892	4702
884.018	4733
884.143	4900
884.269	5010
884.395	4698
884.52	4634
884.646	4660
884.772	4588
884.897	4538
885.023	4706
885.148	4771
885.274	4881
885.399	4801
885.524	4714
885.65	4729
885.775	4790
885.9	4694
886.025	4816
886.15	4809
886.275	4717
886.4	4641
886.525	4752
886.65	4744
886.775	4725
886.9	4915
887.025	5048
887.149	4831
887.274	4634
887.399	4615
887.523	4615
887.648	4599
887.773	4569
887.897	4729
888.021	4797
888.146	4714
888.27	4850
888.395	4930
888.519	4850
888.643	4881
888.767	4873
888.891	4702
889.015	4592
889.139	4668
889.263	4641
889.387	4771
889.511	4862
889.635	4820
889.759	4660
889.883	4668
890.006	4710
890.13	4850
890.254	4653
890.377	4656
890.501	4569
890.624	4550
890.748	4702
890.871	4474
890.995	4436
891.118	4398
891.241	4615
891.364	4599
891.488	4668
891.611	4550
891.734	4546
891.857	4592
891.98	4622
892.103	4679
892.226	4592
892.349	4542
892.471	4447
892.594	4554
892.717	4580
892.839	4565
892.962	4580
893.085	4672
893.207	4580
893.33	4500
893.452	4546
893.575	4641
893.697	4618
893.819	4824
893.941	4847
894.064	4820
894.186	4626
894.308	4554
894.43	4725
894.552	4839
894.674	4793
894.796	4565
894.918	4675
895.04	4599
895.161	4721
895.283	4694
895.405	4592
895.526	4656
895.648	4702
895.769	4706
895.891	4774
896.012	4725
896.134	4755
896.255	4626
896.376	4656
896.498	4653
896.619	4698
896.74	4649
896.861	4618
896.982	4953
897.103	5132
897.224	4786
897.345	4778
897.466	4660
897.587	4748
897.708	4866
897.828	4801
897.949	4691
898.07	4588
898.19	4664
898.311	4790
898.431	4675
898.552	4702
898.672	4801
898.792	4805
898.913	4793
899.033	4641
899.153	4500
899.273	4447
899.393	4504
899.513	4569
899.633	4504
899.753	4527
899.873	4554
899.993	4641
900.113	4516
900.232	4573
900.352	4561
900.472	4554
900.591	4409
900.711	4516
900.83	4466
900.95	4607
901.069	4664
901.189	4519
901.308	4363
901.427	4280
901.546	4363
901.665	4466
901.784	4546
901.904	4424
902.023	4371
902.141	4204
902.26	4169
902.379	4314
902.498	4219
902.617	4234
902.735	4329
902.854	4402
902.973	4352
903.091	4162
903.21	4223
903.328	4295
903.446	4242
903.565	4299
903.683	4363
903.801	4348
903.919	4371
904.038	4428
904.156	4325
904.274	4466
904.392	4386
904.51	4440
904.627	4508
904.745	4561
904.863	4622
904.981	4440
905.098	4306
905.216	4375
905.334	4436
905.451	4443
905.569	4379
905.686	4550
905.803	4546
905.921	4413
906.038	4542
906.155	4485
906.272	4421
906.389	4485
906.506	4348
906.623	4356
906.74	4375
906.857	4310
906.974	4344
907.091	4558
907.208	4694
907.324	4588
907.441	4523
907.557	4375
907.674	4363
907.79	4333
907.907	4383
908.023	4462
908.139	4470
908.256	4481
908.372	4474
908.488	4443
908.604	4371
908.72	4371
908.836	4325
908.952	4424
909.068	4428
909.184	4618
909.3	4512
909.415	4626
909.531	4577
909.647	4337
909.762	4413
909.878	4409
909.993	4424
910.108	4402
910.224	4440
910.339	4493
910.454	4394
910.57	4363
910.685	4352
910.8	4687
910.915	4569
911.03	4481
911.145	4322
911.259	4348
911.374	4394
911.489	4303
911.604	4272
911.718	4154
911.833	4200
911.947	4101
912.062	4021
912.176	4234
912.291	4223
912.405	4276
912.519	4451
912.633	4504
912.748	4379
912.862	4348
912.976	4265
913.09	4059
913.204	4131
913.318	4253
913.431	4348
913.545	4356
913.659	4440
913.772	4409
913.886	4265
914	4249
914.113	4348
914.226	4451
914.34	4390
914.453	4219
914.566	4394
914.68	4306
914.793	4371
914.906	4173
915.019	4116
915.132	4105
915.245	4219
915.358	4238
915.47	4238
915.583	4246
915.696	4329
915.809	4432
915.921	4421
916.034	4261
916.146	4234
916.259	4246
916.371	4371
916.483	4348
916.595	4272
916.708	4291
916.82	4303
916.932	4322
917.044	4299
917.156	4352
917.268	4261
917.38	4249
917.491	4276
917.603	4367
917.715	4440
917.826	4424
917.938	4363
918.049	4257
918.161	4394
918.272	4603
918.384	4542
918.495	4421
918.606	4322
918.717	4246
918.828	4325
918.939	4402
919.05	4314
919.161	4333
919.272	4173
919.383	4280
919.494	4485
919.604	4679
919.715	4432
919.826	4371
919.936	4405
920.047	4485
920.157	4508
920.267	4691
920.378	4523
920.488	4497
920.598	4752
920.708	4854
920.818	4805
920.928	4759
921.038	4957
921.148	4923
921.258	4618
921.368	4519
921.477	4489
921.587	4447
921.697	4360
921.806	4554
921.916	4447
922.025	4287
922.134	4246
922.244	4276
922.353	4375
922.462	4188
922.571	4173
922.68	4059
922.789	4013
922.898	4040
923.007	4013
923.116	4116
923.224	4067
923.333	4040
923.442	4010
923.55	3964
923.659	4010
923.767	4090
923.876	3972
923.984	4116
924.092	4010
924.201	4055
924.309	4105
924.417	4143
924.525	4051
924.633	4120
924.741	5041
924.849	3907
924.956	4105
925.064	3937
925.172	3930
925.279	3911
925.387	4086
925.494	4059
925.602	4200
925.709	4162
925.816	4067
925.924	4139
926.031	4169
926.138	4158
926.245	4192
926.352	4112
926.459	4207
926.566	4303
926.673	4162
926.779	4078
926.886	4071
926.993	3968
927.099	3972
927.206	3987
927.312	3918
927.419	4093
927.525	4025
927.631	4059
927.737	3972
927.843	3915
927.95	3854
928.056	3918
928.162	3983
928.267	4086
928.373	4683
928.479	4131
928.585	3876
928.69	4002
928.796	4082
928.901	3956
929.007	3846
929.112	4029
929.218	3998
929.323	3907
929.428	3918
929.533	4112
929.638	3937
929.743	3949
929.848	4082
929.953	3964
930.058	3964
930.163	3800
930.267	3812
930.372	3979
930.477	3823
930.581	4013
930.685	3949
930.79	3804
930.894	3888
930.998	3838
931.103	4002
931.207	3740
931.311	3705
931.415	3686
931.519	3542
931.623	3564
