Data from test_V78500241_2176.txt Node
Date: Fri Mar 25 17:04:07 CST 2022
User: usil
Spectrometer: V785-0024
Trigger mode: 0
Integration Time (sec): 4.000000E-1
Scans to average: 1
Nonlinearity correction enabled: false
Boxcar width: 0
Storing dark spectrum: false
XAxis mode: Wavelengths
Number of Pixels in Spectrum: 1024
>>>>>Begin Spectral Data<<<<<
801.071	8012
801.214	8008
801.356	7868
801.499	7837
801.641	7814
801.783	7818
801.926	7951
802.068	7887
802.211	7932
802.353	8008
802.496	7925
802.638	7784
802.78	7917
802.923	7906
803.065	7875
803.208	7837
803.35	7902
803.492	8081
803.635	8229
803.777	8031
803.919	8081
804.061	8473
804.204	8145
804.346	8073
804.488	7947
804.63	8065
804.773	8008
804.915	8096
805.057	8267
805.199	8142
805.341	8202
805.483	8214
805.626	8271
805.768	8081
805.91	8195
806.052	8248
806.194	8138
806.336	8351
806.478	8130
806.62	8058
806.762	8252
806.904	8256
807.046	8480
807.188	8336
807.33	8259
807.472	8301
807.614	8161
807.756	8164
807.898	8012
808.04	7818
808.182	7955
808.324	7902
808.465	7856
808.607	8031
808.749	8115
808.891	8195
809.033	8286
809.174	8187
809.316	8058
809.458	8107
809.6	8046
809.741	8012
809.883	8115
810.025	8130
810.166	8043
810.308	7955
810.45	7986
810.591	7879
810.733	7712
810.875	7689
811.016	7514
811.158	7415
811.299	7502
811.441	7655
811.582	7632
811.724	7495
811.865	7518
812.007	7552
812.148	7578
812.29	7571
812.431	7662
812.573	7860
812.714	7928
812.855	8191
812.997	8153
813.138	8339
813.279	8149
813.421	8016
813.562	7860
813.703	7856
813.845	7780
813.986	7434
814.127	7255
814.268	7175
814.41	7141
814.551	7114
814.692	7217
814.833	7080
814.974	7065
815.115	7149
815.256	7012
815.397	6962
815.539	6871
815.68	6840
815.821	6760
815.962	6886
816.103	6779
816.244	6726
816.385	6601
816.526	6616
816.666	6551
816.807	6319
816.948	6486
817.089	6467
817.23	6433
817.371	6433
817.512	6350
817.653	6372
817.793	6357
817.934	6426
818.075	6441
818.216	6414
818.356	6399
818.497	6251
818.638	6125
818.778	6129
818.919	6148
819.06	6152
819.2	6342
819.341	6376
819.481	6422
819.622	6513
819.762	6703
819.903	6730
820.043	6654
820.184	6616
820.324	6555
820.465	6677
820.605	6684
820.746	6646
820.886	6528
821.026	6631
821.167	6734
821.307	6814
821.447	6703
821.588	6692
821.728	6540
821.868	6513
822.008	6289
822.149	6407
822.289	6334
822.429	6167
822.569	6079
822.709	6083
822.849	5935
822.99	5863
823.13	5912
823.27	5969
823.41	5760
823.55	5783
823.69	5794
823.83	5718
823.97	5630
824.11	5551
824.25	5516
824.389	5493
824.529	5554
824.669	5551
824.809	5581
824.949	5608
825.089	5562
825.228	5512
825.368	5417
825.508	5379
825.648	5292
825.787	5410
825.927	5345
826.067	5357
826.206	5330
826.346	5345
826.485	5387
826.625	5433
826.765	5524
826.904	5547
827.044	5261
827.183	5159
827.323	5132
827.462	5235
827.601	5185
827.741	5143
827.88	5208
828.02	5132
828.159	5189
828.298	5345
828.437	5349
828.577	5265
828.716	5520
828.855	5269
828.994	5201
829.134	5136
829.273	5166
829.412	5162
829.551	5098
829.69	5159
829.829	5193
829.968	5410
830.107	5258
830.246	5296
830.385	5197
830.524	5151
830.663	5037
830.802	4987
830.941	4854
831.08	4854
831.219	4965
831.357	4965
831.496	5174
831.635	4923
831.774	4870
831.913	4866
832.051	4714
832.19	4744
832.329	4812
832.467	4691
832.606	4634
832.744	4691
832.883	4710
833.022	4698
833.16	4797
833.299	4771
833.437	4839
833.576	4835
833.714	4858
833.852	4854
833.991	4873
834.129	4953
834.267	4949
834.406	4870
834.544	4919
834.682	4942
834.821	4938
834.959	5147
835.097	4999
835.235	5094
835.373	5079
835.511	5090
835.65	5014
835.788	5025
835.926	4915
836.064	4870
836.202	4896
836.34	5170
836.478	5159
836.615	5155
836.753	5208
836.891	5277
837.029	5250
837.167	5140
837.305	5151
837.443	5162
837.58	5071
837.718	5258
837.856	5159
837.993	5151
838.131	5204
838.269	5212
838.406	5189
838.544	5178
838.681	4999
838.819	5014
838.956	4866
839.094	4904
839.231	4953
839.369	5105
839.506	5410
839.643	5292
839.781	5025
839.918	4991
840.055	5094
840.193	5098
840.33	5094
840.467	5109
840.604	5208
840.742	5421
840.879	5075
841.016	5124
841.153	5124
841.29	5326
841.427	5357
841.564	5265
841.701	5311
841.838	5311
841.975	5242
842.112	5269
842.249	5136
842.385	5067
842.522	5345
842.659	5159
842.796	5136
842.933	5170
843.069	5102
843.206	5121
843.343	5277
843.479	5288
843.616	5292
843.752	5041
843.889	4991
844.025	5239
844.162	4980
844.298	5220
844.435	5048
844.571	5086
844.708	5193
844.844	5349
844.98	5311
845.117	5292
845.253	5090
845.389	5025
845.525	5178
845.661	5121
845.798	5025
845.934	5155
846.07	5075
846.206	5159
846.342	5307
846.478	5086
846.614	4942
846.75	4968
846.886	4946
847.022	5109
847.158	5018
847.294	5033
847.429	5094
847.565	4995
847.701	5273
847.837	4850
847.972	4816
848.108	4961
848.244	4923
848.379	4793
848.515	4729
848.65	4752
848.786	4752
848.921	4748
849.057	4854
849.192	4919
849.328	4831
849.463	4885
849.598	4767
849.734	4763
849.869	4694
850.004	4653
850.14	4694
850.275	4607
850.41	4542
850.545	4569
850.68	4592
850.815	4611
850.95	4660
851.085	4911
851.22	4778
851.355	4691
851.49	4660
851.625	4668
851.76	4660
851.895	4554
852.03	4554
852.165	4672
852.299	4656
852.434	4755
852.569	4759
852.703	4752
852.838	4843
852.973	4858
853.107	4904
853.242	4710
853.376	4618
853.511	4554
853.645	4592
853.78	4786
853.914	4714
854.048	4641
854.183	4603
854.317	4698
854.451	4812
854.585	4683
854.72	4645
854.854	4786
854.988	4584
855.122	4664
855.256	4542
855.39	4653
855.524	4786
855.658	4729
855.792	4702
855.926	4691
856.06	4729
856.194	4831
856.327	4611
856.461	4550
856.595	4622
856.729	4558
856.862	4733
856.996	4656
857.13	4736
857.263	4733
857.397	4854
857.53	4664
857.664	4721
857.797	4778
857.931	4805
858.064	4656
858.197	4698
858.331	4603
858.464	4641
858.597	4516
858.731	4656
858.864	4649
858.997	4569
859.13	4622
859.263	4630
859.396	4653
859.529	4573
859.662	4531
859.795	4550
859.928	4645
860.061	4714
860.194	4763
860.327	4561
860.46	4550
860.592	4740
860.725	4744
860.858	4710
860.99	4550
861.123	4531
861.256	4504
861.388	4599
861.521	5353
861.653	4443
861.786	4447
861.918	4478
862.05	4478
862.183	4554
862.315	4603
862.447	4634
862.58	4451
862.712	4432
862.844	4337
862.976	4493
863.108	4417
863.24	4786
863.372	4314
863.504	4421
863.636	4367
863.768	4493
863.9	4424
864.032	4337
864.164	4405
864.296	4455
864.428	4573
864.559	4512
864.691	4519
864.823	4527
864.954	4443
865.086	4516
865.217	4478
865.349	4436
865.48	4455
865.612	4481
865.743	4592
865.875	4466
866.006	4455
866.137	4512
866.269	4386
866.4	4417
866.531	4443
866.662	4383
866.793	4402
866.924	4462
867.055	4535
867.186	4436
867.317	4405
867.448	4367
867.579	4360
867.71	4386
867.841	4352
867.972	4504
868.103	4443
868.233	4470
868.364	4443
868.495	4455
868.625	4603
868.756	4778
868.886	4542
869.017	4599
869.147	4752
869.278	4801
869.408	4637
869.539	4649
869.669	4736
869.799	4626
869.929	4763
870.06	4763
870.19	4911
870.32	4908
870.45	4911
870.58	5010
870.71	5075
870.84	5090
870.97	4911
871.1	4923
871.23	5105
871.36	5090
871.489	4976
871.619	5113
871.749	5075
871.879	5121
872.008	5170
872.138	5033
872.267	4923
872.397	4850
872.526	4809
872.656	4717
872.785	4721
872.915	4949
873.044	5094
873.173	4919
873.303	4961
873.432	4946
873.561	4942
873.69	4854
873.819	4805
873.948	4896
874.077	4812
874.206	4752
874.335	4774
874.464	4889
874.593	5105
874.722	4953
874.851	5086
874.979	5037
875.108	5056
875.237	4908
875.365	4866
875.494	4930
875.623	4911
875.751	4812
875.88	4889
876.008	4980
876.136	4984
876.265	5246
876.393	5337
876.521	5208
876.65	5170
876.778	5212
876.906	5098
877.034	4965
877.162	5075
877.29	4999
877.418	5075
877.546	4984
877.674	5067
877.802	5003
877.93	4987
878.058	4961
878.185	4870
878.313	4980
878.441	4919
878.568	4797
878.696	4873
878.824	4976
878.951	5025
879.079	5098
879.206	5277
879.333	5143
879.461	4965
879.588	4991
879.715	5128
879.842	5162
879.97	5003
880.097	4778
880.224	4725
880.351	4748
880.478	4831
880.605	4805
880.732	4820
880.859	5113
880.986	4854
881.112	4877
881.239	4771
881.366	4622
881.493	4569
881.619	4519
881.746	4653
881.872	4626
881.999	4622
882.125	4683
882.252	4755
882.378	4850
882.505	4946
882.631	4809
882.757	4653
882.883	4740
883.01	4725
883.136	4675
883.262	4588
883.388	4573
883.514	4812
883.64	4858
883.766	4782
883.892	4668
884.018	4725
884.143	4870
884.269	5014
884.395	4664
884.52	4565
884.646	4618
884.772	4611
884.897	4500
885.023	4683
885.148	4733
885.274	4847
885.399	4809
885.524	4679
885.65	4675
885.775	4725
885.9	4664
886.025	4892
886.15	4816
886.275	4694
886.4	4656
886.525	4729
886.65	4675
886.775	4664
886.9	4881
887.025	5029
887.149	4778
887.274	4660
887.399	4584
887.523	4599
887.648	4569
887.773	4573
887.897	4744
888.021	4725
888.146	4615
888.27	4786
888.395	4854
888.519	4763
888.643	4790
888.767	4858
888.891	4637
889.015	4569
889.139	4683
889.263	4588
889.387	4725
889.511	4847
889.635	4816
889.759	4641
889.883	4637
890.006	4710
890.13	4816
890.254	4607
890.377	4702
890.501	4580
890.624	4550
890.748	4645
890.871	4523
890.995	4424
891.118	4409
891.241	4538
891.364	4542
891.488	4656
891.611	4508
891.734	4527
891.857	4596
891.98	4542
892.103	4679
892.226	4596
892.349	4538
892.471	4478
892.594	4550
892.717	4630
892.839	4542
892.962	4580
893.085	4687
893.207	4630
893.33	4474
893.452	4519
893.575	4664
893.697	4577
893.819	4850
893.941	4877
894.064	4767
894.186	4611
894.308	4603
894.43	4786
894.552	4866
894.674	4790
894.796	4569
894.918	4653
895.04	4577
895.161	4729
895.283	4679
895.405	4599
895.526	4656
895.648	4733
895.769	4721
895.891	4763
896.012	4831
896.134	4767
896.255	4706
896.376	4664
896.498	4622
896.619	4698
896.74	4668
896.861	4698
896.982	4995
897.103	5090
897.224	4881
897.345	4782
897.466	4736
897.587	4782
897.708	4900
897.828	4801
897.949	4714
898.07	4584
898.19	4702
898.311	4831
898.431	4733
898.552	4782
898.672	4805
898.792	4866
898.913	4771
899.033	4698
899.153	4516
899.273	4443
899.393	4558
899.513	4542
899.633	4577
899.753	4519
899.873	4546
899.993	4626
900.113	4561
900.232	4611
900.352	4519
900.472	4565
900.591	4367
900.711	4519
900.83	4462
900.95	4618
901.069	4683
901.189	4569
901.308	4421
901.427	4356
901.546	4428
901.665	4535
901.784	4538
901.904	4398
902.023	4386
902.141	4211
902.26	4200
902.379	4337
902.498	4325
902.617	4261
902.735	4394
902.854	4432
902.973	4398
903.091	4246
903.21	4295
903.328	4360
903.446	4318
903.565	4257
903.683	4379
903.801	4356
903.919	4383
904.038	4428
904.156	4352
904.274	4504
904.392	4413
904.51	4424
904.627	4516
904.745	4573
904.863	4660
904.981	4394
905.098	4333
905.216	4402
905.334	4405
905.451	4512
905.569	4451
905.686	4554
905.803	4615
905.921	4424
906.038	4588
906.155	4489
906.272	4440
906.389	4538
906.506	4390
906.623	4394
906.74	4402
906.857	4341
906.974	4367
907.091	4580
907.208	4714
907.324	4596
907.441	4535
907.557	4405
907.674	4421
907.79	4310
907.907	4356
908.023	4508
908.139	4558
908.256	4432
908.372	4462
908.488	4424
908.604	4352
908.72	4341
908.836	4402
908.952	4348
909.068	4447
909.184	4561
909.3	4508
909.415	4580
909.531	4561
909.647	4413
909.762	4379
909.878	4344
909.993	4440
910.108	4459
910.224	4474
910.339	4500
910.454	4424
910.57	4390
910.685	4344
910.8	4725
910.915	4645
911.03	4523
911.145	4375
911.259	4329
911.374	4402
911.489	4303
911.604	4310
911.718	4181
911.833	4265
911.947	4097
912.062	4071
912.176	4261
912.291	4303
912.405	4303
912.519	4504
912.633	4512
912.748	4409
912.862	4383
912.976	4207
913.09	4109
913.204	4242
913.318	4306
913.431	4375
913.545	4394
913.659	4493
913.772	4413
913.886	4291
914	4249
914.113	4424
914.226	4516
914.34	4390
914.453	4284
914.566	4478
914.68	4344
914.793	4322
914.906	4192
915.019	4124
915.132	4135
915.245	4211
915.358	4223
915.47	4295
915.583	4303
915.696	4348
915.809	4428
915.921	4440
916.034	4310
916.146	4318
916.259	4291
916.371	4413
916.483	4375
916.595	4272
916.708	4363
916.82	4352
916.932	4344
917.044	4337
917.156	4375
917.268	4230
917.38	4333
917.491	4253
917.603	4375
917.715	4470
917.826	4447
917.938	4363
918.049	4284
918.161	4447
918.272	4565
918.384	4554
918.495	4481
918.606	4291
918.717	4242
918.828	4360
918.939	4371
919.05	4325
919.161	4383
919.272	4158
919.383	4219
919.494	4504
919.604	4660
919.715	4459
919.826	4367
919.936	4409
920.047	4573
920.157	4481
920.267	4725
920.378	4611
920.488	4565
920.598	4725
920.708	4938
920.818	4767
920.928	4771
921.038	4946
921.148	4927
921.258	4664
921.368	4592
921.477	4500
921.587	4409
921.697	4409
921.806	4565
921.916	4451
922.025	4284
922.134	4272
922.244	4253
922.353	4371
922.462	4242
922.571	4150
922.68	3998
922.789	3968
922.898	4051
923.007	3979
923.116	4112
923.224	4082
923.333	4090
923.442	4048
923.55	3998
923.659	4078
923.767	4105
923.876	4017
923.984	4143
924.092	3991
924.201	4109
924.309	4097
924.417	4128
924.525	4067
924.633	4158
924.741	5064
924.849	3945
924.956	4185
925.064	4025
925.172	3907
925.279	3953
925.387	4090
925.494	4093
925.602	4223
925.709	4207
925.816	4055
925.924	4150
926.031	4261
926.138	4200
926.245	4276
926.352	4143
926.459	4253
926.566	4280
926.673	4154
926.779	4109
926.886	4082
926.993	3983
927.099	3983
927.206	3964
927.312	3991
927.419	4090
927.525	4051
927.631	4139
927.737	4010
927.843	3983
927.95	3869
928.056	4002
928.162	3991
928.267	4071
928.373	4672
928.479	4177
928.585	3903
928.69	4029
928.796	4105
928.901	3953
929.007	3880
929.112	3991
929.218	3964
929.323	3964
929.428	3972
929.533	4090
929.638	3876
929.743	4006
929.848	4059
929.953	4025
930.058	3930
930.163	3785
930.267	3819
930.372	3983
930.477	3812
930.581	4120
930.685	3968
930.79	3865
930.894	3907
930.998	3903
931.103	4055
931.207	3682
931.311	3713
931.415	3663
931.519	3530
931.623	3603
