Data from test_V78500241_2452.txt Node
Date: Fri Mar 25 17:06:03 CST 2022
User: usil
Spectrometer: V785-0024
Trigger mode: 0
Integration Time (sec): 4.000000E-1
Scans to average: 1
Nonlinearity correction enabled: false
Boxcar width: 0
Storing dark spectrum: false
XAxis mode: Wavelengths
Number of Pixels in Spectrum: 1024
>>>>>Begin Spectral Data<<<<<
801.071	8012
801.214	8024
801.356	7928
801.499	7837
801.641	7769
801.783	7765
801.926	7993
802.068	7989
802.211	7928
802.353	8062
802.496	7841
802.638	7864
802.78	7871
802.923	7928
803.065	7868
803.208	7875
803.35	7967
803.492	8077
803.635	8123
803.777	8027
803.919	8092
804.061	8503
804.204	8157
804.346	8031
804.488	8020
804.63	8088
804.773	7993
804.915	8100
805.057	8305
805.199	8111
805.341	8180
805.483	8202
805.626	8263
805.768	8168
805.91	8256
806.052	8187
806.194	8119
806.336	8259
806.478	8088
806.62	8046
806.762	8142
806.904	8214
807.046	8317
807.188	8389
807.33	8324
807.472	8256
807.614	8149
807.756	8111
807.898	8016
808.04	7909
808.182	7822
808.324	7856
808.465	7947
808.607	8039
808.749	8119
808.891	8214
809.033	8317
809.174	8218
809.316	8084
809.458	8062
809.6	7986
809.741	8016
809.883	7982
810.025	8111
810.166	8031
810.308	8012
810.45	8024
810.591	7913
810.733	7795
810.875	7696
811.016	7559
811.158	7518
811.299	7571
811.441	7723
811.582	7651
811.724	7620
811.865	7544
812.007	7563
812.148	7609
812.29	7613
812.431	7753
812.573	7909
812.714	7978
812.855	8161
812.997	8240
813.138	8343
813.279	8161
813.421	8050
813.562	7940
813.703	7913
813.845	7826
813.986	7468
814.127	7266
814.268	7221
814.41	7190
814.551	7187
814.692	7213
814.833	7065
814.974	7088
815.115	7129
815.256	7019
815.397	6962
815.539	7000
815.68	6867
815.821	6772
815.962	6852
816.103	6760
816.244	6684
816.385	6585
816.526	6627
816.666	6433
816.807	6266
816.948	6410
817.089	6479
817.23	6437
817.371	6384
817.512	6346
817.653	6380
817.793	6331
817.934	6429
818.075	6426
818.216	6422
818.356	6399
818.497	6232
818.638	6163
818.778	6144
818.919	6155
819.06	6110
819.2	6296
819.341	6292
819.481	6410
819.622	6555
819.762	6738
819.903	6692
820.043	6658
820.184	6601
820.324	6559
820.465	6726
820.605	6726
820.746	6608
820.886	6559
821.026	6665
821.167	6730
821.307	6886
821.447	6791
821.588	6681
821.728	6563
821.868	6555
822.008	6323
822.149	6388
822.289	6372
822.429	6155
822.569	6095
822.709	6155
822.849	5912
822.99	5931
823.13	5931
823.27	5885
823.41	5783
823.55	5737
823.69	5794
823.83	5775
823.97	5714
824.11	5516
824.25	5486
824.389	5532
824.529	5577
824.669	5501
824.809	5638
824.949	5684
825.089	5577
825.228	5585
825.368	5402
825.508	5303
825.648	5372
825.787	5406
825.927	5357
826.067	5299
826.206	5254
826.346	5410
826.485	5398
826.625	5402
826.765	5535
826.904	5535
827.044	5208
827.183	5242
827.323	5181
827.462	5258
827.601	5170
827.741	5250
827.88	5269
828.02	5105
828.159	5201
828.298	5379
828.437	5391
828.577	5292
828.716	5486
828.855	5341
828.994	5159
829.134	5151
829.273	5227
829.412	5178
829.551	5113
829.69	5124
829.829	5223
829.968	5376
830.107	5303
830.246	5242
830.385	5166
830.524	5140
830.663	5052
830.802	5018
830.941	4873
831.08	4885
831.219	4942
831.357	4961
831.496	5143
831.635	4889
831.774	4877
831.913	4812
832.051	4702
832.19	4744
832.329	4870
832.467	4755
832.606	4630
832.744	4725
832.883	4740
833.022	4721
833.16	4835
833.299	4805
833.437	4847
833.576	4850
833.714	4831
833.852	4892
833.991	4908
834.129	4942
834.267	4965
834.406	4850
834.544	4949
834.682	4984
834.821	4949
834.959	5132
835.097	5022
835.235	5113
835.373	5090
835.511	5132
835.65	4999
835.788	4987
835.926	4896
836.064	4892
836.202	4904
836.34	5113
836.478	5189
836.615	5174
836.753	5204
836.891	5258
837.029	5311
837.167	5193
837.305	5140
837.443	5140
837.58	5083
837.718	5216
837.856	5174
837.993	5174
838.131	5250
838.269	5162
838.406	5185
838.544	5242
838.681	5048
838.819	4984
838.956	4923
839.094	4877
839.231	4987
839.369	5079
839.506	5414
839.643	5242
839.781	5083
839.918	5033
840.055	5132
840.193	5064
840.33	5090
840.467	5113
840.604	5178
840.742	5486
840.879	5105
841.016	5113
841.153	5170
841.29	5376
841.427	5368
841.564	5273
841.701	5341
841.838	5227
841.975	5265
842.112	5273
842.249	5143
842.385	5174
842.522	5345
842.659	5185
842.796	5162
842.933	5181
843.069	5151
843.206	5178
843.343	5315
843.479	5250
843.616	5258
843.752	5003
843.889	4991
844.025	5181
844.162	5048
844.298	5216
844.435	5098
844.571	5041
844.708	5189
844.844	5303
844.98	5360
845.117	5303
845.253	5147
845.389	5098
845.525	5181
845.661	5155
845.798	5048
845.934	5204
846.07	5090
846.206	5216
846.342	5292
846.478	5185
846.614	5006
846.75	4984
846.886	5006
847.022	5121
847.158	5018
847.294	5079
847.429	5102
847.565	5025
847.701	5311
847.837	4824
847.972	4790
848.108	4965
848.244	5006
848.379	4793
848.515	4740
848.65	4736
848.786	4767
848.921	4809
849.057	4805
849.192	4835
849.328	4771
849.463	4828
849.598	4752
849.734	4790
849.869	4714
850.004	4611
850.14	4691
850.275	4607
850.41	4558
850.545	4607
850.68	4596
850.815	4588
850.95	4641
851.085	4793
851.22	4778
851.355	4717
851.49	4668
851.625	4618
851.76	4622
851.895	4588
852.03	4554
852.165	4664
852.299	4683
852.434	4782
852.569	4786
852.703	4748
852.838	4824
852.973	4927
853.107	4957
853.242	4740
853.376	4660
853.511	4546
853.645	4580
853.78	4828
853.914	4714
854.048	4637
854.183	4641
854.317	4694
854.451	4908
854.585	4656
854.72	4626
854.854	4752
854.988	4561
855.122	4710
855.256	4527
855.39	4679
855.524	4786
855.658	4714
855.792	4714
855.926	4691
856.06	4752
856.194	4752
856.327	4630
856.461	4622
856.595	4607
856.729	4611
856.862	4748
856.996	4675
857.13	4748
857.263	4744
857.397	4816
857.53	4698
857.664	4717
857.797	4744
857.931	4763
858.064	4702
858.197	4752
858.331	4664
858.464	4622
858.597	4546
858.731	4649
858.864	4626
858.997	4584
859.13	4660
859.263	4653
859.396	4740
859.529	4622
859.662	4519
859.795	4569
859.928	4634
860.061	4694
860.194	4748
860.327	4577
860.46	4577
860.592	4736
860.725	4752
860.858	4687
860.99	4607
861.123	4569
861.256	4535
861.388	4573
861.521	5303
861.653	4459
861.786	4455
861.918	4459
862.05	4497
862.183	4580
862.315	4599
862.447	4622
862.58	4569
862.712	4383
862.844	4352
862.976	4512
863.108	4485
863.24	4767
863.372	4341
863.504	4402
863.636	4371
863.768	4497
863.9	4443
864.032	4386
864.164	4432
864.296	4512
864.428	4558
864.559	4615
864.691	4523
864.823	4489
864.954	4474
865.086	4497
865.217	4432
865.349	4413
865.48	4447
865.612	4447
865.743	4615
865.875	4493
866.006	4436
866.137	4466
866.269	4451
866.4	4413
866.531	4443
866.662	4413
866.793	4390
866.924	4432
867.055	4523
867.186	4474
867.317	4436
867.448	4386
867.579	4436
867.71	4371
867.841	4371
867.972	4455
868.103	4474
868.233	4447
868.364	4443
868.495	4523
868.625	4664
868.756	4801
868.886	4607
869.017	4641
869.147	4793
869.278	4816
869.408	4649
869.539	4599
869.669	4752
869.799	4672
869.929	4714
870.06	4752
870.19	4949
870.32	4915
870.45	4957
870.58	5010
870.71	5117
870.84	5109
870.97	4892
871.1	4831
871.23	5113
871.36	5170
871.489	5060
871.619	5086
871.749	5083
871.879	5151
872.008	5166
872.138	5102
872.267	4972
872.397	4877
872.526	4809
872.656	4691
872.785	4801
872.915	4953
873.044	5045
873.173	4908
873.303	4949
873.432	4934
873.561	4953
873.69	4885
873.819	4866
873.948	4930
874.077	4812
874.206	4805
874.335	4797
874.464	4930
874.593	5045
874.722	5018
874.851	5117
874.979	5056
875.108	5052
875.237	4866
875.365	4847
875.494	4835
875.623	5006
875.751	4889
875.88	4816
876.008	4972
876.136	5033
876.265	5170
876.393	5353
876.521	5212
876.65	5227
876.778	5189
876.906	5052
877.034	5025
877.162	5060
877.29	4965
877.418	5102
877.546	5064
877.674	4995
877.802	4991
877.93	4987
878.058	4972
878.185	4831
878.313	4987
878.441	4949
878.568	4782
878.696	4866
878.824	4987
878.951	5006
879.079	5136
879.206	5322
879.333	5094
879.461	5029
879.588	5060
879.715	5147
879.842	5204
879.97	5033
880.097	4763
880.224	4740
880.351	4881
880.478	4858
880.605	4816
880.732	4828
880.859	5022
880.986	4866
881.112	4934
881.239	4752
881.366	4649
881.493	4607
881.619	4580
881.746	4645
881.872	4634
881.999	4641
882.125	4672
882.252	4790
882.378	4812
882.505	4949
882.631	4793
882.757	4710
882.883	4752
883.01	4767
883.136	4607
883.262	4611
883.388	4607
883.514	4885
883.64	4843
883.766	4767
883.892	4672
884.018	4710
884.143	4850
884.269	4984
884.395	4630
884.52	4611
884.646	4596
884.772	4607
884.897	4569
885.023	4675
885.148	4786
885.274	4831
885.399	4805
885.524	4714
885.65	4740
885.775	4782
885.9	4702
886.025	4862
886.15	4786
886.275	4694
886.4	4656
886.525	4725
886.65	4687
886.775	4664
886.9	4919
887.025	5010
887.149	4801
887.274	4653
887.399	4588
887.523	4588
887.648	4558
887.773	4561
887.897	4736
888.021	4759
888.146	4691
888.27	4835
888.395	4942
888.519	4809
888.643	4809
888.767	4793
888.891	4710
889.015	4569
889.139	4660
889.263	4577
889.387	4793
889.511	4877
889.635	4790
889.759	4622
889.883	4630
890.006	4778
890.13	4858
890.254	4592
890.377	4679
890.501	4542
890.624	4558
890.748	4618
890.871	4580
890.995	4436
891.118	4421
891.241	4546
891.364	4558
891.488	4653
891.611	4485
891.734	4554
891.857	4584
891.98	4535
892.103	4630
892.226	4592
892.349	4558
892.471	4466
892.594	4523
892.717	4565
892.839	4577
892.962	4580
893.085	4630
893.207	4599
893.33	4489
893.452	4634
893.575	4691
893.697	4622
893.819	4778
893.941	4820
894.064	4733
894.186	4618
894.308	4603
894.43	4706
894.552	4812
894.674	4752
894.796	4558
894.918	4603
895.04	4523
895.161	4649
895.283	4660
895.405	4615
895.526	4618
895.648	4729
895.769	4672
895.891	4736
896.012	4721
896.134	4679
896.255	4717
896.376	4656
896.498	4634
896.619	4683
896.74	4622
896.861	4649
896.982	4896
897.103	5083
897.224	4835
897.345	4782
897.466	4622
897.587	4774
897.708	4854
897.828	4759
897.949	4668
898.07	4535
898.19	4622
898.311	4805
898.431	4675
898.552	4710
898.672	4839
898.792	4786
898.913	4717
899.033	4645
899.153	4508
899.273	4390
899.393	4538
899.513	4535
899.633	4519
899.753	4573
899.873	4512
899.993	4535
900.113	4500
900.232	4634
900.352	4558
900.472	4512
900.591	4413
900.711	4470
900.83	4470
900.95	4592
901.069	4687
901.189	4577
901.308	4348
901.427	4295
901.546	4375
901.665	4497
901.784	4523
901.904	4402
902.023	4363
902.141	4223
902.26	4158
902.379	4261
902.498	4211
902.617	4200
902.735	4341
902.854	4413
902.973	4409
903.091	4219
903.21	4234
903.328	4276
903.446	4223
903.565	4268
903.683	4348
903.801	4291
903.919	4405
904.038	4421
904.156	4337
904.274	4424
904.392	4371
904.51	4428
904.627	4443
904.745	4550
904.863	4603
904.981	4390
905.098	4276
905.216	4295
905.334	4466
905.451	4466
905.569	4497
905.686	4504
905.803	4565
905.921	4394
906.038	4558
906.155	4485
906.272	4398
906.389	4466
906.506	4341
906.623	4409
906.74	4383
906.857	4291
906.974	4363
907.091	4573
907.208	4740
907.324	4611
907.441	4466
907.557	4356
907.674	4371
907.79	4337
907.907	4356
908.023	4508
908.139	4481
908.256	4424
908.372	4512
908.488	4470
908.604	4367
908.72	4287
908.836	4360
908.952	4367
909.068	4424
909.184	4542
909.3	4504
909.415	4558
909.531	4588
909.647	4284
909.762	4344
909.878	4360
909.993	4424
910.108	4428
910.224	4432
910.339	4466
910.454	4386
910.57	4363
910.685	4306
910.8	4653
910.915	4558
911.03	4470
911.145	4325
911.259	4295
911.374	4363
911.489	4314
911.604	4295
911.718	4150
911.833	4188
911.947	4067
912.062	4048
912.176	4261
912.291	4230
912.405	4265
912.519	4428
912.633	4470
912.748	4341
912.862	4314
912.976	4192
913.09	4093
913.204	4173
913.318	4261
913.431	4352
913.545	4322
913.659	4451
913.772	4375
913.886	4257
914	4219
914.113	4398
914.226	4405
914.34	4443
914.453	4227
914.566	4455
914.68	4295
914.793	4337
914.906	4135
915.019	4135
915.132	4078
915.245	4196
915.358	4173
915.47	4204
915.583	4249
915.696	4325
915.809	4356
915.921	4398
916.034	4287
916.146	4257
916.259	4223
916.371	4394
916.483	4284
916.595	4234
916.708	4329
916.82	4303
916.932	4329
917.044	4310
917.156	4322
917.268	4230
917.38	4299
917.491	4295
917.603	4348
917.715	4451
917.826	4424
917.938	4295
918.049	4215
918.161	4375
918.272	4561
918.384	4527
918.495	4443
918.606	4325
918.717	4223
918.828	4341
918.939	4360
919.05	4242
919.161	4356
919.272	4169
919.383	4230
919.494	4451
919.604	4622
919.715	4405
919.826	4348
919.936	4409
920.047	4550
920.157	4519
920.267	4679
920.378	4516
920.488	4470
920.598	4698
920.708	4828
920.818	4755
920.928	4805
921.038	4946
921.148	4908
921.258	4622
921.368	4542
921.477	4504
921.587	4489
921.697	4356
921.806	4535
921.916	4409
922.025	4268
922.134	4257
922.244	4196
922.353	4341
922.462	4181
922.571	4147
922.68	3975
922.789	3987
922.898	4025
923.007	3934
923.116	4112
923.224	4021
923.333	4097
923.442	3964
923.55	3964
923.659	4010
923.767	4112
923.876	4017
923.984	4116
924.092	3987
924.201	4086
924.309	4082
924.417	4086
924.525	4036
924.633	4071
924.741	5090
924.849	3888
924.956	4196
925.064	3964
925.172	3884
925.279	3972
925.387	4074
925.494	4051
925.602	4207
925.709	4192
925.816	4048
925.924	4147
926.031	4219
926.138	4192
926.245	4192
926.352	4124
926.459	4227
926.566	4322
926.673	4143
926.779	4097
926.886	4048
926.993	3964
927.099	3956
927.206	3956
927.312	3930
927.419	4051
927.525	4036
927.631	4040
927.737	3960
927.843	3922
927.95	3850
928.056	3991
928.162	4017
928.267	4074
928.373	4653
928.479	4112
928.585	3888
928.69	4029
928.796	4112
928.901	3945
929.007	3857
929.112	4002
929.218	3968
929.323	3930
929.428	3956
929.533	4071
929.638	3922
929.743	3915
929.848	4029
929.953	3994
930.058	3922
930.163	3728
930.267	3800
930.372	3968
930.477	3823
930.581	4093
930.685	3922
930.79	3808
930.894	3918
930.998	3857
931.103	4109
931.207	3701
931.311	3720
931.415	3682
931.519	3564
931.623	3515
