Data from test_V78500241_2531.txt Node
Date: Fri Mar 25 17:06:36 CST 2022
User: usil
Spectrometer: V785-0024
Trigger mode: 0
Integration Time (sec): 4.000000E-1
Scans to average: 1
Nonlinearity correction enabled: false
Boxcar width: 0
Storing dark spectrum: false
XAxis mode: Wavelengths
Number of Pixels in Spectrum: 1024
>>>>>Begin Spectral Data<<<<<
801.071	8035
801.214	7959
801.356	7864
801.499	7792
801.641	7780
801.783	7845
801.926	7970
802.068	7925
802.211	7932
802.353	8031
802.496	7909
802.638	7811
802.78	7936
802.923	7917
803.065	7883
803.208	7852
803.35	7902
803.492	8111
803.635	8168
803.777	7967
803.919	8153
804.061	8442
804.204	8119
804.346	8016
804.488	7967
804.63	8069
804.773	8043
804.915	8100
805.057	8221
805.199	8119
805.341	8210
805.483	8271
805.626	8221
805.768	8123
805.91	8221
806.052	8187
806.194	8103
806.336	8256
806.478	8096
806.62	8031
806.762	8103
806.904	8206
807.046	8469
807.188	8343
807.33	8290
807.472	8225
807.614	8073
807.756	8123
807.898	7989
808.04	7845
808.182	7902
808.324	7913
808.465	7932
808.607	8073
808.749	8100
808.891	8180
809.033	8282
809.174	8237
809.316	8119
809.458	8111
809.6	7993
809.741	8054
809.883	8031
810.025	8138
810.166	8062
810.308	7986
810.45	7967
810.591	7826
810.733	7746
810.875	7655
811.016	7533
811.158	7460
811.299	7559
811.441	7670
811.582	7689
811.724	7582
811.865	7548
812.007	7510
812.148	7597
812.29	7613
812.431	7681
812.573	7833
812.714	7936
812.855	8065
812.997	8286
813.138	8275
813.279	8134
813.421	8031
813.562	8016
813.703	7860
813.845	7708
813.986	7438
814.127	7251
814.268	7160
814.41	7221
814.551	7133
814.692	7240
814.833	7110
814.974	7133
815.115	7107
815.256	7004
815.397	6924
815.539	7000
815.68	6863
815.821	6802
815.962	6897
816.103	6814
816.244	6696
816.385	6688
816.526	6662
816.666	6456
816.807	6296
816.948	6369
817.089	6506
817.23	6486
817.371	6437
817.512	6429
817.653	6426
817.793	6334
817.934	6429
818.075	6456
818.216	6407
818.356	6388
818.497	6216
818.638	6171
818.778	6148
818.919	6159
819.06	6140
819.2	6353
819.341	6353
819.481	6407
819.622	6559
819.762	6707
819.903	6741
820.043	6608
820.184	6555
820.324	6578
820.465	6658
820.605	6726
820.746	6639
820.886	6589
821.026	6696
821.167	6734
821.307	6871
821.447	6764
821.588	6635
821.728	6566
821.868	6509
822.008	6376
822.149	6448
822.289	6319
822.429	6152
822.569	6133
822.709	6110
822.849	5927
822.99	5935
823.13	6015
823.27	5889
823.41	5821
823.55	5821
823.69	5802
823.83	5756
823.97	5634
824.11	5520
824.25	5509
824.389	5577
824.529	5581
824.669	5524
824.809	5627
824.949	5691
825.089	5577
825.228	5539
825.368	5406
825.508	5376
825.648	5368
825.787	5368
825.927	5387
826.067	5288
826.206	5337
826.346	5357
826.485	5372
826.625	5387
826.765	5566
826.904	5478
827.044	5201
827.183	5189
827.323	5140
827.462	5246
827.601	5166
827.741	5189
827.88	5223
828.02	5071
828.159	5197
828.298	5318
828.437	5334
828.577	5280
828.716	5501
828.855	5360
828.994	5140
829.134	5181
829.273	5166
829.412	5132
829.551	5094
829.69	5178
829.829	5242
829.968	5398
830.107	5265
830.246	5212
830.385	5121
830.524	5128
830.663	5090
830.802	4961
830.941	4904
831.08	4858
831.219	4965
831.357	4995
831.496	5136
831.635	4968
831.774	4850
831.913	4854
832.051	4778
832.19	4782
832.329	4862
832.467	4694
832.606	4634
832.744	4714
832.883	4733
833.022	4717
833.16	4786
833.299	4809
833.437	4847
833.576	4858
833.714	4835
833.852	4831
833.991	4904
834.129	4972
834.267	4961
834.406	4908
834.544	4934
834.682	4980
834.821	4965
834.959	5132
835.097	4946
835.235	5136
835.373	5064
835.511	5086
835.65	5025
835.788	5037
835.926	4873
836.064	4930
836.202	4908
836.34	5143
836.478	5227
836.615	5124
836.753	5197
836.891	5220
837.029	5231
837.167	5166
837.305	5181
837.443	5136
837.58	5117
837.718	5254
837.856	5208
837.993	5151
838.131	5201
838.269	5235
838.406	5208
838.544	5166
838.681	5018
838.819	5018
838.956	4923
839.094	4877
839.231	4946
839.369	5102
839.506	5444
839.643	5311
839.781	5060
839.918	4987
840.055	5067
840.193	5090
840.33	5121
840.467	5075
840.604	5223
840.742	5452
840.879	5102
841.016	5075
841.153	5151
841.29	5414
841.427	5311
841.564	5349
841.701	5357
841.838	5261
841.975	5189
842.112	5269
842.249	5155
842.385	5090
842.522	5277
842.659	5132
842.796	5140
842.933	5204
843.069	5170
843.206	5121
843.343	5277
843.479	5212
843.616	5254
843.752	5041
843.889	4984
844.025	5155
844.162	5010
844.298	5223
844.435	5147
844.571	5037
844.708	5193
844.844	5303
844.98	5303
845.117	5311
845.253	5159
845.389	5067
845.525	5170
845.661	5098
845.798	5052
845.934	5151
846.07	5060
846.206	5185
846.342	5299
846.478	5174
846.614	5025
846.75	5006
846.886	4946
847.022	5109
847.158	5041
847.294	5025
847.429	5090
847.565	5033
847.701	5318
847.837	4866
847.972	4759
848.108	4976
848.244	4938
848.379	4786
848.515	4736
848.65	4691
848.786	4744
848.921	4774
849.057	4877
849.192	4934
849.328	4801
849.463	4828
849.598	4816
849.734	4763
849.869	4672
850.004	4626
850.14	4668
850.275	4664
850.41	4577
850.545	4558
850.68	4603
850.815	4611
850.95	4611
851.085	4805
851.22	4763
851.355	4710
851.49	4641
851.625	4706
851.76	4630
851.895	4561
852.03	4569
852.165	4660
852.299	4698
852.434	4786
852.569	4778
852.703	4786
852.838	4850
852.973	4923
853.107	4923
853.242	4691
853.376	4645
853.511	4554
853.645	4618
853.78	4847
853.914	4706
854.048	4668
854.183	4626
854.317	4717
854.451	4870
854.585	4675
854.72	4634
854.854	4774
854.988	4656
855.122	4592
855.256	4561
855.39	4672
855.524	4809
855.658	4774
855.792	4721
855.926	4744
856.06	4767
856.194	4801
856.327	4710
856.461	4615
856.595	4630
856.729	4641
856.862	4759
856.996	4656
857.13	4740
857.263	4797
857.397	4801
857.53	4653
857.664	4679
857.797	4752
857.931	4790
858.064	4668
858.197	4717
858.331	4626
858.464	4592
858.597	4573
858.731	4599
858.864	4645
858.997	4577
859.13	4637
859.263	4660
859.396	4706
859.529	4580
859.662	4550
859.795	4516
859.928	4637
860.061	4759
860.194	4801
860.327	4630
860.46	4584
860.592	4733
860.725	4721
860.858	4702
860.99	4577
861.123	4542
861.256	4538
861.388	4577
861.521	5113
861.653	4443
861.786	4466
861.918	4481
862.05	4500
862.183	4596
862.315	4546
862.447	4672
862.58	4573
862.712	4383
862.844	4303
862.976	4489
863.108	4466
863.24	4752
863.372	4337
863.504	4432
863.636	4413
863.768	4493
863.9	4428
864.032	4379
864.164	4413
864.296	4466
864.428	4527
864.559	4588
864.691	4531
864.823	4527
864.954	4535
865.086	4554
865.217	4455
865.349	4390
865.48	4470
865.612	4485
865.743	4653
865.875	4462
866.006	4424
866.137	4455
866.269	4409
866.4	4436
866.531	4413
866.662	4352
866.793	4440
866.924	4436
867.055	4519
867.186	4443
867.317	4447
867.448	4390
867.579	4398
867.71	4394
867.841	4367
867.972	4497
868.103	4493
868.233	4440
868.364	4447
868.495	4504
868.625	4687
868.756	4790
868.886	4554
869.017	4607
869.147	4736
869.278	4748
869.408	4698
869.539	4653
869.669	4744
869.799	4679
869.929	4774
870.06	4725
870.19	4965
870.32	4938
870.45	4942
870.58	5018
870.71	5086
870.84	5143
870.97	4942
871.1	4892
871.23	5170
871.36	5132
871.489	5048
871.619	5083
871.749	5064
871.879	5147
872.008	5185
872.138	5033
872.267	4946
872.397	4835
872.526	4824
872.656	4702
872.785	4793
872.915	4953
873.044	5025
873.173	4961
873.303	4980
873.432	4991
873.561	5006
873.69	4862
873.819	4824
873.948	4908
874.077	4812
874.206	4774
874.335	4767
874.464	4946
874.593	5037
874.722	4984
874.851	5109
874.979	5102
875.108	5052
875.237	4919
875.365	4877
875.494	4885
875.623	5029
875.751	4816
875.88	4904
876.008	4953
876.136	5037
876.265	5151
876.393	5357
876.521	5235
876.65	5212
876.778	5155
876.906	5056
877.034	4957
877.162	5083
877.29	5022
877.418	5086
877.546	5045
877.674	5048
877.802	4987
877.93	4976
878.058	4953
878.185	4908
878.313	4938
878.441	4957
878.568	4820
878.696	4831
878.824	4987
878.951	5029
879.079	5105
879.206	5277
879.333	5109
879.461	4995
879.588	4965
879.715	5083
879.842	5223
879.97	4991
880.097	4797
880.224	4710
880.351	4774
880.478	4767
880.605	4767
880.732	4786
880.859	5098
880.986	4854
881.112	4927
881.239	4752
881.366	4679
881.493	4615
881.619	4596
881.746	4672
881.872	4660
881.999	4687
882.125	4702
882.252	4755
882.378	4858
882.505	4927
882.631	4793
882.757	4668
882.883	4733
883.01	4687
883.136	4721
883.262	4584
883.388	4588
883.514	4797
883.64	4881
883.766	4782
883.892	4717
884.018	4740
884.143	4866
884.269	5041
884.395	4687
884.52	4626
884.646	4615
884.772	4615
884.897	4603
885.023	4649
885.148	4763
885.274	4862
885.399	4786
885.524	4683
885.65	4725
885.775	4767
885.9	4679
886.025	4843
886.15	4759
886.275	4717
886.4	4637
886.525	4725
886.65	4725
886.775	4664
886.9	4919
887.025	5006
887.149	4801
887.274	4664
887.399	4592
887.523	4558
887.648	4580
887.773	4599
887.897	4729
888.021	4824
888.146	4679
888.27	4767
888.395	4930
888.519	4786
888.643	4805
888.767	4824
888.891	4736
889.015	4618
889.139	4615
889.263	4626
889.387	4744
889.511	4812
889.635	4801
889.759	4618
889.883	4656
890.006	4767
890.13	4824
890.254	4672
890.377	4660
890.501	4542
890.624	4459
890.748	4653
890.871	4512
890.995	4440
891.118	4424
891.241	4538
891.364	4554
891.488	4649
891.611	4516
891.734	4546
891.857	4618
891.98	4561
892.103	4653
892.226	4607
892.349	4500
892.471	4466
892.594	4535
892.717	4561
892.839	4569
892.962	4618
893.085	4649
893.207	4641
893.33	4466
893.452	4516
893.575	4645
893.697	4558
893.819	4790
893.941	4812
894.064	4748
894.186	4615
894.308	4615
894.43	4774
894.552	4774
894.674	4771
894.796	4580
894.918	4603
895.04	4523
895.161	4706
895.283	4626
895.405	4596
895.526	4653
895.648	4691
895.769	4710
895.891	4729
896.012	4786
896.134	4752
896.255	4660
896.376	4641
896.498	4645
896.619	4694
896.74	4645
896.861	4626
896.982	4930
897.103	5067
897.224	4786
897.345	4733
897.466	4706
897.587	4725
897.708	4835
897.828	4717
897.949	4653
898.07	4550
898.19	4637
898.311	4843
898.431	4626
898.552	4736
898.672	4809
898.792	4763
898.913	4706
899.033	4588
899.153	4542
899.273	4409
899.393	4516
899.513	4523
899.633	4542
899.753	4535
899.873	4519
899.993	4580
900.113	4485
900.232	4607
900.352	4538
900.472	4500
900.591	4383
900.711	4500
900.83	4443
900.95	4538
901.069	4630
901.189	4519
901.308	4386
901.427	4325
901.546	4348
901.665	4504
901.784	4481
901.904	4363
902.023	4348
902.141	4207
902.26	4192
902.379	4265
902.498	4219
902.617	4280
902.735	4405
902.854	4383
902.973	4352
903.091	4242
903.21	4219
903.328	4280
903.446	4268
903.565	4280
903.683	4295
903.801	4284
903.919	4371
904.038	4459
904.156	4379
904.274	4432
904.392	4402
904.51	4436
904.627	4504
904.745	4611
904.863	4649
904.981	4379
905.098	4303
905.216	4398
905.334	4413
905.451	4451
905.569	4436
905.686	4596
905.803	4554
905.921	4383
906.038	4569
906.155	4432
906.272	4394
906.389	4421
906.506	4375
906.623	4379
906.74	4386
906.857	4356
906.974	4394
907.091	4546
907.208	4645
907.324	4577
907.441	4516
907.557	4318
907.674	4367
907.79	4299
907.907	4413
908.023	4493
908.139	4512
908.256	4402
908.372	4462
908.488	4417
908.604	4329
908.72	4329
908.836	4367
908.952	4383
909.068	4402
909.184	4554
909.3	4485
909.415	4599
909.531	4508
909.647	4341
909.762	4310
909.878	4371
909.993	4436
910.108	4436
910.224	4383
910.339	4447
910.454	4390
910.57	4325
910.685	4295
910.8	4637
910.915	4565
911.03	4516
911.145	4367
911.259	4329
911.374	4367
911.489	4322
911.604	4257
911.718	4162
911.833	4204
911.947	4093
912.062	3998
912.176	4196
912.291	4280
912.405	4230
912.519	4485
912.633	4550
912.748	4390
912.862	4303
912.976	4211
913.09	4051
913.204	4185
913.318	4249
913.431	4375
913.545	4363
913.659	4451
913.772	4356
913.886	4223
914	4207
914.113	4360
914.226	4424
914.34	4398
914.453	4249
914.566	4443
914.68	4287
914.793	4322
914.906	4162
915.019	4105
915.132	4021
915.245	4219
915.358	4196
915.47	4223
915.583	4238
915.696	4344
915.809	4352
915.921	4462
916.034	4268
916.146	4272
916.259	4200
916.371	4375
916.483	4367
916.595	4223
916.708	4325
916.82	4295
916.932	4276
917.044	4318
917.156	4318
917.268	4219
917.38	4299
917.491	4268
917.603	4348
917.715	4371
917.826	4440
917.938	4363
918.049	4257
918.161	4329
918.272	4535
918.384	4561
918.495	4451
918.606	4268
918.717	4227
918.828	4329
918.939	4386
919.05	4261
919.161	4333
919.272	4101
919.383	4177
919.494	4447
919.604	4626
919.715	4455
919.826	4379
919.936	4417
920.047	4565
920.157	4474
920.267	4683
920.378	4565
920.488	4474
920.598	4691
920.708	4881
920.818	4778
920.928	4774
921.038	4915
921.148	4919
921.258	4580
921.368	4516
921.477	4497
921.587	4516
921.697	4390
921.806	4523
921.916	4455
922.025	4284
922.134	4227
922.244	4265
922.353	4341
922.462	4158
922.571	4120
922.68	4044
922.789	3983
922.898	4032
923.007	4006
923.116	4082
923.224	4071
923.333	4093
923.442	4017
923.55	4017
923.659	4017
923.767	4112
923.876	4010
923.984	4154
924.092	4002
924.201	4055
924.309	4074
924.417	4147
924.525	4051
924.633	4147
924.741	4999
924.849	3941
924.956	4097
925.064	3964
925.172	3899
925.279	3979
925.387	4051
925.494	4090
925.602	4200
925.709	4196
925.816	4074
925.924	4154
926.031	4249
926.138	4177
926.245	4238
926.352	4044
926.459	4287
926.566	4314
926.673	4177
926.779	4128
926.886	4109
926.993	3979
927.099	3975
927.206	3922
927.312	3941
927.419	4040
927.525	4025
927.631	4044
927.737	3956
927.843	3937
927.95	3838
928.056	3903
928.162	3983
928.267	4071
928.373	4580
928.479	4109
928.585	3876
928.69	4021
928.796	4063
928.901	3937
929.007	3846
929.112	3987
929.218	3972
929.323	3964
929.428	3949
929.533	4074
929.638	3892
929.743	3934
929.848	4036
929.953	3960
930.058	3922
930.163	3759
930.267	3876
930.372	3994
930.477	3819
930.581	4078
930.685	3934
930.79	3846
930.894	3926
930.998	3861
931.103	4032
931.207	3698
931.311	3682
931.415	3690
931.519	3530
931.623	3568
