Data from test_V78500241_989.txt Node
Date: Fri Mar 25 16:55:52 CST 2022
User: usil
Spectrometer: V785-0024
Trigger mode: 0
Integration Time (sec): 4.000000E-1
Scans to average: 1
Nonlinearity correction enabled: false
Boxcar width: 0
Storing dark spectrum: false
XAxis mode: Wavelengths
Number of Pixels in Spectrum: 1024
>>>>>Begin Spectral Data<<<<<
801.071	8054
801.214	8016
801.356	7959
801.499	7936
801.641	7849
801.783	7833
801.926	7993
802.068	7993
802.211	7913
802.353	8027
802.496	7811
802.638	7868
802.78	7944
802.923	7940
803.065	7978
803.208	7936
803.35	7997
803.492	8176
803.635	8084
803.777	8081
803.919	8123
804.061	8400
804.204	8103
804.346	8035
804.488	8020
804.63	8065
804.773	8008
804.915	8065
805.057	8317
805.199	8180
805.341	8187
805.483	8267
805.626	8225
805.768	8183
805.91	8138
806.052	8252
806.194	8081
806.336	8282
806.478	8092
806.62	8039
806.762	8115
806.904	8225
807.046	8488
807.188	8320
807.33	8309
807.472	8343
807.614	8218
807.756	8107
807.898	7951
808.04	7883
808.182	7936
808.324	7875
808.465	7898
808.607	8126
808.749	8073
808.891	8195
809.033	8225
809.174	8290
809.316	8126
809.458	8027
809.6	7967
809.741	8065
809.883	8050
810.025	8081
810.166	8046
810.308	8130
810.45	8035
810.591	7917
810.733	7734
810.875	7674
811.016	7499
811.158	7510
811.299	7628
811.441	7693
811.582	7681
811.724	7556
811.865	7472
812.007	7639
812.148	7567
812.29	7594
812.431	7742
812.573	7860
812.714	8035
812.855	8145
812.997	8161
813.138	8271
813.279	8202
813.421	8111
813.562	8008
813.703	7894
813.845	7803
813.986	7449
814.127	7305
814.268	7301
814.41	7274
814.551	7179
814.692	7183
814.833	7042
814.974	7034
815.115	7031
815.256	6970
815.397	6943
815.539	6958
815.68	6848
815.821	6715
815.962	6882
816.103	6795
816.244	6757
816.385	6608
816.526	6646
816.666	6483
816.807	6346
816.948	6426
817.089	6521
817.23	6448
817.371	6422
817.512	6372
817.653	6426
817.793	6410
817.934	6429
818.075	6452
818.216	6399
818.356	6418
818.497	6262
818.638	6136
818.778	6140
818.919	6167
819.06	6140
819.2	6350
819.341	6350
819.481	6315
819.622	6506
819.762	6681
819.903	6684
820.043	6639
820.184	6597
820.324	6601
820.465	6700
820.605	6635
820.746	6654
820.886	6479
821.026	6730
821.167	6665
821.307	6821
821.447	6779
821.588	6597
821.728	6566
821.868	6506
822.008	6346
822.149	6327
822.289	6410
822.429	6144
822.569	6110
822.709	6095
822.849	5901
822.99	5969
823.13	5965
823.27	5904
823.41	5775
823.55	5809
823.69	5710
823.83	5809
823.97	5699
824.11	5566
824.25	5471
824.389	5539
824.529	5600
824.669	5543
824.809	5661
824.949	5649
825.089	5600
825.228	5520
825.368	5398
825.508	5307
825.648	5303
825.787	5326
825.927	5357
826.067	5311
826.206	5330
826.346	5402
826.485	5372
826.625	5410
826.765	5543
826.904	5467
827.044	5277
827.183	5220
827.323	5140
827.462	5239
827.601	5155
827.741	5204
827.88	5212
828.02	5136
828.159	5250
828.298	5315
828.437	5398
828.577	5284
828.716	5501
828.855	5315
828.994	5159
829.134	5124
829.273	5208
829.412	5174
829.551	5151
829.69	5128
829.829	5178
829.968	5360
830.107	5250
830.246	5269
830.385	5178
830.524	5155
830.663	5083
830.802	5006
830.941	4847
831.08	4862
831.219	4961
831.357	4961
831.496	5151
831.635	4904
831.774	4847
831.913	4824
832.051	4736
832.19	4729
832.329	4835
832.467	4736
832.606	4630
832.744	4736
832.883	4725
833.022	4710
833.16	4782
833.299	4839
833.437	4843
833.576	4843
833.714	4850
833.852	4923
833.991	4866
834.129	4919
834.267	4942
834.406	4911
834.544	4934
834.682	4957
834.821	4984
834.959	5159
835.097	5025
835.235	5178
835.373	5064
835.511	5056
835.65	5033
835.788	5052
835.926	4900
836.064	4843
836.202	4919
836.34	5098
836.478	5231
836.615	5132
836.753	5159
836.891	5292
837.029	5269
837.167	5250
837.305	5212
837.443	5181
837.58	5060
837.718	5261
837.856	5220
837.993	5162
838.131	5208
838.269	5227
838.406	5181
838.544	5155
838.681	5052
838.819	4999
838.956	4889
839.094	4873
839.231	5045
839.369	5056
839.506	5421
839.643	5227
839.781	5060
839.918	4991
840.055	5121
840.193	5128
840.33	5086
840.467	5121
840.604	5174
840.742	5467
840.879	5029
841.016	5086
841.153	5117
841.29	5414
841.427	5357
841.564	5341
841.701	5368
841.838	5292
841.975	5212
842.112	5220
842.249	5189
842.385	5067
842.522	5360
842.659	5197
842.796	5102
842.933	5212
843.069	5124
843.206	5124
843.343	5307
843.479	5216
843.616	5254
843.752	5010
843.889	4946
844.025	5212
844.162	4976
844.298	5204
844.435	5086
844.571	5018
844.708	5174
844.844	5357
844.98	5353
845.117	5280
845.253	5151
845.389	5090
845.525	5178
845.661	5105
845.798	5037
845.934	5212
846.07	5037
846.206	5193
846.342	5265
846.478	5185
846.614	4980
846.75	4972
846.886	4911
847.022	5147
847.158	5022
847.294	5079
847.429	5132
847.565	5052
847.701	5360
847.837	4854
847.972	4774
848.108	4957
848.244	4949
848.379	4774
848.515	4774
848.65	4694
848.786	4733
848.921	4778
849.057	4885
849.192	4934
849.328	4778
849.463	4885
849.598	4793
849.734	4767
849.869	4717
850.004	4641
850.14	4656
850.275	4596
850.41	4558
850.545	4599
850.68	4603
850.815	4618
850.95	4656
851.085	4812
851.22	4767
851.355	4653
851.49	4675
851.625	4637
851.76	4611
851.895	4561
852.03	4550
852.165	4607
852.299	4710
852.434	4755
852.569	4740
852.703	4752
852.838	4820
852.973	4862
853.107	4866
853.242	4752
853.376	4634
853.511	4573
853.645	4580
853.78	4782
853.914	4691
854.048	4706
854.183	4596
854.317	4771
854.451	4805
854.585	4714
854.72	4660
854.854	4706
854.988	4611
855.122	4637
855.256	4519
855.39	4672
855.524	4748
855.658	4733
855.792	4687
855.926	4736
856.06	4740
856.194	4778
856.327	4664
856.461	4637
856.595	4641
856.729	4565
856.862	4755
856.996	4687
857.13	4744
857.263	4755
857.397	4805
857.53	4679
857.664	4687
857.797	4729
857.931	4778
858.064	4725
858.197	4714
858.331	4607
858.464	4630
858.597	4527
858.731	4626
858.864	4672
858.997	4554
859.13	4653
859.263	4706
859.396	4702
859.529	4580
859.662	4538
859.795	4516
859.928	4607
860.061	4771
860.194	4767
860.327	4577
860.46	4569
860.592	4694
860.725	4733
860.858	4733
860.99	4584
861.123	4478
861.256	4519
861.388	4607
861.521	5231
861.653	4470
861.786	4440
861.918	4455
862.05	4535
862.183	4538
862.315	4596
862.447	4626
862.58	4596
862.712	4371
862.844	4329
862.976	4489
863.108	4398
863.24	4911
863.372	4352
863.504	4436
863.636	4421
863.768	4504
863.9	4405
864.032	4329
864.164	4383
864.296	4428
864.428	4478
864.559	4538
864.691	4538
864.823	4466
864.954	4497
865.086	4497
865.217	4485
865.349	4428
865.48	4405
865.612	4474
865.743	4653
865.875	4470
866.006	4379
866.137	4474
866.269	4409
866.4	4417
866.531	4428
866.662	4390
866.793	4371
866.924	4440
867.055	4466
867.186	4436
867.317	4417
867.448	4367
867.579	4417
867.71	4375
867.841	4341
867.972	4424
868.103	4493
868.233	4497
868.364	4440
868.495	4462
868.625	4687
868.756	4736
868.886	4561
869.017	4611
869.147	4767
869.278	4790
869.408	4603
869.539	4683
869.669	4672
869.799	4675
869.929	4744
870.06	4721
870.19	4927
870.32	4889
870.45	4930
870.58	5018
870.71	5045
870.84	5117
870.97	4961
871.1	4904
871.23	5121
871.36	5113
871.489	5018
871.619	5052
871.749	5041
871.879	5102
872.008	5235
872.138	5048
872.267	4923
872.397	4870
872.526	4771
872.656	4687
872.785	4797
872.915	4923
873.044	5022
873.173	4976
873.303	4934
873.432	4877
873.561	4949
873.69	4889
873.819	4843
873.948	4915
874.077	4793
874.206	4744
874.335	4797
874.464	4896
874.593	5045
874.722	4930
874.851	5086
874.979	5067
875.108	5029
875.237	4896
875.365	4911
875.494	4839
875.623	4949
875.751	4812
875.88	4850
876.008	4972
876.136	5045
876.265	5170
876.393	5326
876.521	5231
876.65	5208
876.778	5197
876.906	5045
877.034	5052
877.162	5037
877.29	4923
877.418	5014
877.546	5022
877.674	5067
877.802	4999
877.93	5006
878.058	4934
878.185	4862
878.313	4984
878.441	4919
878.568	4858
878.696	4870
878.824	4957
878.951	5010
879.079	5151
879.206	5280
879.333	5060
879.461	4987
879.588	5003
879.715	5117
879.842	5220
879.97	5033
880.097	4744
880.224	4698
880.351	4816
880.478	4797
880.605	4774
880.732	4812
880.859	5094
880.986	4839
881.112	4923
881.239	4793
881.366	4630
881.493	4603
881.619	4573
881.746	4634
881.872	4645
881.999	4634
882.125	4691
882.252	4835
882.378	4843
882.505	4976
882.631	4793
882.757	4691
882.883	4729
883.01	4736
883.136	4649
883.262	4538
883.388	4607
883.514	4831
883.64	4873
883.766	4771
883.892	4653
884.018	4740
884.143	4911
884.269	5003
884.395	4653
884.52	4607
884.646	4649
884.772	4558
884.897	4516
885.023	4660
885.148	4752
885.274	4911
885.399	4767
885.524	4733
885.65	4702
885.775	4763
885.9	4660
886.025	4820
886.15	4850
886.275	4687
886.4	4675
886.525	4702
886.65	4691
886.775	4672
886.9	4858
887.025	5014
887.149	4790
887.274	4618
887.399	4637
887.523	4577
887.648	4554
887.773	4550
887.897	4721
888.021	4778
888.146	4637
888.27	4786
888.395	4889
888.519	4767
888.643	4843
888.767	4835
888.891	4706
889.015	4565
889.139	4637
889.263	4599
889.387	4759
889.511	4873
889.635	4752
889.759	4603
889.883	4611
890.006	4702
890.13	4790
890.254	4577
890.377	4641
890.501	4519
890.624	4481
890.748	4615
890.871	4531
890.995	4417
891.118	4363
891.241	4558
891.364	4519
891.488	4626
891.611	4500
891.734	4523
891.857	4603
891.98	4565
892.103	4656
892.226	4584
892.349	4542
892.471	4421
892.594	4516
892.717	4596
892.839	4550
892.962	4577
893.085	4622
893.207	4584
893.33	4428
893.452	4519
893.575	4691
893.697	4584
893.819	4774
893.941	4824
894.064	4755
894.186	4577
894.308	4558
894.43	4710
894.552	4790
894.674	4755
894.796	4577
894.918	4599
895.04	4558
895.161	4668
895.283	4679
895.405	4538
895.526	4645
895.648	4679
895.769	4679
895.891	4653
896.012	4714
896.134	4706
896.255	4691
896.376	4611
896.498	4607
896.619	4664
896.74	4596
896.861	4599
896.982	4938
897.103	5086
897.224	4850
897.345	4687
897.466	4679
897.587	4740
897.708	4824
897.828	4748
897.949	4664
898.07	4523
898.19	4634
898.311	4771
898.431	4683
898.552	4725
898.672	4839
898.792	4801
898.913	4744
899.033	4626
899.153	4504
899.273	4402
899.393	4474
899.513	4512
899.633	4516
899.753	4470
899.873	4512
899.993	4561
900.113	4538
900.232	4611
900.352	4523
900.472	4455
900.591	4432
900.711	4493
900.83	4398
900.95	4622
901.069	4702
901.189	4546
901.308	4379
901.427	4325
901.546	4375
901.665	4436
901.784	4489
901.904	4421
902.023	4291
902.141	4166
902.26	4177
902.379	4249
902.498	4242
902.617	4227
902.735	4360
902.854	4386
902.973	4352
903.091	4181
903.21	4196
903.328	4265
903.446	4280
903.565	4246
903.683	4337
903.801	4246
903.919	4398
904.038	4447
904.156	4318
904.274	4443
904.392	4371
904.51	4459
904.627	4470
904.745	4542
904.863	4626
904.981	4424
905.098	4291
905.216	4363
905.334	4421
905.451	4417
905.569	4436
905.686	4580
905.803	4546
905.921	4383
906.038	4558
906.155	4481
906.272	4375
906.389	4428
906.506	4325
906.623	4398
906.74	4371
906.857	4337
906.974	4329
907.091	4577
907.208	4664
907.324	4599
907.441	4481
907.557	4314
907.674	4360
907.79	4306
907.907	4341
908.023	4478
908.139	4455
908.256	4451
908.372	4485
908.488	4402
908.604	4348
908.72	4329
908.836	4379
908.952	4360
909.068	4390
909.184	4558
909.3	4455
909.415	4565
909.531	4550
909.647	4352
909.762	4379
909.878	4363
909.993	4447
910.108	4417
910.224	4383
910.339	4478
910.454	4367
910.57	4352
910.685	4299
910.8	4649
910.915	4618
911.03	4500
911.145	4261
911.259	4314
911.374	4363
911.489	4295
911.604	4287
911.718	4196
911.833	4158
911.947	4090
912.062	4044
912.176	4200
912.291	4295
912.405	4234
912.519	4489
912.633	4527
912.748	4333
912.862	4314
912.976	4234
913.09	4067
913.204	4200
913.318	4257
913.431	4337
913.545	4344
913.659	4436
913.772	4352
913.886	4246
914	4188
914.113	4371
914.226	4436
914.34	4421
914.453	4166
914.566	4424
914.68	4280
914.793	4310
914.906	4109
915.019	4116
915.132	4055
915.245	4166
915.358	4223
915.47	4230
915.583	4253
915.696	4291
915.809	4451
915.921	4424
916.034	4207
916.146	4196
916.259	4143
916.371	4371
916.483	4337
916.595	4215
916.708	4303
916.82	4322
916.932	4257
917.044	4303
917.156	4344
917.268	4223
917.38	4291
917.491	4299
917.603	4333
917.715	4398
917.826	4413
917.938	4375
918.049	4276
918.161	4386
918.272	4512
918.384	4546
918.495	4436
918.606	4280
918.717	4192
918.828	4295
918.939	4333
919.05	4230
919.161	4318
919.272	4143
919.383	4227
919.494	4405
919.604	4599
919.715	4451
919.826	4363
919.936	4390
920.047	4470
920.157	4481
920.267	4664
920.378	4512
920.488	4459
920.598	4706
920.708	4858
920.818	4721
920.928	4790
921.038	4915
921.148	4908
921.258	4611
921.368	4561
921.477	4481
921.587	4451
921.697	4303
921.806	4542
921.916	4432
922.025	4257
922.134	4276
922.244	4253
922.353	4310
922.462	4173
922.571	4158
922.68	3972
922.789	4010
922.898	4021
923.007	3972
923.116	4082
923.224	4059
923.333	4055
923.442	3979
923.55	3975
923.659	4071
923.767	4093
923.876	3953
923.984	4059
924.092	3979
924.201	4063
924.309	4082
924.417	4105
924.525	4059
924.633	4093
924.741	5029
924.849	3907
924.956	4139
925.064	3964
925.172	3880
925.279	3960
925.387	4025
925.494	4029
925.602	4207
925.709	4181
925.816	4036
925.924	4124
926.031	4204
926.138	4154
926.245	4211
926.352	4139
926.459	4257
926.566	4287
926.673	4120
926.779	4090
926.886	4097
926.993	3968
927.099	3937
927.206	3907
927.312	3941
927.419	4025
927.525	4044
927.631	4105
927.737	3949
927.843	3922
927.95	3865
928.056	3960
928.162	3972
928.267	4040
928.373	4622
928.479	4074
928.585	3857
928.69	3960
928.796	4032
928.901	3960
929.007	3865
929.112	3998
929.218	3975
929.323	3915
929.428	3937
929.533	4139
929.638	3892
929.743	3964
929.848	3998
929.953	4010
930.058	3911
930.163	3770
930.267	3831
930.372	3975
930.477	3823
930.581	4059
930.685	3979
930.79	3819
930.894	3903
930.998	3873
931.103	4051
931.207	3701
931.311	3717
931.415	3663
931.519	3542
931.623	3568
