Data from test_V78500241_144.txt Node
Date: Fri Mar 25 16:50:00 CST 2022
User: usil
Spectrometer: V785-0024
Trigger mode: 0
Integration Time (sec): 4.000000E-1
Scans to average: 1
Nonlinearity correction enabled: false
Boxcar width: 0
Storing dark spectrum: false
XAxis mode: Wavelengths
Number of Pixels in Spectrum: 1024
>>>>>Begin Spectral Data<<<<<
801.071	8027
801.214	8020
801.356	7879
801.499	7902
801.641	7788
801.783	7852
801.926	7955
802.068	7913
802.211	8020
802.353	7940
802.496	7913
802.638	7913
802.78	7947
802.923	7959
803.065	7833
803.208	7811
803.35	7940
803.492	8054
803.635	8164
803.777	7951
803.919	8130
804.061	8317
804.204	8123
804.346	7963
804.488	7932
804.63	8073
804.773	7974
804.915	8111
805.057	8305
805.199	8153
805.341	8161
805.483	8214
805.626	8183
805.768	8081
805.91	8134
806.052	8221
806.194	8103
806.336	8328
806.478	8081
806.62	8081
806.762	8168
806.904	8267
807.046	8427
807.188	8309
807.33	8309
807.472	8317
807.614	8168
807.756	8138
807.898	8027
808.04	7928
808.182	7856
808.324	7871
808.465	7932
808.607	8027
808.749	8092
808.891	8210
809.033	8237
809.174	8187
809.316	8062
809.458	8031
809.6	7963
809.741	8062
809.883	8073
810.025	8107
810.166	8149
810.308	8081
810.45	8027
810.591	7928
810.733	7795
810.875	7655
811.016	7544
811.158	7537
811.299	7666
811.441	7746
811.582	7643
811.724	7677
811.865	7651
812.007	7670
812.148	7616
812.29	7666
812.431	7776
812.573	7963
812.714	7989
812.855	8221
812.997	8313
813.138	8347
813.279	8233
813.421	8100
813.562	8050
813.703	7864
813.845	7822
813.986	7537
814.127	7320
814.268	7251
814.41	7228
814.551	7247
814.692	7145
814.833	7149
814.974	7179
815.115	7213
815.256	7023
815.397	6954
815.539	6996
815.68	6821
815.821	6776
815.962	6840
816.103	6848
816.244	6646
816.385	6639
816.526	6665
816.666	6559
816.807	6342
816.948	6483
817.089	6475
817.23	6456
817.371	6407
817.512	6407
817.653	6441
817.793	6399
817.934	6429
818.075	6471
818.216	6429
818.356	6414
818.497	6251
818.638	6178
818.778	6205
818.919	6167
819.06	6175
819.2	6331
819.341	6338
819.481	6357
819.622	6498
819.762	6745
819.903	6719
820.043	6639
820.184	6604
820.324	6612
820.465	6692
820.605	6681
820.746	6620
820.886	6521
821.026	6745
821.167	6700
821.307	6760
821.447	6783
821.588	6707
821.728	6639
821.868	6471
822.008	6289
822.149	6403
822.289	6388
822.429	6182
822.569	6095
822.709	6125
822.849	5931
822.99	5939
823.13	5965
823.27	5859
823.41	5783
823.55	5794
823.69	5847
823.83	5790
823.97	5714
824.11	5562
824.25	5551
824.389	5532
824.529	5646
824.669	5532
824.809	5665
824.949	5672
825.089	5589
825.228	5535
825.368	5421
825.508	5398
825.648	5296
825.787	5417
825.927	5376
826.067	5322
826.206	5273
826.346	5349
826.485	5410
826.625	5429
826.765	5547
826.904	5554
827.044	5299
827.183	5185
827.323	5151
827.462	5273
827.601	5174
827.741	5181
827.88	5261
828.02	5117
828.159	5258
828.298	5307
828.437	5376
828.577	5330
828.716	5497
828.855	5337
828.994	5162
829.134	5155
829.273	5227
829.412	5189
829.551	5147
829.69	5235
829.829	5265
829.968	5395
830.107	5231
830.246	5326
830.385	5220
830.524	5132
830.663	5109
830.802	5003
830.941	4927
831.08	4850
831.219	5018
831.357	5010
831.496	5204
831.635	4934
831.774	4900
831.913	4915
832.051	4694
832.19	4831
832.329	4843
832.467	4656
832.606	4687
832.744	4733
832.883	4721
833.022	4748
833.16	4740
833.299	4831
833.437	4835
833.576	4866
833.714	4881
833.852	4873
833.991	4843
834.129	4938
834.267	5014
834.406	4873
834.544	4961
834.682	4965
834.821	4953
834.959	5193
835.097	4968
835.235	5193
835.373	5083
835.511	5079
835.65	5018
835.788	5056
835.926	4919
836.064	4866
836.202	4953
836.34	5155
836.478	5216
836.615	5185
836.753	5147
836.891	5292
837.029	5273
837.167	5223
837.305	5181
837.443	5185
837.58	5121
837.718	5258
837.856	5201
837.993	5193
838.131	5239
838.269	5250
838.406	5216
838.544	5204
838.681	5037
838.819	5033
838.956	4911
839.094	4957
839.231	4968
839.369	5113
839.506	5406
839.643	5254
839.781	5117
839.918	4987
840.055	5067
840.193	5147
840.33	5143
840.467	5193
840.604	5220
840.742	5440
840.879	5124
841.016	5083
841.153	5147
841.29	5383
841.427	5360
841.564	5357
841.701	5330
841.838	5288
841.975	5220
842.112	5246
842.249	5155
842.385	5083
842.522	5341
842.659	5220
842.796	5140
842.933	5223
843.069	5113
843.206	5174
843.343	5345
843.479	5250
843.616	5311
843.752	5022
843.889	5006
844.025	5261
844.162	5037
844.298	5216
844.435	5037
844.571	5060
844.708	5185
844.844	5246
844.98	5349
845.117	5334
845.253	5083
845.389	5071
845.525	5166
845.661	5113
845.798	5037
845.934	5166
846.07	5010
846.206	5220
846.342	5299
846.478	5220
846.614	5052
846.75	4991
846.886	4946
847.022	5128
847.158	5022
847.294	5064
847.429	5083
847.565	5067
847.701	5284
847.837	4843
847.972	4831
848.108	4949
848.244	4923
848.379	4831
848.515	4767
848.65	4702
848.786	4786
848.921	4767
849.057	4885
849.192	4896
849.328	4854
849.463	4831
849.598	4797
849.734	4763
849.869	4733
850.004	4653
850.14	4668
850.275	4592
850.41	4561
850.545	4569
850.68	4622
850.815	4664
850.95	4641
851.085	4854
851.22	4767
851.355	4675
851.49	4603
851.625	4679
851.76	4656
851.895	4588
852.03	4512
852.165	4637
852.299	4698
852.434	4782
852.569	4702
852.703	4778
852.838	4862
852.973	4968
853.107	4885
853.242	4767
853.376	4710
853.511	4584
853.645	4577
853.78	4790
853.914	4679
854.048	4729
854.183	4675
854.317	4755
854.451	4820
854.585	4660
854.72	4611
854.854	4786
854.988	4656
855.122	4596
855.256	4569
855.39	4653
855.524	4752
855.658	4717
855.792	4740
855.926	4733
856.06	4748
856.194	4850
856.327	4687
856.461	4603
856.595	4668
856.729	4634
856.862	4801
856.996	4683
857.13	4729
857.263	4740
857.397	4809
857.53	4664
857.664	4725
857.797	4759
857.931	4816
858.064	4717
858.197	4805
858.331	4637
858.464	4607
858.597	4546
858.731	4656
858.864	4683
858.997	4622
859.13	4698
859.263	4656
859.396	4706
859.529	4615
859.662	4611
859.795	4565
859.928	4607
860.061	4774
860.194	4786
860.327	4653
860.46	4573
860.592	4687
860.725	4717
860.858	4698
860.99	4584
861.123	4565
861.256	4592
861.388	4596
861.521	5387
861.653	4489
861.786	4493
861.918	4443
862.05	4500
862.183	4565
862.315	4645
862.447	4656
862.58	4596
862.712	4421
862.844	4363
862.976	4485
863.108	4447
863.24	4885
863.372	4341
863.504	4424
863.636	4447
863.768	4451
863.9	4424
864.032	4341
864.164	4417
864.296	4440
864.428	4554
864.559	4577
864.691	4508
864.823	4580
864.954	4504
865.086	4493
865.217	4489
865.349	4413
865.48	4447
865.612	4440
865.743	4603
865.875	4497
866.006	4474
866.137	4443
866.269	4436
866.4	4455
866.531	4504
866.662	4432
866.793	4398
866.924	4440
867.055	4500
867.186	4531
867.317	4432
867.448	4394
867.579	4424
867.71	4394
867.841	4405
867.972	4497
868.103	4462
868.233	4470
868.364	4466
868.495	4504
868.625	4664
868.756	4778
868.886	4615
869.017	4615
869.147	4763
869.278	4790
869.408	4710
869.539	4691
869.669	4717
869.799	4672
869.929	4812
870.06	4774
870.19	4991
870.32	4968
870.45	4984
870.58	5006
870.71	5109
870.84	5083
870.97	4953
871.1	4858
871.23	5155
871.36	5143
871.489	5041
871.619	5071
871.749	5166
871.879	5162
872.008	5151
872.138	5071
872.267	5006
872.397	4843
872.526	4763
872.656	4717
872.785	4782
872.915	4999
873.044	5033
873.173	4949
873.303	4946
873.432	4991
873.561	4991
873.69	4850
873.819	4915
873.948	4896
874.077	4843
874.206	4767
874.335	4812
874.464	4980
874.593	5033
874.722	4968
874.851	5113
874.979	5064
875.108	5045
875.237	4885
875.365	4896
875.494	4946
875.623	5010
875.751	4831
875.88	4915
876.008	5003
876.136	5037
876.265	5212
876.393	5345
876.521	5220
876.65	5273
876.778	5197
876.906	5109
877.034	5048
877.162	5045
877.29	5006
877.418	5079
877.546	5052
877.674	5064
877.802	4980
877.93	5029
878.058	4961
878.185	4896
878.313	4995
878.441	4919
878.568	4797
878.696	4862
878.824	4965
878.951	4995
879.079	5105
879.206	5322
879.333	5121
879.461	5014
879.588	5022
879.715	5193
879.842	5273
879.97	5014
880.097	4797
880.224	4759
880.351	4828
880.478	4843
880.605	4809
880.732	4786
880.859	5086
880.986	4900
881.112	4980
881.239	4759
881.366	4672
881.493	4672
881.619	4588
881.746	4584
881.872	4714
881.999	4706
882.125	4679
882.252	4786
882.378	4809
882.505	4968
882.631	4805
882.757	4679
882.883	4793
883.01	4767
883.136	4672
883.262	4599
883.388	4630
883.514	4850
883.64	4873
883.766	4782
883.892	4656
884.018	4714
884.143	4911
884.269	4995
884.395	4641
884.52	4626
884.646	4664
884.772	4580
884.897	4561
885.023	4694
885.148	4797
885.274	4904
885.399	4824
885.524	4801
885.65	4702
885.775	4763
885.9	4733
886.025	4873
886.15	4755
886.275	4698
886.4	4672
886.525	4733
886.65	4736
886.775	4717
886.9	4881
887.025	5060
887.149	4881
887.274	4653
887.399	4588
887.523	4611
887.648	4592
887.773	4577
887.897	4744
888.021	4847
888.146	4717
888.27	4820
888.395	4877
888.519	4881
888.643	4835
888.767	4805
888.891	4714
889.015	4611
889.139	4694
889.263	4596
889.387	4725
889.511	4870
889.635	4828
889.759	4675
889.883	4672
890.006	4702
890.13	4858
890.254	4630
890.377	4698
890.501	4577
890.624	4565
890.748	4607
890.871	4554
890.995	4455
891.118	4394
891.241	4577
891.364	4546
891.488	4637
891.611	4512
891.734	4558
891.857	4637
891.98	4538
892.103	4660
892.226	4645
892.349	4561
892.471	4424
892.594	4592
892.717	4630
892.839	4554
892.962	4630
893.085	4653
893.207	4615
893.33	4489
893.452	4481
893.575	4664
893.697	4615
893.819	4847
893.941	4831
894.064	4755
894.186	4603
894.308	4580
894.43	4733
894.552	4835
894.674	4793
894.796	4569
894.918	4584
895.04	4637
895.161	4702
895.283	4763
895.405	4573
895.526	4683
895.648	4710
895.769	4694
895.891	4786
896.012	4729
896.134	4714
896.255	4691
896.376	4649
896.498	4615
896.619	4721
896.74	4634
896.861	4641
896.982	4946
897.103	5147
897.224	4847
897.345	4748
897.466	4675
897.587	4744
897.708	4889
897.828	4774
897.949	4675
898.07	4565
898.19	4615
898.311	4828
898.431	4706
898.552	4729
898.672	4809
898.792	4790
898.913	4774
899.033	4584
899.153	4573
899.273	4462
899.393	4497
899.513	4569
899.633	4523
899.753	4527
899.873	4531
899.993	4607
900.113	4519
900.232	4596
900.352	4577
900.472	4523
900.591	4398
900.711	4527
900.83	4432
900.95	4618
901.069	4675
901.189	4580
901.308	4329
901.427	4318
901.546	4398
901.665	4481
901.784	4573
901.904	4371
902.023	4356
902.141	4192
902.26	4150
902.379	4306
902.498	4227
902.617	4230
902.735	4405
902.854	4390
902.973	4383
903.091	4219
903.21	4219
903.328	4341
903.446	4303
903.565	4238
903.683	4341
903.801	4314
903.919	4371
904.038	4428
904.156	4352
904.274	4447
904.392	4440
904.51	4504
904.627	4470
904.745	4538
904.863	4611
904.981	4417
905.098	4299
905.216	4421
905.334	4440
905.451	4451
905.569	4466
905.686	4569
905.803	4588
905.921	4489
906.038	4569
906.155	4538
906.272	4428
906.389	4455
906.506	4417
906.623	4413
906.74	4409
906.857	4325
906.974	4375
907.091	4550
907.208	4683
907.324	4554
907.441	4531
907.557	4325
907.674	4329
907.79	4287
907.907	4363
908.023	4519
908.139	4451
908.256	4421
908.372	4497
908.488	4466
908.604	4379
908.72	4386
908.836	4443
908.952	4371
909.068	4455
909.184	4573
909.3	4493
909.415	4577
909.531	4565
909.647	4356
909.762	4379
909.878	4325
909.993	4421
910.108	4443
910.224	4417
910.339	4466
910.454	4398
910.57	4379
910.685	4310
910.8	4637
910.915	4634
911.03	4508
911.145	4363
911.259	4356
911.374	4424
911.489	4310
911.604	4310
911.718	4154
911.833	4223
911.947	4063
912.062	3991
912.176	4253
912.291	4253
912.405	4272
912.519	4478
912.633	4519
912.748	4398
912.862	4337
912.976	4196
913.09	4105
913.204	4246
913.318	4265
913.431	4371
913.545	4367
913.659	4432
913.772	4371
913.886	4253
914	4257
914.113	4363
914.226	4443
914.34	4394
914.453	4268
914.566	4405
914.68	4295
914.793	4253
914.906	4185
915.019	4124
915.132	4128
915.245	4169
915.358	4257
915.47	4219
915.583	4280
915.696	4276
915.809	4413
915.921	4436
916.034	4249
916.146	4223
916.259	4227
916.371	4413
916.483	4356
916.595	4276
916.708	4318
916.82	4303
916.932	4333
917.044	4318
917.156	4295
917.268	4246
917.38	4295
917.491	4268
917.603	4333
917.715	4443
917.826	4451
917.938	4333
918.049	4272
918.161	4424
918.272	4538
918.384	4569
918.495	4489
918.606	4291
918.717	4272
918.828	4310
918.939	4386
919.05	4242
919.161	4322
919.272	4143
919.383	4284
919.494	4459
919.604	4672
919.715	4417
919.826	4325
919.936	4394
920.047	4523
920.157	4470
920.267	4691
920.378	4588
920.488	4512
920.598	4771
920.708	4915
920.818	4748
920.928	4736
921.038	4934
921.148	4911
921.258	4645
921.368	4569
921.477	4462
921.587	4470
921.697	4383
921.806	4519
921.916	4424
922.025	4303
922.134	4276
922.244	4234
922.353	4341
922.462	4196
922.571	4090
922.68	4025
922.789	3968
922.898	4025
923.007	4040
923.116	4093
923.224	4086
923.333	4078
923.442	4013
923.55	3994
923.659	4055
923.767	4120
923.876	4051
923.984	4139
924.092	3998
924.201	4097
924.309	4128
924.417	4097
924.525	4067
924.633	4120
924.741	4896
924.849	3975
924.956	4169
925.064	3937
925.172	3888
925.279	3953
925.387	4044
925.494	4044
925.602	4238
925.709	4173
925.816	4059
925.924	4135
926.031	4253
926.138	4158
926.245	4207
926.352	4086
926.459	4284
926.566	4341
926.673	4166
926.779	4120
926.886	4135
926.993	4010
927.099	3972
927.206	3922
927.312	3949
927.419	4059
927.525	3998
927.631	4135
927.737	3953
927.843	3994
927.95	3861
928.056	3968
928.162	3987
928.267	4090
928.373	4694
928.479	4131
928.585	3892
928.69	3998
928.796	4086
928.901	4032
929.007	3861
929.112	3972
929.218	4006
929.323	3972
929.428	3994
929.533	4097
929.638	3964
929.743	3975
929.848	4055
929.953	4017
930.058	3968
930.163	3797
930.267	3793
930.372	3972
930.477	3797
930.581	4074
930.685	3964
930.79	3899
930.894	3915
930.998	3857
931.103	4048
931.207	3736
931.311	3709
931.415	3675
931.519	3549
931.623	3633
