Data from test_V78500241_109.txt Node
Date: Fri Mar 25 16:49:45 CST 2022
User: usil
Spectrometer: V785-0024
Trigger mode: 0
Integration Time (sec): 4.000000E-1
Scans to average: 1
Nonlinearity correction enabled: false
Boxcar width: 0
Storing dark spectrum: false
XAxis mode: Wavelengths
Number of Pixels in Spectrum: 1024
>>>>>Begin Spectral Data<<<<<
801.071	8088
801.214	8111
801.356	7940
801.499	7925
801.641	7852
801.783	7936
801.926	8069
802.068	7970
802.211	8008
802.353	8069
802.496	7833
802.638	7932
802.78	8043
802.923	7913
803.065	7917
803.208	7830
803.35	7978
803.492	8069
803.635	8138
803.777	7989
803.919	8103
804.061	8381
804.204	8115
804.346	8027
804.488	7978
804.63	8088
804.773	8065
804.915	8084
805.057	8305
805.199	8176
805.341	8256
805.483	8271
805.626	8218
805.768	8161
805.91	8176
806.052	8225
806.194	8130
806.336	8305
806.478	8187
806.62	8126
806.762	8229
806.904	8305
807.046	8438
807.188	8317
807.33	8362
807.472	8400
807.614	8149
807.756	8240
807.898	8081
808.04	7875
808.182	7925
808.324	7875
808.465	7967
808.607	8065
808.749	8103
808.891	8237
809.033	8351
809.174	8279
809.316	8065
809.458	8115
809.6	7997
809.741	8123
809.883	8115
810.025	8164
810.166	8084
810.308	8054
810.45	8077
810.591	7940
810.733	7833
810.875	7776
811.016	7552
811.158	7537
811.299	7578
811.441	7826
811.582	7765
811.724	7616
811.865	7662
812.007	7666
812.148	7704
812.29	7788
812.431	7814
812.573	7936
812.714	8096
812.855	8221
812.997	8343
813.138	8423
813.279	8267
813.421	8157
813.562	8103
813.703	7925
813.845	7811
813.986	7457
814.127	7293
814.268	7327
814.41	7285
814.551	7240
814.692	7324
814.833	7149
814.974	7137
815.115	7225
815.256	7034
815.397	7000
815.539	7000
815.68	6852
815.821	6787
815.962	6863
816.103	6871
816.244	6779
816.385	6677
816.526	6669
816.666	6471
816.807	6448
816.948	6521
817.089	6486
817.23	6570
817.371	6509
817.512	6399
817.653	6448
817.793	6414
817.934	6399
818.075	6551
818.216	6502
818.356	6483
818.497	6323
818.638	6186
818.778	6224
818.919	6163
819.06	6178
819.2	6388
819.341	6391
819.481	6414
819.622	6551
819.762	6776
819.903	6760
820.043	6642
820.184	6604
820.324	6593
820.465	6768
820.605	6696
820.746	6673
820.886	6536
821.026	6764
821.167	6821
821.307	6856
821.447	6764
821.588	6757
821.728	6639
821.868	6532
822.008	6407
822.149	6403
822.289	6467
822.429	6213
822.569	6159
822.709	6110
822.849	5954
822.99	5984
823.13	5958
823.27	5988
823.41	5859
823.55	5813
823.69	5874
823.83	5809
823.97	5760
824.11	5623
824.25	5611
824.389	5680
824.529	5581
824.669	5600
824.809	5688
824.949	5733
825.089	5733
825.228	5573
825.368	5455
825.508	5421
825.648	5436
825.787	5433
825.927	5395
826.067	5334
826.206	5364
826.346	5360
826.485	5455
826.625	5425
826.765	5562
826.904	5490
827.044	5235
827.183	5231
827.323	5193
827.462	5330
827.601	5254
827.741	5201
827.88	5258
828.02	5155
828.159	5235
828.298	5277
828.437	5357
828.577	5292
828.716	5543
828.855	5357
828.994	5216
829.134	5261
829.273	5280
829.412	5189
829.551	5159
829.69	5223
829.829	5326
829.968	5372
830.107	5311
830.246	5315
830.385	5208
830.524	5170
830.663	5067
830.802	5060
830.941	4976
831.08	4877
831.219	5006
831.357	5014
831.496	5208
831.635	4953
831.774	4892
831.913	4877
832.051	4774
832.19	4771
832.329	4824
832.467	4660
832.606	4683
832.744	4702
832.883	4759
833.022	4725
833.16	4858
833.299	4843
833.437	4889
833.576	4854
833.714	4904
833.852	4915
833.991	4919
834.129	4942
834.267	4942
834.406	4972
834.544	4968
834.682	5018
834.821	4999
834.959	5189
835.097	5067
835.235	5170
835.373	5109
835.511	5170
835.65	5045
835.788	5083
835.926	4942
836.064	4938
836.202	4995
836.34	5185
836.478	5231
836.615	5216
836.753	5231
836.891	5277
837.029	5265
837.167	5223
837.305	5197
837.443	5204
837.58	5136
837.718	5265
837.856	5197
837.993	5174
838.131	5330
838.269	5212
838.406	5220
838.544	5201
838.681	5166
838.819	5067
838.956	4892
839.094	4938
839.231	4957
839.369	5124
839.506	5501
839.643	5303
839.781	5105
839.918	5041
840.055	5170
840.193	5128
840.33	5178
840.467	5162
840.604	5292
840.742	5421
840.879	5124
841.016	5140
841.153	5216
841.29	5448
841.427	5349
841.564	5334
841.701	5383
841.838	5311
841.975	5269
842.112	5273
842.249	5124
842.385	5140
842.522	5379
842.659	5166
842.796	5185
842.933	5242
843.069	5220
843.206	5212
843.343	5360
843.479	5235
843.616	5280
843.752	5086
843.889	5033
844.025	5227
844.162	5033
844.298	5201
844.435	5140
844.571	5033
844.708	5197
844.844	5322
844.98	5387
845.117	5307
845.253	5143
845.389	5075
845.525	5136
845.661	5159
845.798	5071
845.934	5155
846.07	5037
846.206	5223
846.342	5299
846.478	5231
846.614	5060
846.75	4999
846.886	5010
847.022	5147
847.158	5052
847.294	5052
847.429	5159
847.565	5056
847.701	5326
847.837	4889
847.972	4820
848.108	5018
848.244	4976
848.379	4801
848.515	4778
848.65	4702
848.786	4790
848.921	4736
849.057	4919
849.192	4919
849.328	4843
849.463	4915
849.598	4839
849.734	4774
849.869	4733
850.004	4645
850.14	4664
850.275	4588
850.41	4565
850.545	4558
850.68	4577
850.815	4645
850.95	4687
851.085	4816
851.22	4767
851.355	4698
851.49	4656
851.625	4596
851.76	4679
851.895	4615
852.03	4573
852.165	4668
852.299	4774
852.434	4816
852.569	4740
852.703	4748
852.838	4892
852.973	4972
853.107	4946
853.242	4759
853.376	4691
853.511	4554
853.645	4637
853.78	4866
853.914	4721
854.048	4736
854.183	4664
854.317	4687
854.451	4904
854.585	4698
854.72	4683
854.854	4816
854.988	4588
855.122	4645
855.256	4538
855.39	4698
855.524	4801
855.658	4755
855.792	4721
855.926	4736
856.06	4828
856.194	4858
856.327	4767
856.461	4660
856.595	4649
856.729	4634
856.862	4763
856.996	4759
857.13	4755
857.263	4797
857.397	4767
857.53	4706
857.664	4736
857.797	4782
857.931	4809
858.064	4763
858.197	4755
858.331	4679
858.464	4645
858.597	4523
858.731	4637
858.864	4664
858.997	4607
859.13	4755
859.263	4714
859.396	4725
859.529	4634
859.662	4577
859.795	4561
859.928	4679
860.061	4816
860.194	4740
860.327	4626
860.46	4622
860.592	4793
860.725	4771
860.858	4748
860.99	4630
861.123	4565
861.256	4592
861.388	4634
861.521	5265
861.653	4512
861.786	4436
861.918	4459
862.05	4535
862.183	4542
862.315	4645
862.447	4664
862.58	4622
862.712	4375
862.844	4375
862.976	4466
863.108	4459
863.24	4866
863.372	4405
863.504	4493
863.636	4455
863.768	4504
863.9	4466
864.032	4367
864.164	4409
864.296	4527
864.428	4558
864.559	4603
864.691	4512
864.823	4546
864.954	4516
865.086	4542
865.217	4550
865.349	4432
865.48	4489
865.612	4573
865.743	4664
865.875	4493
866.006	4459
866.137	4519
866.269	4459
866.4	4417
866.531	4485
866.662	4455
866.793	4470
866.924	4459
867.055	4504
867.186	4462
867.317	4459
867.448	4421
867.579	4432
867.71	4432
867.841	4417
867.972	4455
868.103	4516
868.233	4516
868.364	4474
868.495	4535
868.625	4675
868.756	4790
868.886	4580
869.017	4656
869.147	4831
869.278	4786
869.408	4649
869.539	4641
869.669	4748
869.799	4755
869.929	4793
870.06	4771
870.19	5022
870.32	4938
870.45	4911
870.58	5067
870.71	5102
870.84	5140
870.97	5003
871.1	4870
871.23	5166
871.36	5128
871.489	5079
871.619	5109
871.749	5128
871.879	5113
872.008	5189
872.138	5075
872.267	5064
872.397	4843
872.526	4835
872.656	4729
872.785	4805
872.915	4995
873.044	5075
873.173	4995
873.303	4991
873.432	4965
873.561	4991
873.69	4942
873.819	4904
873.948	4889
874.077	4839
874.206	4786
874.335	4812
874.464	4957
874.593	5060
874.722	4976
874.851	5121
874.979	5041
875.108	5105
875.237	4961
875.365	4885
875.494	4949
875.623	4987
875.751	4847
875.88	4911
876.008	4987
876.136	5071
876.265	5242
876.393	5414
876.521	5273
876.65	5242
876.778	5162
876.906	5071
877.034	5018
877.162	5075
877.29	4980
877.418	5075
877.546	5045
877.674	5121
877.802	4980
877.93	5006
878.058	4976
878.185	4862
878.313	4980
878.441	5003
878.568	4816
878.696	4896
878.824	4938
878.951	5025
879.079	5143
879.206	5326
879.333	5105
879.461	4968
879.588	5060
879.715	5174
879.842	5307
879.97	5037
880.097	4801
880.224	4748
880.351	4797
880.478	4854
880.605	4755
880.732	4847
880.859	5056
880.986	4942
881.112	4938
881.239	4831
881.366	4645
881.493	4622
881.619	4645
881.746	4687
881.872	4679
881.999	4691
882.125	4752
882.252	4847
882.378	4812
882.505	4904
882.631	4839
882.757	4641
882.883	4774
883.01	4763
883.136	4687
883.262	4611
883.388	4679
883.514	4850
883.64	4942
883.766	4782
883.892	4710
884.018	4675
884.143	4946
884.269	4976
884.395	4710
884.52	4656
884.646	4675
884.772	4618
884.897	4626
885.023	4725
885.148	4820
885.274	4850
885.399	4824
885.524	4717
885.65	4729
885.775	4793
885.9	4736
886.025	4881
886.15	4782
886.275	4786
886.4	4641
886.525	4759
886.65	4698
886.775	4702
886.9	4915
887.025	5071
887.149	4801
887.274	4683
887.399	4611
887.523	4637
887.648	4607
887.773	4618
887.897	4752
888.021	4850
888.146	4702
888.27	4873
888.395	4949
888.519	4843
888.643	4908
888.767	4870
888.891	4706
889.015	4618
889.139	4706
889.263	4626
889.387	4763
889.511	4889
889.635	4824
889.759	4653
889.883	4675
890.006	4790
890.13	4862
890.254	4679
890.377	4733
890.501	4554
890.624	4519
890.748	4634
890.871	4519
890.995	4462
891.118	4428
891.241	4561
891.364	4569
891.488	4645
891.611	4527
891.734	4584
891.857	4622
891.98	4558
892.103	4729
892.226	4668
892.349	4546
892.471	4462
892.594	4565
892.717	4607
892.839	4615
892.962	4596
893.085	4702
893.207	4592
893.33	4432
893.452	4527
893.575	4649
893.697	4607
893.819	4771
893.941	4866
894.064	4828
894.186	4611
894.308	4558
894.43	4748
894.552	4854
894.674	4824
894.796	4573
894.918	4603
895.04	4580
895.161	4721
895.283	4626
895.405	4569
895.526	4653
895.648	4714
895.769	4664
895.891	4694
896.012	4782
896.134	4744
896.255	4759
896.376	4653
896.498	4596
896.619	4721
896.74	4649
896.861	4675
896.982	4908
897.103	5075
897.224	4858
897.345	4805
897.466	4702
897.587	4748
897.708	4885
897.828	4805
897.949	4717
898.07	4580
898.19	4683
898.311	4866
898.431	4736
898.552	4774
898.672	4858
898.792	4809
898.913	4786
899.033	4675
899.153	4538
899.273	4432
899.393	4535
899.513	4519
899.633	4535
899.753	4607
899.873	4538
899.993	4603
900.113	4523
900.232	4588
900.352	4550
900.472	4512
900.591	4455
900.711	4519
900.83	4470
900.95	4592
901.069	4736
901.189	4573
901.308	4390
901.427	4314
901.546	4360
901.665	4538
901.784	4519
901.904	4405
902.023	4333
902.141	4192
902.26	4162
902.379	4352
902.498	4291
902.617	4238
902.735	4379
902.854	4390
902.973	4379
903.091	4261
903.21	4272
903.328	4322
903.446	4284
903.565	4284
903.683	4356
903.801	4333
903.919	4474
904.038	4485
904.156	4386
904.274	4436
904.392	4462
904.51	4455
904.627	4500
904.745	4637
904.863	4630
904.981	4466
905.098	4318
905.216	4383
905.334	4386
905.451	4474
905.569	4428
905.686	4531
905.803	4596
905.921	4474
906.038	4535
906.155	4474
906.272	4432
906.389	4500
906.506	4367
906.623	4375
906.74	4409
906.857	4402
906.974	4417
907.091	4588
907.208	4694
907.324	4550
907.441	4516
907.557	4348
907.674	4398
907.79	4379
907.907	4417
908.023	4489
908.139	4546
908.256	4447
908.372	4481
908.488	4481
908.604	4356
908.72	4322
908.836	4451
908.952	4352
909.068	4451
909.184	4558
909.3	4523
909.415	4622
909.531	4573
909.647	4379
909.762	4390
909.878	4356
909.993	4504
910.108	4447
910.224	4470
910.339	4489
910.454	4466
910.57	4405
910.685	4333
910.8	4653
910.915	4656
911.03	4516
911.145	4356
911.259	4386
911.374	4390
911.489	4287
911.604	4306
911.718	4238
911.833	4257
911.947	4082
912.062	4044
912.176	4253
912.291	4272
912.405	4265
912.519	4500
912.633	4558
912.748	4379
912.862	4322
912.976	4234
913.09	4128
913.204	4196
913.318	4295
913.431	4409
913.545	4413
913.659	4512
913.772	4390
913.886	4257
914	4265
914.113	4409
914.226	4451
914.34	4405
914.453	4295
914.566	4443
914.68	4325
914.793	4344
914.906	4211
915.019	4097
915.132	4116
915.245	4207
915.358	4234
915.47	4207
915.583	4291
915.696	4333
915.809	4421
915.921	4462
916.034	4314
916.146	4253
916.259	4230
916.371	4379
916.483	4375
916.595	4268
916.708	4367
916.82	4337
916.932	4367
917.044	4337
917.156	4367
917.268	4234
917.38	4310
917.491	4322
917.603	4367
917.715	4455
917.826	4459
917.938	4383
918.049	4249
918.161	4390
918.272	4580
918.384	4561
918.495	4466
918.606	4314
918.717	4268
918.828	4333
918.939	4375
919.05	4265
919.161	4310
919.272	4185
919.383	4238
919.494	4481
919.604	4660
919.715	4455
919.826	4421
919.936	4474
920.047	4550
920.157	4538
920.267	4717
920.378	4554
920.488	4519
920.598	4725
920.708	4858
920.818	4763
920.928	4778
921.038	4965
921.148	4923
921.258	4622
921.368	4626
921.477	4489
921.587	4443
921.697	4375
921.806	4558
921.916	4455
922.025	4246
922.134	4306
922.244	4249
922.353	4371
922.462	4215
922.571	4162
922.68	4006
922.789	4029
922.898	4048
923.007	4036
923.116	4109
923.224	4116
923.333	4143
923.442	4040
923.55	4002
923.659	4044
923.767	4120
923.876	4032
923.984	4204
924.092	4048
924.201	4086
924.309	4101
924.417	4173
924.525	4036
924.633	4093
924.741	4889
924.849	3922
924.956	4200
925.064	4048
925.172	3953
925.279	3972
925.387	4101
925.494	4097
925.602	4200
925.709	4188
925.816	4059
925.924	4128
926.031	4253
926.138	4219
926.245	4230
926.352	4139
926.459	4257
926.566	4299
926.673	4166
926.779	4131
926.886	4120
926.993	3964
927.099	3983
927.206	3960
927.312	3972
927.419	4051
927.525	4063
927.631	4135
927.737	3968
927.843	3979
927.95	3880
928.056	3983
928.162	4040
928.267	4071
928.373	4630
928.479	4169
928.585	3880
928.69	4029
928.796	4120
928.901	3964
929.007	3884
929.112	4040
929.218	3975
929.323	3991
929.428	3975
929.533	4143
929.638	3945
929.743	3987
929.848	4067
929.953	4063
930.058	3975
930.163	3774
930.267	3850
930.372	4017
930.477	3819
930.581	4105
930.685	3991
930.79	3835
930.894	3892
930.998	3888
931.103	4082
931.207	3701
931.311	3740
931.415	3709
931.519	3576
931.623	3599
