Data from test_V78500241_1550.txt Node
Date: Fri Mar 25 16:59:46 CST 2022
User: usil
Spectrometer: V785-0024
Trigger mode: 0
Integration Time (sec): 4.000000E-1
Scans to average: 1
Nonlinearity correction enabled: false
Boxcar width: 0
Storing dark spectrum: false
XAxis mode: Wavelengths
Number of Pixels in Spectrum: 1024
>>>>>Begin Spectral Data<<<<<
801.071	8035
801.214	7989
801.356	7989
801.499	7951
801.641	7826
801.783	7830
801.926	7944
802.068	8016
802.211	8005
802.353	8050
802.496	7921
802.638	7860
802.78	7932
802.923	7906
803.065	7879
803.208	7887
803.35	8016
803.492	8115
803.635	8149
803.777	8035
803.919	8168
804.061	8488
804.204	8149
804.346	8065
804.488	7887
804.63	8142
804.773	8058
804.915	8065
805.057	8324
805.199	8180
805.341	8191
805.483	8320
805.626	8218
805.768	8183
805.91	8263
806.052	8214
806.194	8134
806.336	8339
806.478	8180
806.62	8020
806.762	8202
806.904	8252
807.046	8450
807.188	8343
807.33	8313
807.472	8339
807.614	8195
807.756	8199
807.898	7993
808.04	7868
808.182	7940
808.324	7932
808.465	7871
808.607	8111
808.749	8100
808.891	8153
809.033	8271
809.174	8248
809.316	8020
809.458	7970
809.6	7982
809.741	7997
809.883	8027
810.025	8058
810.166	8062
810.308	7932
810.45	7959
810.591	7868
810.733	7704
810.875	7666
811.016	7548
811.158	7472
811.299	7613
811.441	7685
811.582	7727
811.724	7601
811.865	7552
812.007	7605
812.148	7624
812.29	7601
812.431	7795
812.573	7856
812.714	7967
812.855	8092
812.997	8168
813.138	8351
813.279	8183
813.421	8225
813.562	8024
813.703	7871
813.845	7662
813.986	7441
814.127	7244
814.268	7179
814.41	7244
814.551	7152
814.692	7270
814.833	7088
814.974	7080
815.115	7088
815.256	6909
815.397	6996
815.539	6989
815.68	6852
815.821	6818
815.962	6844
816.103	6802
816.244	6749
816.385	6662
816.526	6585
816.666	6513
816.807	6334
816.948	6414
817.089	6445
817.23	6426
817.371	6350
817.512	6327
817.653	6372
817.793	6391
817.934	6380
818.075	6429
818.216	6452
818.356	6296
818.497	6251
818.638	6060
818.778	6205
818.919	6136
819.06	6136
819.2	6327
819.341	6338
819.481	6338
819.622	6540
819.762	6703
819.903	6665
820.043	6601
820.184	6563
820.324	6597
820.465	6646
820.605	6734
820.746	6631
820.886	6506
821.026	6696
821.167	6726
821.307	6776
821.447	6715
821.588	6658
821.728	6650
821.868	6479
822.008	6292
822.149	6334
822.289	6376
822.429	6152
822.569	6083
822.709	6102
822.849	5942
822.99	5908
823.13	5935
823.27	5954
823.41	5832
823.55	5847
823.69	5718
823.83	5790
823.97	5695
824.11	5509
824.25	5562
824.389	5570
824.529	5604
824.669	5528
824.809	5653
824.949	5619
825.089	5649
825.228	5520
825.368	5391
825.508	5353
825.648	5334
825.787	5383
825.927	5387
826.067	5292
826.206	5296
826.346	5406
826.485	5322
826.625	5459
826.765	5509
826.904	5497
827.044	5201
827.183	5242
827.323	5166
827.462	5280
827.601	5159
827.741	5204
827.88	5250
828.02	5117
828.159	5242
828.298	5318
828.437	5379
828.577	5273
828.716	5490
828.855	5330
828.994	5147
829.134	5181
829.273	5216
829.412	5140
829.551	5147
829.69	5162
829.829	5235
829.968	5391
830.107	5261
830.246	5277
830.385	5185
830.524	5113
830.663	5090
830.802	4881
830.941	4930
831.08	4831
831.219	4991
831.357	4953
831.496	5166
831.635	4927
831.774	4850
831.913	4812
832.051	4797
832.19	4714
832.329	4820
832.467	4717
832.606	4634
832.744	4694
832.883	4736
833.022	4672
833.16	4801
833.299	4755
833.437	4801
833.576	4809
833.714	4805
833.852	4889
833.991	4873
834.129	4927
834.267	4934
834.406	4885
834.544	4968
834.682	4995
834.821	4934
834.959	5143
835.097	4965
835.235	5143
835.373	5064
835.511	5094
835.65	5041
835.788	4999
835.926	4942
836.064	4896
836.202	4908
836.34	5140
836.478	5216
836.615	5090
836.753	5204
836.891	5280
837.029	5212
837.167	5170
837.305	5185
837.443	5140
837.58	5098
837.718	5277
837.856	5189
837.993	5155
838.131	5284
838.269	5193
838.406	5239
838.544	5223
838.681	5025
838.819	5003
838.956	4870
839.094	4889
839.231	4961
839.369	5056
839.506	5349
839.643	5296
839.781	5064
839.918	5033
840.055	5117
840.193	5098
840.33	5098
840.467	5155
840.604	5132
840.742	5395
840.879	5086
841.016	5121
841.153	5166
841.29	5383
841.427	5322
841.564	5334
841.701	5315
841.838	5284
841.975	5208
842.112	5269
842.249	5132
842.385	5086
842.522	5277
842.659	5185
842.796	5124
842.933	5212
843.069	5113
843.206	5124
843.343	5288
843.479	5231
843.616	5250
843.752	5056
843.889	4972
844.025	5216
844.162	5025
844.298	5242
844.435	5045
844.571	5045
844.708	5216
844.844	5292
844.98	5341
845.117	5299
845.253	5105
845.389	5064
845.525	5197
845.661	5162
845.798	5067
845.934	5117
846.07	5056
846.206	5193
846.342	5258
846.478	5155
846.614	4991
846.75	4968
846.886	4908
847.022	5105
847.158	5006
847.294	5041
847.429	5121
847.565	5083
847.701	5334
847.837	4873
847.972	4820
848.108	4938
848.244	4938
848.379	4790
848.515	4740
848.65	4694
848.786	4755
848.921	4805
849.057	4820
849.192	4881
849.328	4824
849.463	4824
849.598	4828
849.734	4752
849.869	4717
850.004	4645
850.14	4630
850.275	4656
850.41	4516
850.545	4546
850.68	4592
850.815	4656
850.95	4653
851.085	4805
851.22	4759
851.355	4672
851.49	4634
851.625	4660
851.76	4656
851.895	4569
852.03	4523
852.165	4637
852.299	4668
852.434	4809
852.569	4744
852.703	4748
852.838	4835
852.973	4911
853.107	4915
853.242	4729
853.376	4706
853.511	4561
853.645	4592
853.78	4809
853.914	4710
854.048	4649
854.183	4649
854.317	4702
854.451	4877
854.585	4615
854.72	4641
854.854	4725
854.988	4577
855.122	4592
855.256	4523
855.39	4660
855.524	4782
855.658	4748
855.792	4721
855.926	4721
856.06	4748
856.194	4820
856.327	4641
856.461	4584
856.595	4618
856.729	4630
856.862	4816
856.996	4679
857.13	4656
857.263	4740
857.397	4797
857.53	4630
857.664	4752
857.797	4717
857.931	4755
858.064	4641
858.197	4786
858.331	4622
858.464	4698
858.597	4508
858.731	4584
858.864	4668
858.997	4592
859.13	4668
859.263	4641
859.396	4717
859.529	4588
859.662	4561
859.795	4516
859.928	4596
860.061	4759
860.194	4755
860.327	4630
860.46	4542
860.592	4714
860.725	4675
860.858	4706
860.99	4531
861.123	4542
861.256	4546
861.388	4611
861.521	5201
861.653	4459
861.786	4474
861.918	4470
862.05	4462
862.183	4508
862.315	4569
862.447	4649
862.58	4554
862.712	4383
862.844	4280
862.976	4474
863.108	4443
863.24	4774
863.372	4348
863.504	4443
863.636	4405
863.768	4466
863.9	4421
864.032	4394
864.164	4413
864.296	4447
864.428	4565
864.559	4542
864.691	4546
864.823	4580
864.954	4500
865.086	4489
865.217	4409
865.349	4459
865.48	4466
865.612	4474
865.743	4615
865.875	4500
866.006	4421
866.137	4470
866.269	4455
866.4	4428
866.531	4379
866.662	4390
866.793	4390
866.924	4413
867.055	4519
867.186	4478
867.317	4432
867.448	4363
867.579	4352
867.71	4375
867.841	4329
867.972	4489
868.103	4466
868.233	4459
868.364	4462
868.495	4481
868.625	4645
868.756	4702
868.886	4561
869.017	4607
869.147	4759
869.278	4748
869.408	4683
869.539	4630
869.669	4733
869.799	4660
869.929	4767
870.06	4687
870.19	4991
870.32	4923
870.45	4889
870.58	5014
870.71	5064
870.84	5079
870.97	4938
871.1	4934
871.23	5151
871.36	5143
871.489	5029
871.619	5067
871.749	5052
871.879	5105
872.008	5185
872.138	5033
872.267	4972
872.397	4873
872.526	4793
872.656	4767
872.785	4831
872.915	4972
873.044	4995
873.173	4923
873.303	4942
873.432	4949
873.561	4961
873.69	4854
873.819	4850
873.948	4873
874.077	4831
874.206	4782
874.335	4767
874.464	4938
874.593	5048
874.722	4923
874.851	5045
874.979	5071
875.108	5025
875.237	4949
875.365	4847
875.494	4854
875.623	5006
875.751	4809
875.88	4847
876.008	4976
876.136	5025
876.265	5166
876.393	5334
876.521	5212
876.65	5223
876.778	5155
876.906	5037
877.034	5018
877.162	5029
877.29	4999
877.418	5060
877.546	5071
877.674	5006
877.802	5048
877.93	5048
878.058	4942
878.185	4854
878.313	4946
878.441	4946
878.568	4755
878.696	4866
878.824	4976
878.951	4972
879.079	5098
879.206	5273
879.333	5048
879.461	4957
879.588	4953
879.715	5105
879.842	5178
879.97	5033
880.097	4778
880.224	4763
880.351	4793
880.478	4858
880.605	4797
880.732	4778
880.859	5098
880.986	4892
881.112	4892
881.239	4793
881.366	4618
881.493	4637
881.619	4580
881.746	4698
881.872	4664
881.999	4641
882.125	4660
882.252	4767
882.378	4812
882.505	4965
882.631	4797
882.757	4656
882.883	4778
883.01	4733
883.136	4710
883.262	4596
883.388	4550
883.514	4847
883.64	4850
883.766	4797
883.892	4645
884.018	4714
884.143	4835
884.269	4961
884.395	4653
884.52	4607
884.646	4679
884.772	4561
884.897	4565
885.023	4622
885.148	4736
885.274	4839
885.399	4782
885.524	4683
885.65	4714
885.775	4714
885.9	4675
886.025	4831
886.15	4786
886.275	4710
886.4	4687
886.525	4740
886.65	4660
886.775	4675
886.9	4881
887.025	4999
887.149	4790
887.274	4645
887.399	4584
887.523	4592
887.648	4618
887.773	4626
887.897	4801
888.021	4778
888.146	4672
888.27	4805
888.395	4885
888.519	4820
888.643	4843
888.767	4793
888.891	4675
889.015	4596
889.139	4607
889.263	4615
889.387	4782
889.511	4850
889.635	4809
889.759	4626
889.883	4660
890.006	4740
890.13	4847
890.254	4607
890.377	4694
890.501	4500
890.624	4481
890.748	4660
890.871	4497
890.995	4428
891.118	4352
891.241	4478
891.364	4516
891.488	4660
891.611	4481
891.734	4523
891.857	4599
891.98	4569
892.103	4664
892.226	4607
892.349	4523
892.471	4421
892.594	4546
892.717	4584
892.839	4569
892.962	4554
893.085	4641
893.207	4592
893.33	4470
893.452	4527
893.575	4656
893.697	4645
893.819	4782
893.941	4797
894.064	4744
894.186	4542
894.308	4561
894.43	4729
894.552	4816
894.674	4710
894.796	4554
894.918	4599
895.04	4512
895.161	4660
895.283	4672
895.405	4558
895.526	4611
895.648	4710
895.769	4714
895.891	4706
896.012	4736
896.134	4706
896.255	4641
896.376	4672
896.498	4550
896.619	4675
896.74	4645
896.861	4675
896.982	4896
897.103	5083
897.224	4801
897.345	4748
897.466	4660
897.587	4721
897.708	4908
897.828	4782
897.949	4672
898.07	4599
898.19	4626
898.311	4828
898.431	4603
898.552	4702
898.672	4778
898.792	4805
898.913	4778
899.033	4611
899.153	4443
899.273	4436
899.393	4516
899.513	4535
899.633	4527
899.753	4542
899.873	4535
899.993	4603
900.113	4516
900.232	4573
900.352	4554
900.472	4489
900.591	4383
900.711	4451
900.83	4409
900.95	4599
901.069	4626
901.189	4531
901.308	4341
901.427	4337
901.546	4379
901.665	4455
901.784	4523
901.904	4383
902.023	4310
902.141	4135
902.26	4185
902.379	4295
902.498	4257
902.617	4211
902.735	4383
902.854	4390
902.973	4356
903.091	4192
903.21	4265
903.328	4295
903.446	4261
903.565	4223
903.683	4352
903.801	4238
903.919	4455
904.038	4363
904.156	4337
904.274	4440
904.392	4409
904.51	4466
904.627	4493
904.745	4584
904.863	4637
904.981	4367
905.098	4306
905.216	4379
905.334	4394
905.451	4455
905.569	4413
905.686	4519
905.803	4527
905.921	4386
906.038	4592
906.155	4481
906.272	4394
906.389	4474
906.506	4329
906.623	4371
906.74	4413
906.857	4303
906.974	4348
907.091	4554
907.208	4683
907.324	4565
907.441	4462
907.557	4318
907.674	4318
907.79	4348
907.907	4402
908.023	4504
908.139	4462
908.256	4405
908.372	4485
908.488	4428
908.604	4348
908.72	4341
908.836	4402
908.952	4379
909.068	4497
909.184	4558
909.3	4474
909.415	4618
909.531	4497
909.647	4344
909.762	4383
909.878	4333
909.993	4428
910.108	4383
910.224	4386
910.339	4523
910.454	4402
910.57	4360
910.685	4291
910.8	4637
910.915	4592
911.03	4500
911.145	4318
911.259	4318
911.374	4371
911.489	4303
911.604	4242
911.718	4181
911.833	4181
911.947	4059
912.062	3994
912.176	4169
912.291	4253
912.405	4227
912.519	4440
912.633	4497
912.748	4352
912.862	4276
912.976	4196
913.09	4074
913.204	4192
913.318	4265
913.431	4390
913.545	4383
913.659	4413
913.772	4371
913.886	4219
914	4192
914.113	4371
914.226	4386
914.34	4379
914.453	4204
914.566	4421
914.68	4299
914.793	4352
914.906	4131
915.019	4154
915.132	4025
915.245	4162
915.358	4242
915.47	4211
915.583	4272
915.696	4295
915.809	4436
915.921	4421
916.034	4215
916.146	4291
916.259	4227
916.371	4344
916.483	4360
916.595	4246
916.708	4306
916.82	4287
916.932	4303
917.044	4306
917.156	4314
917.268	4223
917.38	4249
917.491	4261
917.603	4333
917.715	4443
917.826	4424
917.938	4371
918.049	4242
918.161	4405
918.272	4542
918.384	4535
918.495	4459
918.606	4333
918.717	4253
918.828	4409
918.939	4333
919.05	4211
919.161	4329
919.272	4131
919.383	4223
919.494	4443
919.604	4656
919.715	4421
919.826	4360
919.936	4379
920.047	4512
920.157	4466
920.267	4675
920.378	4573
920.488	4516
920.598	4683
920.708	4866
920.818	4767
920.928	4748
921.038	4987
921.148	4889
921.258	4672
921.368	4542
921.477	4504
921.587	4405
921.697	4325
921.806	4565
921.916	4398
922.025	4265
922.134	4215
922.244	4234
922.353	4325
922.462	4166
922.571	4139
922.68	4010
922.789	3968
922.898	4013
923.007	3956
923.116	4093
923.224	4074
923.333	4090
923.442	3945
923.55	3987
923.659	3972
923.767	4112
923.876	3972
923.984	4128
924.092	4013
924.201	4086
924.309	4067
924.417	4112
924.525	4063
924.633	4082
924.741	4881
924.849	3899
924.956	4086
925.064	3934
925.172	3926
925.279	3979
925.387	4090
925.494	4048
925.602	4185
925.709	4173
925.816	4086
925.924	4120
926.031	4204
926.138	4150
926.245	4211
926.352	4135
926.459	4268
926.566	4303
926.673	4143
926.779	4090
926.886	4071
926.993	3972
927.099	3968
927.206	3983
927.312	3949
927.419	4082
927.525	4029
927.631	4097
927.737	3994
927.843	3903
927.95	3838
928.056	3907
928.162	3953
928.267	4055
928.373	4649
928.479	4139
928.585	3861
928.69	4010
928.796	4109
928.901	3972
929.007	3850
929.112	3964
929.218	4040
929.323	3926
929.428	3934
929.533	4101
929.638	3918
929.743	3956
929.848	4051
929.953	4013
930.058	3979
930.163	3812
930.267	3797
930.372	3956
930.477	3800
930.581	4055
930.685	3949
930.79	3823
930.894	3884
930.998	3876
931.103	4032
931.207	3720
931.311	3713
931.415	3660
931.519	3500
931.623	3530
