Data from test_V78500241_2764.txt Node
Date: Fri Mar 25 17:08:13 CST 2022
User: usil
Spectrometer: V785-0024
Trigger mode: 0
Integration Time (sec): 4.000000E-1
Scans to average: 1
Nonlinearity correction enabled: false
Boxcar width: 0
Storing dark spectrum: false
XAxis mode: Wavelengths
Number of Pixels in Spectrum: 1024
>>>>>Begin Spectral Data<<<<<
801.071	8043
801.214	8005
801.356	7887
801.499	7917
801.641	7845
801.783	7864
801.926	8024
802.068	7909
802.211	8035
802.353	7986
802.496	7940
802.638	7909
802.78	7951
802.923	7947
803.065	7902
803.208	7913
803.35	7997
803.492	8134
803.635	8115
803.777	7986
803.919	8210
804.061	8446
804.204	8183
804.346	8088
804.488	7982
804.63	8096
804.773	8005
804.915	8168
805.057	8286
805.199	8176
805.341	8172
805.483	8370
805.626	8233
805.768	8195
805.91	8199
806.052	8240
806.194	8221
806.336	8320
806.478	8168
806.62	8046
806.762	8054
806.904	8180
807.046	8461
807.188	8457
807.33	8358
807.472	8324
807.614	8256
807.756	8195
807.898	8027
808.04	7913
808.182	7856
808.324	7944
808.465	7936
808.607	8111
808.749	8183
808.891	8328
809.033	8298
809.174	8229
809.316	8134
809.458	8103
809.6	7997
809.741	8035
809.883	7955
810.025	8191
810.166	8103
810.308	8081
810.45	8031
810.591	7902
810.733	7738
810.875	7685
811.016	7559
811.158	7441
811.299	7620
811.441	7765
811.582	7677
811.724	7605
811.865	7594
812.007	7563
812.148	7620
812.29	7677
812.431	7772
812.573	7959
812.714	8005
812.855	8157
812.997	8187
813.138	8396
813.279	8225
813.421	8164
813.562	8024
813.703	7932
813.845	7784
813.986	7460
814.127	7282
814.268	7289
814.41	7232
814.551	7141
814.692	7145
814.833	7076
814.974	7084
815.115	7118
815.256	6928
815.397	6920
815.539	6935
815.68	6871
815.821	6806
815.962	6852
816.103	6871
816.244	6665
816.385	6677
816.526	6627
816.666	6483
816.807	6304
816.948	6407
817.089	6429
817.23	6475
817.371	6410
817.512	6380
817.653	6407
817.793	6342
817.934	6418
818.075	6525
818.216	6441
818.356	6456
818.497	6254
818.638	6167
818.778	6175
818.919	6155
819.06	6186
819.2	6300
819.341	6372
819.481	6350
819.622	6547
819.762	6795
819.903	6681
820.043	6597
820.184	6597
820.324	6631
820.465	6658
820.605	6616
820.746	6658
820.886	6509
821.026	6715
821.167	6696
821.307	6840
821.447	6707
821.588	6646
821.728	6574
821.868	6540
822.008	6327
822.149	6353
822.289	6327
822.429	6117
822.569	6068
822.709	6117
822.849	5958
822.99	5939
823.13	5961
823.27	5977
823.41	5752
823.55	5771
823.69	5775
823.83	5821
823.97	5680
824.11	5558
824.25	5558
824.389	5551
824.529	5611
824.669	5497
824.809	5657
824.949	5661
825.089	5630
825.228	5547
825.368	5455
825.508	5345
825.648	5341
825.787	5372
825.927	5376
826.067	5303
826.206	5269
826.346	5387
826.485	5372
826.625	5471
826.765	5547
826.904	5543
827.044	5250
827.183	5197
827.323	5113
827.462	5277
827.601	5174
827.741	5201
827.88	5242
828.02	5132
828.159	5269
828.298	5326
828.437	5360
828.577	5299
828.716	5539
828.855	5334
828.994	5151
829.134	5102
829.273	5227
829.412	5132
829.551	5121
829.69	5170
829.829	5246
829.968	5345
830.107	5277
830.246	5292
830.385	5208
830.524	5136
830.663	5071
830.802	5003
830.941	4885
831.08	4892
831.219	5041
831.357	4984
831.496	5151
831.635	4896
831.774	4862
831.913	4866
832.051	4763
832.19	4793
832.329	4820
832.467	4660
832.606	4630
832.744	4694
832.883	4725
833.022	4733
833.16	4812
833.299	4839
833.437	4847
833.576	4870
833.714	4915
833.852	4927
833.991	4911
834.129	4965
834.267	4911
834.406	4889
834.544	4980
834.682	4984
834.821	4995
834.959	5162
835.097	4991
835.235	5132
835.373	5075
835.511	5094
835.65	5006
835.788	5048
835.926	4866
836.064	4858
836.202	4923
836.34	5159
836.478	5258
836.615	5109
836.753	5223
836.891	5307
837.029	5208
837.167	5178
837.305	5204
837.443	5128
837.58	5052
837.718	5288
837.856	5185
837.993	5128
838.131	5239
838.269	5242
838.406	5269
838.544	5181
838.681	5048
838.819	4980
838.956	4873
839.094	4930
839.231	4946
839.369	5109
839.506	5421
839.643	5307
839.781	5006
839.918	5067
840.055	5083
840.193	5105
840.33	5143
840.467	5102
840.604	5197
840.742	5474
840.879	5083
841.016	5124
841.153	5136
841.29	5425
841.427	5292
841.564	5315
841.701	5311
841.838	5246
841.975	5250
842.112	5277
842.249	5136
842.385	5098
842.522	5341
842.659	5166
842.796	5197
842.933	5208
843.069	5140
843.206	5166
843.343	5326
843.479	5261
843.616	5261
843.752	5025
843.889	4987
844.025	5185
844.162	5025
844.298	5189
844.435	5079
844.571	5060
844.708	5231
844.844	5296
844.98	5368
845.117	5299
845.253	5174
845.389	5090
845.525	5140
845.661	5151
845.798	5025
845.934	5136
846.07	5014
846.206	5193
846.342	5326
846.478	5185
846.614	5041
846.75	4987
846.886	4999
847.022	5140
847.158	5075
847.294	5094
847.429	5128
847.565	5071
847.701	5357
847.837	4873
847.972	4828
848.108	4999
848.244	4991
848.379	4820
848.515	4702
848.65	4736
848.786	4752
848.921	4774
849.057	4873
849.192	4873
849.328	4824
849.463	4885
849.598	4748
849.734	4774
849.869	4683
850.004	4691
850.14	4672
850.275	4599
850.41	4504
850.545	4554
850.68	4565
850.815	4603
850.95	4656
851.085	4824
851.22	4782
851.355	4664
851.49	4634
851.625	4615
851.76	4694
851.895	4546
852.03	4531
852.165	4637
852.299	4744
852.434	4759
852.569	4721
852.703	4778
852.838	4850
852.973	4927
853.107	4957
853.242	4725
853.376	4694
853.511	4542
853.645	4580
853.78	4839
853.914	4687
854.048	4645
854.183	4645
854.317	4683
854.451	4858
854.585	4653
854.72	4634
854.854	4717
854.988	4637
855.122	4615
855.256	4504
855.39	4675
855.524	4805
855.658	4714
855.792	4702
855.926	4725
856.06	4759
856.194	4812
856.327	4691
856.461	4626
856.595	4611
856.729	4603
856.862	4725
856.996	4691
857.13	4721
857.263	4729
857.397	4771
857.53	4679
857.664	4782
857.797	4790
857.931	4786
858.064	4634
858.197	4736
858.331	4649
858.464	4637
858.597	4535
858.731	4630
858.864	4672
858.997	4561
859.13	4660
859.263	4653
859.396	4679
859.529	4656
859.662	4550
859.795	4550
859.928	4615
860.061	4812
860.194	4786
860.327	4573
860.46	4592
860.592	4702
860.725	4721
860.858	4694
860.99	4519
861.123	4542
861.256	4527
861.388	4615
861.521	5307
861.653	4428
861.786	4432
861.918	4451
862.05	4497
862.183	4577
862.315	4641
862.447	4706
862.58	4588
862.712	4386
862.844	4318
862.976	4440
863.108	4474
863.24	4752
863.372	4314
863.504	4371
863.636	4447
863.768	4481
863.9	4489
864.032	4379
864.164	4436
864.296	4504
864.428	4561
864.559	4535
864.691	4500
864.823	4531
864.954	4535
865.086	4550
865.217	4489
865.349	4428
865.48	4474
865.612	4474
865.743	4653
865.875	4474
866.006	4424
866.137	4512
866.269	4474
866.4	4455
866.531	4447
866.662	4443
866.793	4424
866.924	4459
867.055	4447
867.186	4470
867.317	4405
867.448	4363
867.579	4398
867.71	4360
867.841	4348
867.972	4531
868.103	4485
868.233	4443
868.364	4451
868.495	4470
868.625	4698
868.756	4729
868.886	4569
869.017	4626
869.147	4733
869.278	4816
869.408	4653
869.539	4656
869.669	4717
869.799	4656
869.929	4771
870.06	4790
870.19	4915
870.32	4942
870.45	4987
870.58	4995
870.71	5037
870.84	5064
870.97	4934
871.1	4889
871.23	5102
871.36	5136
871.489	5003
871.619	5071
871.749	5071
871.879	5109
872.008	5189
872.138	5067
872.267	4995
872.397	4835
872.526	4805
872.656	4740
872.785	4809
872.915	4968
873.044	5006
873.173	4915
873.303	4968
873.432	4904
873.561	4953
873.69	4927
873.819	4885
873.948	4892
874.077	4858
874.206	4771
874.335	4843
874.464	4885
874.593	5003
874.722	4942
874.851	5086
874.979	5079
875.108	5037
875.237	4938
875.365	4881
875.494	4885
875.623	4949
875.751	4828
875.88	4873
876.008	4965
876.136	4995
876.265	5261
876.393	5326
876.521	5231
876.65	5250
876.778	5151
876.906	5056
877.034	5037
877.162	5071
877.29	4984
877.418	5014
877.546	5056
877.674	5052
877.802	5018
877.93	4968
878.058	4953
878.185	4858
878.313	4934
878.441	4987
878.568	4793
878.696	4835
878.824	4930
878.951	5003
879.079	5189
879.206	5292
879.333	5086
879.461	4961
879.588	4987
879.715	5166
879.842	5235
879.97	5033
880.097	4740
880.224	4767
880.351	4809
880.478	4782
880.605	4786
880.732	4790
880.859	5113
880.986	4908
881.112	4911
881.239	4763
881.366	4668
881.493	4603
881.619	4599
881.746	4656
881.872	4615
881.999	4599
882.125	4698
882.252	4774
882.378	4843
882.505	4961
882.631	4816
882.757	4675
882.883	4702
883.01	4744
883.136	4691
883.262	4618
883.388	4637
883.514	4828
883.64	4923
883.766	4805
883.892	4702
884.018	4717
884.143	4824
884.269	4965
884.395	4725
884.52	4577
884.646	4580
884.772	4558
884.897	4527
885.023	4660
885.148	4759
885.274	4835
885.399	4778
885.524	4710
885.65	4683
885.775	4752
885.9	4660
886.025	4843
886.15	4771
886.275	4706
886.4	4694
886.525	4774
886.65	4702
886.775	4702
886.9	4923
887.025	4991
887.149	4812
887.274	4672
887.399	4569
887.523	4588
887.648	4615
887.773	4672
887.897	4786
888.021	4839
888.146	4637
888.27	4797
888.395	4900
888.519	4790
888.643	4797
888.767	4843
888.891	4679
889.015	4603
889.139	4672
889.263	4637
889.387	4759
889.511	4858
889.635	4759
889.759	4634
889.883	4634
890.006	4744
890.13	4816
890.254	4569
890.377	4691
890.501	4516
890.624	4554
890.748	4637
890.871	4527
890.995	4432
891.118	4409
891.241	4500
891.364	4508
891.488	4679
891.611	4493
891.734	4565
891.857	4554
891.98	4512
892.103	4630
892.226	4573
892.349	4538
892.471	4424
892.594	4599
892.717	4630
892.839	4592
892.962	4607
893.085	4634
893.207	4596
893.33	4398
893.452	4500
893.575	4656
893.697	4599
893.819	4790
893.941	4847
894.064	4786
894.186	4538
894.308	4622
894.43	4702
894.552	4862
894.674	4774
894.796	4596
894.918	4603
895.04	4569
895.161	4702
895.283	4679
895.405	4611
895.526	4637
895.648	4691
895.769	4645
895.891	4683
896.012	4736
896.134	4725
896.255	4668
896.376	4596
896.498	4618
896.619	4729
896.74	4592
896.861	4645
896.982	4938
897.103	5071
897.224	4812
897.345	4721
897.466	4630
897.587	4733
897.708	4919
897.828	4771
897.949	4641
898.07	4573
898.19	4626
898.311	4835
898.431	4645
898.552	4759
898.672	4771
898.792	4816
898.913	4702
899.033	4622
899.153	4493
899.273	4432
899.393	4470
899.513	4516
899.633	4485
899.753	4554
899.873	4485
899.993	4577
900.113	4580
900.232	4577
900.352	4527
900.472	4493
900.591	4360
900.711	4497
900.83	4462
900.95	4592
901.069	4687
901.189	4573
901.308	4417
901.427	4325
901.546	4352
901.665	4470
901.784	4561
901.904	4421
902.023	4314
902.141	4257
902.26	4158
902.379	4314
902.498	4230
902.617	4249
902.735	4329
902.854	4398
902.973	4356
903.091	4154
903.21	4215
903.328	4310
903.446	4287
903.565	4291
903.683	4322
903.801	4314
903.919	4390
904.038	4394
904.156	4276
904.274	4390
904.392	4363
904.51	4451
904.627	4443
904.745	4615
904.863	4599
904.981	4379
905.098	4284
905.216	4367
905.334	4421
905.451	4440
905.569	4417
905.686	4561
905.803	4645
905.921	4383
906.038	4618
906.155	4474
906.272	4417
906.389	4478
906.506	4371
906.623	4341
906.74	4421
906.857	4310
906.974	4379
907.091	4573
907.208	4687
907.324	4500
907.441	4497
907.557	4398
907.674	4325
907.79	4371
907.907	4417
908.023	4447
908.139	4519
908.256	4424
908.372	4493
908.488	4409
908.604	4337
908.72	4341
908.836	4367
908.952	4325
909.068	4398
909.184	4580
909.3	4493
909.415	4615
909.531	4535
909.647	4348
909.762	4344
909.878	4341
909.993	4413
910.108	4367
910.224	4432
910.339	4489
910.454	4409
910.57	4386
910.685	4295
910.8	4622
910.915	4596
911.03	4470
911.145	4310
911.259	4310
911.374	4344
911.489	4348
911.604	4284
911.718	4207
911.833	4143
911.947	4131
912.062	4021
912.176	4230
912.291	4238
912.405	4246
912.519	4470
912.633	4500
912.748	4329
912.862	4299
912.976	4196
913.09	4044
913.204	4196
913.318	4246
913.431	4390
913.545	4363
913.659	4428
913.772	4371
913.886	4227
914	4181
914.113	4356
914.226	4440
914.34	4402
914.453	4230
914.566	4451
914.68	4261
914.793	4287
914.906	4143
915.019	4128
915.132	4082
915.245	4204
915.358	4200
915.47	4234
915.583	4276
915.696	4291
915.809	4375
915.921	4478
916.034	4246
916.146	4207
916.259	4276
916.371	4447
916.483	4356
916.595	4265
916.708	4280
916.82	4337
916.932	4310
917.044	4318
917.156	4333
917.268	4207
917.38	4249
917.491	4299
917.603	4363
917.715	4417
917.826	4402
917.938	4360
918.049	4238
918.161	4424
918.272	4508
918.384	4508
918.495	4474
918.606	4257
918.717	4223
918.828	4299
918.939	4363
919.05	4268
919.161	4363
919.272	4150
919.383	4249
919.494	4500
919.604	4637
919.715	4432
919.826	4375
919.936	4363
920.047	4546
920.157	4462
920.267	4672
920.378	4531
920.488	4519
920.598	4736
920.708	4892
920.818	4725
920.928	4812
921.038	4873
921.148	4953
921.258	4630
921.368	4561
921.477	4535
921.587	4436
921.697	4371
921.806	4542
921.916	4428
922.025	4227
922.134	4261
922.244	4227
922.353	4314
922.462	4158
922.571	4158
922.68	4006
922.789	3934
922.898	4051
923.007	4006
923.116	4105
923.224	4074
923.333	4097
923.442	4006
923.55	3991
923.659	3987
923.767	4109
923.876	4017
923.984	4128
924.092	4002
924.201	4032
924.309	4074
924.417	4105
924.525	4074
924.633	4128
924.741	5067
924.849	3907
924.956	4109
925.064	3956
925.172	3922
925.279	3983
925.387	4025
925.494	4071
925.602	4169
925.709	4185
925.816	4002
925.924	4135
926.031	4223
926.138	4139
926.245	4207
926.352	4124
926.459	4268
926.566	4291
926.673	4143
926.779	4074
926.886	4044
926.993	3972
927.099	3968
927.206	3960
927.312	3941
927.419	4078
927.525	4010
927.631	4082
927.737	3922
927.843	3953
927.95	3827
928.056	3930
928.162	3983
928.267	4071
928.373	4733
928.479	4078
928.585	3892
928.69	4013
928.796	4048
928.901	3987
929.007	3846
929.112	3953
929.218	3937
929.323	3899
929.428	3945
929.533	4131
929.638	3918
929.743	3941
929.848	4029
929.953	3991
930.058	3934
930.163	3755
930.267	3857
930.372	3960
930.477	3816
930.581	4071
930.685	3983
930.79	3854
930.894	3899
930.998	3869
931.103	4044
931.207	3682
931.311	3686
931.415	3663
931.519	3485
931.623	3519
