Data from test_V78500241_2484.txt Node
Date: Fri Mar 25 17:06:16 CST 2022
User: usil
Spectrometer: V785-0024
Trigger mode: 0
Integration Time (sec): 4.000000E-1
Scans to average: 1
Nonlinearity correction enabled: false
Boxcar width: 0
Storing dark spectrum: false
XAxis mode: Wavelengths
Number of Pixels in Spectrum: 1024
>>>>>Begin Spectral Data<<<<<
801.071	7967
801.214	8001
801.356	7902
801.499	7845
801.641	7795
801.783	7750
801.926	7906
802.068	7890
802.211	7959
802.353	7936
802.496	7772
802.638	7811
802.78	7902
802.923	7906
803.065	7807
803.208	7921
803.35	7940
803.492	8088
803.635	8183
803.777	7947
803.919	8164
804.061	8358
804.204	8149
804.346	8039
804.488	8016
804.63	8027
804.773	8050
804.915	8123
805.057	8320
805.199	8115
805.341	8176
805.483	8248
805.626	8195
805.768	8119
805.91	8168
806.052	8176
806.194	8164
806.336	8244
806.478	8069
806.62	8065
806.762	8107
806.904	8301
807.046	8423
807.188	8355
807.33	8259
807.472	8202
807.614	8088
807.756	8126
807.898	7951
808.04	7818
808.182	7879
808.324	7864
808.465	7864
808.607	8073
808.749	8069
808.891	8187
809.033	8263
809.174	8195
809.316	8111
809.458	7986
809.6	8020
809.741	8039
809.883	7970
810.025	8058
810.166	8073
810.308	8020
810.45	8035
810.591	7879
810.733	7696
810.875	7628
811.016	7457
811.158	7468
811.299	7556
811.441	7757
811.582	7685
811.724	7582
811.865	7594
812.007	7620
812.148	7552
812.29	7643
812.431	7750
812.573	7811
812.714	7947
812.855	8142
812.997	8157
813.138	8271
813.279	8107
813.421	8088
813.562	7864
813.703	7833
813.845	7742
813.986	7411
814.127	7293
814.268	7259
814.41	7274
814.551	7141
814.692	7198
814.833	7126
814.974	7095
815.115	7141
815.256	6947
815.397	6993
815.539	7000
815.68	6833
815.821	6837
815.962	6897
816.103	6795
816.244	6749
816.385	6612
816.526	6582
816.666	6528
816.807	6285
816.948	6388
817.089	6467
817.23	6433
817.371	6372
817.512	6369
817.653	6403
817.793	6315
817.934	6399
818.075	6509
818.216	6445
818.356	6384
818.497	6251
818.638	6117
818.778	6163
818.919	6076
819.06	6159
819.2	6376
819.341	6273
819.481	6308
819.622	6566
819.762	6734
819.903	6726
820.043	6597
820.184	6612
820.324	6631
820.465	6711
820.605	6593
820.746	6684
820.886	6509
821.026	6677
821.167	6684
821.307	6852
821.447	6753
821.588	6681
821.728	6593
821.868	6448
822.008	6346
822.149	6353
822.289	6357
822.429	6213
822.569	6110
822.709	6117
822.849	5942
822.99	5969
823.13	5954
823.27	5961
823.41	5844
823.55	5775
823.69	5764
823.83	5771
823.97	5676
824.11	5558
824.25	5543
824.389	5543
824.529	5600
824.669	5543
824.809	5600
824.949	5642
825.089	5619
825.228	5558
825.368	5391
825.508	5376
825.648	5337
825.787	5391
825.927	5398
826.067	5273
826.206	5284
826.346	5406
826.485	5379
826.625	5353
826.765	5516
826.904	5471
827.044	5280
827.183	5147
827.323	5143
827.462	5250
827.601	5178
827.741	5174
827.88	5235
828.02	5098
828.159	5220
828.298	5273
828.437	5383
828.577	5265
828.716	5467
828.855	5326
828.994	5212
829.134	5086
829.273	5151
829.412	5128
829.551	5124
829.69	5140
829.829	5235
829.968	5364
830.107	5216
830.246	5235
830.385	5151
830.524	5113
830.663	5048
830.802	5033
830.941	4839
831.08	4820
831.219	4972
831.357	4949
831.496	5140
831.635	4900
831.774	4790
831.913	4862
832.051	4717
832.19	4759
832.329	4801
832.467	4649
832.606	4656
832.744	4733
832.883	4721
833.022	4717
833.16	4824
833.299	4843
833.437	4850
833.576	4828
833.714	4835
833.852	4835
833.991	4862
834.129	4934
834.267	4961
834.406	4904
834.544	4946
834.682	4942
834.821	4972
834.959	5170
835.097	4965
835.235	5204
835.373	5056
835.511	5140
835.65	5060
835.788	5094
835.926	4870
836.064	4889
836.202	4885
836.34	5178
836.478	5201
836.615	5113
836.753	5185
836.891	5280
837.029	5265
837.167	5162
837.305	5201
837.443	5155
837.58	5048
837.718	5265
837.856	5193
837.993	5166
838.131	5216
838.269	5212
838.406	5166
838.544	5170
838.681	5022
838.819	5045
838.956	4900
839.094	4927
839.231	4984
839.369	5060
839.506	5395
839.643	5231
839.781	5022
839.918	4968
840.055	5102
840.193	5109
840.33	5121
840.467	5132
840.604	5185
840.742	5391
840.879	5098
841.016	5124
841.153	5128
841.29	5364
841.427	5330
841.564	5318
841.701	5364
841.838	5353
841.975	5261
842.112	5254
842.249	5124
842.385	5094
842.522	5311
842.659	5250
842.796	5170
842.933	5265
843.069	5132
843.206	5155
843.343	5349
843.479	5220
843.616	5250
843.752	5045
843.889	4991
844.025	5216
844.162	4980
844.298	5197
844.435	5079
844.571	5029
844.708	5159
844.844	5284
844.98	5376
845.117	5269
845.253	5140
845.389	5064
845.525	5143
845.661	5220
845.798	5060
845.934	5159
846.07	4991
846.206	5147
846.342	5246
846.478	5185
846.614	5003
846.75	4972
846.886	4885
847.022	5147
847.158	5045
847.294	5086
847.429	5067
847.565	5018
847.701	5337
847.837	4809
847.972	4809
848.108	4923
848.244	4885
848.379	4782
848.515	4744
848.65	4683
848.786	4763
848.921	4748
849.057	4839
849.192	4896
849.328	4801
849.463	4820
849.598	4748
849.734	4782
849.869	4664
850.004	4611
850.14	4611
850.275	4607
850.41	4550
850.545	4519
850.68	4637
850.815	4588
850.95	4641
851.085	4881
851.22	4755
851.355	4683
851.49	4584
851.625	4622
851.76	4618
851.895	4592
852.03	4493
852.165	4653
852.299	4691
852.434	4733
852.569	4744
852.703	4782
852.838	4847
852.973	4965
853.107	4927
853.242	4763
853.376	4668
853.511	4527
853.645	4588
853.78	4824
853.914	4691
854.048	4675
854.183	4687
854.317	4637
854.451	4835
854.585	4649
854.72	4660
854.854	4736
854.988	4588
855.122	4641
855.256	4558
855.39	4653
855.524	4790
855.658	4714
855.792	4706
855.926	4721
856.06	4725
856.194	4801
856.327	4645
856.461	4615
856.595	4634
856.729	4634
856.862	4774
856.996	4679
857.13	4717
857.263	4725
857.397	4797
857.53	4637
857.664	4675
857.797	4675
857.931	4736
858.064	4698
858.197	4710
858.331	4592
858.464	4618
858.597	4523
858.731	4672
858.864	4634
858.997	4596
859.13	4634
859.263	4649
859.396	4672
859.529	4599
859.662	4550
859.795	4504
859.928	4592
860.061	4733
860.194	4710
860.327	4637
860.46	4542
860.592	4653
860.725	4748
860.858	4683
860.99	4558
861.123	4531
861.256	4558
861.388	4588
861.521	5235
861.653	4493
861.786	4504
861.918	4443
862.05	4523
862.183	4558
862.315	4599
862.447	4653
862.58	4535
862.712	4405
862.844	4310
862.976	4440
863.108	4440
863.24	4870
863.372	4299
863.504	4436
863.636	4394
863.768	4493
863.9	4478
864.032	4352
864.164	4386
864.296	4474
864.428	4634
864.559	4554
864.691	4523
864.823	4554
864.954	4500
865.086	4478
865.217	4489
865.349	4421
865.48	4474
865.612	4470
865.743	4634
865.875	4481
866.006	4432
866.137	4440
866.269	4413
866.4	4462
866.531	4466
866.662	4394
866.793	4379
866.924	4466
867.055	4485
867.186	4474
867.317	4409
867.448	4337
867.579	4386
867.71	4390
867.841	4348
867.972	4432
868.103	4451
868.233	4440
868.364	4428
868.495	4527
868.625	4668
868.756	4801
868.886	4554
869.017	4660
869.147	4740
869.278	4744
869.408	4660
869.539	4733
869.669	4706
869.799	4656
869.929	4763
870.06	4706
870.19	4957
870.32	4930
870.45	4968
870.58	4965
870.71	5113
870.84	5067
870.97	5003
871.1	4927
871.23	5109
871.36	5113
871.489	4984
871.619	5064
871.749	5064
871.879	5174
872.008	5105
872.138	5060
872.267	4972
872.397	4873
872.526	4805
872.656	4717
872.785	4854
872.915	4930
873.044	5014
873.173	4942
873.303	4953
873.432	4938
873.561	4980
873.69	4889
873.819	4805
873.948	4930
874.077	4782
874.206	4771
874.335	4771
874.464	4892
874.593	5060
874.722	4976
874.851	5079
874.979	5033
875.108	5086
875.237	4942
875.365	4858
875.494	4911
875.623	5006
875.751	4820
875.88	4942
876.008	4942
876.136	5056
876.265	5193
876.393	5337
876.521	5250
876.65	5227
876.778	5155
876.906	5052
877.034	5014
877.162	5041
877.29	4984
877.418	5010
877.546	5010
877.674	5025
877.802	5029
877.93	5003
878.058	4957
878.185	4820
878.313	4991
878.441	4946
878.568	4809
878.696	4892
878.824	4946
878.951	5029
879.079	5109
879.206	5292
879.333	5094
879.461	4999
879.588	5003
879.715	5124
879.842	5277
879.97	4980
880.097	4805
880.224	4790
880.351	4820
880.478	4820
880.605	4801
880.732	4809
880.859	5064
880.986	4877
881.112	4866
881.239	4767
881.366	4645
881.493	4607
881.619	4592
881.746	4660
881.872	4649
881.999	4649
882.125	4649
882.252	4755
882.378	4831
882.505	4953
882.631	4820
882.757	4656
882.883	4706
883.01	4714
883.136	4664
883.262	4615
883.388	4618
883.514	4835
883.64	4850
883.766	4805
883.892	4630
884.018	4736
884.143	4862
884.269	5033
884.395	4683
884.52	4622
884.646	4630
884.772	4527
884.897	4580
885.023	4660
885.148	4748
885.274	4854
885.399	4809
885.524	4717
885.65	4679
885.775	4733
885.9	4656
886.025	4877
886.15	4755
886.275	4683
886.4	4679
886.525	4714
886.65	4660
886.775	4740
886.9	4919
887.025	5041
887.149	4854
887.274	4618
887.399	4599
887.523	4618
887.648	4558
887.773	4577
887.897	4774
888.021	4774
888.146	4675
888.27	4786
888.395	4892
888.519	4774
888.643	4831
888.767	4805
888.891	4656
889.015	4641
889.139	4615
889.263	4626
889.387	4767
889.511	4839
889.635	4850
889.759	4615
889.883	4630
890.006	4748
890.13	4839
890.254	4637
890.377	4717
890.501	4580
890.624	4508
890.748	4611
890.871	4512
890.995	4432
891.118	4386
891.241	4561
891.364	4504
891.488	4656
891.611	4500
891.734	4508
891.857	4569
891.98	4546
892.103	4649
892.226	4546
892.349	4550
892.471	4451
892.594	4531
892.717	4596
892.839	4577
892.962	4588
893.085	4637
893.207	4622
893.33	4451
893.452	4500
893.575	4584
893.697	4596
893.819	4767
893.941	4847
894.064	4774
894.186	4546
894.308	4535
894.43	4736
894.552	4812
894.674	4744
894.796	4542
894.918	4569
895.04	4489
895.161	4706
895.283	4706
895.405	4558
895.526	4725
895.648	4649
895.769	4698
895.891	4710
896.012	4714
896.134	4694
896.255	4634
896.376	4607
896.498	4615
896.619	4660
896.74	4599
896.861	4679
896.982	4900
897.103	5048
897.224	4771
897.345	4721
897.466	4698
897.587	4740
897.708	4797
897.828	4759
897.949	4656
898.07	4535
898.19	4668
898.311	4801
898.431	4649
898.552	4748
898.672	4862
898.792	4801
898.913	4721
899.033	4611
899.153	4489
899.273	4459
899.393	4436
899.513	4512
899.633	4493
899.753	4516
899.873	4497
899.993	4550
900.113	4512
900.232	4580
900.352	4500
900.472	4455
900.591	4413
900.711	4440
900.83	4462
900.95	4615
901.069	4714
901.189	4523
901.308	4318
901.427	4303
901.546	4325
901.665	4432
901.784	4512
901.904	4337
902.023	4329
902.141	4177
902.26	4135
902.379	4314
902.498	4272
902.617	4211
902.735	4417
902.854	4436
902.973	4341
903.091	4207
903.21	4242
903.328	4280
903.446	4261
903.565	4219
903.683	4360
903.801	4223
903.919	4386
904.038	4413
904.156	4325
904.274	4417
904.392	4360
904.51	4386
904.627	4459
904.745	4538
904.863	4634
904.981	4329
905.098	4314
905.216	4371
905.334	4432
905.451	4470
905.569	4440
905.686	4596
905.803	4596
905.921	4394
906.038	4516
906.155	4489
906.272	4424
906.389	4447
906.506	4383
906.623	4348
906.74	4371
906.857	4341
906.974	4375
907.091	4538
907.208	4660
907.324	4512
907.441	4470
907.557	4356
907.674	4371
907.79	4299
907.907	4413
908.023	4459
908.139	4508
908.256	4402
908.372	4436
908.488	4516
908.604	4386
908.72	4299
908.836	4428
908.952	4379
909.068	4447
909.184	4565
909.3	4523
909.415	4580
909.531	4561
909.647	4413
909.762	4379
909.878	4432
909.993	4443
910.108	4417
910.224	4443
910.339	4508
910.454	4394
910.57	4363
910.685	4348
910.8	4721
910.915	4626
911.03	4554
911.145	4383
911.259	4352
911.374	4390
911.489	4363
911.604	4322
911.718	4207
911.833	4280
911.947	4154
912.062	4063
912.176	4242
912.291	4257
912.405	4303
912.519	4519
912.633	4573
912.748	4390
912.862	4352
912.976	4265
913.09	4162
913.204	4177
913.318	4322
913.431	4405
913.545	4440
913.659	4462
913.772	4386
913.886	4318
914	4272
914.113	4390
914.226	4459
914.34	4447
914.453	4265
914.566	4455
914.68	4322
914.793	4325
914.906	4173
915.019	4147
915.132	4135
915.245	4200
915.358	4261
915.47	4287
915.583	4318
915.696	4325
915.809	4436
915.921	4447
916.034	4325
916.146	4287
916.259	4249
916.371	4417
916.483	4424
916.595	4295
916.708	4371
916.82	4363
916.932	4383
917.044	4390
917.156	4367
917.268	4242
917.38	4303
917.491	4310
917.603	4402
917.715	4478
917.826	4424
917.938	4356
918.049	4230
918.161	4447
918.272	4596
918.384	4603
918.495	4504
918.606	4337
918.717	4287
918.828	4325
918.939	4409
919.05	4333
919.161	4375
919.272	4154
919.383	4272
919.494	4474
919.604	4672
919.715	4459
919.826	4360
919.936	4386
920.047	4554
920.157	4451
920.267	4744
920.378	4573
920.488	4519
920.598	4721
920.708	4957
920.818	4824
920.928	4793
921.038	4942
921.148	4968
921.258	4668
921.368	4569
921.477	4542
921.587	4512
921.697	4421
921.806	4580
921.916	4512
922.025	4295
922.134	4341
922.244	4230
922.353	4398
922.462	4230
922.571	4139
922.68	4044
922.789	4055
922.898	4067
923.007	3994
923.116	4128
923.224	4112
923.333	4116
923.442	4013
923.55	4010
923.659	4029
923.767	4162
923.876	4002
923.984	4105
924.092	4021
924.201	4067
924.309	4128
924.417	4181
924.525	4116
924.633	4109
924.741	4862
924.849	3930
924.956	4124
925.064	3979
925.172	3926
925.279	3975
925.387	4093
925.494	4097
925.602	4242
925.709	4207
925.816	4044
925.924	4147
926.031	4318
926.138	4207
926.245	4234
926.352	4131
926.459	4291
926.566	4325
926.673	4227
926.779	4135
926.886	4086
926.993	4021
927.099	3998
927.206	4021
927.312	4006
927.419	4059
927.525	4025
927.631	4116
927.737	4002
927.843	3987
927.95	3876
928.056	3994
928.162	4044
928.267	4078
928.373	4729
928.479	4207
928.585	3915
928.69	4093
928.796	4147
928.901	4010
929.007	3869
929.112	4029
929.218	4029
929.323	3983
929.428	3972
929.533	4173
929.638	3876
929.743	3968
929.848	4105
929.953	4017
930.058	3896
930.163	3789
930.267	3823
930.372	3991
930.477	3892
930.581	4112
930.685	3998
930.79	3831
930.894	3869
930.998	3926
931.103	4078
931.207	3720
931.311	3740
931.415	3728
931.519	3561
931.623	3587
