Data from test_V78500241_2003.txt Node
Date: Fri Mar 25 17:02:55 CST 2022
User: usil
Spectrometer: V785-0024
Trigger mode: 0
Integration Time (sec): 4.000000E-1
Scans to average: 1
Nonlinearity correction enabled: false
Boxcar width: 0
Storing dark spectrum: false
XAxis mode: Wavelengths
Number of Pixels in Spectrum: 1024
>>>>>Begin Spectral Data<<<<<
801.071	7917
801.214	7955
801.356	7890
801.499	7860
801.641	7780
801.783	7818
801.926	7997
802.068	7963
802.211	7967
802.353	7959
802.496	7776
802.638	7879
802.78	7830
802.923	7902
803.065	7852
803.208	7788
803.35	7932
803.492	8130
803.635	8168
803.777	8001
803.919	8069
804.061	8385
804.204	8107
804.346	8020
804.488	7955
804.63	8008
804.773	7993
804.915	8111
805.057	8324
805.199	8168
805.341	8161
805.483	8191
805.626	8271
805.768	8130
805.91	8221
806.052	8229
806.194	8123
806.336	8320
806.478	8088
806.62	8046
806.762	8172
806.904	8263
807.046	8480
807.188	8347
807.33	8336
807.472	8328
807.614	8149
807.756	8176
807.898	8016
808.04	7921
808.182	7909
808.324	7917
808.465	7883
808.607	8039
808.749	8088
808.891	8271
809.033	8279
809.174	8183
809.316	8073
809.458	8046
809.6	8012
809.741	8046
809.883	7989
810.025	8134
810.166	8024
810.308	7917
810.45	7925
810.591	7856
810.733	7731
810.875	7647
811.016	7400
811.158	7422
811.299	7537
811.441	7662
811.582	7670
811.724	7609
811.865	7521
812.007	7578
812.148	7586
812.29	7632
812.431	7753
812.573	7902
812.714	7967
812.855	8149
812.997	8252
813.138	8237
813.279	8130
813.421	8043
813.562	7925
813.703	7826
813.845	7757
813.986	7460
814.127	7190
814.268	7213
814.41	7183
814.551	7171
814.692	7206
814.833	7069
814.974	7076
815.115	7034
815.256	7004
815.397	6863
815.539	6958
815.68	6802
815.821	6719
815.962	6825
816.103	6814
816.244	6662
816.385	6559
816.526	6646
816.666	6426
816.807	6296
816.948	6429
817.089	6460
817.23	6441
817.371	6315
817.512	6346
817.653	6399
817.793	6319
817.934	6426
818.075	6448
818.216	6399
818.356	6452
818.497	6243
818.638	6121
818.778	6125
818.919	6155
819.06	6144
819.2	6315
819.341	6365
819.481	6311
819.622	6563
819.762	6734
819.903	6703
820.043	6578
820.184	6623
820.324	6563
820.465	6738
820.605	6623
820.746	6665
820.886	6544
821.026	6642
821.167	6696
821.307	6783
821.447	6776
821.588	6646
821.728	6547
821.868	6506
822.008	6327
822.149	6361
822.289	6357
822.429	6125
822.569	6064
822.709	6098
822.849	5920
822.99	5870
823.13	5912
823.27	5912
823.41	5840
823.55	5767
823.69	5794
823.83	5756
823.97	5688
824.11	5539
824.25	5490
824.389	5535
824.529	5562
824.669	5493
824.809	5570
824.949	5646
825.089	5615
825.228	5535
825.368	5429
825.508	5379
825.648	5364
825.787	5368
825.927	5357
826.067	5288
826.206	5318
826.346	5372
826.485	5368
826.625	5387
826.765	5516
826.904	5459
827.044	5242
827.183	5208
827.323	5109
827.462	5231
827.601	5117
827.741	5201
827.88	5208
828.02	5128
828.159	5235
828.298	5299
828.437	5284
828.577	5322
828.716	5467
828.855	5315
828.994	5147
829.134	5151
829.273	5178
829.412	5151
829.551	5121
829.69	5132
829.829	5193
829.968	5402
830.107	5239
830.246	5197
830.385	5166
830.524	5136
830.663	5006
830.802	4968
830.941	4930
831.08	4873
831.219	4972
831.357	5003
831.496	5174
831.635	4889
831.774	4828
831.913	4881
832.051	4771
832.19	4706
832.329	4824
832.467	4668
832.606	4615
832.744	4748
832.883	4771
833.022	4748
833.16	4797
833.299	4786
833.437	4790
833.576	4866
833.714	4881
833.852	4862
833.991	4835
834.129	4923
834.267	4889
834.406	4881
834.544	4919
834.682	4953
834.821	4957
834.959	5121
835.097	4965
835.235	5121
835.373	5079
835.511	5098
835.65	5048
835.788	4991
835.926	4915
836.064	4915
836.202	4896
836.34	5132
836.478	5204
836.615	5143
836.753	5147
836.891	5258
837.029	5242
837.167	5208
837.305	5174
837.443	5140
837.58	5064
837.718	5231
837.856	5174
837.993	5132
838.131	5204
838.269	5185
838.406	5143
838.544	5170
838.681	5029
838.819	4915
838.956	4927
839.094	4915
839.231	4930
839.369	5025
839.506	5410
839.643	5261
839.781	5102
839.918	4968
840.055	5083
840.193	5098
840.33	5132
840.467	5155
840.604	5204
840.742	5467
840.879	5102
841.016	5098
841.153	5170
841.29	5341
841.427	5337
841.564	5322
841.701	5376
841.838	5239
841.975	5193
842.112	5296
842.249	5174
842.385	5067
842.522	5318
842.659	5208
842.796	5147
842.933	5181
843.069	5136
843.206	5109
843.343	5277
843.479	5269
843.616	5288
843.752	4999
843.889	5006
844.025	5208
844.162	4980
844.298	5162
844.435	5067
844.571	5067
844.708	5201
844.844	5280
844.98	5303
845.117	5299
845.253	5121
845.389	5075
845.525	5193
845.661	5185
845.798	5018
845.934	5124
846.07	5041
846.206	5231
846.342	5261
846.478	5155
846.614	5037
846.75	4938
846.886	4946
847.022	5159
847.158	5022
847.294	5006
847.429	5086
847.565	5022
847.701	5311
847.837	4854
847.972	4801
848.108	4991
848.244	4953
848.379	4752
848.515	4759
848.65	4706
848.786	4714
848.921	4736
849.057	4828
849.192	4862
849.328	4782
849.463	4839
849.598	4774
849.734	4744
849.869	4710
850.004	4679
850.14	4740
850.275	4603
850.41	4508
850.545	4588
850.68	4622
850.815	4558
850.95	4641
851.085	4854
851.22	4736
851.355	4656
851.49	4565
851.625	4641
851.76	4649
851.895	4535
852.03	4558
852.165	4675
852.299	4706
852.434	4744
852.569	4755
852.703	4717
852.838	4877
852.973	4942
853.107	4915
853.242	4740
853.376	4691
853.511	4500
853.645	4618
853.78	4801
853.914	4672
854.048	4706
854.183	4645
854.317	4679
854.451	4831
854.585	4664
854.72	4656
854.854	4740
854.988	4596
855.122	4637
855.256	4550
855.39	4691
855.524	4782
855.658	4706
855.792	4675
855.926	4725
856.06	4763
856.194	4801
856.327	4664
856.461	4599
856.595	4645
856.729	4641
856.862	4706
856.996	4706
857.13	4683
857.263	4771
857.397	4698
857.53	4626
857.664	4698
857.797	4740
857.931	4790
858.064	4672
858.197	4771
858.331	4641
858.464	4565
858.597	4516
858.731	4603
858.864	4645
858.997	4599
859.13	4592
859.263	4634
859.396	4641
859.529	4599
859.662	4523
859.795	4546
859.928	4618
860.061	4733
860.194	4721
860.327	4599
860.46	4580
860.592	4725
860.725	4717
860.858	4714
860.99	4580
861.123	4523
861.256	4527
861.388	4588
861.521	5162
861.653	4462
861.786	4417
861.918	4462
862.05	4508
862.183	4531
862.315	4664
862.447	4679
862.58	4554
862.712	4371
862.844	4344
862.976	4470
863.108	4443
863.24	4763
863.372	4295
863.504	4386
863.636	4394
863.768	4489
863.9	4443
864.032	4344
864.164	4390
864.296	4470
864.428	4523
864.559	4538
864.691	4535
864.823	4558
864.954	4500
865.086	4508
865.217	4451
865.349	4409
865.48	4485
865.612	4474
865.743	4645
865.875	4451
866.006	4428
866.137	4493
866.269	4462
866.4	4455
866.531	4394
866.662	4394
866.793	4428
866.924	4432
867.055	4443
867.186	4451
867.317	4447
867.448	4398
867.579	4356
867.71	4344
867.841	4379
867.972	4432
868.103	4470
868.233	4447
868.364	4424
868.495	4455
868.625	4683
868.756	4771
868.886	4546
869.017	4577
869.147	4767
869.278	4767
869.408	4668
869.539	4611
869.669	4687
869.799	4653
869.929	4782
870.06	4729
870.19	4946
870.32	4927
870.45	4942
870.58	5045
870.71	5071
870.84	5121
870.97	4953
871.1	4877
871.23	5170
871.36	5136
871.489	5025
871.619	5029
871.749	5075
871.879	5147
872.008	5174
872.138	4999
872.267	4965
872.397	4812
872.526	4843
872.656	4687
872.785	4782
872.915	4934
873.044	5006
873.173	4953
873.303	4927
873.432	5003
873.561	4999
873.69	4877
873.819	4843
873.948	4900
874.077	4828
874.206	4774
874.335	4835
874.464	4953
874.593	5056
874.722	4980
874.851	5033
874.979	5056
875.108	5014
875.237	4930
875.365	4889
875.494	4843
875.623	4961
875.751	4801
875.88	4885
876.008	5003
876.136	5010
876.265	5220
876.393	5284
876.521	5246
876.65	5136
876.778	5162
876.906	5086
877.034	4980
877.162	4980
877.29	4984
877.418	5075
877.546	5052
877.674	5025
877.802	5018
877.93	4980
878.058	4923
878.185	4850
878.313	4957
878.441	4942
878.568	4767
878.696	4850
878.824	4984
878.951	4987
879.079	5147
879.206	5277
879.333	5071
879.461	4961
879.588	5022
879.715	5155
879.842	5189
879.97	5033
880.097	4828
880.224	4740
880.351	4824
880.478	4809
880.605	4835
880.732	4759
880.859	5113
880.986	4862
881.112	4896
881.239	4744
881.366	4679
881.493	4596
881.619	4592
881.746	4607
881.872	4683
881.999	4653
882.125	4687
882.252	4778
882.378	4774
882.505	4957
882.631	4793
882.757	4641
882.883	4725
883.01	4672
883.136	4622
883.262	4569
883.388	4634
883.514	4824
883.64	4797
883.766	4767
883.892	4694
884.018	4710
884.143	4839
884.269	5006
884.395	4656
884.52	4637
884.646	4607
884.772	4573
884.897	4550
885.023	4672
885.148	4790
885.274	4850
885.399	4793
885.524	4714
885.65	4706
885.775	4752
885.9	4740
886.025	4854
886.15	4801
886.275	4729
886.4	4660
886.525	4782
886.65	4687
886.775	4660
886.9	4908
887.025	5033
887.149	4793
887.274	4668
887.399	4649
887.523	4542
887.648	4588
887.773	4603
887.897	4748
888.021	4744
888.146	4679
888.27	4828
888.395	4896
888.519	4809
888.643	4812
888.767	4782
888.891	4748
889.015	4599
889.139	4660
889.263	4592
889.387	4793
889.511	4881
889.635	4831
889.759	4618
889.883	4622
890.006	4714
890.13	4862
890.254	4592
890.377	4641
890.501	4535
890.624	4512
890.748	4653
890.871	4535
890.995	4394
891.118	4402
891.241	4535
891.364	4527
891.488	4546
891.611	4489
891.734	4554
891.857	4618
891.98	4508
892.103	4607
892.226	4592
892.349	4535
892.471	4440
892.594	4527
892.717	4584
892.839	4558
892.962	4588
893.085	4687
893.207	4626
893.33	4462
893.452	4523
893.575	4702
893.697	4565
893.819	4835
893.941	4885
894.064	4736
894.186	4641
894.308	4569
894.43	4725
894.552	4801
894.674	4736
894.796	4538
894.918	4584
895.04	4550
895.161	4687
895.283	4611
895.405	4550
895.526	4634
895.648	4672
895.769	4706
895.891	4683
896.012	4759
896.134	4679
896.255	4683
896.376	4637
896.498	4607
896.619	4687
896.74	4630
896.861	4668
896.982	4904
897.103	5086
897.224	4828
897.345	4698
897.466	4675
897.587	4771
897.708	4866
897.828	4740
897.949	4668
898.07	4569
898.19	4675
898.311	4812
898.431	4702
898.552	4733
898.672	4854
898.792	4786
898.913	4733
899.033	4626
899.153	4512
899.273	4455
899.393	4508
899.513	4512
899.633	4538
899.753	4546
899.873	4481
899.993	4596
900.113	4535
900.232	4542
900.352	4577
900.472	4504
900.591	4409
900.711	4478
900.83	4424
900.95	4588
901.069	4683
901.189	4527
901.308	4363
901.427	4310
901.546	4398
901.665	4443
901.784	4516
901.904	4371
902.023	4322
902.141	4215
902.26	4169
902.379	4306
902.498	4234
902.617	4215
902.735	4371
902.854	4413
902.973	4325
903.091	4249
903.21	4249
903.328	4299
903.446	4253
903.565	4215
903.683	4284
903.801	4310
903.919	4371
904.038	4443
904.156	4306
904.274	4409
904.392	4409
904.51	4447
904.627	4470
904.745	4607
904.863	4637
904.981	4398
905.098	4276
905.216	4363
905.334	4402
905.451	4428
905.569	4424
905.686	4611
905.803	4558
905.921	4405
906.038	4550
906.155	4481
906.272	4413
906.389	4500
906.506	4318
906.623	4348
906.74	4394
906.857	4268
906.974	4337
907.091	4565
907.208	4706
907.324	4577
907.441	4485
907.557	4333
907.674	4318
907.79	4299
907.907	4413
908.023	4478
908.139	4432
908.256	4383
908.372	4516
908.488	4459
908.604	4333
908.72	4356
908.836	4390
908.952	4375
909.068	4440
909.184	4538
909.3	4485
909.415	4577
909.531	4558
909.647	4352
909.762	4360
909.878	4383
909.993	4402
910.108	4443
910.224	4398
910.339	4478
910.454	4424
910.57	4363
910.685	4310
910.8	4653
910.915	4558
911.03	4489
911.145	4287
911.259	4291
911.374	4344
911.489	4352
911.604	4280
911.718	4192
911.833	4207
911.947	4044
912.062	4067
912.176	4169
912.291	4223
912.405	4230
912.519	4516
912.633	4489
912.748	4409
912.862	4291
912.976	4211
913.09	4090
913.204	4181
913.318	4257
913.431	4352
913.545	4386
913.659	4443
913.772	4360
913.886	4234
914	4223
914.113	4367
914.226	4432
914.34	4390
914.453	4257
914.566	4398
914.68	4306
914.793	4329
914.906	4177
915.019	4112
915.132	4051
915.245	4158
915.358	4181
915.47	4196
915.583	4295
915.696	4314
915.809	4405
915.921	4424
916.034	4249
916.146	4280
916.259	4223
916.371	4394
916.483	4329
916.595	4249
916.708	4341
916.82	4322
916.932	4314
917.044	4291
917.156	4306
917.268	4242
917.38	4287
917.491	4238
917.603	4352
917.715	4424
917.826	4432
917.938	4333
918.049	4219
918.161	4394
918.272	4531
918.384	4561
918.495	4447
918.606	4272
918.717	4287
918.828	4352
918.939	4379
919.05	4295
919.161	4310
919.272	4090
919.383	4242
919.494	4424
919.604	4645
919.715	4405
919.826	4325
919.936	4459
920.047	4573
920.157	4481
920.267	4687
920.378	4508
920.488	4474
920.598	4710
920.708	4904
920.818	4733
920.928	4763
921.038	4919
921.148	4949
921.258	4611
921.368	4527
921.477	4485
921.587	4436
921.697	4375
921.806	4554
921.916	4409
922.025	4234
922.134	4227
922.244	4185
922.353	4318
922.462	4196
922.571	4116
922.68	4013
922.789	3998
922.898	4044
923.007	3964
923.116	4120
923.224	4021
923.333	4067
923.442	3975
923.55	4010
923.659	4013
923.767	4074
923.876	4002
923.984	4090
924.092	3998
924.201	4071
924.309	4063
924.417	4120
924.525	4021
924.633	4093
924.741	5083
924.849	3926
924.956	4082
925.064	3937
925.172	3937
925.279	3964
925.387	4074
925.494	4013
925.602	4166
925.709	4162
925.816	4036
925.924	4109
926.031	4276
926.138	4173
926.245	4158
926.352	4067
926.459	4238
926.566	4284
926.673	4192
926.779	4097
926.886	4010
926.993	3975
927.099	3975
927.206	3930
927.312	3941
927.419	4055
927.525	4032
927.631	4055
927.737	3949
927.843	3991
927.95	3827
928.056	3953
928.162	3994
928.267	4044
928.373	4558
928.479	4139
928.585	3911
928.69	4040
928.796	4078
928.901	3956
929.007	3823
929.112	4006
929.218	3998
929.323	3930
929.428	3953
929.533	4154
929.638	3930
929.743	3934
929.848	4017
929.953	4010
930.058	3911
930.163	3770
930.267	3819
930.372	3964
930.477	3827
930.581	4105
930.685	3960
930.79	3835
930.894	3888
930.998	3857
931.103	4013
931.207	3698
931.311	3690
931.415	3652
931.519	3511
931.623	3538
