Data from test_V78500241_596.txt Node
Date: Fri Mar 25 16:53:08 CST 2022
User: usil
Spectrometer: V785-0024
Trigger mode: 0
Integration Time (sec): 4.000000E-1
Scans to average: 1
Nonlinearity correction enabled: false
Boxcar width: 0
Storing dark spectrum: false
XAxis mode: Wavelengths
Number of Pixels in Spectrum: 1024
>>>>>Begin Spectral Data<<<<<
801.071	7993
801.214	7940
801.356	7887
801.499	7814
801.641	7833
801.783	7921
801.926	8039
802.068	7932
802.211	8016
802.353	8046
802.496	7845
802.638	7906
802.78	7947
802.923	7898
803.065	7906
803.208	7860
803.35	7947
803.492	8069
803.635	8206
803.777	8050
803.919	8119
804.061	8408
804.204	8126
804.346	8077
804.488	7970
804.63	8157
804.773	8100
804.915	8058
805.057	8271
805.199	8210
805.341	8191
805.483	8336
805.626	8225
805.768	8100
805.91	8172
806.052	8237
806.194	8119
806.336	8305
806.478	8157
806.62	8092
806.762	8180
806.904	8332
807.046	8438
807.188	8385
807.33	8252
807.472	8351
807.614	8161
807.756	8100
807.898	8039
808.04	7818
808.182	7879
808.324	7921
808.465	7902
808.607	8039
808.749	8149
808.891	8275
809.033	8298
809.174	8206
809.316	8073
809.458	8024
809.6	7944
809.741	8050
809.883	8024
810.025	8062
810.166	8073
810.308	8012
810.45	8031
810.591	7875
810.733	7814
810.875	7681
811.016	7544
811.158	7578
811.299	7582
811.441	7700
811.582	7662
811.724	7578
811.865	7537
812.007	7647
812.148	7563
812.29	7590
812.431	7696
812.573	7909
812.714	7959
812.855	8153
812.997	8206
813.138	8385
813.279	8301
813.421	8100
813.562	8046
813.703	7890
813.845	7807
813.986	7495
814.127	7308
814.268	7259
814.41	7282
814.551	7194
814.692	7247
814.833	7076
814.974	7160
815.115	7042
815.256	7053
815.397	6935
815.539	6993
815.68	6840
815.821	6783
815.962	6928
816.103	6875
816.244	6719
816.385	6597
816.526	6612
816.666	6566
816.807	6327
816.948	6452
817.089	6471
817.23	6410
817.371	6369
817.512	6422
817.653	6388
817.793	6338
817.934	6460
818.075	6475
818.216	6429
818.356	6395
818.497	6232
818.638	6110
818.778	6148
818.919	6190
819.06	6133
819.2	6369
819.341	6342
819.481	6376
819.622	6494
819.762	6745
819.903	6688
820.043	6631
820.184	6536
820.324	6528
820.465	6669
820.605	6654
820.746	6646
820.886	6498
821.026	6677
821.167	6730
821.307	6806
821.447	6768
821.588	6635
821.728	6559
821.868	6452
822.008	6323
822.149	6331
822.289	6311
822.429	6216
822.569	6034
822.709	6106
822.849	5916
822.99	5923
823.13	5897
823.27	5965
823.41	5863
823.55	5767
823.69	5748
823.83	5790
823.97	5661
824.11	5581
824.25	5547
824.389	5634
824.529	5596
824.669	5547
824.809	5657
824.949	5695
825.089	5589
825.228	5608
825.368	5452
825.508	5322
825.648	5322
825.787	5353
825.927	5364
826.067	5318
826.206	5326
826.346	5379
826.485	5364
826.625	5410
826.765	5581
826.904	5455
827.044	5250
827.183	5174
827.323	5124
827.462	5227
827.601	5159
827.741	5155
827.88	5242
828.02	5140
828.159	5212
828.298	5296
828.437	5360
828.577	5318
828.716	5512
828.855	5292
828.994	5147
829.134	5197
829.273	5155
829.412	5140
829.551	5136
829.69	5155
829.829	5273
829.968	5387
830.107	5254
830.246	5273
830.385	5147
830.524	5140
830.663	5155
830.802	4942
830.941	4858
831.08	4828
831.219	4968
831.357	4987
831.496	5113
831.635	4938
831.774	4809
831.913	4854
832.051	4778
832.19	4752
832.329	4858
832.467	4691
832.606	4645
832.744	4679
832.883	4725
833.022	4740
833.16	4790
833.299	4797
833.437	4873
833.576	4831
833.714	4854
833.852	4870
833.991	4850
834.129	4961
834.267	4961
834.406	4900
834.544	5010
834.682	4968
834.821	4938
834.959	5109
835.097	4999
835.235	5113
835.373	5124
835.511	5083
835.65	5025
835.788	5010
835.926	4873
836.064	4866
836.202	4885
836.34	5201
836.478	5265
836.615	5151
836.753	5216
836.891	5322
837.029	5284
837.167	5170
837.305	5220
837.443	5201
837.58	5102
837.718	5212
837.856	5143
837.993	5143
838.131	5227
838.269	5223
838.406	5277
838.544	5208
838.681	5003
838.819	4972
838.956	4881
839.094	4923
839.231	4953
839.369	5090
839.506	5478
839.643	5307
839.781	5022
839.918	5018
840.055	5064
840.193	5045
840.33	5117
840.467	5136
840.604	5212
840.742	5455
840.879	5132
841.016	5117
841.153	5155
841.29	5387
841.427	5318
841.564	5326
841.701	5345
841.838	5284
841.975	5246
842.112	5269
842.249	5136
842.385	5117
842.522	5288
842.659	5143
842.796	5159
842.933	5201
843.069	5124
843.206	5197
843.343	5296
843.479	5216
843.616	5250
843.752	5025
843.889	4991
844.025	5235
844.162	4995
844.298	5227
844.435	5052
844.571	5037
844.708	5170
844.844	5341
844.98	5303
845.117	5292
845.253	5113
845.389	5037
845.525	5113
845.661	5155
845.798	5067
845.934	5147
846.07	5033
846.206	5140
846.342	5345
846.478	5197
846.614	5048
846.75	4987
846.886	4953
847.022	5189
847.158	5025
847.294	5083
847.429	5083
847.565	5075
847.701	5318
847.837	4839
847.972	4812
848.108	4923
848.244	4961
848.379	4809
848.515	4702
848.65	4714
848.786	4744
848.921	4755
849.057	4858
849.192	4850
849.328	4805
849.463	4877
849.598	4809
849.734	4736
849.869	4664
850.004	4607
850.14	4672
850.275	4577
850.41	4550
850.545	4546
850.68	4588
850.815	4645
850.95	4668
851.085	4911
851.22	4752
851.355	4679
851.49	4618
851.625	4626
851.76	4660
851.895	4531
852.03	4512
852.165	4596
852.299	4721
852.434	4839
852.569	4702
852.703	4755
852.838	4877
852.973	4911
853.107	4957
853.242	4740
853.376	4641
853.511	4580
853.645	4611
853.78	4786
853.914	4733
854.048	4679
854.183	4565
854.317	4683
854.451	4858
854.585	4626
854.72	4634
854.854	4725
854.988	4592
855.122	4641
855.256	4504
855.39	4710
855.524	4797
855.658	4717
855.792	4706
855.926	4744
856.06	4733
856.194	4755
856.327	4668
856.461	4592
856.595	4584
856.729	4634
856.862	4733
856.996	4691
857.13	4710
857.263	4748
857.397	4831
857.53	4649
857.664	4725
857.797	4744
857.931	4820
858.064	4683
858.197	4759
858.331	4660
858.464	4607
858.597	4569
858.731	4622
858.864	4645
858.997	4603
859.13	4599
859.263	4721
859.396	4687
859.529	4573
859.662	4603
859.795	4580
859.928	4626
860.061	4748
860.194	4771
860.327	4588
860.46	4565
860.592	4679
860.725	4786
860.858	4675
860.99	4569
861.123	4516
861.256	4546
861.388	4588
861.521	5406
861.653	4489
861.786	4428
861.918	4413
862.05	4512
862.183	4561
862.315	4603
862.447	4698
862.58	4580
862.712	4367
862.844	4310
862.976	4455
863.108	4447
863.24	4824
863.372	4280
863.504	4470
863.636	4432
863.768	4451
863.9	4413
864.032	4325
864.164	4386
864.296	4459
864.428	4535
864.559	4573
864.691	4569
864.823	4538
864.954	4531
865.086	4470
865.217	4436
865.349	4413
865.48	4489
865.612	4455
865.743	4649
865.875	4504
866.006	4386
866.137	4500
866.269	4455
866.4	4413
866.531	4413
866.662	4371
866.793	4398
866.924	4432
867.055	4451
867.186	4470
867.317	4428
867.448	4352
867.579	4424
867.71	4363
867.841	4348
867.972	4523
868.103	4466
868.233	4436
868.364	4451
868.495	4542
868.625	4687
868.756	4755
868.886	4596
869.017	4649
869.147	4790
869.278	4744
869.408	4656
869.539	4649
869.669	4729
869.799	4706
869.929	4797
870.06	4767
870.19	4923
870.32	4942
870.45	4911
870.58	4984
870.71	5151
870.84	5090
870.97	4987
871.1	4889
871.23	5128
871.36	5178
871.489	5010
871.619	5083
871.749	5079
871.879	5128
872.008	5239
872.138	5090
872.267	5003
872.397	4820
872.526	4812
872.656	4748
872.785	4771
872.915	4987
873.044	5006
873.173	4900
873.303	4942
873.432	4946
873.561	4942
873.69	4908
873.819	4847
873.948	4850
874.077	4797
874.206	4774
874.335	4797
874.464	4908
874.593	5060
874.722	5029
874.851	5109
874.979	5067
875.108	5102
875.237	4873
875.365	4911
875.494	4885
875.623	4938
875.751	4854
875.88	4889
876.008	4942
876.136	5029
876.265	5220
876.393	5349
876.521	5227
876.65	5242
876.778	5113
876.906	5105
877.034	5010
877.162	5136
877.29	5018
877.418	5022
877.546	5090
877.674	5022
877.802	5071
877.93	5067
878.058	4976
878.185	4892
878.313	4919
878.441	5006
878.568	4771
878.696	4908
878.824	5006
878.951	4991
879.079	5105
879.206	5292
879.333	5060
879.461	4904
879.588	5010
879.715	5124
879.842	5227
879.97	4987
880.097	4778
880.224	4786
880.351	4786
880.478	4854
880.605	4824
880.732	4782
880.859	5083
880.986	4881
881.112	4873
881.239	4748
881.366	4641
881.493	4561
881.619	4561
881.746	4675
881.872	4622
881.999	4622
882.125	4675
882.252	4721
882.378	4854
882.505	4946
882.631	4767
882.757	4702
882.883	4702
883.01	4778
883.136	4679
883.262	4580
883.388	4618
883.514	4759
883.64	4892
883.766	4786
883.892	4679
884.018	4698
884.143	4892
884.269	4961
884.395	4656
884.52	4637
884.646	4630
884.772	4599
884.897	4577
885.023	4683
885.148	4816
885.274	4881
885.399	4809
885.524	4759
885.65	4714
885.775	4740
885.9	4679
886.025	4870
886.15	4786
886.275	4710
886.4	4656
886.525	4721
886.65	4672
886.775	4675
886.9	4873
887.025	5041
887.149	4812
887.274	4641
887.399	4603
887.523	4535
887.648	4546
887.773	4558
887.897	4755
888.021	4782
888.146	4702
888.27	4831
888.395	4938
888.519	4755
888.643	4828
888.767	4831
888.891	4702
889.015	4603
889.139	4679
889.263	4584
889.387	4698
889.511	4877
889.635	4786
889.759	4679
889.883	4653
890.006	4717
890.13	4805
890.254	4599
890.377	4626
890.501	4500
890.624	4531
890.748	4630
890.871	4531
890.995	4451
891.118	4405
891.241	4504
891.364	4550
891.488	4656
891.611	4485
891.734	4500
891.857	4584
891.98	4538
892.103	4675
892.226	4596
892.349	4519
892.471	4432
892.594	4516
892.717	4569
892.839	4519
892.962	4607
893.085	4653
893.207	4596
893.33	4459
893.452	4462
893.575	4656
893.697	4558
893.819	4839
893.941	4809
894.064	4721
894.186	4580
894.308	4546
894.43	4774
894.552	4889
894.674	4736
894.796	4527
894.918	4618
895.04	4558
895.161	4725
895.283	4668
895.405	4558
895.526	4592
895.648	4691
895.769	4721
895.891	4710
896.012	4694
896.134	4729
896.255	4637
896.376	4660
896.498	4622
896.619	4668
896.74	4637
896.861	4607
896.982	4919
897.103	5079
897.224	4828
897.345	4748
897.466	4672
897.587	4767
897.708	4873
897.828	4763
897.949	4710
898.07	4584
898.19	4634
898.311	4828
898.431	4691
898.552	4744
898.672	4854
898.792	4786
898.913	4698
899.033	4641
899.153	4531
899.273	4360
899.393	4470
899.513	4504
899.633	4523
899.753	4519
899.873	4527
899.993	4603
900.113	4500
900.232	4577
900.352	4516
900.472	4470
900.591	4428
900.711	4493
900.83	4424
900.95	4626
901.069	4721
901.189	4550
901.308	4383
901.427	4360
901.546	4344
901.665	4508
901.784	4558
901.904	4424
902.023	4341
902.141	4185
902.26	4150
902.379	4276
902.498	4234
902.617	4192
902.735	4329
902.854	4383
902.973	4348
903.091	4207
903.21	4196
903.328	4265
903.446	4291
903.565	4238
903.683	4344
903.801	4287
903.919	4409
904.038	4390
904.156	4322
904.274	4440
904.392	4402
904.51	4466
904.627	4470
904.745	4603
904.863	4603
904.981	4371
905.098	4303
905.216	4363
905.334	4375
905.451	4375
905.569	4436
905.686	4550
905.803	4565
905.921	4402
906.038	4500
906.155	4470
906.272	4405
906.389	4440
906.506	4310
906.623	4341
906.74	4409
906.857	4314
906.974	4375
907.091	4561
907.208	4675
907.324	4558
907.441	4455
907.557	4363
907.674	4325
907.79	4337
907.907	4363
908.023	4451
908.139	4508
908.256	4417
908.372	4481
908.488	4451
908.604	4322
908.72	4287
908.836	4432
908.952	4398
909.068	4398
909.184	4558
909.3	4470
909.415	4561
909.531	4527
909.647	4398
909.762	4386
909.878	4310
909.993	4398
910.108	4394
910.224	4413
910.339	4489
910.454	4436
910.57	4344
910.685	4318
910.8	4618
910.915	4573
911.03	4531
911.145	4306
911.259	4333
911.374	4363
911.489	4318
911.604	4295
911.718	4158
911.833	4219
911.947	4093
912.062	4082
912.176	4181
912.291	4230
912.405	4261
912.519	4474
912.633	4485
912.748	4363
912.862	4333
912.976	4188
913.09	4101
913.204	4188
913.318	4242
913.431	4348
913.545	4379
913.659	4413
913.772	4360
913.886	4227
914	4200
914.113	4398
914.226	4398
914.34	4386
914.453	4234
914.566	4436
914.68	4284
914.793	4375
914.906	4192
915.019	4093
915.132	4055
915.245	4169
915.358	4242
915.47	4230
915.583	4314
915.696	4284
915.809	4386
915.921	4417
916.034	4310
916.146	4257
916.259	4249
916.371	4367
916.483	4360
916.595	4261
916.708	4360
916.82	4303
916.932	4383
917.044	4291
917.156	4341
917.268	4257
917.38	4261
917.491	4280
917.603	4352
917.715	4424
917.826	4413
917.938	4421
918.049	4249
918.161	4375
918.272	4538
918.384	4554
918.495	4466
918.606	4268
918.717	4246
918.828	4348
918.939	4337
919.05	4242
919.161	4348
919.272	4139
919.383	4249
919.494	4451
919.604	4603
919.715	4440
919.826	4318
919.936	4447
920.047	4542
920.157	4485
920.267	4694
920.378	4535
920.488	4459
920.598	4698
920.708	4885
920.818	4736
920.928	4782
921.038	4938
921.148	4915
921.258	4596
921.368	4527
921.477	4516
921.587	4485
921.697	4371
921.806	4542
921.916	4398
922.025	4291
922.134	4253
922.244	4223
922.353	4329
922.462	4147
922.571	4131
922.68	4017
922.789	3972
922.898	4025
923.007	4059
923.116	4101
923.224	4025
923.333	4135
923.442	4017
923.55	3998
923.659	4029
923.767	4135
923.876	3983
923.984	4150
924.092	4029
924.201	4101
924.309	4101
924.417	4093
924.525	4048
924.633	4093
924.741	5048
924.849	3907
924.956	4082
925.064	3953
925.172	3903
925.279	3979
925.387	4048
925.494	4055
925.602	4227
925.709	4188
925.816	4074
925.924	4192
926.031	4230
926.138	4158
926.245	4185
926.352	4082
926.459	4207
926.566	4325
926.673	4139
926.779	4067
926.886	4071
926.993	4013
927.099	3949
927.206	3949
927.312	3941
927.419	4109
927.525	4006
927.631	4067
927.737	3941
927.843	3953
927.95	3827
928.056	3941
928.162	3987
928.267	4086
928.373	4691
928.479	4105
928.585	3865
928.69	4021
928.796	4071
928.901	3975
929.007	3896
929.112	3987
929.218	4021
929.323	3968
929.428	3953
929.533	4109
929.638	3918
929.743	3941
929.848	4036
929.953	3979
930.058	3953
930.163	3759
930.267	3835
930.372	3979
930.477	3789
930.581	4078
930.685	3937
930.79	3838
930.894	3873
930.998	3831
931.103	4067
931.207	3728
931.311	3698
931.415	3717
931.519	3511
931.623	3568
