Data from test_V78500241_1798.txt Node
Date: Fri Mar 25 17:01:30 CST 2022
User: usil
Spectrometer: V785-0024
Trigger mode: 0
Integration Time (sec): 4.000000E-1
Scans to average: 1
Nonlinearity correction enabled: false
Boxcar width: 0
Storing dark spectrum: false
XAxis mode: Wavelengths
Number of Pixels in Spectrum: 1024
>>>>>Begin Spectral Data<<<<<
801.071	7959
801.214	7989
801.356	7845
801.499	7875
801.641	7799
801.783	7814
801.926	7936
802.068	7841
802.211	7989
802.353	7967
802.496	7894
802.638	7898
802.78	7936
802.923	7913
803.065	7811
803.208	7852
803.35	7963
803.492	8050
803.635	8153
803.777	8008
803.919	8134
804.061	8412
804.204	8138
804.346	8027
804.488	8058
804.63	8069
804.773	8031
804.915	8107
805.057	8298
805.199	8126
805.341	8252
805.483	8240
805.626	8191
805.768	8149
805.91	8191
806.052	8202
806.194	8115
806.336	8252
806.478	8088
806.62	8058
806.762	8096
806.904	8298
807.046	8473
807.188	8396
807.33	8339
807.472	8286
807.614	8214
807.756	8161
807.898	7970
808.04	7902
808.182	7856
808.324	7883
808.465	7925
808.607	8039
808.749	8149
808.891	8195
809.033	8294
809.174	8195
809.316	8027
809.458	8103
809.6	8024
809.741	8073
809.883	8039
810.025	8088
810.166	8096
810.308	7989
810.45	7989
810.591	7917
810.733	7761
810.875	7624
811.016	7533
811.158	7468
811.299	7586
811.441	7662
811.582	7677
811.724	7624
811.865	7476
812.007	7590
812.148	7632
812.29	7639
812.431	7750
812.573	7909
812.714	8005
812.855	8111
812.997	8191
813.138	8221
813.279	8149
813.421	8046
813.562	7909
813.703	7795
813.845	7723
813.986	7369
814.127	7232
814.268	7221
814.41	7183
814.551	7114
814.692	7190
814.833	7072
814.974	7088
815.115	7114
815.256	7031
815.397	6951
815.539	6947
815.68	6856
815.821	6776
815.962	6886
816.103	6768
816.244	6662
816.385	6608
816.526	6639
816.666	6483
816.807	6281
816.948	6448
817.089	6464
817.23	6437
817.371	6391
817.512	6384
817.653	6410
817.793	6365
817.934	6365
818.075	6479
818.216	6391
818.356	6407
818.497	6270
818.638	6102
818.778	6175
818.919	6121
819.06	6186
819.2	6311
819.341	6327
819.481	6331
819.622	6509
819.762	6722
819.903	6749
820.043	6578
820.184	6509
820.324	6593
820.465	6677
820.605	6749
820.746	6692
820.886	6597
821.026	6635
821.167	6730
821.307	6833
821.447	6764
821.588	6673
821.728	6601
821.868	6483
822.008	6338
822.149	6357
822.289	6361
822.429	6182
822.569	6083
822.709	6087
822.849	5927
822.99	5908
823.13	5866
823.27	5954
823.41	5794
823.55	5737
823.69	5726
823.83	5779
823.97	5672
824.11	5543
824.25	5474
824.389	5554
824.529	5547
824.669	5524
824.809	5638
824.949	5585
825.089	5608
825.228	5558
825.368	5353
825.508	5277
825.648	5368
825.787	5379
825.927	5391
826.067	5318
826.206	5254
826.346	5395
826.485	5376
826.625	5391
826.765	5501
826.904	5467
827.044	5231
827.183	5151
827.323	5117
827.462	5223
827.601	5170
827.741	5151
827.88	5250
828.02	5147
828.159	5197
828.298	5360
828.437	5357
828.577	5284
828.716	5459
828.855	5334
828.994	5136
829.134	5159
829.273	5216
829.412	5155
829.551	5151
829.69	5170
829.829	5231
829.968	5341
830.107	5212
830.246	5307
830.385	5124
830.524	5151
830.663	5052
830.802	4987
830.941	4942
831.08	4870
831.219	4980
831.357	4991
831.496	5159
831.635	4942
831.774	4843
831.913	4824
832.051	4729
832.19	4767
832.329	4835
832.467	4672
832.606	4653
832.744	4706
832.883	4736
833.022	4721
833.16	4759
833.299	4797
833.437	4782
833.576	4793
833.714	4877
833.852	4896
833.991	4877
834.129	4919
834.267	4911
834.406	4881
834.544	4968
834.682	4965
834.821	4930
834.959	5128
835.097	4980
835.235	5136
835.373	5041
835.511	5083
835.65	5037
835.788	4991
835.926	4900
836.064	4911
836.202	4930
836.34	5117
836.478	5242
836.615	5090
836.753	5216
836.891	5265
837.029	5185
837.167	5216
837.305	5159
837.443	5128
837.58	5102
837.718	5220
837.856	5132
837.993	5109
838.131	5174
838.269	5216
838.406	5193
838.544	5174
838.681	5029
838.819	5010
838.956	4923
839.094	4881
839.231	4972
839.369	5094
839.506	5425
839.643	5269
839.781	5071
839.918	5041
840.055	5048
840.193	5117
840.33	5109
840.467	5105
840.604	5151
840.742	5395
840.879	5075
841.016	5124
841.153	5105
841.29	5383
841.427	5349
841.564	5341
841.701	5337
841.838	5235
841.975	5223
842.112	5239
842.249	5189
842.385	5117
842.522	5318
842.659	5159
842.796	5102
842.933	5178
843.069	5121
843.206	5124
843.343	5353
843.479	5212
843.616	5296
843.752	4991
843.889	4991
844.025	5254
844.162	4991
844.298	5204
844.435	5094
844.571	5006
844.708	5178
844.844	5288
844.98	5273
845.117	5261
845.253	5162
845.389	5079
845.525	5151
845.661	5132
845.798	5003
845.934	5124
846.07	5022
846.206	5155
846.342	5242
846.478	5155
846.614	5010
846.75	5025
846.886	4938
847.022	5105
847.158	5003
847.294	5041
847.429	5045
847.565	5010
847.701	5303
847.837	4858
847.972	4793
848.108	4934
848.244	4911
848.379	4782
848.515	4698
848.65	4721
848.786	4687
848.921	4790
849.057	4854
849.192	4885
849.328	4755
849.463	4847
849.598	4767
849.734	4683
849.869	4691
850.004	4630
850.14	4668
850.275	4611
850.41	4523
850.545	4569
850.68	4577
850.815	4596
850.95	4637
851.085	4862
851.22	4774
851.355	4653
851.49	4611
851.625	4622
851.76	4622
851.895	4531
852.03	4531
852.165	4641
852.299	4656
852.434	4771
852.569	4752
852.703	4736
852.838	4797
852.973	4923
853.107	4877
853.242	4717
853.376	4645
853.511	4535
853.645	4592
853.78	4820
853.914	4702
854.048	4649
854.183	4664
854.317	4698
854.451	4854
854.585	4702
854.72	4626
854.854	4782
854.988	4626
855.122	4622
855.256	4523
855.39	4653
855.524	4782
855.658	4763
855.792	4702
855.926	4702
856.06	4790
856.194	4733
856.327	4675
856.461	4630
856.595	4603
856.729	4596
856.862	4752
856.996	4710
857.13	4733
857.263	4759
857.397	4755
857.53	4656
857.664	4706
857.797	4801
857.931	4786
858.064	4683
858.197	4698
858.331	4668
858.464	4588
858.597	4519
858.731	4641
858.864	4622
858.997	4577
859.13	4645
859.263	4641
859.396	4714
859.529	4611
859.662	4538
859.795	4546
859.928	4622
860.061	4740
860.194	4748
860.327	4599
860.46	4561
860.592	4725
860.725	4710
860.858	4706
860.99	4596
861.123	4489
861.256	4504
861.388	4599
861.521	5280
861.653	4394
861.786	4462
861.918	4474
862.05	4523
862.183	4523
862.315	4554
862.447	4630
862.58	4516
862.712	4417
862.844	4325
862.976	4485
863.108	4485
863.24	4896
863.372	4272
863.504	4409
863.636	4379
863.768	4466
863.9	4455
864.032	4409
864.164	4402
864.296	4493
864.428	4527
864.559	4573
864.691	4569
864.823	4485
864.954	4455
865.086	4527
865.217	4447
865.349	4386
865.48	4489
865.612	4474
865.743	4603
865.875	4440
866.006	4405
866.137	4451
866.269	4432
866.4	4405
866.531	4379
866.662	4440
866.793	4405
866.924	4417
867.055	4481
867.186	4428
867.317	4424
867.448	4451
867.579	4360
867.71	4413
867.841	4329
867.972	4478
868.103	4470
868.233	4440
868.364	4436
868.495	4493
868.625	4687
868.756	4782
868.886	4550
869.017	4599
869.147	4778
869.278	4786
869.408	4668
869.539	4603
869.669	4721
869.799	4596
869.929	4790
870.06	4736
870.19	4908
870.32	4904
870.45	4949
870.58	5003
870.71	5098
870.84	5136
870.97	4942
871.1	4896
871.23	5128
871.36	5124
871.489	5025
871.619	5075
871.749	5079
871.879	5071
872.008	5223
872.138	5064
872.267	4942
872.397	4870
872.526	4831
872.656	4714
872.785	4793
872.915	4957
873.044	5014
873.173	4957
873.303	4949
873.432	4919
873.561	4934
873.69	4877
873.819	4805
873.948	4892
874.077	4824
874.206	4752
874.335	4759
874.464	4938
874.593	5041
874.722	4934
874.851	5136
874.979	5098
875.108	5018
875.237	4965
875.365	4862
875.494	4877
875.623	4946
875.751	4797
875.88	4911
876.008	4987
876.136	5025
876.265	5170
876.393	5326
876.521	5201
876.65	5280
876.778	5204
876.906	5064
877.034	5014
877.162	5041
877.29	4938
877.418	5060
877.546	5052
877.674	5071
877.802	5003
877.93	5033
878.058	4930
878.185	4904
878.313	4957
878.441	4892
878.568	4790
878.696	4858
878.824	4938
878.951	5018
879.079	5151
879.206	5254
879.333	5067
879.461	4972
879.588	5003
879.715	5143
879.842	5216
879.97	5010
880.097	4809
880.224	4786
880.351	4790
880.478	4854
880.605	4793
880.732	4759
880.859	5124
880.986	4839
881.112	4892
881.239	4801
881.366	4668
881.493	4630
881.619	4615
881.746	4634
881.872	4649
881.999	4637
882.125	4675
882.252	4763
882.378	4771
882.505	4942
882.631	4771
882.757	4675
882.883	4752
883.01	4733
883.136	4687
883.262	4561
883.388	4630
883.514	4820
883.64	4839
883.766	4801
883.892	4615
884.018	4752
884.143	4866
884.269	5022
884.395	4668
884.52	4641
884.646	4580
884.772	4588
884.897	4523
885.023	4679
885.148	4755
885.274	4809
885.399	4801
885.524	4672
885.65	4702
885.775	4694
885.9	4710
886.025	4877
886.15	4816
886.275	4717
886.4	4637
886.525	4740
886.65	4618
886.775	4687
886.9	4870
887.025	5010
887.149	4820
887.274	4679
887.399	4580
887.523	4599
887.648	4618
887.773	4645
887.897	4698
888.021	4824
888.146	4656
888.27	4778
888.395	4850
888.519	4763
888.643	4774
888.767	4816
888.891	4675
889.015	4569
889.139	4653
889.263	4603
889.387	4812
889.511	4870
889.635	4816
889.759	4668
889.883	4649
890.006	4672
890.13	4816
890.254	4611
890.377	4641
890.501	4565
890.624	4527
890.748	4649
890.871	4497
890.995	4497
891.118	4409
891.241	4508
891.364	4519
891.488	4615
891.611	4459
891.734	4542
891.857	4607
891.98	4558
892.103	4649
892.226	4599
892.349	4508
892.471	4417
892.594	4504
892.717	4622
892.839	4569
892.962	4565
893.085	4691
893.207	4611
893.33	4489
893.452	4500
893.575	4634
893.697	4592
893.819	4729
893.941	4812
894.064	4759
894.186	4546
894.308	4519
894.43	4721
894.552	4782
894.674	4714
894.796	4588
894.918	4550
895.04	4577
895.161	4683
895.283	4675
895.405	4558
895.526	4637
895.648	4702
895.769	4691
895.891	4687
896.012	4755
896.134	4725
896.255	4675
896.376	4679
896.498	4603
896.619	4641
896.74	4588
896.861	4615
896.982	4927
897.103	5067
897.224	4858
897.345	4702
897.466	4626
897.587	4736
897.708	4782
897.828	4755
897.949	4683
898.07	4558
898.19	4645
898.311	4824
898.431	4596
898.552	4740
898.672	4778
898.792	4744
898.913	4778
899.033	4607
899.153	4489
899.273	4428
899.393	4512
899.513	4470
899.633	4512
899.753	4538
899.873	4527
899.993	4573
900.113	4546
900.232	4592
900.352	4538
900.472	4493
900.591	4462
900.711	4527
900.83	4405
900.95	4588
901.069	4675
901.189	4554
901.308	4394
901.427	4325
901.546	4344
901.665	4447
901.784	4523
901.904	4348
902.023	4341
902.141	4158
902.26	4158
902.379	4284
902.498	4207
902.617	4257
902.735	4367
902.854	4367
902.973	4341
903.091	4185
903.21	4223
903.328	4303
903.446	4261
903.565	4234
903.683	4371
903.801	4280
903.919	4383
904.038	4413
904.156	4299
904.274	4421
904.392	4386
904.51	4436
904.627	4417
904.745	4519
904.863	4641
904.981	4417
905.098	4295
905.216	4356
905.334	4375
905.451	4440
905.569	4409
905.686	4497
905.803	4538
905.921	4394
906.038	4516
906.155	4497
906.272	4356
906.389	4508
906.506	4394
906.623	4386
906.74	4383
906.857	4306
906.974	4363
907.091	4599
907.208	4656
907.324	4565
907.441	4470
907.557	4337
907.674	4367
907.79	4333
907.907	4363
908.023	4516
908.139	4497
908.256	4409
908.372	4398
908.488	4470
908.604	4375
908.72	4276
908.836	4371
908.952	4409
909.068	4417
909.184	4565
909.3	4466
909.415	4584
909.531	4569
909.647	4352
909.762	4402
909.878	4352
909.993	4413
910.108	4379
910.224	4390
910.339	4500
910.454	4394
910.57	4341
910.685	4257
910.8	4611
910.915	4573
911.03	4489
911.145	4352
911.259	4375
911.374	4325
911.489	4253
911.604	4303
911.718	4177
911.833	4192
911.947	4048
912.062	4002
912.176	4204
912.291	4227
912.405	4246
912.519	4474
912.633	4497
912.748	4383
912.862	4337
912.976	4242
913.09	4112
913.204	4223
913.318	4265
913.431	4360
913.545	4371
913.659	4440
913.772	4325
913.886	4261
914	4207
914.113	4363
914.226	4409
914.34	4394
914.453	4211
914.566	4386
914.68	4329
914.793	4344
914.906	4150
915.019	4154
915.132	4067
915.245	4166
915.358	4185
915.47	4246
915.583	4276
915.696	4287
915.809	4447
915.921	4459
916.034	4246
916.146	4272
916.259	4230
916.371	4383
916.483	4337
916.595	4257
916.708	4295
916.82	4303
916.932	4329
917.044	4303
917.156	4333
917.268	4219
917.38	4265
917.491	4280
917.603	4367
917.715	4394
917.826	4432
917.938	4329
918.049	4253
918.161	4402
918.272	4569
918.384	4550
918.495	4466
918.606	4325
918.717	4200
918.828	4371
918.939	4367
919.05	4291
919.161	4299
919.272	4135
919.383	4242
919.494	4470
919.604	4607
919.715	4398
919.826	4322
919.936	4390
920.047	4535
920.157	4481
920.267	4725
920.378	4504
920.488	4512
920.598	4740
920.708	4877
920.818	4729
920.928	4790
921.038	4957
921.148	4946
921.258	4645
921.368	4588
921.477	4466
921.587	4470
921.697	4367
921.806	4519
921.916	4398
922.025	4227
922.134	4265
922.244	4280
922.353	4310
922.462	4185
922.571	4135
922.68	4006
922.789	3964
922.898	4051
923.007	3941
923.116	4071
923.224	4051
923.333	4074
923.442	3956
923.55	4006
923.659	4013
923.767	4158
923.876	4032
923.984	4090
924.092	3964
924.201	4051
924.309	4105
924.417	4082
924.525	4032
924.633	4101
924.741	5029
924.849	3899
924.956	4147
925.064	3998
925.172	3911
925.279	3972
925.387	4044
925.494	4059
925.602	4204
925.709	4219
925.816	4032
925.924	4150
926.031	4207
926.138	4158
926.245	4192
926.352	4101
926.459	4253
926.566	4284
926.673	4150
926.779	4078
926.886	4032
926.993	3979
927.099	3934
927.206	3949
927.312	3934
927.419	4044
927.525	4013
927.631	4059
927.737	3930
927.843	3960
927.95	3842
928.056	3949
928.162	3972
928.267	4044
928.373	4569
928.479	4071
928.585	3861
928.69	4044
928.796	4048
928.901	3941
929.007	3857
929.112	3998
929.218	3953
929.323	3880
929.428	3945
929.533	4093
929.638	3896
929.743	3960
929.848	3994
929.953	4032
930.058	3953
930.163	3793
930.267	3793
930.372	4002
930.477	3789
930.581	4074
930.685	3953
930.79	3854
930.894	3907
930.998	3861
931.103	4029
931.207	3717
931.311	3701
931.415	3690
931.519	3530
931.623	3595
