Data from test_V78500241_2554.txt Node
Date: Fri Mar 25 17:06:45 CST 2022
User: usil
Spectrometer: V785-0024
Trigger mode: 0
Integration Time (sec): 4.000000E-1
Scans to average: 1
Nonlinearity correction enabled: false
Boxcar width: 0
Storing dark spectrum: false
XAxis mode: Wavelengths
Number of Pixels in Spectrum: 1024
>>>>>Begin Spectral Data<<<<<
801.071	8058
801.214	7963
801.356	7913
801.499	7814
801.641	7799
801.783	7708
801.926	7928
802.068	7959
802.211	7970
802.353	8020
802.496	7814
802.638	7841
802.78	7951
802.923	7978
803.065	7875
803.208	7837
803.35	7967
803.492	8073
803.635	8142
803.777	8012
803.919	8126
804.061	8438
804.204	8138
804.346	8100
804.488	8043
804.63	8100
804.773	8050
804.915	8092
805.057	8317
805.199	8111
805.341	8168
805.483	8240
805.626	8237
805.768	8096
805.91	8259
806.052	8256
806.194	8096
806.336	8313
806.478	8081
806.62	8088
806.762	8168
806.904	8294
807.046	8393
807.188	8393
807.33	8343
807.472	8267
807.614	8126
807.756	8180
807.898	7932
808.04	7925
808.182	7944
808.324	7833
808.465	7894
808.607	8115
808.749	8115
808.891	8252
809.033	8290
809.174	8161
809.316	8039
809.458	8035
809.6	8043
809.741	8031
809.883	8016
810.025	8088
810.166	8005
810.308	7967
810.45	8005
810.591	7890
810.733	7757
810.875	7662
811.016	7514
811.158	7525
811.299	7613
811.441	7689
811.582	7620
811.724	7544
811.865	7514
812.007	7632
812.148	7624
812.29	7594
812.431	7685
812.573	7894
812.714	8001
812.855	8172
812.997	8218
813.138	8195
813.279	8161
813.421	8126
813.562	7997
813.703	7841
813.845	7765
813.986	7441
814.127	7343
814.268	7297
814.41	7179
814.551	7141
814.692	7209
814.833	7133
814.974	7156
815.115	7126
815.256	6966
815.397	6890
815.539	6943
815.68	6810
815.821	6772
815.962	6871
816.103	6818
816.244	6715
816.385	6612
816.526	6601
816.666	6490
816.807	6289
816.948	6483
817.089	6498
817.23	6456
817.371	6414
817.512	6445
817.653	6418
817.793	6285
817.934	6388
818.075	6456
818.216	6403
818.356	6407
818.497	6213
818.638	6106
818.778	6144
818.919	6178
819.06	6178
819.2	6380
819.341	6357
819.481	6365
819.622	6525
819.762	6749
819.903	6692
820.043	6559
820.184	6650
820.324	6601
820.465	6760
820.605	6700
820.746	6669
820.886	6593
821.026	6669
821.167	6711
821.307	6772
821.447	6738
821.588	6665
821.728	6597
821.868	6467
822.008	6296
822.149	6357
822.289	6403
822.429	6213
822.569	6041
822.709	6117
822.849	5946
822.99	5958
823.13	5980
823.27	5931
823.41	5798
823.55	5821
823.69	5710
823.83	5764
823.97	5668
824.11	5554
824.25	5482
824.389	5505
824.529	5562
824.669	5516
824.809	5627
824.949	5676
825.089	5600
825.228	5596
825.368	5406
825.508	5417
825.648	5360
825.787	5387
825.927	5353
826.067	5280
826.206	5273
826.346	5402
826.485	5414
826.625	5345
826.765	5516
826.904	5467
827.044	5254
827.183	5204
827.323	5128
827.462	5250
827.601	5174
827.741	5220
827.88	5197
828.02	5079
828.159	5227
828.298	5299
828.437	5311
828.577	5277
828.716	5478
828.855	5387
828.994	5178
829.134	5147
829.273	5174
829.412	5071
829.551	5117
829.69	5159
829.829	5239
829.968	5326
830.107	5265
830.246	5258
830.385	5220
830.524	5143
830.663	5052
830.802	5018
830.941	4904
831.08	4870
831.219	4984
831.357	4999
831.496	5151
831.635	4953
831.774	4824
831.913	4854
832.051	4714
832.19	4812
832.329	4854
832.467	4691
832.606	4634
832.744	4733
832.883	4691
833.022	4687
833.16	4786
833.299	4820
833.437	4816
833.576	4812
833.714	4900
833.852	4885
833.991	4923
834.129	4976
834.267	4957
834.406	4908
834.544	4995
834.682	4976
834.821	4995
834.959	5143
835.097	4999
835.235	5140
835.373	5094
835.511	5117
835.65	5010
835.788	5052
835.926	4904
836.064	4873
836.202	4900
836.34	5117
836.478	5303
836.615	5166
836.753	5223
836.891	5242
837.029	5231
837.167	5201
837.305	5151
837.443	5170
837.58	5090
837.718	5261
837.856	5181
837.993	5071
838.131	5239
838.269	5178
838.406	5250
838.544	5155
838.681	5052
838.819	5041
838.956	4911
839.094	4927
839.231	4999
839.369	5025
839.506	5448
839.643	5261
839.781	5079
839.918	5006
840.055	5083
840.193	5094
840.33	5132
840.467	5098
840.604	5143
840.742	5417
840.879	5105
841.016	5064
841.153	5143
841.29	5379
841.427	5307
841.564	5315
841.701	5345
841.838	5288
841.975	5227
842.112	5242
842.249	5197
842.385	5121
842.522	5349
842.659	5159
842.796	5212
842.933	5220
843.069	5143
843.206	5159
843.343	5223
843.479	5197
843.616	5265
843.752	5052
843.889	4930
844.025	5189
844.162	4991
844.298	5220
844.435	5121
844.571	5045
844.708	5201
844.844	5288
844.98	5292
845.117	5284
845.253	5136
845.389	5071
845.525	5166
845.661	5155
845.798	5006
845.934	5117
846.07	5067
846.206	5178
846.342	5284
846.478	5189
846.614	5048
846.75	4972
846.886	4911
847.022	5102
847.158	5018
847.294	5022
847.429	5105
847.565	5121
847.701	5322
847.837	4820
847.972	4797
848.108	4984
848.244	4885
848.379	4786
848.515	4759
848.65	4714
848.786	4755
848.921	4774
849.057	4870
849.192	4892
849.328	4839
849.463	4854
849.598	4729
849.734	4767
849.869	4675
850.004	4634
850.14	4584
850.275	4588
850.41	4516
850.545	4561
850.68	4611
850.815	4645
850.95	4622
851.085	4835
851.22	4721
851.355	4672
851.49	4634
851.625	4615
851.76	4679
851.895	4542
852.03	4527
852.165	4672
852.299	4721
852.434	4767
852.569	4778
852.703	4755
852.838	4850
852.973	4896
853.107	4858
853.242	4698
853.376	4649
853.511	4546
853.645	4656
853.78	4812
853.914	4687
854.048	4645
854.183	4615
854.317	4649
854.451	4778
854.585	4675
854.72	4656
854.854	4729
854.988	4611
855.122	4645
855.256	4508
855.39	4645
855.524	4831
855.658	4748
855.792	4687
855.926	4763
856.06	4729
856.194	4824
856.327	4672
856.461	4599
856.595	4603
856.729	4645
856.862	4748
856.996	4691
857.13	4706
857.263	4744
857.397	4771
857.53	4588
857.664	4714
857.797	4809
857.931	4786
858.064	4664
858.197	4717
858.331	4653
858.464	4599
858.597	4504
858.731	4618
858.864	4645
858.997	4622
859.13	4626
859.263	4672
859.396	4660
859.529	4569
859.662	4550
859.795	4516
859.928	4588
860.061	4793
860.194	4748
860.327	4592
860.46	4542
860.592	4702
860.725	4702
860.858	4736
860.99	4584
861.123	4516
861.256	4565
861.388	4535
861.521	5261
861.653	4493
861.786	4428
861.918	4443
862.05	4558
862.183	4542
862.315	4626
862.447	4694
862.58	4561
862.712	4398
862.844	4322
862.976	4485
863.108	4447
863.24	4786
863.372	4314
863.504	4451
863.636	4402
863.768	4508
863.9	4390
864.032	4356
864.164	4402
864.296	4489
864.428	4535
864.559	4531
864.691	4516
864.823	4592
864.954	4470
865.086	4485
865.217	4470
865.349	4440
865.48	4443
865.612	4497
865.743	4641
865.875	4459
866.006	4367
866.137	4493
866.269	4455
866.4	4417
866.531	4402
866.662	4402
866.793	4398
866.924	4405
867.055	4519
867.186	4447
867.317	4394
867.448	4386
867.579	4398
867.71	4386
867.841	4390
867.972	4455
868.103	4497
868.233	4424
868.364	4455
868.495	4527
868.625	4626
868.756	4748
868.886	4577
869.017	4596
869.147	4801
869.278	4793
869.408	4668
869.539	4668
869.669	4668
869.799	4664
869.929	4801
870.06	4771
870.19	4919
870.32	4927
870.45	4953
870.58	5018
870.71	5136
870.84	5067
870.97	4968
871.1	4896
871.23	5098
871.36	5170
871.489	5006
871.619	5079
871.749	5109
871.879	5124
872.008	5189
872.138	5006
872.267	4908
872.397	4847
872.526	4790
872.656	4790
872.785	4763
872.915	4938
873.044	5010
873.173	4930
873.303	5022
873.432	4938
873.561	4957
873.69	4858
873.819	4843
873.948	4877
874.077	4793
874.206	4801
874.335	4828
874.464	4946
874.593	5006
874.722	4972
874.851	5105
874.979	5060
875.108	5045
875.237	4911
875.365	4877
875.494	4858
875.623	4987
875.751	4839
875.88	4866
876.008	4980
876.136	5048
876.265	5235
876.393	5353
876.521	5231
876.65	5170
876.778	5159
876.906	5094
877.034	5067
877.162	5079
877.29	4976
877.418	5109
877.546	5060
877.674	5033
877.802	5041
877.93	5014
878.058	4885
878.185	4862
878.313	4965
878.441	4965
878.568	4820
878.696	4854
878.824	4949
878.951	5014
879.079	5117
879.206	5280
879.333	5056
879.461	4987
879.588	5025
879.715	5136
879.842	5193
879.97	4976
880.097	4782
880.224	4694
880.351	4752
880.478	4812
880.605	4812
880.732	4805
880.859	5086
880.986	4889
881.112	4927
881.239	4759
881.366	4664
881.493	4596
881.619	4611
881.746	4641
881.872	4641
881.999	4668
882.125	4656
882.252	4763
882.378	4809
882.505	4942
882.631	4793
882.757	4702
882.883	4744
883.01	4744
883.136	4683
883.262	4634
883.388	4611
883.514	4809
883.64	4843
883.766	4843
883.892	4691
884.018	4748
884.143	4904
884.269	5003
884.395	4672
884.52	4641
884.646	4668
884.772	4580
884.897	4554
885.023	4637
885.148	4782
885.274	4820
885.399	4824
885.524	4668
885.65	4675
885.775	4755
885.9	4675
886.025	4889
886.15	4782
886.275	4748
886.4	4649
886.525	4698
886.65	4672
886.775	4630
886.9	4908
887.025	4999
887.149	4778
887.274	4615
887.399	4626
887.523	4622
887.648	4577
887.773	4615
887.897	4721
888.021	4744
888.146	4653
888.27	4835
888.395	5006
888.519	4805
888.643	4831
888.767	4850
888.891	4706
889.015	4607
889.139	4645
889.263	4580
889.387	4729
889.511	4824
889.635	4782
889.759	4653
889.883	4611
890.006	4774
890.13	4801
890.254	4607
890.377	4660
890.501	4550
890.624	4493
890.748	4634
890.871	4497
890.995	4413
891.118	4424
891.241	4504
891.364	4573
891.488	4603
891.611	4531
891.734	4481
891.857	4618
891.98	4550
892.103	4656
892.226	4607
892.349	4550
892.471	4417
892.594	4599
892.717	4565
892.839	4565
892.962	4577
893.085	4618
893.207	4565
893.33	4466
893.452	4516
893.575	4656
893.697	4573
893.819	4790
893.941	4850
894.064	4759
894.186	4577
894.308	4558
894.43	4691
894.552	4835
894.674	4767
894.796	4577
894.918	4573
895.04	4542
895.161	4717
895.283	4641
895.405	4565
895.526	4596
895.648	4664
895.769	4675
895.891	4679
896.012	4691
896.134	4748
896.255	4733
896.376	4607
896.498	4607
896.619	4672
896.74	4592
896.861	4656
896.982	4946
897.103	5086
897.224	4828
897.345	4714
897.466	4710
897.587	4675
897.708	4835
897.828	4793
897.949	4656
898.07	4561
898.19	4626
898.311	4805
898.431	4668
898.552	4702
898.672	4809
898.792	4778
898.913	4679
899.033	4649
899.153	4527
899.273	4421
899.393	4485
899.513	4481
899.633	4519
899.753	4542
899.873	4508
899.993	4577
900.113	4508
900.232	4558
900.352	4538
900.472	4462
900.591	4371
900.711	4489
900.83	4409
900.95	4588
901.069	4694
901.189	4554
901.308	4356
901.427	4303
901.546	4337
901.665	4443
901.784	4500
901.904	4360
902.023	4310
902.141	4215
902.26	4204
902.379	4291
902.498	4249
902.617	4196
902.735	4367
902.854	4413
902.973	4360
903.091	4207
903.21	4200
903.328	4284
903.446	4238
903.565	4268
903.683	4402
903.801	4280
903.919	4383
904.038	4409
904.156	4272
904.274	4424
904.392	4386
904.51	4424
904.627	4474
904.745	4596
904.863	4588
904.981	4379
905.098	4249
905.216	4383
905.334	4390
905.451	4386
905.569	4451
905.686	4538
905.803	4580
905.921	4443
906.038	4558
906.155	4443
906.272	4352
906.389	4436
906.506	4310
906.623	4344
906.74	4390
906.857	4291
906.974	4383
907.091	4565
907.208	4653
907.324	4615
907.441	4512
907.557	4333
907.674	4299
907.79	4306
907.907	4356
908.023	4508
908.139	4470
908.256	4459
908.372	4470
908.488	4413
908.604	4356
908.72	4310
908.836	4356
908.952	4325
909.068	4363
909.184	4542
909.3	4478
909.415	4523
909.531	4542
909.647	4383
909.762	4383
909.878	4322
909.993	4440
910.108	4371
910.224	4371
910.339	4436
910.454	4390
910.57	4348
910.685	4314
910.8	4653
910.915	4626
911.03	4489
911.145	4314
911.259	4325
911.374	4363
911.489	4280
911.604	4272
911.718	4124
911.833	4207
911.947	4128
912.062	4025
912.176	4207
912.291	4246
912.405	4265
912.519	4466
912.633	4474
912.748	4371
912.862	4314
912.976	4192
913.09	4109
913.204	4154
913.318	4246
913.431	4348
913.545	4356
913.659	4455
913.772	4367
913.886	4291
914	4242
914.113	4417
914.226	4455
914.34	4383
914.453	4211
914.566	4466
914.68	4299
914.793	4352
914.906	4173
915.019	4112
915.132	4086
915.245	4169
915.358	4223
915.47	4219
915.583	4253
915.696	4284
915.809	4375
915.921	4428
916.034	4242
916.146	4242
916.259	4249
916.371	4371
916.483	4352
916.595	4265
916.708	4303
916.82	4318
916.932	4379
917.044	4337
917.156	4310
917.268	4188
917.38	4272
917.491	4295
917.603	4344
917.715	4440
917.826	4432
917.938	4344
918.049	4249
918.161	4379
918.272	4538
918.384	4527
918.495	4489
918.606	4299
918.717	4242
918.828	4341
918.939	4367
919.05	4230
919.161	4322
919.272	4143
919.383	4215
919.494	4428
919.604	4630
919.715	4386
919.826	4329
919.936	4379
920.047	4538
920.157	4508
920.267	4721
920.378	4538
920.488	4512
920.598	4706
920.708	4839
920.818	4717
920.928	4782
921.038	4908
921.148	4877
921.258	4660
921.368	4588
921.477	4455
921.587	4462
921.697	4348
921.806	4561
921.916	4447
922.025	4268
922.134	4295
922.244	4215
922.353	4280
922.462	4154
922.571	4128
922.68	4021
922.789	3979
922.898	4017
923.007	4017
923.116	4105
923.224	4090
923.333	4071
923.442	3994
923.55	3960
923.659	4044
923.767	4116
923.876	4013
923.984	4131
924.092	4013
924.201	4040
924.309	4082
924.417	4135
924.525	4063
924.633	4078
924.741	5075
924.849	3903
924.956	4166
925.064	3956
925.172	3930
925.279	3964
925.387	4074
925.494	4051
925.602	4223
925.709	4196
925.816	4013
925.924	4169
926.031	4230
926.138	4200
926.245	4230
926.352	4040
926.459	4238
926.566	4230
926.673	4162
926.779	4067
926.886	4078
926.993	3983
927.099	3949
927.206	3922
927.312	3979
927.419	4059
927.525	4013
927.631	4067
927.737	3953
927.843	3926
927.95	3816
928.056	3964
928.162	3983
928.267	4093
928.373	4550
928.479	4112
928.585	3869
928.69	4025
928.796	4029
928.901	3979
929.007	3842
929.112	4002
929.218	3983
929.323	3964
929.428	3945
929.533	4090
929.638	3922
929.743	3987
929.848	4086
929.953	4006
930.058	3941
930.163	3743
930.267	3804
930.372	3991
930.477	3819
930.581	4112
930.685	3972
930.79	3816
930.894	3896
930.998	3816
931.103	4051
931.207	3660
931.311	3698
931.415	3644
931.519	3526
931.623	3557
