Data from test_V78500241_1860.txt Node
Date: Fri Mar 25 17:01:56 CST 2022
User: usil
Spectrometer: V785-0024
Trigger mode: 0
Integration Time (sec): 4.000000E-1
Scans to average: 1
Nonlinearity correction enabled: false
Boxcar width: 0
Storing dark spectrum: false
XAxis mode: Wavelengths
Number of Pixels in Spectrum: 1024
>>>>>Begin Spectral Data<<<<<
801.071	7940
801.214	8012
801.356	7868
801.499	7894
801.641	7780
801.783	7765
801.926	7951
802.068	7940
802.211	7974
802.353	7982
802.496	7868
802.638	7826
802.78	7845
802.923	7833
803.065	7826
803.208	7814
803.35	7986
803.492	8062
803.635	8183
803.777	8103
803.919	8115
804.061	8469
804.204	8180
804.346	8092
804.488	7951
804.63	8100
804.773	8031
804.915	8069
805.057	8286
805.199	8237
805.341	8149
805.483	8244
805.626	8229
805.768	8149
805.91	8225
806.052	8229
806.194	8180
806.336	8279
806.478	8130
806.62	8077
806.762	8142
806.904	8328
807.046	8533
807.188	8412
807.33	8351
807.472	8347
807.614	8191
807.756	8138
807.898	8024
808.04	7906
808.182	7871
808.324	7898
808.465	7925
808.607	8031
808.749	8115
808.891	8233
809.033	8267
809.174	8183
809.316	8115
809.458	8111
809.6	8046
809.741	8035
809.883	8039
810.025	8134
810.166	8058
810.308	8016
810.45	7978
810.591	7811
810.733	7761
810.875	7689
811.016	7521
811.158	7457
811.299	7632
811.441	7719
811.582	7643
811.724	7670
811.865	7487
812.007	7556
812.148	7624
812.29	7670
812.431	7734
812.573	7830
812.714	7982
812.855	8134
812.997	8191
813.138	8362
813.279	8153
813.421	8119
813.562	7993
813.703	7822
813.845	7636
813.986	7506
814.127	7244
814.268	7206
814.41	7206
814.551	7164
814.692	7209
814.833	7118
814.974	7114
815.115	7149
815.256	6996
815.397	6951
815.539	6924
815.68	6764
815.821	6772
815.962	6867
816.103	6825
816.244	6719
816.385	6635
816.526	6642
816.666	6536
816.807	6292
816.948	6467
817.089	6414
817.23	6426
817.371	6376
817.512	6361
817.653	6407
817.793	6331
817.934	6433
818.075	6437
818.216	6464
818.356	6422
818.497	6266
818.638	6110
818.778	6175
818.919	6148
819.06	6213
819.2	6334
819.341	6372
819.481	6456
819.622	6513
819.762	6711
819.903	6703
820.043	6601
820.184	6547
820.324	6502
820.465	6753
820.605	6711
820.746	6669
820.886	6490
821.026	6684
821.167	6719
821.307	6787
821.447	6783
821.588	6627
821.728	6639
821.868	6513
822.008	6311
822.149	6353
822.289	6315
822.429	6140
822.569	6045
822.709	6106
822.849	5965
822.99	5855
823.13	5874
823.27	5878
823.41	5866
823.55	5764
823.69	5756
823.83	5767
823.97	5668
824.11	5554
824.25	5459
824.389	5554
824.529	5623
824.669	5570
824.809	5646
824.949	5653
825.089	5630
825.228	5566
825.368	5322
825.508	5402
825.648	5330
825.787	5372
825.927	5353
826.067	5292
826.206	5326
826.346	5406
826.485	5406
826.625	5398
826.765	5490
826.904	5501
827.044	5227
827.183	5189
827.323	5159
827.462	5254
827.601	5178
827.741	5189
827.88	5258
828.02	5140
828.159	5201
828.298	5292
828.437	5345
828.577	5303
828.716	5486
828.855	5376
828.994	5204
829.134	5162
829.273	5235
829.412	5140
829.551	5124
829.69	5227
829.829	5299
829.968	5417
830.107	5280
830.246	5261
830.385	5166
830.524	5086
830.663	5025
830.802	4957
830.941	4934
831.08	4896
831.219	5003
831.357	4999
831.496	5147
831.635	4908
831.774	4889
831.913	4885
832.051	4774
832.19	4744
832.329	4862
832.467	4656
832.606	4687
832.744	4721
832.883	4683
833.022	4729
833.16	4774
833.299	4793
833.437	4839
833.576	4816
833.714	4843
833.852	4839
833.991	4896
834.129	4961
834.267	4984
834.406	4915
834.544	4968
834.682	4984
834.821	4968
834.959	5170
835.097	4980
835.235	5162
835.373	5128
835.511	5071
835.65	5037
835.788	5045
835.926	4942
836.064	4896
836.202	4930
836.34	5181
836.478	5189
836.615	5174
836.753	5212
836.891	5318
837.029	5220
837.167	5204
837.305	5136
837.443	5155
837.58	5105
837.718	5216
837.856	5208
837.993	5174
838.131	5223
838.269	5227
838.406	5227
838.544	5193
838.681	5060
838.819	5067
838.956	4930
839.094	4896
839.231	5003
839.369	5060
839.506	5417
839.643	5239
839.781	5098
839.918	5037
840.055	5067
840.193	5098
840.33	5140
840.467	5109
840.604	5208
840.742	5391
840.879	5060
841.016	5105
841.153	5174
841.29	5318
841.427	5315
841.564	5288
841.701	5288
841.838	5280
841.975	5246
842.112	5311
842.249	5098
842.385	5083
842.522	5318
842.659	5170
842.796	5109
842.933	5239
843.069	5143
843.206	5147
843.343	5330
843.479	5227
843.616	5292
843.752	5022
843.889	5018
844.025	5208
844.162	5022
844.298	5227
844.435	5094
844.571	5045
844.708	5204
844.844	5296
844.98	5368
845.117	5288
845.253	5124
845.389	5094
845.525	5185
845.661	5124
845.798	4991
845.934	5140
846.07	5098
846.206	5181
846.342	5299
846.478	5204
846.614	4965
846.75	4968
846.886	4892
847.022	5094
847.158	5025
847.294	5014
847.429	5067
847.565	5037
847.701	5307
847.837	4831
847.972	4812
848.108	4972
848.244	4980
848.379	4748
848.515	4725
848.65	4698
848.786	4767
848.921	4759
849.057	4904
849.192	4927
849.328	4801
849.463	4862
849.598	4778
849.734	4774
849.869	4698
850.004	4618
850.14	4679
850.275	4683
850.41	4489
850.545	4599
850.68	4622
850.815	4630
850.95	4603
851.085	4850
851.22	4721
851.355	4702
851.49	4603
851.625	4592
851.76	4626
851.895	4538
852.03	4558
852.165	4664
852.299	4710
852.434	4759
852.569	4790
852.703	4812
852.838	4847
852.973	4949
853.107	4911
853.242	4736
853.376	4698
853.511	4542
853.645	4603
853.78	4847
853.914	4706
854.048	4660
854.183	4618
854.317	4687
854.451	4816
854.585	4645
854.72	4603
854.854	4721
854.988	4554
855.122	4672
855.256	4504
855.39	4618
855.524	4767
855.658	4706
855.792	4626
855.926	4694
856.06	4733
856.194	4790
856.327	4675
856.461	4637
856.595	4599
856.729	4618
856.862	4740
856.996	4717
857.13	4721
857.263	4759
857.397	4767
857.53	4675
857.664	4736
857.797	4714
857.931	4767
858.064	4721
858.197	4675
858.331	4645
858.464	4622
858.597	4527
858.731	4596
858.864	4664
858.997	4588
859.13	4615
859.263	4618
859.396	4759
859.529	4565
859.662	4523
859.795	4504
859.928	4649
860.061	4694
860.194	4752
860.327	4569
860.46	4649
860.592	4721
860.725	4675
860.858	4740
860.99	4542
861.123	4523
861.256	4516
861.388	4637
861.521	5345
861.653	4485
861.786	4466
861.918	4466
862.05	4519
862.183	4478
862.315	4565
862.447	4702
862.58	4550
862.712	4405
862.844	4356
862.976	4459
863.108	4497
863.24	4904
863.372	4352
863.504	4413
863.636	4417
863.768	4508
863.9	4413
864.032	4363
864.164	4428
864.296	4440
864.428	4523
864.559	4512
864.691	4516
864.823	4516
864.954	4500
865.086	4538
865.217	4443
865.349	4371
865.48	4462
865.612	4512
865.743	4645
865.875	4451
866.006	4421
866.137	4417
866.269	4413
866.4	4440
866.531	4424
866.662	4390
866.793	4462
866.924	4424
867.055	4500
867.186	4398
867.317	4417
867.448	4367
867.579	4390
867.71	4360
867.841	4379
867.972	4447
868.103	4459
868.233	4489
868.364	4443
868.495	4489
868.625	4630
868.756	4767
868.886	4565
869.017	4691
869.147	4774
869.278	4793
869.408	4656
869.539	4656
869.669	4706
869.799	4653
869.929	4725
870.06	4729
870.19	4919
870.32	4938
870.45	4942
870.58	4999
870.71	5121
870.84	5025
870.97	4934
871.1	4873
871.23	5128
871.36	5121
871.489	4995
871.619	5064
871.749	5037
871.879	5121
872.008	5189
872.138	5067
872.267	4900
872.397	4824
872.526	4793
872.656	4755
872.785	4862
872.915	4946
873.044	5006
873.173	4877
873.303	5006
873.432	4942
873.561	4949
873.69	4835
873.819	4877
873.948	4877
874.077	4820
874.206	4733
874.335	4801
874.464	4896
874.593	5045
874.722	4915
874.851	5090
874.979	5071
875.108	5060
875.237	4892
875.365	4873
875.494	4870
875.623	4995
875.751	4801
875.88	4870
876.008	4976
876.136	5045
876.265	5193
876.393	5299
876.521	5204
876.65	5197
876.778	5155
876.906	5064
877.034	5045
877.162	5025
877.29	4953
877.418	5064
877.546	5029
877.674	5056
877.802	5022
877.93	5003
878.058	4949
878.185	4896
878.313	4942
878.441	4934
878.568	4767
878.696	4873
878.824	4995
878.951	4984
879.079	5143
879.206	5231
879.333	5128
879.461	5041
879.588	5045
879.715	5098
879.842	5166
879.97	5033
880.097	4824
880.224	4702
880.351	4763
880.478	4797
880.605	4801
880.732	4744
880.859	5109
880.986	4900
881.112	4862
881.239	4782
881.366	4675
881.493	4603
881.619	4618
881.746	4622
881.872	4637
881.999	4702
882.125	4733
882.252	4774
882.378	4812
882.505	4927
882.631	4782
882.757	4717
882.883	4672
883.01	4717
883.136	4656
883.262	4607
883.388	4630
883.514	4786
883.64	4881
883.766	4835
883.892	4656
884.018	4691
884.143	4942
884.269	4991
884.395	4649
884.52	4672
884.646	4637
884.772	4603
884.897	4558
885.023	4626
885.148	4816
885.274	4889
885.399	4862
885.524	4752
885.65	4702
885.775	4740
885.9	4687
886.025	4809
886.15	4778
886.275	4755
886.4	4691
886.525	4702
886.65	4683
886.775	4694
886.9	4900
887.025	5010
887.149	4793
887.274	4634
887.399	4592
887.523	4588
887.648	4622
887.773	4523
887.897	4717
888.021	4786
888.146	4721
888.27	4843
888.395	4854
888.519	4805
888.643	4786
888.767	4824
888.891	4687
889.015	4596
889.139	4649
889.263	4596
889.387	4744
889.511	4873
889.635	4778
889.759	4717
889.883	4634
890.006	4717
890.13	4824
890.254	4653
890.377	4702
890.501	4523
890.624	4523
890.748	4603
890.871	4508
890.995	4455
891.118	4398
891.241	4550
891.364	4546
891.488	4611
891.611	4485
891.734	4531
891.857	4584
891.98	4561
892.103	4645
892.226	4554
892.349	4554
892.471	4451
892.594	4542
892.717	4599
892.839	4592
892.962	4645
893.085	4672
893.207	4637
893.33	4455
893.452	4527
893.575	4660
893.697	4588
893.819	4786
893.941	4835
894.064	4774
894.186	4607
894.308	4531
894.43	4759
894.552	4809
894.674	4736
894.796	4558
894.918	4584
895.04	4607
895.161	4717
895.283	4634
895.405	4641
895.526	4653
895.648	4698
895.769	4691
895.891	4649
896.012	4702
896.134	4755
896.255	4679
896.376	4641
896.498	4630
896.619	4714
896.74	4626
896.861	4660
896.982	4889
897.103	5067
897.224	4831
897.345	4759
897.466	4653
897.587	4691
897.708	4870
897.828	4778
897.949	4706
898.07	4561
898.19	4645
898.311	4812
898.431	4660
898.552	4698
898.672	4816
898.792	4790
898.913	4759
899.033	4664
899.153	4535
899.273	4402
899.393	4542
899.513	4516
899.633	4508
899.753	4508
899.873	4481
899.993	4588
900.113	4512
900.232	4599
900.352	4577
900.472	4470
900.591	4386
900.711	4519
900.83	4436
900.95	4615
901.069	4649
901.189	4538
901.308	4333
901.427	4352
901.546	4375
901.665	4440
901.784	4516
901.904	4360
902.023	4337
902.141	4211
902.26	4147
902.379	4325
902.498	4238
902.617	4230
902.735	4363
902.854	4356
902.973	4360
903.091	4192
903.21	4227
903.328	4287
903.446	4238
903.565	4238
903.683	4318
903.801	4291
903.919	4443
904.038	4432
904.156	4325
904.274	4405
904.392	4421
904.51	4394
904.627	4447
904.745	4554
904.863	4622
904.981	4421
905.098	4306
905.216	4390
905.334	4428
905.451	4428
905.569	4436
905.686	4535
905.803	4519
905.921	4424
906.038	4573
906.155	4432
906.272	4424
906.389	4443
906.506	4367
906.623	4405
906.74	4428
906.857	4337
906.974	4356
907.091	4588
907.208	4706
907.324	4588
907.441	4474
907.557	4344
907.674	4333
907.79	4280
907.907	4394
908.023	4489
908.139	4481
908.256	4485
908.372	4466
908.488	4466
908.604	4333
908.72	4348
908.836	4383
908.952	4337
909.068	4405
909.184	4577
909.3	4459
909.415	4565
909.531	4584
909.647	4341
909.762	4360
909.878	4333
909.993	4402
910.108	4413
910.224	4405
910.339	4443
910.454	4417
910.57	4329
910.685	4295
910.8	4660
910.915	4622
911.03	4485
911.145	4322
911.259	4337
911.374	4375
911.489	4318
911.604	4276
911.718	4158
911.833	4162
911.947	4074
912.062	4051
912.176	4234
912.291	4211
912.405	4303
912.519	4443
912.633	4527
912.748	4371
912.862	4295
912.976	4192
913.09	4071
913.204	4154
913.318	4246
913.431	4363
913.545	4329
913.659	4474
913.772	4375
913.886	4242
914	4185
914.113	4352
914.226	4428
914.34	4363
914.453	4230
914.566	4402
914.68	4314
914.793	4363
914.906	4139
915.019	4116
915.132	4059
915.245	4135
915.358	4253
915.47	4246
915.583	4287
915.696	4242
915.809	4428
915.921	4455
916.034	4246
916.146	4204
916.259	4211
916.371	4379
916.483	4337
916.595	4265
916.708	4310
916.82	4303
916.932	4284
917.044	4341
917.156	4352
917.268	4230
917.38	4287
917.491	4306
917.603	4352
917.715	4424
917.826	4428
917.938	4314
918.049	4200
918.161	4379
918.272	4538
918.384	4500
918.495	4405
918.606	4291
918.717	4219
918.828	4337
918.939	4360
919.05	4219
919.161	4310
919.272	4120
919.383	4192
919.494	4409
919.604	4649
919.715	4432
919.826	4360
919.936	4394
920.047	4523
920.157	4508
920.267	4721
920.378	4519
920.488	4546
920.598	4706
920.708	4862
920.818	4759
920.928	4725
921.038	4953
921.148	4961
921.258	4664
921.368	4577
921.477	4436
921.587	4455
921.697	4398
921.806	4497
921.916	4432
922.025	4276
922.134	4272
922.244	4234
922.353	4287
922.462	4162
922.571	4139
922.68	4032
922.789	4010
922.898	4010
923.007	3972
923.116	4093
923.224	4059
923.333	4059
923.442	4006
923.55	3949
923.659	3994
923.767	4116
923.876	3968
923.984	4109
924.092	3994
924.201	4029
924.309	4105
924.417	4124
924.525	4074
924.633	4086
924.741	5075
924.849	3918
924.956	4120
925.064	3975
925.172	3888
925.279	3941
925.387	4040
925.494	4040
925.602	4192
925.709	4173
925.816	4040
925.924	4109
926.031	4227
926.138	4169
926.245	4158
926.352	4082
926.459	4265
926.566	4272
926.673	4177
926.779	4131
926.886	4082
926.993	3998
927.099	3964
927.206	3937
927.312	3903
927.419	4067
927.525	3979
927.631	4116
927.737	3975
927.843	3956
927.95	3835
928.056	3975
928.162	3994
928.267	4067
928.373	4584
928.479	4101
928.585	3892
928.69	4040
928.796	4071
928.901	3964
929.007	3827
929.112	4013
929.218	3972
929.323	3899
929.428	3945
929.533	4074
929.638	3899
929.743	3968
929.848	4017
929.953	3987
930.058	3937
930.163	3766
930.267	3812
930.372	3953
930.477	3816
930.581	4078
930.685	3907
930.79	3804
930.894	3861
930.998	3857
931.103	4040
931.207	3751
931.311	3690
931.415	3701
931.519	3542
931.623	3515
