Data from test_V78500241_2330.txt Node
Date: Fri Mar 25 17:05:12 CST 2022
User: usil
Spectrometer: V785-0024
Trigger mode: 0
Integration Time (sec): 4.000000E-1
Scans to average: 1
Nonlinearity correction enabled: false
Boxcar width: 0
Storing dark spectrum: false
XAxis mode: Wavelengths
Number of Pixels in Spectrum: 1024
>>>>>Begin Spectral Data<<<<<
801.071	8031
801.214	7944
801.356	7860
801.499	7833
801.641	7761
801.783	7750
801.926	7928
802.068	7906
802.211	7909
802.353	8005
802.496	7818
802.638	7845
802.78	7902
802.923	7898
803.065	7894
803.208	7856
803.35	7993
803.492	8134
803.635	8210
803.777	8092
803.919	8084
804.061	8362
804.204	8145
804.346	8031
804.488	7955
804.63	8115
804.773	8073
804.915	8130
805.057	8286
805.199	8176
805.341	8206
805.483	8279
805.626	8252
805.768	8145
805.91	8130
806.052	8191
806.194	8123
806.336	8324
806.478	8123
806.62	8054
806.762	8119
806.904	8279
807.046	8537
807.188	8290
807.33	8298
807.472	8294
807.614	8199
807.756	8111
807.898	8077
808.04	7883
808.182	7909
808.324	7913
808.465	7963
808.607	8077
808.749	8107
808.891	8286
809.033	8275
809.174	8195
809.316	8020
809.458	8111
809.6	8054
809.741	8073
809.883	8005
810.025	8119
810.166	8046
810.308	7986
810.45	7974
810.591	7856
810.733	7708
810.875	7677
811.016	7514
811.158	7445
811.299	7559
811.441	7704
811.582	7605
811.724	7544
811.865	7521
812.007	7582
812.148	7590
812.29	7628
812.431	7734
812.573	7898
812.714	8001
812.855	8138
812.997	8202
813.138	8256
813.279	8233
813.421	8024
813.562	8035
813.703	7788
813.845	7693
813.986	7457
814.127	7236
814.268	7209
814.41	7190
814.551	7183
814.692	7213
814.833	7107
814.974	7095
815.115	7069
815.256	6993
815.397	6935
815.539	6977
815.68	6878
815.821	6715
815.962	6886
816.103	6818
816.244	6696
816.385	6669
816.526	6662
816.666	6532
816.807	6331
816.948	6452
817.089	6513
817.23	6403
817.371	6353
817.512	6365
817.653	6391
817.793	6369
817.934	6422
818.075	6452
818.216	6369
818.356	6414
818.497	6292
818.638	6129
818.778	6182
818.919	6171
819.06	6182
819.2	6353
819.341	6369
819.481	6365
819.622	6502
819.762	6684
819.903	6734
820.043	6604
820.184	6551
820.324	6589
820.465	6673
820.605	6642
820.746	6662
820.886	6521
821.026	6715
821.167	6719
821.307	6840
821.447	6791
821.588	6662
821.728	6574
821.868	6498
822.008	6296
822.149	6372
822.289	6357
822.429	6186
822.569	6114
822.709	6182
822.849	5901
822.99	5897
823.13	5927
823.27	5882
823.41	5794
823.55	5794
823.69	5737
823.83	5786
823.97	5665
824.11	5562
824.25	5501
824.389	5592
824.529	5570
824.669	5520
824.809	5608
824.949	5627
825.089	5600
825.228	5547
825.368	5410
825.508	5337
825.648	5345
825.787	5391
825.927	5379
826.067	5334
826.206	5311
826.346	5364
826.485	5364
826.625	5414
826.765	5600
826.904	5440
827.044	5223
827.183	5201
827.323	5162
827.462	5250
827.601	5181
827.741	5261
827.88	5170
828.02	5140
828.159	5220
828.298	5315
828.437	5364
828.577	5299
828.716	5459
828.855	5292
828.994	5124
829.134	5166
829.273	5235
829.412	5178
829.551	5128
829.69	5121
829.829	5201
829.968	5349
830.107	5280
830.246	5322
830.385	5162
830.524	5105
830.663	5060
830.802	4980
830.941	4896
831.08	4904
831.219	5003
831.357	4946
831.496	5132
831.635	4976
831.774	4843
831.913	4877
832.051	4729
832.19	4744
832.329	4809
832.467	4702
832.606	4649
832.744	4694
832.883	4721
833.022	4733
833.16	4755
833.299	4812
833.437	4824
833.576	4881
833.714	4831
833.852	4866
833.991	4915
834.129	4949
834.267	4919
834.406	4923
834.544	4980
834.682	4972
834.821	4995
834.959	5159
835.097	4984
835.235	5189
835.373	5006
835.511	5132
835.65	5022
835.788	4991
835.926	4870
836.064	4885
836.202	4942
836.34	5124
836.478	5216
836.615	5132
836.753	5185
836.891	5284
837.029	5254
837.167	5189
837.305	5147
837.443	5147
837.58	5090
837.718	5273
837.856	5189
837.993	5147
838.131	5242
838.269	5220
838.406	5162
838.544	5189
838.681	5048
838.819	5018
838.956	4904
839.094	4885
839.231	5022
839.369	5090
839.506	5368
839.643	5296
839.781	5094
839.918	5048
840.055	5102
840.193	5143
840.33	5090
840.467	5098
840.604	5204
840.742	5425
840.879	5071
841.016	5079
841.153	5170
841.29	5372
841.427	5330
841.564	5292
841.701	5383
841.838	5296
841.975	5197
842.112	5235
842.249	5170
842.385	5113
842.522	5337
842.659	5124
842.796	5147
842.933	5208
843.069	5132
843.206	5132
843.343	5303
843.479	5208
843.616	5208
843.752	4957
843.889	4991
844.025	5216
844.162	5060
844.298	5201
844.435	5105
844.571	5064
844.708	5155
844.844	5318
844.98	5345
845.117	5326
845.253	5155
845.389	5033
845.525	5166
845.661	5159
845.798	5029
845.934	5064
846.07	4999
846.206	5197
846.342	5280
846.478	5170
846.614	5048
846.75	4949
846.886	4942
847.022	5155
847.158	5037
847.294	5048
847.429	5109
847.565	5048
847.701	5360
847.837	4862
847.972	4816
848.108	4938
848.244	4896
848.379	4786
848.515	4694
848.65	4729
848.786	4774
848.921	4778
849.057	4870
849.192	4862
849.328	4828
849.463	4801
849.598	4782
849.734	4748
849.869	4656
850.004	4653
850.14	4618
850.275	4603
850.41	4512
850.545	4546
850.68	4558
850.815	4607
850.95	4622
851.085	4839
851.22	4767
851.355	4668
851.49	4588
851.625	4611
851.76	4653
851.895	4535
852.03	4554
852.165	4672
852.299	4771
852.434	4786
852.569	4767
852.703	4767
852.838	4862
852.973	4908
853.107	4908
853.242	4752
853.376	4634
853.511	4527
853.645	4603
853.78	4828
853.914	4714
854.048	4630
854.183	4649
854.317	4641
854.451	4831
854.585	4683
854.72	4649
854.854	4733
854.988	4603
855.122	4622
855.256	4519
855.39	4672
855.524	4824
855.658	4755
855.792	4691
855.926	4763
856.06	4752
856.194	4824
856.327	4706
856.461	4637
856.595	4599
856.729	4618
856.862	4767
856.996	4683
857.13	4706
857.263	4755
857.397	4771
857.53	4664
857.664	4729
857.797	4816
857.931	4790
858.064	4698
858.197	4755
858.331	4694
858.464	4588
858.597	4500
858.731	4664
858.864	4656
858.997	4577
859.13	4664
859.263	4664
859.396	4694
859.529	4607
859.662	4577
859.795	4558
859.928	4573
860.061	4755
860.194	4733
860.327	4580
860.46	4573
860.592	4691
860.725	4721
860.858	4729
860.99	4516
861.123	4504
861.256	4531
861.388	4618
861.521	5330
861.653	4459
861.786	4428
861.918	4405
862.05	4504
862.183	4580
862.315	4584
862.447	4683
862.58	4550
862.712	4379
862.844	4341
862.976	4497
863.108	4485
863.24	4831
863.372	4356
863.504	4424
863.636	4409
863.768	4405
863.9	4432
864.032	4360
864.164	4417
864.296	4455
864.428	4519
864.559	4538
864.691	4500
864.823	4519
864.954	4516
865.086	4493
865.217	4432
865.349	4375
865.48	4462
865.612	4519
865.743	4622
865.875	4455
866.006	4402
866.137	4440
866.269	4451
866.4	4386
866.531	4394
866.662	4371
866.793	4348
866.924	4413
867.055	4538
867.186	4470
867.317	4405
867.448	4356
867.579	4379
867.71	4386
867.841	4363
867.972	4466
868.103	4478
868.233	4394
868.364	4455
868.495	4470
868.625	4721
868.756	4740
868.886	4588
869.017	4599
869.147	4809
869.278	4767
869.408	4664
869.539	4596
869.669	4687
869.799	4679
869.929	4702
870.06	4748
870.19	4946
870.32	4896
870.45	4984
870.58	5018
870.71	5052
870.84	5075
870.97	4968
871.1	4911
871.23	5140
871.36	5117
871.489	4999
871.619	5052
871.749	5102
871.879	5128
872.008	5178
872.138	5022
872.267	4949
872.397	4866
872.526	4801
872.656	4733
872.785	4763
872.915	4953
873.044	5022
873.173	4949
873.303	4976
873.432	4953
873.561	4923
873.69	4870
873.819	4850
873.948	4934
874.077	4801
874.206	4786
874.335	4820
874.464	4908
874.593	5014
874.722	4972
874.851	5079
874.979	5037
875.108	4999
875.237	4934
875.365	4911
875.494	4870
875.623	4938
875.751	4824
875.88	4866
876.008	4980
876.136	5033
876.265	5174
876.393	5307
876.521	5273
876.65	5227
876.778	5181
876.906	5025
877.034	5018
877.162	5041
877.29	4965
877.418	5079
877.546	5041
877.674	5003
877.802	5018
877.93	4984
878.058	4934
878.185	4839
878.313	4968
878.441	4915
878.568	4816
878.696	4911
878.824	4961
878.951	5018
879.079	5155
879.206	5299
879.333	5075
879.461	5010
879.588	4984
879.715	5155
879.842	5212
879.97	4972
880.097	4774
880.224	4752
880.351	4866
880.478	4881
880.605	4790
880.732	4797
880.859	5045
880.986	4881
881.112	4911
881.239	4778
881.366	4660
881.493	4599
881.619	4588
881.746	4645
881.872	4622
881.999	4611
882.125	4656
882.252	4797
882.378	4797
882.505	4949
882.631	4767
882.757	4694
882.883	4736
883.01	4714
883.136	4656
883.262	4561
883.388	4653
883.514	4831
883.64	4843
883.766	4793
883.892	4653
884.018	4698
884.143	4896
884.269	4972
884.395	4660
884.52	4611
884.646	4603
884.772	4535
884.897	4588
885.023	4702
885.148	4740
885.274	4862
885.399	4767
885.524	4729
885.65	4721
885.775	4710
885.9	4679
886.025	4854
886.15	4752
886.275	4725
886.4	4664
886.525	4717
886.65	4675
886.775	4683
886.9	4892
887.025	5045
887.149	4843
887.274	4626
887.399	4630
887.523	4592
887.648	4561
887.773	4542
887.897	4759
888.021	4782
888.146	4675
888.27	4809
888.395	4919
888.519	4771
888.643	4801
888.767	4816
888.891	4645
889.015	4550
889.139	4588
889.263	4618
889.387	4767
889.511	4900
889.635	4801
889.759	4645
889.883	4618
890.006	4733
890.13	4873
890.254	4596
890.377	4679
890.501	4478
890.624	4561
890.748	4607
890.871	4516
890.995	4413
891.118	4375
891.241	4504
891.364	4565
891.488	4668
891.611	4523
891.734	4535
891.857	4592
891.98	4580
892.103	4634
892.226	4607
892.349	4531
892.471	4413
892.594	4478
892.717	4645
892.839	4577
892.962	4599
893.085	4660
893.207	4618
893.33	4466
893.452	4489
893.575	4634
893.697	4618
893.819	4801
893.941	4843
894.064	4748
894.186	4584
894.308	4573
894.43	4698
894.552	4809
894.674	4763
894.796	4550
894.918	4577
895.04	4573
895.161	4717
895.283	4675
895.405	4626
895.526	4687
895.648	4683
895.769	4736
895.891	4729
896.012	4744
896.134	4687
896.255	4721
896.376	4569
896.498	4599
896.619	4656
896.74	4622
896.861	4641
896.982	4915
897.103	5094
897.224	4839
897.345	4763
897.466	4618
897.587	4752
897.708	4881
897.828	4812
897.949	4649
898.07	4523
898.19	4630
898.311	4793
898.431	4653
898.552	4710
898.672	4812
898.792	4847
898.913	4691
899.033	4634
899.153	4493
899.273	4394
899.393	4516
899.513	4542
899.633	4508
899.753	4535
899.873	4470
899.993	4573
900.113	4531
900.232	4634
900.352	4542
900.472	4497
900.591	4363
900.711	4478
900.83	4440
900.95	4596
901.069	4702
901.189	4542
901.308	4405
901.427	4299
901.546	4367
901.665	4440
901.784	4485
901.904	4390
902.023	4318
902.141	4162
902.26	4105
902.379	4249
902.498	4230
902.617	4257
902.735	4398
902.854	4375
902.973	4383
903.091	4169
903.21	4215
903.328	4303
903.446	4265
903.565	4257
903.683	4322
903.801	4276
903.919	4424
904.038	4493
904.156	4314
904.274	4421
904.392	4386
904.51	4428
904.627	4455
904.745	4527
904.863	4622
904.981	4436
905.098	4344
905.216	4386
905.334	4421
905.451	4485
905.569	4459
905.686	4592
905.803	4531
905.921	4375
906.038	4584
906.155	4478
906.272	4428
906.389	4417
906.506	4337
906.623	4394
906.74	4451
906.857	4318
906.974	4337
907.091	4508
907.208	4664
907.324	4603
907.441	4493
907.557	4341
907.674	4344
907.79	4356
907.907	4451
908.023	4516
908.139	4500
908.256	4413
908.372	4500
908.488	4455
908.604	4386
908.72	4348
908.836	4356
908.952	4322
909.068	4432
909.184	4584
909.3	4497
909.415	4550
909.531	4531
909.647	4356
909.762	4367
909.878	4413
909.993	4436
910.108	4402
910.224	4383
910.339	4508
910.454	4383
910.57	4363
910.685	4310
910.8	4649
910.915	4588
911.03	4443
911.145	4314
911.259	4306
911.374	4367
911.489	4318
911.604	4310
911.718	4150
911.833	4227
911.947	4051
912.062	4017
912.176	4238
912.291	4230
912.405	4303
912.519	4459
912.633	4489
912.748	4348
912.862	4325
912.976	4234
913.09	4162
913.204	4169
913.318	4215
913.431	4367
913.545	4337
913.659	4443
913.772	4394
913.886	4253
914	4215
914.113	4375
914.226	4432
914.34	4462
914.453	4238
914.566	4459
914.68	4284
914.793	4303
914.906	4131
915.019	4109
915.132	4044
915.245	4200
915.358	4192
915.47	4306
915.583	4287
915.696	4257
915.809	4379
915.921	4459
916.034	4253
916.146	4268
916.259	4192
916.371	4360
916.483	4341
916.595	4280
916.708	4314
916.82	4310
916.932	4303
917.044	4291
917.156	4322
917.268	4219
917.38	4303
917.491	4291
917.603	4306
917.715	4386
917.826	4436
917.938	4341
918.049	4219
918.161	4394
918.272	4550
918.384	4569
918.495	4455
918.606	4306
918.717	4280
918.828	4375
918.939	4356
919.05	4261
919.161	4299
919.272	4128
919.383	4230
919.494	4462
919.604	4626
919.715	4394
919.826	4402
919.936	4398
920.047	4584
920.157	4516
920.267	4675
920.378	4538
920.488	4478
920.598	4668
920.708	4858
920.818	4752
920.928	4725
921.038	4930
921.148	4949
921.258	4634
921.368	4558
921.477	4485
921.587	4440
921.697	4394
921.806	4584
921.916	4462
922.025	4280
922.134	4261
922.244	4238
922.353	4322
922.462	4192
922.571	4181
922.68	3983
922.789	4048
922.898	4002
923.007	3998
923.116	4059
923.224	4074
923.333	4048
923.442	4017
923.55	3991
923.659	3994
923.767	4105
923.876	4013
923.984	4139
924.092	4048
924.201	4036
924.309	4116
924.417	4124
924.525	4078
924.633	4093
924.741	5083
924.849	3903
924.956	4135
925.064	3945
925.172	3857
925.279	4002
925.387	4086
925.494	4059
925.602	4200
925.709	4128
925.816	4032
925.924	4097
926.031	4230
926.138	4143
926.245	4181
926.352	4116
926.459	4280
926.566	4310
926.673	4109
926.779	4074
926.886	4078
926.993	4036
927.099	3998
927.206	3880
927.312	3918
927.419	4074
927.525	4082
927.631	4078
927.737	3953
927.843	3926
927.95	3835
928.056	3949
928.162	4010
928.267	4109
928.373	4717
928.479	4120
928.585	3880
928.69	4013
928.796	4093
928.901	3956
929.007	3850
929.112	3979
929.218	3975
929.323	3907
929.428	3941
929.533	4131
929.638	3884
929.743	3930
929.848	4059
929.953	4013
930.058	3926
930.163	3751
930.267	3850
930.372	3983
930.477	3854
930.581	4074
930.685	3937
930.79	3846
930.894	3892
930.998	3854
931.103	3991
931.207	3682
931.311	3690
931.415	3671
931.519	3530
931.623	3526
