Data from test_V78500241_2250.txt Node
Date: Fri Mar 25 17:04:38 CST 2022
User: usil
Spectrometer: V785-0024
Trigger mode: 0
Integration Time (sec): 4.000000E-1
Scans to average: 1
Nonlinearity correction enabled: false
Boxcar width: 0
Storing dark spectrum: false
XAxis mode: Wavelengths
Number of Pixels in Spectrum: 1024
>>>>>Begin Spectral Data<<<<<
801.071	8031
801.214	8054
801.356	7826
801.499	7906
801.641	7795
801.783	7932
801.926	7974
802.068	7989
802.211	8016
802.353	8058
802.496	7864
802.638	7925
802.78	7944
802.923	7944
803.065	7902
803.208	7879
803.35	7928
803.492	8103
803.635	8229
803.777	8020
803.919	8191
804.061	8484
804.204	8149
804.346	8092
804.488	8016
804.63	8123
804.773	8096
804.915	8183
805.057	8343
805.199	8279
805.341	8237
805.483	8267
805.626	8279
805.768	8176
805.91	8218
806.052	8195
806.194	8149
806.336	8332
806.478	8176
806.62	8119
806.762	8153
806.904	8225
807.046	8507
807.188	8355
807.33	8305
807.472	8385
807.614	8218
807.756	8221
807.898	8058
808.04	7913
808.182	7902
808.324	7879
808.465	7970
808.607	8084
808.749	8115
808.891	8206
809.033	8301
809.174	8290
809.316	8084
809.458	8142
809.6	8024
809.741	8103
809.883	8111
810.025	8161
810.166	8096
810.308	8016
810.45	7982
810.591	7841
810.733	7814
810.875	7715
811.016	7540
811.158	7483
811.299	7628
811.441	7712
811.582	7700
811.724	7643
811.865	7624
812.007	7662
812.148	7575
812.29	7693
812.431	7765
812.573	7898
812.714	7993
812.855	8191
812.997	8225
813.138	8362
813.279	8214
813.421	8084
813.562	7944
813.703	7852
813.845	7822
813.986	7460
814.127	7270
814.268	7255
814.41	7202
814.551	7259
814.692	7221
814.833	7194
814.974	7183
815.115	7194
815.256	7057
815.397	6932
815.539	6962
815.68	6882
815.821	6852
815.962	6859
816.103	6848
816.244	6772
816.385	6673
816.526	6662
816.666	6502
816.807	6331
816.948	6479
817.089	6475
817.23	6479
817.371	6426
817.512	6384
817.653	6418
817.793	6384
817.934	6418
818.075	6494
818.216	6506
818.356	6433
818.497	6315
818.638	6163
818.778	6197
818.919	6186
819.06	6186
819.2	6372
819.341	6338
819.481	6475
819.622	6631
819.762	6856
819.903	6802
820.043	6612
820.184	6635
820.324	6662
820.465	6703
820.605	6722
820.746	6604
820.886	6597
821.026	6707
821.167	6741
821.307	6825
821.447	6829
821.588	6722
821.728	6582
821.868	6509
822.008	6380
822.149	6369
822.289	6372
822.429	6190
822.569	6121
822.709	6171
822.849	5912
822.99	5904
823.13	5980
823.27	5870
823.41	5844
823.55	5794
823.69	5748
823.83	5847
823.97	5748
824.11	5528
824.25	5505
824.389	5566
824.529	5573
824.669	5543
824.809	5623
824.949	5630
825.089	5653
825.228	5585
825.368	5406
825.508	5330
825.648	5357
825.787	5372
825.927	5391
826.067	5315
826.206	5284
826.346	5387
826.485	5459
826.625	5406
826.765	5554
826.904	5493
827.044	5318
827.183	5246
827.323	5124
827.462	5322
827.601	5162
827.741	5212
827.88	5250
828.02	5117
828.159	5296
828.298	5334
828.437	5372
828.577	5273
828.716	5543
828.855	5402
828.994	5197
829.134	5155
829.273	5166
829.412	5208
829.551	5193
829.69	5166
829.829	5307
829.968	5395
830.107	5315
830.246	5311
830.385	5220
830.524	5185
830.663	5117
830.802	4999
830.941	4889
831.08	4892
831.219	5010
831.357	4953
831.496	5151
831.635	4961
831.774	4866
831.913	4824
832.051	4805
832.19	4790
832.329	4858
832.467	4767
832.606	4660
832.744	4717
832.883	4717
833.022	4736
833.16	4744
833.299	4854
833.437	4824
833.576	4839
833.714	4904
833.852	4858
833.991	4923
834.129	5003
834.267	4942
834.406	4949
834.544	5006
834.682	4961
834.821	4957
834.959	5181
835.097	5067
835.235	5170
835.373	5086
835.511	5136
835.65	5064
835.788	4976
835.926	4911
836.064	4908
836.202	4889
836.34	5170
836.478	5269
836.615	5201
836.753	5239
836.891	5292
837.029	5265
837.167	5212
837.305	5159
837.443	5201
837.58	5037
837.718	5261
837.856	5201
837.993	5178
838.131	5277
838.269	5220
838.406	5162
838.544	5231
838.681	5086
838.819	5022
838.956	4938
839.094	4946
839.231	5006
839.369	5102
839.506	5395
839.643	5284
839.781	5064
839.918	5045
840.055	5109
840.193	5136
840.33	5140
840.467	5170
840.604	5223
840.742	5459
840.879	5109
841.016	5067
841.153	5151
841.29	5448
841.427	5398
841.564	5303
841.701	5364
841.838	5239
841.975	5246
842.112	5242
842.249	5170
842.385	5117
842.522	5360
842.659	5174
842.796	5162
842.933	5159
843.069	5136
843.206	5143
843.343	5273
843.479	5189
843.616	5288
843.752	5079
843.889	5029
844.025	5261
844.162	5071
844.298	5193
844.435	5113
844.571	5109
844.708	5189
844.844	5330
844.98	5364
845.117	5337
845.253	5155
845.389	5102
845.525	5181
845.661	5155
845.798	5025
845.934	5086
846.07	5109
846.206	5204
846.342	5288
846.478	5239
846.614	5045
846.75	4995
846.886	4942
847.022	5178
847.158	5079
847.294	5083
847.429	5105
847.565	5102
847.701	5318
847.837	4881
847.972	4854
848.108	4976
848.244	4915
848.379	4843
848.515	4736
848.65	4725
848.786	4744
848.921	4752
849.057	4847
849.192	4946
849.328	4805
849.463	4881
849.598	4839
849.734	4767
849.869	4740
850.004	4653
850.14	4744
850.275	4584
850.41	4516
850.545	4630
850.68	4615
850.815	4626
850.95	4630
851.085	4892
851.22	4763
851.355	4698
851.49	4645
851.625	4603
851.76	4660
851.895	4577
852.03	4508
852.165	4645
852.299	4702
852.434	4816
852.569	4778
852.703	4748
852.838	4812
852.973	4927
853.107	4908
853.242	4710
853.376	4729
853.511	4538
853.645	4618
853.78	4824
853.914	4721
854.048	4694
854.183	4607
854.317	4729
854.451	4824
854.585	4672
854.72	4668
854.854	4782
854.988	4626
855.122	4649
855.256	4558
855.39	4649
855.524	4786
855.658	4733
855.792	4721
855.926	4714
856.06	4755
856.194	4870
856.327	4721
856.461	4630
856.595	4611
856.729	4611
856.862	4782
856.996	4691
857.13	4755
857.263	4763
857.397	4828
857.53	4668
857.664	4725
857.797	4740
857.931	4812
858.064	4698
858.197	4771
858.331	4641
858.464	4596
858.597	4527
858.731	4664
858.864	4668
858.997	4660
859.13	4645
859.263	4687
859.396	4721
859.529	4588
859.662	4599
859.795	4519
859.928	4626
860.061	4820
860.194	4748
860.327	4580
860.46	4584
860.592	4717
860.725	4714
860.858	4740
860.99	4607
861.123	4527
861.256	4516
861.388	4626
861.521	5345
861.653	4519
861.786	4470
861.918	4440
862.05	4508
862.183	4580
862.315	4634
862.447	4679
862.58	4584
862.712	4424
862.844	4344
862.976	4497
863.108	4440
863.24	4850
863.372	4394
863.504	4459
863.636	4417
863.768	4542
863.9	4443
864.032	4337
864.164	4375
864.296	4474
864.428	4558
864.559	4599
864.691	4554
864.823	4554
864.954	4523
865.086	4497
865.217	4402
865.349	4398
865.48	4466
865.612	4478
865.743	4634
865.875	4481
866.006	4375
866.137	4485
866.269	4459
866.4	4421
866.531	4417
866.662	4421
866.793	4398
866.924	4485
867.055	4512
867.186	4493
867.317	4424
867.448	4424
867.579	4402
867.71	4409
867.841	4390
867.972	4489
868.103	4470
868.233	4432
868.364	4447
868.495	4523
868.625	4672
868.756	4725
868.886	4637
869.017	4649
869.147	4755
869.278	4816
869.408	4668
869.539	4641
869.669	4691
869.799	4660
869.929	4759
870.06	4729
870.19	4976
870.32	4896
870.45	4953
870.58	5029
870.71	5128
870.84	5117
870.97	4968
871.1	4904
871.23	5140
871.36	5147
871.489	4987
871.619	5086
871.749	5086
871.879	5098
872.008	5155
872.138	5079
872.267	4968
872.397	4831
872.526	4812
872.656	4725
872.785	4816
872.915	4999
873.044	5041
873.173	4953
873.303	4942
873.432	4961
873.561	4976
873.69	4915
873.819	4877
873.948	4930
874.077	4835
874.206	4767
874.335	4771
874.464	4892
874.593	5113
874.722	4946
874.851	5140
874.979	5064
875.108	5079
875.237	4892
875.365	4908
875.494	4885
875.623	4987
875.751	4820
875.88	4873
876.008	4976
876.136	5048
876.265	5185
876.393	5322
876.521	5204
876.65	5185
876.778	5162
876.906	5113
877.034	5045
877.162	5033
877.29	5022
877.418	5056
877.546	5041
877.674	5094
877.802	5014
877.93	5056
878.058	4889
878.185	4900
878.313	4961
878.441	4965
878.568	4805
878.696	4896
878.824	4984
878.951	5033
879.079	5121
879.206	5315
879.333	5117
879.461	5029
879.588	5033
879.715	5174
879.842	5227
879.97	4984
880.097	4801
880.224	4786
880.351	4812
880.478	4847
880.605	4801
880.732	4809
880.859	5117
880.986	4961
881.112	4934
881.239	4763
881.366	4698
881.493	4603
881.619	4561
881.746	4626
881.872	4710
881.999	4668
882.125	4717
882.252	4786
882.378	4843
882.505	4991
882.631	4790
882.757	4668
882.883	4706
883.01	4702
883.136	4694
883.262	4611
883.388	4596
883.514	4816
883.64	4900
883.766	4740
883.892	4656
884.018	4748
884.143	4839
884.269	4999
884.395	4698
884.52	4573
884.646	4618
884.772	4542
884.897	4584
885.023	4649
885.148	4782
885.274	4847
885.399	4847
885.524	4687
885.65	4664
885.775	4774
885.9	4721
886.025	4839
886.15	4801
886.275	4683
886.4	4664
886.525	4717
886.65	4683
886.775	4653
886.9	4946
887.025	5022
887.149	4843
887.274	4634
887.399	4584
887.523	4588
887.648	4569
887.773	4596
887.897	4729
888.021	4793
888.146	4683
888.27	4801
888.395	4896
888.519	4812
888.643	4824
888.767	4763
888.891	4664
889.015	4615
889.139	4599
889.263	4584
889.387	4782
889.511	4862
889.635	4828
889.759	4649
889.883	4675
890.006	4714
890.13	4805
890.254	4599
890.377	4683
890.501	4527
890.624	4508
890.748	4634
890.871	4527
890.995	4451
891.118	4348
891.241	4538
891.364	4584
891.488	4622
891.611	4508
891.734	4546
891.857	4630
891.98	4542
892.103	4641
892.226	4569
892.349	4538
892.471	4466
892.594	4489
892.717	4580
892.839	4561
892.962	4573
893.085	4660
893.207	4588
893.33	4466
893.452	4516
893.575	4630
893.697	4542
893.819	4793
893.941	4809
894.064	4801
894.186	4584
894.308	4554
894.43	4721
894.552	4778
894.674	4767
894.796	4580
894.918	4611
895.04	4561
895.161	4706
895.283	4649
895.405	4546
895.526	4603
895.648	4706
895.769	4714
895.891	4740
896.012	4755
896.134	4752
896.255	4679
896.376	4618
896.498	4618
896.619	4660
896.74	4599
896.861	4611
896.982	4942
897.103	5045
897.224	4782
897.345	4706
897.466	4607
897.587	4767
897.708	4831
897.828	4790
897.949	4637
898.07	4565
898.19	4580
898.311	4858
898.431	4694
898.552	4702
898.672	4782
898.792	4809
898.913	4748
899.033	4641
899.153	4508
899.273	4421
899.393	4489
899.513	4527
899.633	4546
899.753	4603
899.873	4497
899.993	4577
900.113	4519
900.232	4596
900.352	4516
900.472	4504
900.591	4405
900.711	4466
900.83	4421
900.95	4550
901.069	4698
901.189	4542
901.308	4348
901.427	4318
901.546	4363
901.665	4485
901.784	4550
901.904	4402
902.023	4329
902.141	4192
902.26	4185
902.379	4325
902.498	4295
902.617	4185
902.735	4367
902.854	4394
902.973	4337
903.091	4219
903.21	4219
903.328	4348
903.446	4299
903.565	4261
903.683	4360
903.801	4306
903.919	4428
904.038	4390
904.156	4329
904.274	4405
904.392	4379
904.51	4390
904.627	4424
904.745	4603
904.863	4592
904.981	4356
905.098	4310
905.216	4356
905.334	4466
905.451	4443
905.569	4466
905.686	4599
905.803	4584
905.921	4440
906.038	4554
906.155	4459
906.272	4424
906.389	4470
906.506	4295
906.623	4367
906.74	4417
906.857	4310
906.974	4333
907.091	4584
907.208	4691
907.324	4588
907.441	4478
907.557	4360
907.674	4405
907.79	4314
907.907	4371
908.023	4481
908.139	4455
908.256	4405
908.372	4500
908.488	4432
908.604	4344
908.72	4303
908.836	4413
908.952	4417
909.068	4390
909.184	4523
909.3	4493
909.415	4588
909.531	4535
909.647	4367
909.762	4440
909.878	4367
909.993	4405
910.108	4436
910.224	4383
910.339	4519
910.454	4379
910.57	4371
910.685	4341
910.8	4618
910.915	4596
911.03	4500
911.145	4322
911.259	4322
911.374	4344
911.489	4325
911.604	4318
911.718	4150
911.833	4158
911.947	4044
912.062	4067
912.176	4234
912.291	4265
912.405	4234
912.519	4428
912.633	4493
912.748	4352
912.862	4337
912.976	4192
913.09	4090
913.204	4211
913.318	4230
913.431	4363
913.545	4348
913.659	4413
913.772	4386
913.886	4257
914	4207
914.113	4352
914.226	4413
914.34	4417
914.453	4261
914.566	4436
914.68	4287
914.793	4390
914.906	4158
915.019	4116
915.132	4097
915.245	4158
915.358	4246
915.47	4253
915.583	4268
915.696	4314
915.809	4383
915.921	4436
916.034	4249
916.146	4234
916.259	4200
916.371	4344
916.483	4390
916.595	4257
916.708	4348
916.82	4314
916.932	4318
917.044	4348
917.156	4329
917.268	4234
917.38	4280
917.491	4246
917.603	4306
917.715	4421
917.826	4402
917.938	4318
918.049	4219
918.161	4421
918.272	4497
918.384	4512
918.495	4436
918.606	4314
918.717	4246
918.828	4329
918.939	4348
919.05	4249
919.161	4341
919.272	4154
919.383	4230
919.494	4443
919.604	4637
919.715	4417
919.826	4341
919.936	4417
920.047	4497
920.157	4504
920.267	4691
920.378	4519
920.488	4527
920.598	4729
920.708	4946
920.818	4717
920.928	4725
921.038	4942
921.148	4942
921.258	4599
921.368	4577
921.477	4481
921.587	4508
921.697	4379
921.806	4531
921.916	4428
922.025	4261
922.134	4257
922.244	4265
922.353	4314
922.462	4166
922.571	4086
922.68	4029
922.789	3979
922.898	4032
923.007	4010
923.116	4101
923.224	4063
923.333	4044
923.442	3983
923.55	3991
923.659	4067
923.767	4078
923.876	4021
923.984	4181
924.092	3983
924.201	4055
924.309	4116
924.417	4116
924.525	4002
924.633	4112
924.741	5006
924.849	3937
924.956	4105
925.064	3960
925.172	3892
925.279	3945
925.387	4051
925.494	4082
925.602	4196
925.709	4185
925.816	4051
925.924	4143
926.031	4207
926.138	4147
926.245	4261
926.352	4074
926.459	4280
926.566	4265
926.673	4112
926.779	4074
926.886	4112
926.993	3968
927.099	3953
927.206	3941
927.312	3968
927.419	4036
927.525	4048
927.631	4086
927.737	3930
927.843	3964
927.95	3850
928.056	3915
928.162	4002
928.267	4074
928.373	4668
928.479	4147
928.585	3884
928.69	4063
928.796	4097
928.901	3975
929.007	3876
929.112	3960
929.218	3956
929.323	3941
929.428	3930
929.533	4055
929.638	3903
929.743	3960
929.848	4067
929.953	3994
930.058	3949
930.163	3762
930.267	3842
930.372	3941
930.477	3789
930.581	4109
930.685	3888
930.79	3808
930.894	3888
930.998	3838
931.103	4017
931.207	3736
931.311	3694
931.415	3663
931.519	3500
931.623	3542
