Data from test_V78500241_2708.txt Node
Date: Fri Mar 25 17:07:49 CST 2022
User: usil
Spectrometer: V785-0024
Trigger mode: 0
Integration Time (sec): 4.000000E-1
Scans to average: 1
Nonlinearity correction enabled: false
Boxcar width: 0
Storing dark spectrum: false
XAxis mode: Wavelengths
Number of Pixels in Spectrum: 1024
>>>>>Begin Spectral Data<<<<<
801.071	8027
801.214	8069
801.356	7883
801.499	7925
801.641	7852
801.783	7841
801.926	7989
802.068	7970
802.211	8008
802.353	8024
802.496	7932
802.638	7906
802.78	7936
802.923	7993
803.065	7879
803.208	7883
803.35	8016
803.492	8073
803.635	8084
803.777	8027
803.919	8225
804.061	8484
804.204	8157
804.346	8119
804.488	7970
804.63	8126
804.773	8115
804.915	8149
805.057	8263
805.199	8157
805.341	8256
805.483	8282
805.626	8225
805.768	8252
805.91	8229
806.052	8202
806.194	8126
806.336	8366
806.478	8119
806.62	8077
806.762	8161
806.904	8298
807.046	8499
807.188	8374
807.33	8347
807.472	8358
807.614	8168
807.756	8157
807.898	8073
808.04	7936
808.182	7917
808.324	7860
808.465	7951
808.607	8069
808.749	8195
808.891	8290
809.033	8351
809.174	8252
809.316	8096
809.458	8046
809.6	8100
809.741	8111
809.883	8054
810.025	8119
810.166	8119
810.308	7993
810.45	8058
810.591	7860
810.733	7750
810.875	7746
811.016	7651
811.158	7499
811.299	7594
811.441	7784
811.582	7693
811.724	7590
811.865	7552
812.007	7624
812.148	7616
812.29	7677
812.431	7753
812.573	7894
812.714	7959
812.855	8183
812.997	8191
813.138	8328
813.279	8187
813.421	8145
813.562	7967
813.703	7830
813.845	7776
813.986	7464
814.127	7251
814.268	7266
814.41	7206
814.551	7232
814.692	7194
814.833	7038
814.974	7118
815.115	7160
815.256	6993
815.397	6924
815.539	6905
815.68	6859
815.821	6840
815.962	6939
816.103	6939
816.244	6738
816.385	6620
816.526	6608
816.666	6528
816.807	6315
816.948	6429
817.089	6540
817.23	6517
817.371	6395
817.512	6410
817.653	6361
817.793	6445
817.934	6471
818.075	6448
818.216	6410
818.356	6426
818.497	6235
818.638	6152
818.778	6186
818.919	6155
819.06	6155
819.2	6331
819.341	6273
819.481	6380
819.622	6528
819.762	6738
819.903	6772
820.043	6612
820.184	6627
820.324	6639
820.465	6726
820.605	6692
820.746	6692
820.886	6574
821.026	6677
821.167	6741
821.307	6779
821.447	6814
821.588	6688
821.728	6551
821.868	6528
822.008	6296
822.149	6376
822.289	6410
822.429	6175
822.569	6095
822.709	6167
822.849	5920
822.99	5878
823.13	5908
823.27	5923
823.41	5828
823.55	5805
823.69	5794
823.83	5802
823.97	5695
824.11	5581
824.25	5528
824.389	5570
824.529	5577
824.669	5554
824.809	5661
824.949	5676
825.089	5589
825.228	5585
825.368	5463
825.508	5353
825.648	5334
825.787	5414
825.927	5425
826.067	5292
826.206	5315
826.346	5391
826.485	5433
826.625	5452
826.765	5570
826.904	5474
827.044	5258
827.183	5239
827.323	5155
827.462	5193
827.601	5181
827.741	5147
827.88	5265
828.02	5124
828.159	5292
828.298	5318
828.437	5357
828.577	5307
828.716	5482
828.855	5334
828.994	5181
829.134	5162
829.273	5242
829.412	5113
829.551	5185
829.69	5174
829.829	5254
829.968	5429
830.107	5239
830.246	5258
830.385	5208
830.524	5159
830.663	5075
830.802	4976
830.941	4930
831.08	4862
831.219	4957
831.357	4976
831.496	5151
831.635	4862
831.774	4889
831.913	4873
832.051	4759
832.19	4767
832.329	4870
832.467	4717
832.606	4611
832.744	4733
832.883	4717
833.022	4702
833.16	4809
833.299	4831
833.437	4873
833.576	4831
833.714	4828
833.852	4866
833.991	4892
834.129	4980
834.267	4965
834.406	4972
834.544	5014
834.682	4927
834.821	4972
834.959	5162
835.097	4987
835.235	5181
835.373	5048
835.511	5060
835.65	5037
835.788	5010
835.926	4873
836.064	4862
836.202	4938
836.34	5128
836.478	5204
836.615	5075
836.753	5239
836.891	5296
837.029	5216
837.167	5231
837.305	5140
837.443	5109
837.58	5102
837.718	5258
837.856	5185
837.993	5121
838.131	5223
838.269	5212
838.406	5242
838.544	5162
838.681	5018
838.819	5003
838.956	4862
839.094	4919
839.231	4987
839.369	5079
839.506	5436
839.643	5288
839.781	5048
839.918	4968
840.055	5124
840.193	5071
840.33	5052
840.467	5048
840.604	5113
840.742	5471
840.879	5109
841.016	5083
841.153	5151
841.29	5391
841.427	5330
841.564	5269
841.701	5345
841.838	5288
841.975	5227
842.112	5299
842.249	5193
842.385	5071
842.522	5353
842.659	5185
842.796	5162
842.933	5170
843.069	5128
843.206	5174
843.343	5315
843.479	5235
843.616	5269
843.752	5037
843.889	4984
844.025	5216
844.162	5014
844.298	5227
844.435	5060
844.571	5056
844.708	5212
844.844	5277
844.98	5349
845.117	5258
845.253	5166
845.389	5064
845.525	5151
845.661	5147
845.798	5041
845.934	5124
846.07	5045
846.206	5185
846.342	5261
846.478	5178
846.614	4995
846.75	5041
846.886	4980
847.022	5159
847.158	5014
847.294	5090
847.429	5098
847.565	4980
847.701	5326
847.837	4812
847.972	4828
848.108	4930
848.244	4892
848.379	4763
848.515	4740
848.65	4714
848.786	4736
848.921	4782
849.057	4809
849.192	4900
849.328	4835
849.463	4843
849.598	4835
849.734	4759
849.869	4733
850.004	4618
850.14	4717
850.275	4626
850.41	4558
850.545	4558
850.68	4622
850.815	4634
850.95	4634
851.085	4774
851.22	4752
851.355	4672
851.49	4641
851.625	4611
851.76	4683
851.895	4550
852.03	4531
852.165	4687
852.299	4752
852.434	4820
852.569	4729
852.703	4778
852.838	4835
852.973	4915
853.107	4877
853.242	4767
853.376	4668
853.511	4512
853.645	4649
853.78	4812
853.914	4698
854.048	4664
854.183	4637
854.317	4664
854.451	4828
854.585	4641
854.72	4588
854.854	4729
854.988	4588
855.122	4645
855.256	4466
855.39	4634
855.524	4809
855.658	4744
855.792	4725
855.926	4725
856.06	4793
856.194	4801
856.327	4721
856.461	4626
856.595	4637
856.729	4637
856.862	4702
856.996	4725
857.13	4767
857.263	4733
857.397	4824
857.53	4637
857.664	4721
857.797	4763
857.931	4801
858.064	4706
858.197	4763
858.331	4675
858.464	4626
858.597	4523
858.731	4626
858.864	4653
858.997	4603
859.13	4653
859.263	4679
859.396	4679
859.529	4577
859.662	4531
859.795	4478
859.928	4634
860.061	4778
860.194	4763
860.327	4653
860.46	4603
860.592	4733
860.725	4710
860.858	4714
860.99	4637
861.123	4546
861.256	4538
861.388	4584
861.521	5273
861.653	4497
861.786	4466
861.918	4455
862.05	4531
862.183	4542
862.315	4577
862.447	4618
862.58	4538
862.712	4363
862.844	4265
862.976	4500
863.108	4497
863.24	4729
863.372	4341
863.504	4455
863.636	4383
863.768	4535
863.9	4417
864.032	4367
864.164	4440
864.296	4481
864.428	4588
864.559	4592
864.691	4535
864.823	4516
864.954	4531
865.086	4489
865.217	4440
865.349	4436
865.48	4466
865.612	4500
865.743	4634
865.875	4481
866.006	4413
866.137	4459
866.269	4489
866.4	4451
866.531	4428
866.662	4405
866.793	4443
866.924	4417
867.055	4527
867.186	4466
867.317	4424
867.448	4367
867.579	4398
867.71	4409
867.841	4348
867.972	4455
868.103	4489
868.233	4470
868.364	4409
868.495	4516
868.625	4634
868.756	4831
868.886	4573
869.017	4615
869.147	4744
869.278	4793
869.408	4668
869.539	4641
869.669	4748
869.799	4637
869.929	4740
870.06	4752
870.19	4866
870.32	4911
870.45	4938
870.58	4995
870.71	5132
870.84	5170
870.97	4900
871.1	4938
871.23	5121
871.36	5140
871.489	4987
871.619	5094
871.749	5098
871.879	5117
872.008	5174
872.138	5025
872.267	4927
872.397	4873
872.526	4774
872.656	4809
872.785	4843
872.915	4953
873.044	4999
873.173	4942
873.303	4957
873.432	4908
873.561	4965
873.69	4862
873.819	4854
873.948	4938
874.077	4805
874.206	4797
874.335	4782
874.464	4942
874.593	5083
874.722	4980
874.851	5090
874.979	5064
875.108	5033
875.237	4881
875.365	4847
875.494	4911
875.623	4953
875.751	4862
875.88	4843
876.008	4968
876.136	4995
876.265	5197
876.393	5334
876.521	5235
876.65	5261
876.778	5155
876.906	5102
877.034	4991
877.162	4980
877.29	4995
877.418	5014
877.546	5056
877.674	5041
877.802	5018
877.93	5014
878.058	4938
878.185	4850
878.313	4957
878.441	4968
878.568	4797
878.696	4866
878.824	4999
878.951	4987
879.079	5155
879.206	5269
879.333	5098
879.461	5029
879.588	4995
879.715	5143
879.842	5201
879.97	5010
880.097	4771
880.224	4729
880.351	4812
880.478	4759
880.605	4759
880.732	4744
880.859	5060
880.986	4843
881.112	4923
881.239	4740
881.366	4710
881.493	4622
881.619	4580
881.746	4630
881.872	4683
881.999	4649
882.125	4691
882.252	4748
882.378	4892
882.505	4946
882.631	4790
882.757	4664
882.883	4698
883.01	4740
883.136	4664
883.262	4622
883.388	4592
883.514	4847
883.64	4847
883.766	4733
883.892	4672
884.018	4702
884.143	4927
884.269	5025
884.395	4694
884.52	4580
884.646	4622
884.772	4607
884.897	4599
885.023	4668
885.148	4812
885.274	4847
885.399	4831
885.524	4691
885.65	4698
885.775	4771
885.9	4736
886.025	4870
886.15	4782
886.275	4653
886.4	4653
886.525	4778
886.65	4668
886.775	4702
886.9	4885
887.025	5067
887.149	4809
887.274	4645
887.399	4603
887.523	4588
887.648	4622
887.773	4550
887.897	4771
888.021	4763
888.146	4649
888.27	4782
888.395	4949
888.519	4801
888.643	4812
888.767	4790
888.891	4698
889.015	4618
889.139	4653
889.263	4565
889.387	4763
889.511	4866
889.635	4816
889.759	4668
889.883	4660
890.006	4729
890.13	4816
890.254	4611
890.377	4714
890.501	4550
890.624	4531
890.748	4668
890.871	4478
890.995	4436
891.118	4417
891.241	4546
891.364	4573
891.488	4645
891.611	4497
891.734	4584
891.857	4634
891.98	4554
892.103	4618
892.226	4615
892.349	4538
892.471	4459
892.594	4538
892.717	4656
892.839	4535
892.962	4565
893.085	4634
893.207	4611
893.33	4485
893.452	4478
893.575	4656
893.697	4577
893.819	4805
893.941	4820
894.064	4797
894.186	4592
894.308	4565
894.43	4774
894.552	4809
894.674	4771
894.796	4542
894.918	4599
895.04	4592
895.161	4748
895.283	4660
895.405	4615
895.526	4653
895.648	4736
895.769	4714
895.891	4691
896.012	4778
896.134	4733
896.255	4672
896.376	4641
896.498	4626
896.619	4653
896.74	4599
896.861	4664
896.982	4900
897.103	5090
897.224	4843
897.345	4729
897.466	4660
897.587	4767
897.708	4828
897.828	4744
897.949	4683
898.07	4584
898.19	4660
898.311	4854
898.431	4683
898.552	4740
898.672	4835
898.792	4801
898.913	4729
899.033	4603
899.153	4516
899.273	4390
899.393	4459
899.513	4538
899.633	4516
899.753	4546
899.873	4535
899.993	4569
900.113	4550
900.232	4653
900.352	4500
900.472	4504
900.591	4451
900.711	4493
900.83	4443
900.95	4622
901.069	4668
901.189	4573
901.308	4337
901.427	4341
901.546	4367
901.665	4504
901.784	4523
901.904	4379
902.023	4276
902.141	4169
902.26	4177
902.379	4314
902.498	4242
902.617	4230
902.735	4421
902.854	4402
902.973	4398
903.091	4196
903.21	4223
903.328	4341
903.446	4238
903.565	4280
903.683	4303
903.801	4299
903.919	4440
904.038	4405
904.156	4322
904.274	4447
904.392	4417
904.51	4436
904.627	4443
904.745	4561
904.863	4599
904.981	4363
905.098	4272
905.216	4352
905.334	4405
905.451	4383
905.569	4443
905.686	4558
905.803	4580
905.921	4436
906.038	4523
906.155	4489
906.272	4394
906.389	4466
906.506	4405
906.623	4394
906.74	4322
906.857	4310
906.974	4341
907.091	4584
907.208	4710
907.324	4558
907.441	4516
907.557	4375
907.674	4344
907.79	4291
907.907	4390
908.023	4470
908.139	4493
908.256	4405
908.372	4451
908.488	4489
908.604	4337
908.72	4325
908.836	4344
908.952	4367
909.068	4455
909.184	4523
909.3	4447
909.415	4603
909.531	4561
909.647	4375
909.762	4352
909.878	4337
909.993	4413
910.108	4383
910.224	4390
910.339	4451
910.454	4443
910.57	4394
910.685	4325
910.8	4668
910.915	4584
911.03	4531
911.145	4348
911.259	4337
911.374	4394
911.489	4322
911.604	4291
911.718	4196
911.833	4166
911.947	4051
912.062	4040
912.176	4204
912.291	4215
912.405	4246
912.519	4504
912.633	4462
912.748	4360
912.862	4322
912.976	4223
913.09	4090
913.204	4188
913.318	4253
913.431	4348
913.545	4390
913.659	4466
913.772	4417
913.886	4227
914	4280
914.113	4367
914.226	4436
914.34	4383
914.453	4257
914.566	4424
914.68	4344
914.793	4337
914.906	4169
915.019	4131
915.132	4112
915.245	4188
915.358	4204
915.47	4196
915.583	4215
915.696	4287
915.809	4421
915.921	4405
916.034	4257
916.146	4257
916.259	4219
916.371	4402
916.483	4379
916.595	4287
916.708	4325
916.82	4318
916.932	4367
917.044	4341
917.156	4367
917.268	4223
917.38	4280
917.491	4238
917.603	4329
917.715	4424
917.826	4394
917.938	4375
918.049	4265
918.161	4405
918.272	4531
918.384	4512
918.495	4417
918.606	4291
918.717	4234
918.828	4333
918.939	4367
919.05	4230
919.161	4284
919.272	4150
919.383	4230
919.494	4497
919.604	4596
919.715	4394
919.826	4322
919.936	4417
920.047	4554
920.157	4485
920.267	4740
920.378	4561
920.488	4508
920.598	4717
920.708	4889
920.818	4759
920.928	4744
921.038	4927
921.148	4957
921.258	4683
921.368	4580
921.477	4538
921.587	4398
921.697	4386
921.806	4512
921.916	4443
922.025	4238
922.134	4257
922.244	4238
922.353	4352
922.462	4211
922.571	4120
922.68	4025
922.789	4017
922.898	4063
923.007	4013
923.116	4071
923.224	4029
923.333	4101
923.442	3987
923.55	3994
923.659	4032
923.767	4101
923.876	4006
923.984	4112
924.092	3998
924.201	4071
924.309	4082
924.417	4143
924.525	4048
924.633	4105
924.741	5086
924.849	3907
924.956	4116
925.064	3972
925.172	3888
925.279	3956
925.387	4086
925.494	4078
925.602	4227
925.709	4204
925.816	4017
925.924	4124
926.031	4223
926.138	4181
926.245	4207
926.352	4124
926.459	4223
926.566	4310
926.673	4188
926.779	4055
926.886	4059
926.993	3949
927.099	3968
927.206	3968
927.312	3956
927.419	4044
927.525	4006
927.631	4109
927.737	3945
927.843	3972
927.95	3835
928.056	3941
928.162	3964
928.267	4051
928.373	4573
928.479	4109
928.585	3842
928.69	3987
928.796	4036
928.901	3972
929.007	3934
929.112	4017
929.218	3991
929.323	3941
929.428	3953
929.533	4082
929.638	3903
929.743	3926
929.848	4071
929.953	3964
930.058	3930
930.163	3804
930.267	3876
930.372	3953
930.477	3819
930.581	4109
930.685	3941
930.79	3827
930.894	3842
930.998	3857
931.103	4082
931.207	3701
931.311	3732
931.415	3720
931.519	3538
931.623	3580
