Data from test_V78500241_1459.txt Node
Date: Fri Mar 25 16:59:08 CST 2022
User: usil
Spectrometer: V785-0024
Trigger mode: 0
Integration Time (sec): 4.000000E-1
Scans to average: 1
Nonlinearity correction enabled: false
Boxcar width: 0
Storing dark spectrum: false
XAxis mode: Wavelengths
Number of Pixels in Spectrum: 1024
>>>>>Begin Spectral Data<<<<<
801.071	8035
801.214	7986
801.356	7917
801.499	7894
801.641	7841
801.783	7868
801.926	8031
802.068	7963
802.211	7989
802.353	8016
802.496	7871
802.638	7928
802.78	8008
802.923	7917
803.065	7841
803.208	7871
803.35	7997
803.492	8145
803.635	8149
803.777	8039
803.919	8199
804.061	8423
804.204	8164
804.346	8039
804.488	7993
804.63	8046
804.773	7982
804.915	8107
805.057	8339
805.199	8199
805.341	8210
805.483	8286
805.626	8176
805.768	8081
805.91	8142
806.052	8244
806.194	8153
806.336	8279
806.478	8073
806.62	8065
806.762	8206
806.904	8343
807.046	8495
807.188	8389
807.33	8336
807.472	8336
807.614	8145
807.756	8221
807.898	7978
808.04	7868
808.182	7837
808.324	7913
808.465	7959
808.607	8130
808.749	8138
808.891	8183
809.033	8298
809.174	8240
809.316	8088
809.458	8008
809.6	8012
809.741	8062
809.883	8043
810.025	8115
810.166	8054
810.308	8123
810.45	8050
810.591	7906
810.733	7772
810.875	7681
811.016	7548
811.158	7476
811.299	7548
811.441	7723
811.582	7792
811.724	7628
811.865	7544
812.007	7590
812.148	7597
812.29	7620
812.431	7761
812.573	7978
812.714	7982
812.855	8191
812.997	8225
813.138	8309
813.279	8180
813.421	8176
813.562	8058
813.703	7822
813.845	7727
813.986	7449
814.127	7324
814.268	7221
814.41	7217
814.551	7247
814.692	7202
814.833	7145
814.974	7122
815.115	7175
815.256	7008
815.397	6928
815.539	6977
815.68	6882
815.821	6764
815.962	6897
816.103	6818
816.244	6703
816.385	6696
816.526	6639
816.666	6551
816.807	6353
816.948	6467
817.089	6509
817.23	6448
817.371	6395
817.512	6403
817.653	6407
817.793	6414
817.934	6399
818.075	6433
818.216	6445
818.356	6399
818.497	6281
818.638	6155
818.778	6148
818.919	6133
819.06	6182
819.2	6350
819.341	6384
819.481	6391
819.622	6627
819.762	6806
819.903	6738
820.043	6608
820.184	6570
820.324	6612
820.465	6719
820.605	6658
820.746	6684
820.886	6483
821.026	6646
821.167	6745
821.307	6859
821.447	6798
821.588	6662
821.728	6532
821.868	6540
822.008	6372
822.149	6380
822.289	6323
822.429	6205
822.569	6095
822.709	6125
822.849	5870
822.99	5927
823.13	5923
823.27	5942
823.41	5832
823.55	5817
823.69	5783
823.83	5764
823.97	5726
824.11	5532
824.25	5528
824.389	5596
824.529	5596
824.669	5551
824.809	5646
824.949	5653
825.089	5611
825.228	5551
825.368	5337
825.508	5368
825.648	5349
825.787	5414
825.927	5391
826.067	5349
826.206	5368
826.346	5368
826.485	5349
826.625	5471
826.765	5554
826.904	5474
827.044	5223
827.183	5193
827.323	5151
827.462	5265
827.601	5204
827.741	5231
827.88	5273
828.02	5075
828.159	5261
828.298	5261
828.437	5341
828.577	5292
828.716	5497
828.855	5299
828.994	5128
829.134	5140
829.273	5185
829.412	5147
829.551	5147
829.69	5189
829.829	5246
829.968	5406
830.107	5265
830.246	5322
830.385	5151
830.524	5143
830.663	5098
830.802	4972
830.941	4980
831.08	4862
831.219	4953
831.357	5025
831.496	5109
831.635	4957
831.774	4904
831.913	4858
832.051	4740
832.19	4748
832.329	4847
832.467	4710
832.606	4637
832.744	4733
832.883	4698
833.022	4771
833.16	4809
833.299	4870
833.437	4828
833.576	4900
833.714	4885
833.852	4885
833.991	4923
834.129	4987
834.267	4972
834.406	4927
834.544	5033
834.682	4995
834.821	4995
834.959	5189
835.097	4980
835.235	5174
835.373	5071
835.511	5086
835.65	5045
835.788	5014
835.926	4915
836.064	4934
836.202	4930
836.34	5143
836.478	5220
836.615	5124
836.753	5204
836.891	5288
837.029	5265
837.167	5239
837.305	5185
837.443	5170
837.58	5117
837.718	5250
837.856	5212
837.993	5178
838.131	5273
838.269	5170
838.406	5185
838.544	5242
838.681	4991
838.819	5060
838.956	4942
839.094	4900
839.231	4980
839.369	5052
839.506	5455
839.643	5284
839.781	5056
839.918	5052
840.055	5094
840.193	5105
840.33	5143
840.467	5102
840.604	5201
840.742	5490
840.879	5037
841.016	5071
841.153	5151
841.29	5364
841.427	5353
841.564	5360
841.701	5364
841.838	5284
841.975	5265
842.112	5311
842.249	5105
842.385	5098
842.522	5406
842.659	5174
842.796	5124
842.933	5250
843.069	5204
843.206	5170
843.343	5318
843.479	5277
843.616	5299
843.752	5064
843.889	4999
844.025	5235
844.162	4968
844.298	5273
844.435	5056
844.571	5071
844.708	5223
844.844	5273
844.98	5372
845.117	5292
845.253	5201
845.389	5109
845.525	5181
845.661	5117
845.798	5048
845.934	5140
846.07	5124
846.206	5181
846.342	5303
846.478	5151
846.614	4961
846.75	4957
846.886	4942
847.022	5132
847.158	5010
847.294	5037
847.429	5094
847.565	5041
847.701	5311
847.837	4824
847.972	4820
848.108	4995
848.244	4915
848.379	4771
848.515	4717
848.65	4710
848.786	4755
848.921	4782
849.057	4782
849.192	4889
849.328	4854
849.463	4839
849.598	4820
849.734	4790
849.869	4691
850.004	4603
850.14	4725
850.275	4588
850.41	4569
850.545	4523
850.68	4599
850.815	4660
850.95	4664
851.085	4866
851.22	4725
851.355	4653
851.49	4622
851.625	4653
851.76	4599
851.895	4592
852.03	4504
852.165	4664
852.299	4733
852.434	4809
852.569	4733
852.703	4752
852.838	4850
852.973	4908
853.107	4961
853.242	4736
853.376	4641
853.511	4554
853.645	4664
853.78	4793
853.914	4679
854.048	4668
854.183	4675
854.317	4668
854.451	4858
854.585	4630
854.72	4679
854.854	4706
854.988	4634
855.122	4596
855.256	4550
855.39	4679
855.524	4797
855.658	4736
855.792	4679
855.926	4710
856.06	4744
856.194	4847
856.327	4668
856.461	4660
856.595	4630
856.729	4664
856.862	4729
856.996	4729
857.13	4725
857.263	4767
857.397	4843
857.53	4607
857.664	4721
857.797	4755
857.931	4763
858.064	4691
858.197	4710
858.331	4641
858.464	4656
858.597	4531
858.731	4615
858.864	4622
858.997	4664
859.13	4706
859.263	4637
859.396	4740
859.529	4626
859.662	4558
859.795	4527
859.928	4611
860.061	4748
860.194	4786
860.327	4626
860.46	4538
860.592	4721
860.725	4702
860.858	4729
860.99	4573
861.123	4535
861.256	4504
861.388	4596
861.521	5391
861.653	4512
861.786	4440
861.918	4436
862.05	4538
862.183	4527
862.315	4603
862.447	4637
862.58	4565
862.712	4402
862.844	4379
862.976	4440
863.108	4504
863.24	4911
863.372	4367
863.504	4432
863.636	4398
863.768	4519
863.9	4455
864.032	4337
864.164	4386
864.296	4485
864.428	4546
864.559	4527
864.691	4523
864.823	4519
864.954	4478
865.086	4527
865.217	4462
865.349	4455
865.48	4497
865.612	4527
865.743	4634
865.875	4516
866.006	4455
866.137	4474
866.269	4474
866.4	4417
866.531	4424
866.662	4398
866.793	4413
866.924	4443
867.055	4519
867.186	4455
867.317	4417
867.448	4402
867.579	4363
867.71	4375
867.841	4333
867.972	4459
868.103	4462
868.233	4432
868.364	4447
868.495	4451
868.625	4675
868.756	4824
868.886	4580
869.017	4630
869.147	4740
869.278	4820
869.408	4611
869.539	4615
869.669	4721
869.799	4649
869.929	4733
870.06	4729
870.19	4972
870.32	4946
870.45	4889
870.58	5010
870.71	5048
870.84	5117
870.97	4927
871.1	4900
871.23	5128
871.36	5105
871.489	5056
871.619	5033
871.749	5079
871.879	5079
872.008	5181
872.138	5090
872.267	4957
872.397	4831
872.526	4854
872.656	4790
872.785	4835
872.915	4930
873.044	5071
873.173	4889
873.303	4923
873.432	4957
873.561	4976
873.69	4873
873.819	4862
873.948	4919
874.077	4812
874.206	4767
874.335	4801
874.464	4938
874.593	5064
874.722	4957
874.851	5079
874.979	5037
875.108	4991
875.237	4892
875.365	4881
875.494	4900
875.623	4972
875.751	4850
875.88	4896
876.008	5029
876.136	5029
876.265	5193
876.393	5334
876.521	5212
876.65	5220
876.778	5124
876.906	5098
877.034	4995
877.162	5075
877.29	5014
877.418	5022
877.546	5033
877.674	5045
877.802	4984
877.93	5029
878.058	4927
878.185	4866
878.313	4892
878.441	4968
878.568	4809
878.696	4915
878.824	4980
878.951	5014
879.079	5094
879.206	5303
879.333	5067
879.461	5003
879.588	5003
879.715	5071
879.842	5242
879.97	4991
880.097	4771
880.224	4725
880.351	4824
880.478	4797
880.605	4786
880.732	4843
880.859	5151
880.986	4843
881.112	4938
881.239	4790
881.366	4660
881.493	4546
881.619	4561
881.746	4630
881.872	4653
881.999	4622
882.125	4664
882.252	4805
882.378	4839
882.505	4961
882.631	4774
882.757	4656
882.883	4714
883.01	4729
883.136	4683
883.262	4618
883.388	4607
883.514	4793
883.64	4889
883.766	4801
883.892	4637
884.018	4725
884.143	4873
884.269	5025
884.395	4733
884.52	4615
884.646	4702
884.772	4569
884.897	4535
885.023	4641
885.148	4771
885.274	4850
885.399	4812
885.524	4721
885.65	4706
885.775	4778
885.9	4710
886.025	4828
886.15	4801
886.275	4729
886.4	4656
886.525	4717
886.65	4725
886.775	4694
886.9	4889
887.025	5041
887.149	4839
887.274	4664
887.399	4596
887.523	4607
887.648	4588
887.773	4641
887.897	4786
888.021	4748
888.146	4702
888.27	4752
888.395	4831
888.519	4763
888.643	4820
888.767	4809
888.891	4641
889.015	4584
889.139	4649
889.263	4573
889.387	4729
889.511	4850
889.635	4786
889.759	4584
889.883	4618
890.006	4687
890.13	4828
890.254	4637
890.377	4668
890.501	4538
890.624	4497
890.748	4656
890.871	4550
890.995	4470
891.118	4394
891.241	4459
891.364	4550
891.488	4649
891.611	4497
891.734	4550
891.857	4622
891.98	4519
892.103	4645
892.226	4603
892.349	4538
892.471	4470
892.594	4523
892.717	4588
892.839	4554
892.962	4542
893.085	4706
893.207	4615
893.33	4447
893.452	4523
893.575	4694
893.697	4554
893.819	4748
893.941	4812
894.064	4816
894.186	4558
894.308	4580
894.43	4691
894.552	4782
894.674	4778
894.796	4573
894.918	4626
895.04	4569
895.161	4687
895.283	4656
895.405	4558
895.526	4565
895.648	4702
895.769	4675
895.891	4694
896.012	4733
896.134	4771
896.255	4637
896.376	4634
896.498	4588
896.619	4763
896.74	4611
896.861	4664
896.982	4877
897.103	5033
897.224	4866
897.345	4744
897.466	4698
897.587	4706
897.708	4862
897.828	4752
897.949	4675
898.07	4573
898.19	4596
898.311	4866
898.431	4672
898.552	4736
898.672	4774
898.792	4782
898.913	4736
899.033	4615
899.153	4481
899.273	4398
899.393	4481
899.513	4497
899.633	4504
899.753	4546
899.873	4481
899.993	4550
900.113	4523
900.232	4569
900.352	4535
900.472	4470
900.591	4386
900.711	4474
900.83	4451
900.95	4615
901.069	4634
901.189	4546
901.308	4333
901.427	4325
901.546	4333
901.665	4497
901.784	4527
901.904	4356
902.023	4268
902.141	4162
902.26	4139
902.379	4272
902.498	4211
902.617	4181
902.735	4379
902.854	4386
902.973	4348
903.091	4207
903.21	4223
903.328	4284
903.446	4299
903.565	4284
903.683	4325
903.801	4318
903.919	4363
904.038	4440
904.156	4295
904.274	4390
904.392	4386
904.51	4462
904.627	4481
904.745	4550
904.863	4588
904.981	4367
905.098	4352
905.216	4333
905.334	4424
905.451	4447
905.569	4451
905.686	4523
905.803	4584
905.921	4440
906.038	4550
906.155	4455
906.272	4352
906.389	4413
906.506	4314
906.623	4367
906.74	4428
906.857	4268
906.974	4383
907.091	4519
907.208	4672
907.324	4592
907.441	4508
907.557	4398
907.674	4337
907.79	4337
907.907	4363
908.023	4497
908.139	4436
908.256	4405
908.372	4500
908.488	4493
908.604	4329
908.72	4284
908.836	4402
908.952	4375
909.068	4443
909.184	4573
909.3	4436
909.415	4603
909.531	4569
909.647	4398
909.762	4375
909.878	4306
909.993	4432
910.108	4417
910.224	4413
910.339	4421
910.454	4379
910.57	4394
910.685	4253
910.8	4630
910.915	4554
911.03	4519
911.145	4314
911.259	4333
911.374	4386
911.489	4287
911.604	4223
911.718	4158
911.833	4131
911.947	4139
912.062	4010
912.176	4169
912.291	4227
912.405	4272
912.519	4440
912.633	4462
912.748	4379
912.862	4356
912.976	4211
913.09	4082
913.204	4166
913.318	4268
913.431	4367
913.545	4352
913.659	4478
913.772	4318
913.886	4223
914	4215
914.113	4367
914.226	4424
914.34	4356
914.453	4196
914.566	4413
914.68	4261
914.793	4333
914.906	4181
915.019	4147
915.132	4105
915.245	4192
915.358	4215
915.47	4242
915.583	4272
915.696	4280
915.809	4363
915.921	4386
916.034	4268
916.146	4211
916.259	4246
916.371	4379
916.483	4352
916.595	4253
916.708	4344
916.82	4306
916.932	4314
917.044	4363
917.156	4341
917.268	4192
917.38	4261
917.491	4265
917.603	4352
917.715	4371
917.826	4466
917.938	4341
918.049	4215
918.161	4352
918.272	4569
918.384	4497
918.495	4432
918.606	4303
918.717	4215
918.828	4352
918.939	4371
919.05	4234
919.161	4325
919.272	4147
919.383	4253
919.494	4443
919.604	4622
919.715	4402
919.826	4299
919.936	4367
920.047	4523
920.157	4474
920.267	4702
920.378	4538
920.488	4443
920.598	4687
920.708	4858
920.818	4714
920.928	4759
921.038	4957
921.148	4900
921.258	4596
921.368	4527
921.477	4508
921.587	4402
921.697	4383
921.806	4538
921.916	4428
922.025	4257
922.134	4265
922.244	4223
922.353	4287
922.462	4166
922.571	4101
922.68	4013
922.789	3956
922.898	4048
923.007	3979
923.116	4082
923.224	4051
923.333	4105
923.442	3968
923.55	3949
923.659	4002
923.767	4086
923.876	3968
923.984	4109
924.092	4006
924.201	4086
924.309	4059
924.417	4116
924.525	4051
924.633	4078
924.741	5064
924.849	3907
924.956	4139
925.064	3934
925.172	3903
925.279	3949
925.387	4040
925.494	4078
925.602	4169
925.709	4169
925.816	4040
925.924	4105
926.031	4177
926.138	4154
926.245	4192
926.352	4097
926.459	4257
926.566	4303
926.673	4128
926.779	4071
926.886	4051
926.993	3987
927.099	3888
927.206	3918
927.312	3964
927.419	4036
927.525	4048
927.631	4090
927.737	3941
927.843	3934
927.95	3857
928.056	3903
928.162	3968
928.267	4059
928.373	4573
928.479	4116
928.585	3838
928.69	4006
928.796	4021
928.901	3945
929.007	3838
929.112	3941
929.218	3994
929.323	3930
929.428	3964
929.533	4082
929.638	3903
929.743	3979
929.848	4032
929.953	3979
930.058	3915
930.163	3774
930.267	3781
930.372	3983
930.477	3793
930.581	4105
930.685	3911
930.79	3831
930.894	3911
930.998	3816
931.103	4021
931.207	3686
931.311	3682
931.415	3641
931.519	3538
931.623	3561
