Data from test_V78500241_2505.txt Node
Date: Fri Mar 25 17:06:25 CST 2022
User: usil
Spectrometer: V785-0024
Trigger mode: 0
Integration Time (sec): 4.000000E-1
Scans to average: 1
Nonlinearity correction enabled: false
Boxcar width: 0
Storing dark spectrum: false
XAxis mode: Wavelengths
Number of Pixels in Spectrum: 1024
>>>>>Begin Spectral Data<<<<<
801.071	7986
801.214	7959
801.356	7833
801.499	7868
801.641	7788
801.783	7864
801.926	7932
802.068	7883
802.211	7928
802.353	8016
802.496	7822
802.638	7833
802.78	7951
802.923	7921
803.065	7845
803.208	7830
803.35	8001
803.492	8126
803.635	8119
803.777	8005
803.919	8199
804.061	8412
804.204	8153
804.346	8103
804.488	7959
804.63	8145
804.773	7989
804.915	8073
805.057	8248
805.199	8157
805.341	8225
805.483	8240
805.626	8202
805.768	8195
805.91	8180
806.052	8187
806.194	8084
806.336	8263
806.478	8092
806.62	8024
806.762	8123
806.904	8240
807.046	8530
807.188	8381
807.33	8366
807.472	8275
807.614	8168
807.756	8157
807.898	8020
808.04	7841
808.182	7887
808.324	7868
808.465	7986
808.607	8096
808.749	8096
808.891	8191
809.033	8313
809.174	8218
809.316	8119
809.458	7947
809.6	7997
809.741	8039
809.883	8043
810.025	8161
810.166	8073
810.308	7955
810.45	7993
810.591	7868
810.733	7769
810.875	7632
811.016	7476
811.158	7419
811.299	7590
811.441	7700
811.582	7693
811.724	7544
811.865	7552
812.007	7624
812.148	7537
812.29	7613
812.431	7772
812.573	7845
812.714	7982
812.855	8107
812.997	8180
813.138	8294
813.279	8168
813.421	8046
813.562	7932
813.703	7826
813.845	7750
813.986	7464
814.127	7263
814.268	7213
814.41	7213
814.551	7171
814.692	7187
814.833	7069
814.974	7061
815.115	7133
815.256	7031
815.397	6954
815.539	6916
815.68	6875
815.821	6795
815.962	6798
816.103	6795
816.244	6734
816.385	6608
816.526	6627
816.666	6479
816.807	6414
816.948	6437
817.089	6433
817.23	6460
817.371	6384
817.512	6350
817.653	6391
817.793	6353
817.934	6452
818.075	6513
818.216	6479
818.356	6384
818.497	6277
818.638	6072
818.778	6152
818.919	6133
819.06	6239
819.2	6384
819.341	6308
819.481	6395
819.622	6506
819.762	6726
819.903	6722
820.043	6551
820.184	6601
820.324	6608
820.465	6726
820.605	6692
820.746	6681
820.886	6532
821.026	6604
821.167	6738
821.307	6787
821.447	6795
821.588	6700
821.728	6555
821.868	6544
822.008	6308
822.149	6334
822.289	6346
822.429	6178
822.569	6129
822.709	6136
822.849	5973
822.99	5939
823.13	5935
823.27	5942
823.41	5790
823.55	5775
823.69	5760
823.83	5779
823.97	5642
824.11	5543
824.25	5535
824.389	5554
824.529	5589
824.669	5547
824.809	5608
824.949	5680
825.089	5592
825.228	5570
825.368	5417
825.508	5387
825.648	5322
825.787	5353
825.927	5353
826.067	5296
826.206	5284
826.346	5360
826.485	5425
826.625	5398
826.765	5539
826.904	5497
827.044	5246
827.183	5212
827.323	5124
827.462	5261
827.601	5181
827.741	5201
827.88	5258
828.02	5136
828.159	5201
828.298	5334
828.437	5372
828.577	5299
828.716	5501
828.855	5322
828.994	5132
829.134	5170
829.273	5132
829.412	5147
829.551	5178
829.69	5162
829.829	5265
829.968	5387
830.107	5315
830.246	5292
830.385	5185
830.524	5151
830.663	5048
830.802	4991
830.941	4919
831.08	4900
831.219	5006
831.357	4949
831.496	5128
831.635	4919
831.774	4858
831.913	4839
832.051	4767
832.19	4778
832.329	4812
832.467	4729
832.606	4584
832.744	4729
832.883	4706
833.022	4702
833.16	4774
833.299	4843
833.437	4824
833.576	4835
833.714	4862
833.852	4919
833.991	4934
834.129	4915
834.267	4885
834.406	4938
834.544	4968
834.682	4957
834.821	4927
834.959	5197
835.097	4965
835.235	5189
835.373	5090
835.511	5128
835.65	4984
835.788	4930
835.926	4900
836.064	4870
836.202	4915
836.34	5174
836.478	5250
836.615	5147
836.753	5208
836.891	5284
837.029	5288
837.167	5170
837.305	5151
837.443	5201
837.58	5128
837.718	5239
837.856	5189
837.993	5166
838.131	5193
838.269	5204
838.406	5216
838.544	5159
838.681	5041
838.819	5018
838.956	4919
839.094	4938
839.231	5010
839.369	5071
839.506	5463
839.643	5261
839.781	5090
839.918	4972
840.055	5140
840.193	5094
840.33	5105
840.467	5155
840.604	5159
840.742	5482
840.879	5071
841.016	5090
841.153	5178
841.29	5391
841.427	5318
841.564	5307
841.701	5337
841.838	5299
841.975	5227
842.112	5311
842.249	5136
842.385	5037
842.522	5357
842.659	5151
842.796	5132
842.933	5189
843.069	5170
843.206	5159
843.343	5311
843.479	5189
843.616	5296
843.752	5056
843.889	5064
844.025	5269
844.162	5041
844.298	5231
844.435	5102
844.571	5033
844.708	5235
844.844	5330
844.98	5372
845.117	5315
845.253	5124
845.389	5060
845.525	5159
845.661	5159
845.798	5033
845.934	5113
846.07	5041
846.206	5220
846.342	5261
846.478	5166
846.614	5025
846.75	4949
846.886	4896
847.022	5079
847.158	5029
847.294	5086
847.429	5102
847.565	5064
847.701	5315
847.837	4885
847.972	4805
848.108	4972
848.244	4892
848.379	4797
848.515	4733
848.65	4725
848.786	4672
848.921	4790
849.057	4862
849.192	4847
849.328	4790
849.463	4839
849.598	4843
849.734	4714
849.869	4725
850.004	4630
850.14	4645
850.275	4599
850.41	4516
850.545	4618
850.68	4538
850.815	4637
850.95	4596
851.085	4847
851.22	4740
851.355	4691
851.49	4615
851.625	4603
851.76	4626
851.895	4577
852.03	4577
852.165	4649
852.299	4717
852.434	4820
852.569	4774
852.703	4771
852.838	4850
852.973	4877
853.107	4938
853.242	4691
853.376	4653
853.511	4558
853.645	4626
853.78	4767
853.914	4694
854.048	4675
854.183	4691
854.317	4694
854.451	4824
854.585	4687
854.72	4645
854.854	4767
854.988	4641
855.122	4649
855.256	4546
855.39	4668
855.524	4771
855.658	4752
855.792	4694
855.926	4759
856.06	4736
856.194	4752
856.327	4672
856.461	4645
856.595	4561
856.729	4702
856.862	4782
856.996	4679
857.13	4721
857.263	4710
857.397	4786
857.53	4668
857.664	4698
857.797	4759
857.931	4763
858.064	4698
858.197	4740
858.331	4637
858.464	4599
858.597	4535
858.731	4668
858.864	4656
858.997	4603
859.13	4672
859.263	4656
859.396	4721
859.529	4588
859.662	4512
859.795	4577
859.928	4645
860.061	4733
860.194	4733
860.327	4622
860.46	4538
860.592	4729
860.725	4698
860.858	4748
860.99	4592
861.123	4523
861.256	4519
861.388	4626
861.521	5231
861.653	4466
861.786	4455
861.918	4455
862.05	4577
862.183	4561
862.315	4641
862.447	4710
862.58	4535
862.712	4348
862.844	4299
862.976	4440
863.108	4493
863.24	4854
863.372	4306
863.504	4440
863.636	4386
863.768	4443
863.9	4455
864.032	4348
864.164	4390
864.296	4447
864.428	4531
864.559	4577
864.691	4478
864.823	4466
864.954	4485
865.086	4546
865.217	4432
865.349	4440
865.48	4443
865.612	4474
865.743	4634
865.875	4497
866.006	4428
866.137	4462
866.269	4447
866.4	4379
866.531	4417
866.662	4394
866.793	4413
866.924	4383
867.055	4504
867.186	4428
867.317	4417
867.448	4367
867.579	4386
867.71	4432
867.841	4409
867.972	4424
868.103	4436
868.233	4447
868.364	4424
868.495	4478
868.625	4645
868.756	4797
868.886	4573
869.017	4637
869.147	4801
869.278	4820
869.408	4641
869.539	4603
869.669	4710
869.799	4637
869.929	4797
870.06	4744
870.19	4927
870.32	4938
870.45	4942
870.58	5025
870.71	5071
870.84	5075
870.97	4984
871.1	4873
871.23	5124
871.36	5155
871.489	4995
871.619	5056
871.749	5124
871.879	5117
872.008	5174
872.138	5025
872.267	4968
872.397	4850
872.526	4790
872.656	4714
872.785	4793
872.915	4949
873.044	5041
873.173	4972
873.303	4965
873.432	4995
873.561	4987
873.69	4908
873.819	4915
873.948	4980
874.077	4797
874.206	4748
874.335	4767
874.464	4900
874.593	5086
874.722	4942
874.851	5113
874.979	5060
875.108	4984
875.237	4877
875.365	4881
875.494	4934
875.623	5003
875.751	4782
875.88	4870
876.008	4949
876.136	5079
876.265	5174
876.393	5395
876.521	5250
876.65	5201
876.778	5143
876.906	5090
877.034	4965
877.162	5064
877.29	5010
877.418	4980
877.546	4987
877.674	5060
877.802	5003
877.93	5025
878.058	4892
878.185	4919
878.313	4938
878.441	4980
878.568	4850
878.696	4873
878.824	4961
878.951	4991
879.079	5105
879.206	5265
879.333	5124
879.461	4968
879.588	4987
879.715	5098
879.842	5201
879.97	4976
880.097	4774
880.224	4752
880.351	4820
880.478	4828
880.605	4748
880.732	4790
880.859	5086
880.986	4896
881.112	4938
881.239	4835
881.366	4656
881.493	4611
881.619	4603
881.746	4615
881.872	4622
881.999	4645
882.125	4668
882.252	4805
882.378	4816
882.505	4980
882.631	4809
882.757	4672
882.883	4774
883.01	4714
883.136	4706
883.262	4634
883.388	4599
883.514	4763
883.64	4877
883.766	4763
883.892	4694
884.018	4668
884.143	4854
884.269	5022
884.395	4702
884.52	4599
884.646	4641
884.772	4561
884.897	4535
885.023	4675
885.148	4774
885.274	4915
885.399	4820
885.524	4714
885.65	4706
885.775	4752
885.9	4714
886.025	4866
886.15	4797
886.275	4736
886.4	4656
886.525	4714
886.65	4694
886.775	4645
886.9	4885
887.025	5010
887.149	4831
887.274	4656
887.399	4588
887.523	4607
887.648	4584
887.773	4607
887.897	4767
888.021	4744
888.146	4626
888.27	4774
888.395	4881
888.519	4786
888.643	4774
888.767	4839
888.891	4714
889.015	4603
889.139	4611
889.263	4573
889.387	4763
889.511	4831
889.635	4805
889.759	4630
889.883	4626
890.006	4752
890.13	4828
890.254	4592
890.377	4729
890.501	4542
890.624	4519
890.748	4645
890.871	4459
890.995	4440
891.118	4367
891.241	4535
891.364	4561
891.488	4622
891.611	4493
891.734	4542
891.857	4622
891.98	4592
892.103	4637
892.226	4588
892.349	4573
892.471	4436
892.594	4531
892.717	4573
892.839	4550
892.962	4558
893.085	4626
893.207	4630
893.33	4417
893.452	4504
893.575	4656
893.697	4565
893.819	4778
893.941	4858
894.064	4793
894.186	4596
894.308	4573
894.43	4706
894.552	4816
894.674	4729
894.796	4542
894.918	4618
895.04	4558
895.161	4717
895.283	4660
895.405	4588
895.526	4615
895.648	4687
895.769	4679
895.891	4759
896.012	4717
896.134	4721
896.255	4675
896.376	4679
896.498	4660
896.619	4672
896.74	4596
896.861	4618
896.982	4919
897.103	5113
897.224	4809
897.345	4748
897.466	4649
897.587	4717
897.708	4862
897.828	4755
897.949	4660
898.07	4580
898.19	4637
898.311	4828
898.431	4683
898.552	4717
898.672	4790
898.792	4759
898.913	4786
899.033	4634
899.153	4493
899.273	4462
899.393	4447
899.513	4531
899.633	4519
899.753	4531
899.873	4538
899.993	4565
900.113	4535
900.232	4554
900.352	4531
900.472	4455
900.591	4379
900.711	4500
900.83	4459
900.95	4660
901.069	4675
901.189	4508
901.308	4363
901.427	4310
901.546	4398
901.665	4497
901.784	4554
901.904	4375
902.023	4314
902.141	4204
902.26	4185
902.379	4344
902.498	4215
902.617	4177
902.735	4348
902.854	4394
902.973	4356
903.091	4242
903.21	4234
903.328	4249
903.446	4257
903.565	4242
903.683	4344
903.801	4261
903.919	4440
904.038	4424
904.156	4344
904.274	4413
904.392	4379
904.51	4413
904.627	4474
904.745	4580
904.863	4664
904.981	4398
905.098	4295
905.216	4348
905.334	4417
905.451	4481
905.569	4462
905.686	4596
905.803	4531
905.921	4421
906.038	4569
906.155	4451
906.272	4394
906.389	4470
906.506	4318
906.623	4375
906.74	4421
906.857	4352
906.974	4318
907.091	4542
907.208	4687
907.324	4588
907.441	4508
907.557	4383
907.674	4333
907.79	4265
907.907	4322
908.023	4485
908.139	4493
908.256	4459
908.372	4432
908.488	4459
908.604	4348
908.72	4363
908.836	4375
908.952	4367
909.068	4413
909.184	4565
909.3	4516
909.415	4603
909.531	4500
909.647	4363
909.762	4383
909.878	4280
909.993	4417
910.108	4413
910.224	4424
910.339	4451
910.454	4409
910.57	4386
910.685	4348
910.8	4630
910.915	4569
911.03	4523
911.145	4306
911.259	4329
911.374	4352
911.489	4306
911.604	4261
911.718	4143
911.833	4249
911.947	4078
912.062	4010
912.176	4234
912.291	4257
912.405	4295
912.519	4424
912.633	4508
912.748	4329
912.862	4322
912.976	4166
913.09	4162
913.204	4192
913.318	4227
913.431	4379
913.545	4405
913.659	4440
913.772	4367
913.886	4257
914	4215
914.113	4367
914.226	4432
914.34	4394
914.453	4249
914.566	4455
914.68	4314
914.793	4344
914.906	4158
915.019	4101
915.132	4090
915.245	4166
915.358	4204
915.47	4268
915.583	4242
915.696	4329
915.809	4424
915.921	4424
916.034	4303
916.146	4253
916.259	4261
916.371	4413
916.483	4352
916.595	4295
916.708	4310
916.82	4322
916.932	4341
917.044	4344
917.156	4363
917.268	4272
917.38	4299
917.491	4280
917.603	4318
917.715	4413
917.826	4428
917.938	4341
918.049	4173
918.161	4383
918.272	4546
918.384	4489
918.495	4455
918.606	4291
918.717	4246
918.828	4306
918.939	4341
919.05	4192
919.161	4318
919.272	4154
919.383	4227
919.494	4405
919.604	4637
919.715	4417
919.826	4303
919.936	4352
920.047	4596
920.157	4455
920.267	4694
920.378	4466
920.488	4497
920.598	4702
920.708	4877
920.818	4736
920.928	4744
921.038	4946
921.148	4927
921.258	4603
921.368	4550
921.477	4508
921.587	4474
921.697	4367
921.806	4565
921.916	4421
922.025	4249
922.134	4234
922.244	4207
922.353	4284
922.462	4169
922.571	4135
922.68	3972
922.789	3994
922.898	4032
923.007	3964
923.116	4097
923.224	4036
923.333	4128
923.442	3972
923.55	3979
923.659	4059
923.767	4112
923.876	4021
923.984	4116
924.092	3937
924.201	4067
924.309	4078
924.417	4101
924.525	4059
924.633	4074
924.741	4881
924.849	3896
924.956	4139
925.064	3987
925.172	3896
925.279	3922
925.387	4093
925.494	4063
925.602	4219
925.709	4158
925.816	4044
925.924	4105
926.031	4227
926.138	4173
926.245	4169
926.352	4105
926.459	4234
926.566	4325
926.673	4128
926.779	4059
926.886	4055
926.993	4013
927.099	3994
927.206	3930
927.312	3960
927.419	4063
927.525	4029
927.631	4090
927.737	3934
927.843	3975
927.95	3846
928.056	3953
928.162	4036
928.267	4040
928.373	4603
928.479	4090
928.585	3907
928.69	4013
928.796	4059
928.901	3915
929.007	3778
929.112	3983
929.218	3960
929.323	3892
929.428	3930
929.533	4059
929.638	3926
929.743	3945
929.848	4067
929.953	4017
930.058	3953
930.163	3808
930.267	3835
930.372	3983
930.477	3819
930.581	4101
930.685	3953
930.79	3857
930.894	3869
930.998	3861
931.103	3987
931.207	3709
931.311	3656
931.415	3686
931.519	3519
931.623	3549
