Data from test_V78500241_771.txt Node
Date: Fri Mar 25 16:54:21 CST 2022
User: usil
Spectrometer: V785-0024
Trigger mode: 0
Integration Time (sec): 4.000000E-1
Scans to average: 1
Nonlinearity correction enabled: false
Boxcar width: 0
Storing dark spectrum: false
XAxis mode: Wavelengths
Number of Pixels in Spectrum: 1024
>>>>>Begin Spectral Data<<<<<
801.071	7978
801.214	7993
801.356	7822
801.499	7830
801.641	7788
801.783	7852
801.926	7883
802.068	7883
802.211	7928
802.353	7978
802.496	7833
802.638	7898
802.78	7925
802.923	7955
803.065	7814
803.208	7917
803.35	7967
803.492	8088
803.635	8206
803.777	8073
803.919	8024
804.061	8366
804.204	8119
804.346	8073
804.488	7951
804.63	8123
804.773	8035
804.915	8073
805.057	8305
805.199	8126
805.341	8176
805.483	8218
805.626	8153
805.768	8035
805.91	8157
806.052	8157
806.194	8043
806.336	8252
806.478	8077
806.62	8031
806.762	8081
806.904	8286
807.046	8446
807.188	8294
807.33	8244
807.472	8305
807.614	8130
807.756	8005
807.898	8008
808.04	7799
808.182	7917
808.324	7875
808.465	7860
808.607	7936
808.749	8081
808.891	8172
809.033	8343
809.174	8202
809.316	7967
809.458	8065
809.6	7963
809.741	7963
809.883	7982
810.025	8065
810.166	8134
810.308	8062
810.45	7982
810.591	7849
810.733	7636
810.875	7636
811.016	7521
811.158	7460
811.299	7510
811.441	7708
811.582	7586
811.724	7556
811.865	7521
812.007	7537
812.148	7575
812.29	7601
812.431	7677
812.573	7860
812.714	7986
812.855	8077
812.997	8244
813.138	8301
813.279	8202
813.421	8107
813.562	8005
813.703	7818
813.845	7841
813.986	7453
814.127	7297
814.268	7274
814.41	7145
814.551	7122
814.692	7156
814.833	6954
814.974	7046
815.115	7065
815.256	6993
815.397	6920
815.539	6882
815.68	6818
815.821	6760
815.962	6833
816.103	6844
816.244	6703
816.385	6627
816.526	6604
816.666	6475
816.807	6277
816.948	6414
817.089	6437
817.23	6448
817.371	6323
817.512	6391
817.653	6346
817.793	6407
817.934	6433
818.075	6414
818.216	6403
818.356	6380
818.497	6251
818.638	6148
818.778	6087
818.919	6136
819.06	6079
819.2	6300
819.341	6277
819.481	6357
819.622	6441
819.762	6703
819.903	6711
820.043	6566
820.184	6555
820.324	6547
820.465	6631
820.605	6688
820.746	6597
820.886	6448
821.026	6665
821.167	6658
821.307	6779
821.447	6795
821.588	6627
821.728	6490
821.868	6479
822.008	6311
822.149	6391
822.289	6372
822.429	6152
822.569	6076
822.709	6110
822.849	5889
822.99	5893
823.13	5939
823.27	5859
823.41	5783
823.55	5722
823.69	5714
823.83	5737
823.97	5684
824.11	5554
824.25	5474
824.389	5486
824.529	5570
824.669	5520
824.809	5665
824.949	5653
825.089	5630
825.228	5490
825.368	5368
825.508	5345
825.648	5353
825.787	5425
825.927	5368
826.067	5277
826.206	5273
826.346	5379
826.485	5391
826.625	5391
826.765	5505
826.904	5444
827.044	5235
827.183	5204
827.323	5136
827.462	5208
827.601	5121
827.741	5143
827.88	5185
828.02	5098
828.159	5208
828.298	5307
828.437	5349
828.577	5288
828.716	5436
828.855	5246
828.994	5109
829.134	5086
829.273	5162
829.412	5121
829.551	5098
829.69	5151
829.829	5231
829.968	5379
830.107	5269
830.246	5261
830.385	5140
830.524	5132
830.663	5075
830.802	4999
830.941	4915
831.08	4911
831.219	4968
831.357	4938
831.496	5162
831.635	4949
831.774	4839
831.913	4850
832.051	4710
832.19	4740
832.329	4847
832.467	4710
832.606	4698
832.744	4698
832.883	4710
833.022	4679
833.16	4744
833.299	4835
833.437	4850
833.576	4843
833.714	4831
833.852	4858
833.991	4854
834.129	4919
834.267	4942
834.406	4908
834.544	4946
834.682	4991
834.821	4938
834.959	5124
835.097	5003
835.235	5140
835.373	5128
835.511	5090
835.65	5037
835.788	4984
835.926	4892
836.064	4870
836.202	4919
836.34	5201
836.478	5201
836.615	5079
836.753	5223
836.891	5265
837.029	5208
837.167	5143
837.305	5185
837.443	5124
837.58	5113
837.718	5223
837.856	5151
837.993	5143
838.131	5242
838.269	5178
838.406	5227
838.544	5181
838.681	5041
838.819	4999
838.956	4900
839.094	4892
839.231	4934
839.369	5102
839.506	5463
839.643	5212
839.781	5056
839.918	5010
840.055	5071
840.193	5060
840.33	5102
840.467	5162
840.604	5181
840.742	5429
840.879	5109
841.016	5083
841.153	5083
841.29	5395
841.427	5315
841.564	5261
841.701	5318
841.838	5235
841.975	5223
842.112	5284
842.249	5132
842.385	5128
842.522	5292
842.659	5143
842.796	5162
842.933	5231
843.069	5128
843.206	5136
843.343	5334
843.479	5284
843.616	5292
843.752	5022
843.889	4980
844.025	5208
844.162	5018
844.298	5250
844.435	5109
844.571	5010
844.708	5151
844.844	5273
844.98	5341
845.117	5311
845.253	5162
845.389	5098
845.525	5121
845.661	5094
845.798	5022
845.934	5109
846.07	4999
846.206	5174
846.342	5239
846.478	5155
846.614	4995
846.75	4957
846.886	4934
847.022	5056
847.158	4984
847.294	5098
847.429	5094
847.565	5033
847.701	5284
847.837	4873
847.972	4774
848.108	4980
848.244	4927
848.379	4755
848.515	4714
848.65	4698
848.786	4740
848.921	4733
849.057	4847
849.192	4885
849.328	4767
849.463	4820
849.598	4820
849.734	4748
849.869	4691
850.004	4622
850.14	4645
850.275	4611
850.41	4554
850.545	4527
850.68	4565
850.815	4603
850.95	4611
851.085	4850
851.22	4702
851.355	4660
851.49	4607
851.625	4573
851.76	4630
851.895	4542
852.03	4523
852.165	4611
852.299	4702
852.434	4763
852.569	4748
852.703	4725
852.838	4805
852.973	4900
853.107	4908
853.242	4714
853.376	4710
853.511	4531
853.645	4569
853.78	4763
853.914	4687
854.048	4710
854.183	4622
854.317	4702
854.451	4843
854.585	4664
854.72	4615
854.854	4778
854.988	4607
855.122	4577
855.256	4500
855.39	4664
855.524	4782
855.658	4698
855.792	4611
855.926	4755
856.06	4721
856.194	4812
856.327	4653
856.461	4584
856.595	4599
856.729	4622
856.862	4759
856.996	4702
857.13	4725
857.263	4752
857.397	4786
857.53	4649
857.664	4687
857.797	4725
857.931	4774
858.064	4702
858.197	4729
858.331	4641
858.464	4573
858.597	4531
858.731	4599
858.864	4615
858.997	4531
859.13	4653
859.263	4672
859.396	4649
859.529	4569
859.662	4546
859.795	4508
859.928	4649
860.061	4725
860.194	4740
860.327	4565
860.46	4535
860.592	4702
860.725	4683
860.858	4729
860.99	4550
861.123	4497
861.256	4500
861.388	4622
861.521	5368
861.653	4440
861.786	4451
861.918	4443
862.05	4478
862.183	4512
862.315	4580
862.447	4615
862.58	4573
862.712	4386
862.844	4310
862.976	4440
863.108	4428
863.24	4858
863.372	4329
863.504	4417
863.636	4356
863.768	4466
863.9	4398
864.032	4341
864.164	4409
864.296	4447
864.428	4516
864.559	4516
864.691	4538
864.823	4508
864.954	4497
865.086	4470
865.217	4459
865.349	4371
865.48	4413
865.612	4466
865.743	4577
865.875	4443
866.006	4394
866.137	4466
866.269	4424
866.4	4413
866.531	4394
866.662	4417
866.793	4383
866.924	4455
867.055	4519
867.186	4443
867.317	4390
867.448	4386
867.579	4363
867.71	4398
867.841	4367
867.972	4500
868.103	4470
868.233	4432
868.364	4497
868.495	4538
868.625	4675
868.756	4736
868.886	4599
869.017	4645
869.147	4771
869.278	4740
869.408	4637
869.539	4687
869.669	4748
869.799	4698
869.929	4809
870.06	4748
870.19	4999
870.32	4896
870.45	4976
870.58	4995
870.71	5109
870.84	5121
870.97	5003
871.1	4957
871.23	5216
871.36	5140
871.489	5064
871.619	5090
871.749	5155
871.879	5124
872.008	5178
872.138	5083
872.267	5029
872.397	4839
872.526	4828
872.656	4778
872.785	4850
872.915	4942
873.044	5041
873.173	5006
873.303	5003
873.432	5022
873.561	4991
873.69	4889
873.819	4923
873.948	4930
874.077	4866
874.206	4778
874.335	4854
874.464	4938
874.593	5117
874.722	4927
874.851	5151
874.979	5124
875.108	5136
875.237	4942
875.365	4858
875.494	4946
875.623	5033
875.751	4862
875.88	4908
876.008	5003
876.136	5064
876.265	5220
876.393	5395
876.521	5318
876.65	5250
876.778	5212
876.906	5083
877.034	5056
877.162	5105
877.29	4991
877.418	5086
877.546	5064
877.674	5124
877.802	5083
877.93	5003
878.058	5014
878.185	4911
878.313	4968
878.441	4946
878.568	4839
878.696	4881
878.824	4972
878.951	5064
879.079	5178
879.206	5277
879.333	5136
879.461	5064
879.588	5041
879.715	5189
879.842	5250
879.97	5048
880.097	4793
880.224	4752
880.351	4843
880.478	4847
880.605	4797
880.732	4816
880.859	5128
880.986	4873
881.112	4923
881.239	4786
881.366	4694
881.493	4603
881.619	4611
881.746	4683
881.872	4668
881.999	4664
882.125	4763
882.252	4790
882.378	4904
882.505	5003
882.631	4839
882.757	4706
882.883	4786
883.01	4774
883.136	4694
883.262	4637
883.388	4702
883.514	4816
883.64	4904
883.766	4831
883.892	4660
884.018	4740
884.143	4908
884.269	5014
884.395	4710
884.52	4668
884.646	4717
884.772	4596
884.897	4592
885.023	4710
885.148	4820
885.274	4900
885.399	4870
885.524	4698
885.65	4691
885.775	4790
885.9	4752
886.025	4881
886.15	4771
886.275	4698
886.4	4683
886.525	4744
886.65	4721
886.775	4668
886.9	4927
887.025	5086
887.149	4801
887.274	4679
887.399	4569
887.523	4622
887.648	4588
887.773	4622
887.897	4752
888.021	4771
888.146	4675
888.27	4820
888.395	4927
888.519	4847
888.643	4812
888.767	4858
888.891	4679
889.015	4626
889.139	4679
889.263	4634
889.387	4790
889.511	4942
889.635	4835
889.759	4637
889.883	4622
890.006	4736
890.13	4873
890.254	4626
890.377	4702
890.501	4584
890.624	4542
890.748	4687
890.871	4527
890.995	4459
891.118	4383
891.241	4523
891.364	4577
891.488	4675
891.611	4584
891.734	4565
891.857	4618
891.98	4607
892.103	4740
892.226	4618
892.349	4554
892.471	4466
892.594	4645
892.717	4664
892.839	4596
892.962	4618
893.085	4656
893.207	4615
893.33	4474
893.452	4542
893.575	4706
893.697	4615
893.819	4820
893.941	4858
894.064	4782
894.186	4603
894.308	4637
894.43	4771
894.552	4889
894.674	4725
894.796	4573
894.918	4630
895.04	4573
895.161	4736
895.283	4691
895.405	4588
895.526	4626
895.648	4721
895.769	4710
895.891	4740
896.012	4782
896.134	4774
896.255	4725
896.376	4691
896.498	4615
896.619	4691
896.74	4664
896.861	4691
896.982	4896
897.103	5109
897.224	4908
897.345	4740
897.466	4714
897.587	4763
897.708	4889
897.828	4778
897.949	4714
898.07	4580
898.19	4637
898.311	4843
898.431	4672
898.552	4793
898.672	4805
898.792	4828
898.913	4755
899.033	4622
899.153	4558
899.273	4459
899.393	4516
899.513	4554
899.633	4508
899.753	4584
899.873	4550
899.993	4599
900.113	4546
900.232	4599
900.352	4607
900.472	4531
900.591	4447
900.711	4485
900.83	4504
900.95	4679
901.069	4725
901.189	4588
901.308	4360
901.427	4341
901.546	4421
901.665	4459
901.784	4550
901.904	4432
902.023	4344
902.141	4234
902.26	4181
902.379	4314
902.498	4257
902.617	4227
902.735	4398
902.854	4440
902.973	4443
903.091	4200
903.21	4219
903.328	4333
903.446	4284
903.565	4299
903.683	4371
903.801	4295
903.919	4409
904.038	4440
904.156	4360
904.274	4512
904.392	4398
904.51	4383
904.627	4466
904.745	4577
904.863	4668
904.981	4424
905.098	4333
905.216	4421
905.334	4474
905.451	4413
905.569	4493
905.686	4527
905.803	4611
905.921	4394
906.038	4550
906.155	4535
906.272	4428
906.389	4466
906.506	4363
906.623	4383
906.74	4398
906.857	4325
906.974	4360
907.091	4607
907.208	4672
907.324	4573
907.441	4493
907.557	4341
907.674	4348
907.79	4318
907.907	4421
908.023	4466
908.139	4504
908.256	4455
908.372	4508
908.488	4455
908.604	4367
908.72	4333
908.836	4424
908.952	4402
909.068	4421
909.184	4588
909.3	4504
909.415	4611
909.531	4542
909.647	4394
909.762	4413
909.878	4341
909.993	4462
910.108	4432
910.224	4462
910.339	4527
910.454	4386
910.57	4386
910.685	4314
910.8	4675
910.915	4626
911.03	4531
911.145	4337
911.259	4386
911.374	4325
911.489	4325
911.604	4265
911.718	4181
911.833	4257
911.947	4097
912.062	4032
912.176	4215
912.291	4227
912.405	4284
912.519	4516
912.633	4497
912.748	4402
912.862	4363
912.976	4211
913.09	4116
913.204	4234
913.318	4253
913.431	4344
913.545	4363
913.659	4474
913.772	4375
913.886	4265
914	4215
914.113	4432
914.226	4417
914.34	4428
914.453	4219
914.566	4447
914.68	4299
914.793	4318
914.906	4188
915.019	4249
915.132	4120
915.245	4188
915.358	4230
915.47	4280
915.583	4299
915.696	4291
915.809	4405
915.921	4398
916.034	4287
916.146	4238
916.259	4234
916.371	4455
916.483	4348
916.595	4265
916.708	4318
916.82	4333
916.932	4360
917.044	4360
917.156	4318
917.268	4295
917.38	4291
917.491	4329
917.603	4398
917.715	4398
917.826	4470
917.938	4386
918.049	4291
918.161	4436
918.272	4500
918.384	4569
918.495	4478
918.606	4344
918.717	4272
918.828	4360
918.939	4367
919.05	4230
919.161	4344
919.272	4131
919.383	4318
919.494	4447
919.604	4637
919.715	4470
919.826	4379
919.936	4413
920.047	4504
920.157	4485
920.267	4729
920.378	4558
920.488	4527
920.598	4744
920.708	4908
920.818	4786
920.928	4778
921.038	4961
921.148	4900
921.258	4710
921.368	4565
921.477	4546
921.587	4531
921.697	4432
921.806	4565
921.916	4443
922.025	4344
922.134	4249
922.244	4230
922.353	4352
922.462	4230
922.571	4128
922.68	4063
922.789	3975
922.898	4006
923.007	4010
923.116	4097
923.224	4071
923.333	4036
923.442	3979
923.55	4021
923.659	4055
923.767	4124
923.876	4032
923.984	4143
924.092	3964
924.201	4067
924.309	4090
924.417	4135
924.525	4097
924.633	4109
924.741	4946
924.849	3941
924.956	4131
925.064	3968
925.172	3953
925.279	3983
925.387	4101
925.494	4082
925.602	4223
925.709	4181
925.816	4082
925.924	4131
926.031	4238
926.138	4162
926.245	4219
926.352	4036
926.459	4280
926.566	4287
926.673	4166
926.779	4078
926.886	4120
926.993	4013
927.099	3979
927.206	3972
927.312	3968
927.419	4051
927.525	4051
927.631	4124
927.737	3945
927.843	3975
927.95	3869
928.056	3960
928.162	3983
928.267	4032
928.373	4721
928.479	4090
928.585	3869
928.69	4040
928.796	4120
928.901	3941
929.007	3842
929.112	4029
929.218	3975
929.323	3937
929.428	3941
929.533	4101
929.638	3918
929.743	3983
929.848	4059
929.953	4002
930.058	3911
930.163	3747
930.267	3850
930.372	4036
930.477	3846
930.581	4120
930.685	3979
930.79	3827
930.894	3873
930.998	3899
931.103	4063
931.207	3701
931.311	3686
931.415	3720
931.519	3530
931.623	3549
