Data from test_V78500241_1152.txt Node
Date: Fri Mar 25 16:57:00 CST 2022
User: usil
Spectrometer: V785-0024
Trigger mode: 0
Integration Time (sec): 4.000000E-1
Scans to average: 1
Nonlinearity correction enabled: false
Boxcar width: 0
Storing dark spectrum: false
XAxis mode: Wavelengths
Number of Pixels in Spectrum: 1024
>>>>>Begin Spectral Data<<<<<
801.071	8100
801.214	8020
801.356	7913
801.499	7871
801.641	7795
801.783	7795
801.926	7997
802.068	7909
802.211	7921
802.353	7970
802.496	7856
802.638	7940
802.78	7887
802.923	7894
803.065	7947
803.208	7890
803.35	7970
803.492	8065
803.635	8134
803.777	7982
803.919	8126
804.061	8408
804.204	8103
804.346	8035
804.488	7921
804.63	8134
804.773	8020
804.915	8142
805.057	8294
805.199	8088
805.341	8225
805.483	8298
805.626	8218
805.768	8183
805.91	8176
806.052	8180
806.194	8035
806.336	8298
806.478	8069
806.62	8031
806.762	8119
806.904	8229
807.046	8431
807.188	8332
807.33	8336
807.472	8290
807.614	8142
807.756	8065
807.898	7982
808.04	7944
808.182	7868
808.324	7871
808.465	7887
808.607	8050
808.749	8123
808.891	8282
809.033	8282
809.174	8180
809.316	8027
809.458	8046
809.6	7974
809.741	7997
809.883	8035
810.025	7997
810.166	8081
810.308	8024
810.45	8001
810.591	7959
810.733	7715
810.875	7609
811.016	7544
811.158	7544
811.299	7582
811.441	7750
811.582	7696
811.724	7616
811.865	7525
812.007	7578
812.148	7559
812.29	7674
812.431	7715
812.573	7902
812.714	7925
812.855	8119
812.997	8225
813.138	8347
813.279	8206
813.421	8088
813.562	8031
813.703	7833
813.845	7677
813.986	7415
814.127	7228
814.268	7244
814.41	7168
814.551	7164
814.692	7164
814.833	7084
814.974	7069
815.115	7069
815.256	6954
815.397	6848
815.539	6939
815.68	6768
815.821	6844
815.962	6871
816.103	6749
816.244	6692
816.385	6639
816.526	6597
816.666	6502
816.807	6285
816.948	6437
817.089	6471
817.23	6475
817.371	6384
817.512	6395
817.653	6429
817.793	6346
817.934	6422
818.075	6513
818.216	6391
818.356	6395
818.497	6232
818.638	6121
818.778	6136
818.919	6159
819.06	6155
819.2	6270
819.341	6323
819.481	6372
819.622	6509
819.762	6719
819.903	6711
820.043	6612
820.184	6604
820.324	6604
820.465	6654
820.605	6654
820.746	6623
820.886	6506
821.026	6627
821.167	6726
821.307	6795
821.447	6814
821.588	6646
821.728	6547
821.868	6464
822.008	6296
822.149	6384
822.289	6350
822.429	6178
822.569	6079
822.709	6095
822.849	5870
822.99	5885
823.13	5901
823.27	5901
823.41	5821
823.55	5889
823.69	5722
823.83	5718
823.97	5646
824.11	5562
824.25	5505
824.389	5520
824.529	5627
824.669	5532
824.809	5680
824.949	5676
825.089	5589
825.228	5608
825.368	5391
825.508	5292
825.648	5357
825.787	5402
825.927	5349
826.067	5353
826.206	5330
826.346	5398
826.485	5467
826.625	5444
826.765	5547
826.904	5383
827.044	5318
827.183	5216
827.323	5105
827.462	5269
827.601	5246
827.741	5227
827.88	5197
828.02	5166
828.159	5223
828.298	5330
828.437	5398
828.577	5341
828.716	5543
828.855	5387
828.994	5162
829.134	5174
829.273	5231
829.412	5201
829.551	5212
829.69	5166
829.829	5292
829.968	5376
830.107	5273
830.246	5318
830.385	5220
830.524	5121
830.663	5143
830.802	4991
830.941	4904
831.08	4881
831.219	5010
831.357	5022
831.496	5220
831.635	4934
831.774	4820
831.913	4866
832.051	4744
832.19	4748
832.329	4870
832.467	4710
832.606	4691
832.744	4744
832.883	4740
833.022	4778
833.16	4786
833.299	4839
833.437	4835
833.576	4930
833.714	4858
833.852	4889
833.991	4873
834.129	5048
834.267	4999
834.406	4949
834.544	5003
834.682	5014
834.821	5022
834.959	5216
835.097	5060
835.235	5239
835.373	5147
835.511	5117
835.65	5052
835.788	5037
835.926	4923
836.064	4927
836.202	4892
836.34	5181
836.478	5204
836.615	5204
836.753	5242
836.891	5273
837.029	5307
837.167	5197
837.305	5162
837.443	5197
837.58	5121
837.718	5277
837.856	5189
837.993	5178
838.131	5258
838.269	5216
838.406	5246
838.544	5212
838.681	5079
838.819	4991
838.956	4930
839.094	4938
839.231	4987
839.369	5083
839.506	5436
839.643	5299
839.781	5113
839.918	5025
840.055	5193
840.193	5151
840.33	5121
840.467	5162
840.604	5193
840.742	5436
840.879	5124
841.016	5132
841.153	5159
841.29	5410
841.427	5387
841.564	5364
841.701	5387
841.838	5258
841.975	5239
842.112	5299
842.249	5181
842.385	5121
842.522	5345
842.659	5216
842.796	5178
842.933	5235
843.069	5201
843.206	5121
843.343	5292
843.479	5235
843.616	5303
843.752	5075
843.889	5033
844.025	5208
844.162	5052
844.298	5223
844.435	5109
844.571	5079
844.708	5220
844.844	5349
844.98	5345
845.117	5299
845.253	5128
845.389	5117
845.525	5178
845.661	5151
845.798	5121
845.934	5117
846.07	5102
846.206	5155
846.342	5318
846.478	5223
846.614	5075
846.75	5025
846.886	5041
847.022	5162
847.158	5090
847.294	5128
847.429	5075
847.565	5098
847.701	5364
847.837	4854
847.972	4866
848.108	4972
848.244	4980
848.379	4835
848.515	4736
848.65	4733
848.786	4717
848.921	4850
849.057	4968
849.192	4892
849.328	4889
849.463	4850
849.598	4797
849.734	4759
849.869	4698
850.004	4694
850.14	4672
850.275	4634
850.41	4618
850.545	4603
850.68	4656
850.815	4679
850.95	4630
851.085	4873
851.22	4755
851.355	4645
851.49	4675
851.625	4714
851.76	4691
851.895	4569
852.03	4527
852.165	4664
852.299	4725
852.434	4793
852.569	4782
852.703	4755
852.838	4854
852.973	4911
853.107	4957
853.242	4809
853.376	4733
853.511	4611
853.645	4599
853.78	4809
853.914	4702
854.048	4698
854.183	4622
854.317	4706
854.451	4835
854.585	4729
854.72	4675
854.854	4774
854.988	4656
855.122	4615
855.256	4558
855.39	4702
855.524	4771
855.658	4725
855.792	4698
855.926	4767
856.06	4809
856.194	4786
856.327	4721
856.461	4656
856.595	4618
856.729	4683
856.862	4793
856.996	4729
857.13	4763
857.263	4759
857.397	4771
857.53	4660
857.664	4752
857.797	4793
857.931	4759
858.064	4725
858.197	4755
858.331	4660
858.464	4607
858.597	4588
858.731	4664
858.864	4615
858.997	4546
859.13	4698
859.263	4725
859.396	4721
859.529	4565
859.662	4637
859.795	4588
859.928	4653
860.061	4748
860.194	4816
860.327	4634
860.46	4580
860.592	4759
860.725	4740
860.858	4752
860.99	4596
861.123	4519
861.256	4550
861.388	4596
861.521	5280
861.653	4508
861.786	4462
861.918	4504
862.05	4512
862.183	4542
862.315	4637
862.447	4710
862.58	4554
862.712	4462
862.844	4333
862.976	4462
863.108	4470
863.24	4900
863.372	4360
863.504	4459
863.636	4398
863.768	4504
863.9	4447
864.032	4451
864.164	4440
864.296	4489
864.428	4523
864.559	4577
864.691	4607
864.823	4542
864.954	4527
865.086	4561
865.217	4478
865.349	4424
865.48	4497
865.612	4538
865.743	4634
865.875	4481
866.006	4470
866.137	4485
866.269	4474
866.4	4459
866.531	4421
866.662	4424
866.793	4421
866.924	4428
867.055	4447
867.186	4466
867.317	4421
867.448	4424
867.579	4432
867.71	4383
867.841	4337
867.972	4424
868.103	4478
868.233	4516
868.364	4424
868.495	4516
868.625	4714
868.756	4782
868.886	4596
869.017	4679
869.147	4771
869.278	4805
869.408	4664
869.539	4626
869.669	4698
869.799	4656
869.929	4767
870.06	4729
870.19	4968
870.32	4915
870.45	4991
870.58	5025
870.71	5079
870.84	5086
870.97	4965
871.1	4923
871.23	5105
871.36	5132
871.489	5079
871.619	5102
871.749	5121
871.879	5136
872.008	5197
872.138	5052
872.267	4961
872.397	4828
872.526	4835
872.656	4759
872.785	4828
872.915	4984
873.044	5037
873.173	4949
873.303	5003
873.432	4987
873.561	4946
873.69	4877
873.819	4873
873.948	4927
874.077	4835
874.206	4733
874.335	4824
874.464	4930
874.593	5056
874.722	4987
874.851	5064
874.979	5086
875.108	5041
875.237	4915
875.365	4866
875.494	4881
875.623	5003
875.751	4797
875.88	4900
876.008	5018
876.136	5025
876.265	5185
876.393	5334
876.521	5280
876.65	5235
876.778	5193
876.906	5105
877.034	5048
877.162	5052
877.29	5041
877.418	5086
877.546	5045
877.674	5079
877.802	4961
877.93	4995
878.058	4915
878.185	4873
878.313	5003
878.441	4946
878.568	4816
878.696	4866
878.824	4980
878.951	4987
879.079	5098
879.206	5265
879.333	5109
879.461	5003
879.588	5029
879.715	5083
879.842	5258
879.97	5045
880.097	4782
880.224	4694
880.351	4790
880.478	4850
880.605	4797
880.732	4805
880.859	5094
880.986	4919
881.112	4896
881.239	4809
881.366	4672
881.493	4592
881.619	4622
881.746	4656
881.872	4672
881.999	4641
882.125	4660
882.252	4786
882.378	4824
882.505	4965
882.631	4778
882.757	4687
882.883	4725
883.01	4675
883.136	4679
883.262	4630
883.388	4664
883.514	4866
883.64	4824
883.766	4786
883.892	4687
884.018	4725
884.143	4961
884.269	5006
884.395	4694
884.52	4618
884.646	4622
884.772	4542
884.897	4565
885.023	4706
885.148	4782
885.274	4862
885.399	4774
885.524	4725
885.65	4672
885.775	4744
885.9	4717
886.025	4877
886.15	4809
886.275	4759
886.4	4675
886.525	4733
886.65	4687
886.775	4721
886.9	4953
887.025	5029
887.149	4771
887.274	4641
887.399	4607
887.523	4607
887.648	4588
887.773	4603
887.897	4790
888.021	4805
888.146	4641
888.27	4835
888.395	4885
888.519	4843
888.643	4820
888.767	4854
888.891	4675
889.015	4588
889.139	4641
889.263	4645
889.387	4778
889.511	4858
889.635	4809
889.759	4607
889.883	4656
890.006	4748
890.13	4847
890.254	4641
890.377	4672
890.501	4538
890.624	4535
890.748	4622
890.871	4508
890.995	4470
891.118	4440
891.241	4535
891.364	4573
891.488	4679
891.611	4535
891.734	4573
891.857	4615
891.98	4573
892.103	4672
892.226	4611
892.349	4561
892.471	4413
892.594	4546
892.717	4577
892.839	4588
892.962	4622
893.085	4683
893.207	4649
893.33	4432
893.452	4550
893.575	4656
893.697	4584
893.819	4786
893.941	4805
894.064	4782
894.186	4592
894.308	4535
894.43	4755
894.552	4854
894.674	4790
894.796	4561
894.918	4599
895.04	4584
895.161	4706
895.283	4630
895.405	4527
895.526	4607
895.648	4752
895.769	4694
895.891	4736
896.012	4759
896.134	4752
896.255	4702
896.376	4588
896.498	4618
896.619	4702
896.74	4577
896.861	4672
896.982	4938
897.103	5086
897.224	4820
897.345	4748
897.466	4630
897.587	4714
897.708	4835
897.828	4847
897.949	4694
898.07	4580
898.19	4649
898.311	4793
898.431	4702
898.552	4748
898.672	4801
898.792	4786
898.913	4744
899.033	4637
899.153	4577
899.273	4478
899.393	4493
899.513	4523
899.633	4508
899.753	4523
899.873	4535
899.993	4577
900.113	4558
900.232	4599
900.352	4554
900.472	4474
900.591	4417
900.711	4504
900.83	4409
900.95	4588
901.069	4664
901.189	4538
901.308	4379
901.427	4322
901.546	4459
901.665	4489
901.784	4554
901.904	4375
902.023	4295
902.141	4219
902.26	4185
902.379	4261
902.498	4249
902.617	4223
902.735	4344
902.854	4409
902.973	4383
903.091	4219
903.21	4257
903.328	4306
903.446	4265
903.565	4249
903.683	4341
903.801	4242
903.919	4405
904.038	4447
904.156	4310
904.274	4402
904.392	4398
904.51	4474
904.627	4462
904.745	4588
904.863	4592
904.981	4409
905.098	4295
905.216	4325
905.334	4394
905.451	4451
905.569	4390
905.686	4558
905.803	4565
905.921	4424
906.038	4554
906.155	4447
906.272	4417
906.389	4493
906.506	4383
906.623	4402
906.74	4443
906.857	4329
906.974	4360
907.091	4653
907.208	4626
907.324	4599
907.441	4500
907.557	4360
907.674	4333
907.79	4337
907.907	4371
908.023	4500
908.139	4508
908.256	4466
908.372	4443
908.488	4459
908.604	4352
908.72	4310
908.836	4363
908.952	4329
909.068	4405
909.184	4542
909.3	4500
909.415	4611
909.531	4558
909.647	4367
909.762	4322
909.878	4344
909.993	4440
910.108	4440
910.224	4375
910.339	4504
910.454	4451
910.57	4375
910.685	4333
910.8	4649
910.915	4588
911.03	4455
911.145	4333
911.259	4344
911.374	4394
911.489	4299
911.604	4253
911.718	4166
911.833	4173
911.947	4090
912.062	4036
912.176	4200
912.291	4246
912.405	4284
912.519	4436
912.633	4466
912.748	4337
912.862	4284
912.976	4188
913.09	4074
913.204	4150
913.318	4268
913.431	4402
913.545	4348
913.659	4447
913.772	4367
913.886	4261
914	4207
914.113	4383
914.226	4417
914.34	4333
914.453	4238
914.566	4424
914.68	4318
914.793	4303
914.906	4090
915.019	4097
915.132	4093
915.245	4196
915.358	4238
915.47	4242
915.583	4238
915.696	4318
915.809	4424
915.921	4424
916.034	4253
916.146	4249
916.259	4223
916.371	4379
916.483	4417
916.595	4227
916.708	4363
916.82	4329
916.932	4360
917.044	4295
917.156	4295
917.268	4257
917.38	4310
917.491	4257
917.603	4337
917.715	4421
917.826	4428
917.938	4314
918.049	4215
918.161	4352
918.272	4554
918.384	4512
918.495	4459
918.606	4268
918.717	4200
918.828	4310
918.939	4379
919.05	4280
919.161	4276
919.272	4090
919.383	4200
919.494	4443
919.604	4641
919.715	4443
919.826	4337
919.936	4390
920.047	4497
920.157	4478
920.267	4698
920.378	4535
920.488	4512
920.598	4683
920.708	4900
920.818	4744
920.928	4759
921.038	4961
921.148	4934
921.258	4592
921.368	4531
921.477	4500
921.587	4432
921.697	4375
921.806	4519
921.916	4432
922.025	4238
922.134	4276
922.244	4188
922.353	4348
922.462	4185
922.571	4120
922.68	4029
922.789	3991
922.898	4044
923.007	3991
923.116	4120
923.224	4055
923.333	4032
923.442	4044
923.55	3968
923.659	4055
923.767	4101
923.876	4036
923.984	4105
924.092	4013
924.201	4078
924.309	4082
924.417	4124
924.525	4048
924.633	4093
924.741	5071
924.849	3922
924.956	4124
925.064	3987
925.172	3888
925.279	3934
925.387	4093
925.494	4074
925.602	4230
925.709	4204
925.816	4067
925.924	4162
926.031	4185
926.138	4143
926.245	4173
926.352	4063
926.459	4207
926.566	4291
926.673	4200
926.779	4097
926.886	4086
926.993	3979
927.099	3953
927.206	3922
927.312	3937
927.419	4074
927.525	3998
927.631	4109
927.737	3972
927.843	3979
927.95	3854
928.056	3941
928.162	4010
928.267	4101
928.373	4653
928.479	4101
928.585	3823
928.69	4055
928.796	4078
928.901	3918
929.007	3835
929.112	4013
929.218	4013
929.323	3930
929.428	3922
929.533	4116
929.638	3884
929.743	3956
929.848	4032
929.953	3998
930.058	3964
930.163	3781
930.267	3835
930.372	3949
930.477	3819
930.581	4082
930.685	3937
930.79	3823
930.894	3911
930.998	3850
931.103	4010
931.207	3717
931.311	3671
931.415	3682
931.519	3519
931.623	3561
