Data from test_V78500241_957.txt Node
Date: Fri Mar 25 16:55:39 CST 2022
User: usil
Spectrometer: V785-0024
Trigger mode: 0
Integration Time (sec): 4.000000E-1
Scans to average: 1
Nonlinearity correction enabled: false
Boxcar width: 0
Storing dark spectrum: false
XAxis mode: Wavelengths
Number of Pixels in Spectrum: 1024
>>>>>Begin Spectral Data<<<<<
801.071	8084
801.214	8058
801.356	7947
801.499	7875
801.641	7753
801.783	7845
801.926	8043
802.068	7974
802.211	7959
802.353	7921
802.496	7883
802.638	7841
802.78	7894
802.923	7932
803.065	7909
803.208	7913
803.35	8024
803.492	8100
803.635	8142
803.777	8020
803.919	8123
804.061	8469
804.204	8172
804.346	8054
804.488	7974
804.63	8142
804.773	8024
804.915	8123
805.057	8225
805.199	8134
805.341	8275
805.483	8195
805.626	8130
805.768	8111
805.91	8221
806.052	8176
806.194	8069
806.336	8256
806.478	8111
806.62	8039
806.762	8138
806.904	8237
807.046	8450
807.188	8362
807.33	8267
807.472	8366
807.614	8195
807.756	8145
807.898	8001
808.04	7902
808.182	7879
808.324	7837
808.465	7833
808.607	8020
808.749	8081
808.891	8229
809.033	8259
809.174	8244
809.316	8119
809.458	8035
809.6	7955
809.741	8039
809.883	8039
810.025	8043
810.166	8065
810.308	8016
810.45	8043
810.591	7849
810.733	7723
810.875	7689
811.016	7506
811.158	7476
811.299	7582
811.441	7700
811.582	7578
811.724	7540
811.865	7518
812.007	7540
812.148	7578
812.29	7677
812.431	7727
812.573	7871
812.714	7947
812.855	8073
812.997	8210
813.138	8290
813.279	8123
813.421	8123
813.562	8058
813.703	7909
813.845	7799
813.986	7445
814.127	7282
814.268	7194
814.41	7217
814.551	7091
814.692	7145
814.833	6993
814.974	7042
815.115	7057
815.256	6981
815.397	6943
815.539	6970
815.68	6757
815.821	6798
815.962	6837
816.103	6779
816.244	6677
816.385	6681
816.526	6646
816.666	6498
816.807	6277
816.948	6391
817.089	6502
817.23	6418
817.371	6426
817.512	6384
817.653	6388
817.793	6346
817.934	6422
818.075	6407
818.216	6376
818.356	6365
818.497	6213
818.638	6125
818.778	6129
818.919	6095
819.06	6129
819.2	6254
819.341	6304
819.481	6376
819.622	6559
819.762	6703
819.903	6738
820.043	6574
820.184	6570
820.324	6570
820.465	6669
820.605	6692
820.746	6665
820.886	6555
821.026	6658
821.167	6722
821.307	6772
821.447	6753
821.588	6707
821.728	6563
821.868	6445
822.008	6346
822.149	6410
822.289	6357
822.429	6117
822.569	6148
822.709	6053
822.849	5889
822.99	5958
823.13	5999
823.27	5901
823.41	5847
823.55	5817
823.69	5824
823.83	5840
823.97	5668
824.11	5592
824.25	5512
824.389	5547
824.529	5604
824.669	5516
824.809	5688
824.949	5657
825.089	5653
825.228	5554
825.368	5421
825.508	5402
825.648	5326
825.787	5425
825.927	5436
826.067	5341
826.206	5345
826.346	5414
826.485	5421
826.625	5467
826.765	5608
826.904	5516
827.044	5326
827.183	5216
827.323	5155
827.462	5288
827.601	5208
827.741	5296
827.88	5242
828.02	5094
828.159	5223
828.298	5337
828.437	5391
828.577	5326
828.716	5501
828.855	5383
828.994	5181
829.134	5155
829.273	5242
829.412	5143
829.551	5143
829.69	5178
829.829	5250
829.968	5398
830.107	5299
830.246	5315
830.385	5189
830.524	5159
830.663	5189
830.802	5022
830.941	4885
831.08	4908
831.219	4980
831.357	4957
831.496	5174
831.635	4976
831.774	4892
831.913	4904
832.051	4752
832.19	4729
832.329	4881
832.467	4714
832.606	4630
832.744	4793
832.883	4759
833.022	4774
833.16	4805
833.299	4835
833.437	4847
833.576	4835
833.714	4908
833.852	4877
833.991	4923
834.129	5006
834.267	4968
834.406	4923
834.544	5010
834.682	5067
834.821	5029
834.959	5193
835.097	5025
835.235	5212
835.373	5109
835.511	5140
835.65	5052
835.788	5067
835.926	4923
836.064	4881
836.202	4987
836.34	5128
836.478	5216
836.615	5132
836.753	5277
836.891	5250
837.029	5246
837.167	5201
837.305	5143
837.443	5170
837.58	5143
837.718	5258
837.856	5212
837.993	5181
838.131	5280
838.269	5170
838.406	5227
838.544	5201
838.681	5083
838.819	5033
838.956	4892
839.094	4934
839.231	5048
839.369	5094
839.506	5414
839.643	5292
839.781	5041
839.918	5048
840.055	5136
840.193	5140
840.33	5105
840.467	5151
840.604	5201
840.742	5425
840.879	5109
841.016	5121
841.153	5132
841.29	5410
841.427	5334
841.564	5383
841.701	5357
841.838	5337
841.975	5223
842.112	5334
842.249	5181
842.385	5136
842.522	5364
842.659	5193
842.796	5193
842.933	5231
843.069	5193
843.206	5178
843.343	5299
843.479	5231
843.616	5284
843.752	5025
843.889	5094
844.025	5246
844.162	5018
844.298	5201
844.435	5094
844.571	5045
844.708	5212
844.844	5292
844.98	5353
845.117	5334
845.253	5189
845.389	5086
845.525	5197
845.661	5185
845.798	5060
845.934	5162
846.07	5041
846.206	5189
846.342	5280
846.478	5204
846.614	5014
846.75	4946
846.886	4942
847.022	5151
847.158	5010
847.294	5083
847.429	5162
847.565	5048
847.701	5318
847.837	4866
847.972	4797
848.108	4972
848.244	4991
848.379	4778
848.515	4740
848.65	4755
848.786	4717
848.921	4771
849.057	4877
849.192	4972
849.328	4778
849.463	4866
849.598	4816
849.734	4824
849.869	4694
850.004	4664
850.14	4691
850.275	4622
850.41	4546
850.545	4531
850.68	4641
850.815	4630
850.95	4649
851.085	4847
851.22	4793
851.355	4641
851.49	4573
851.625	4664
851.76	4660
851.895	4596
852.03	4550
852.165	4698
852.299	4771
852.434	4820
852.569	4736
852.703	4767
852.838	4896
852.973	4930
853.107	4938
853.242	4721
853.376	4694
853.511	4531
853.645	4675
853.78	4816
853.914	4668
854.048	4626
854.183	4672
854.317	4729
854.451	4824
854.585	4687
854.72	4698
854.854	4812
854.988	4592
855.122	4649
855.256	4527
855.39	4683
855.524	4774
855.658	4721
855.792	4752
855.926	4729
856.06	4748
856.194	4748
856.327	4714
856.461	4622
856.595	4626
856.729	4634
856.862	4752
856.996	4767
857.13	4740
857.263	4782
857.397	4801
857.53	4630
857.664	4721
857.797	4778
857.931	4752
858.064	4683
858.197	4736
858.331	4611
858.464	4603
858.597	4531
858.731	4656
858.864	4645
858.997	4592
859.13	4694
859.263	4672
859.396	4736
859.529	4615
859.662	4588
859.795	4588
859.928	4645
860.061	4740
860.194	4778
860.327	4611
860.46	4637
860.592	4763
860.725	4782
860.858	4744
860.99	4653
861.123	4550
861.256	4538
861.388	4569
861.521	5254
861.653	4550
861.786	4462
861.918	4470
862.05	4569
862.183	4588
862.315	4607
862.447	4668
862.58	4546
862.712	4409
862.844	4379
862.976	4481
863.108	4485
863.24	4892
863.372	4287
863.504	4455
863.636	4478
863.768	4527
863.9	4493
864.032	4356
864.164	4447
864.296	4478
864.428	4558
864.559	4580
864.691	4565
864.823	4542
864.954	4489
865.086	4546
865.217	4459
865.349	4417
865.48	4451
865.612	4516
865.743	4675
865.875	4459
866.006	4394
866.137	4447
866.269	4451
866.4	4413
866.531	4436
866.662	4428
866.793	4432
866.924	4436
867.055	4531
867.186	4470
867.317	4440
867.448	4405
867.579	4409
867.71	4428
867.841	4383
867.972	4478
868.103	4474
868.233	4478
868.364	4512
868.495	4527
868.625	4660
868.756	4767
868.886	4550
869.017	4679
869.147	4831
869.278	4816
869.408	4664
869.539	4675
869.669	4752
869.799	4649
869.929	4805
870.06	4714
870.19	4904
870.32	4930
870.45	4946
870.58	5025
870.71	5094
870.84	5140
870.97	4911
871.1	4839
871.23	5113
871.36	5098
871.489	5010
871.619	5056
871.749	5128
871.879	5166
872.008	5155
872.138	5098
872.267	4957
872.397	4889
872.526	4797
872.656	4752
872.785	4824
872.915	4923
873.044	5025
873.173	4938
873.303	4972
873.432	4942
873.561	4980
873.69	4908
873.819	4866
873.948	4896
874.077	4843
874.206	4828
874.335	4778
874.464	4900
874.593	5083
874.722	4938
874.851	5121
874.979	5071
875.108	5033
875.237	4896
875.365	4900
875.494	4908
875.623	5022
875.751	4835
875.88	4908
876.008	4972
876.136	5075
876.265	5223
876.393	5353
876.521	5258
876.65	5189
876.778	5117
876.906	5079
877.034	5029
877.162	5025
877.29	4987
877.418	5045
877.546	5071
877.674	5025
877.802	5056
877.93	5018
878.058	4938
878.185	4881
878.313	4957
878.441	4972
878.568	4850
878.696	4870
878.824	4938
878.951	4968
879.079	5109
879.206	5303
879.333	5079
879.461	4976
879.588	4965
879.715	5109
879.842	5235
879.97	4984
880.097	4801
880.224	4752
880.351	4809
880.478	4858
880.605	4816
880.732	4767
880.859	5086
880.986	4908
881.112	4923
881.239	4793
881.366	4660
881.493	4588
881.619	4607
881.746	4569
881.872	4698
881.999	4637
882.125	4694
882.252	4797
882.378	4870
882.505	4968
882.631	4782
882.757	4675
882.883	4660
883.01	4771
883.136	4687
883.262	4634
883.388	4626
883.514	4850
883.64	4873
883.766	4793
883.892	4653
884.018	4702
884.143	4896
884.269	4957
884.395	4653
884.52	4599
884.646	4683
884.772	4592
884.897	4554
885.023	4679
885.148	4767
885.274	4858
885.399	4850
885.524	4710
885.65	4702
885.775	4771
885.9	4698
886.025	4831
886.15	4767
886.275	4717
886.4	4656
886.525	4710
886.65	4687
886.775	4725
886.9	4881
887.025	5014
887.149	4790
887.274	4653
887.399	4607
887.523	4577
887.648	4622
887.773	4565
887.897	4812
888.021	4782
888.146	4660
888.27	4847
888.395	4904
888.519	4774
888.643	4828
888.767	4786
888.891	4710
889.015	4611
889.139	4637
889.263	4645
889.387	4755
889.511	4854
889.635	4812
889.759	4679
889.883	4679
890.006	4721
890.13	4816
890.254	4618
890.377	4706
890.501	4596
890.624	4516
890.748	4645
890.871	4470
890.995	4432
891.118	4402
891.241	4519
891.364	4558
891.488	4592
891.611	4512
891.734	4569
891.857	4615
891.98	4531
892.103	4645
892.226	4546
892.349	4538
892.471	4440
892.594	4527
892.717	4634
892.839	4588
892.962	4603
893.085	4679
893.207	4573
893.33	4470
893.452	4550
893.575	4649
893.697	4577
893.819	4755
893.941	4843
894.064	4771
894.186	4584
894.308	4599
894.43	4736
894.552	4767
894.674	4755
894.796	4535
894.918	4584
895.04	4565
895.161	4702
895.283	4683
895.405	4538
895.526	4611
895.648	4683
895.769	4698
895.891	4698
896.012	4710
896.134	4687
896.255	4649
896.376	4656
896.498	4611
896.619	4634
896.74	4611
896.861	4660
896.982	4927
897.103	5117
897.224	4839
897.345	4710
897.466	4725
897.587	4729
897.708	4854
897.828	4748
897.949	4672
898.07	4546
898.19	4634
898.311	4790
898.431	4698
898.552	4755
898.672	4805
898.792	4793
898.913	4733
899.033	4683
899.153	4535
899.273	4470
899.393	4527
899.513	4550
899.633	4519
899.753	4527
899.873	4508
899.993	4550
900.113	4542
900.232	4535
900.352	4542
900.472	4497
900.591	4428
900.711	4459
900.83	4432
900.95	4599
901.069	4694
901.189	4554
901.308	4356
901.427	4356
901.546	4367
901.665	4455
901.784	4516
901.904	4337
902.023	4329
902.141	4200
902.26	4185
902.379	4337
902.498	4230
902.617	4257
902.735	4352
902.854	4394
902.973	4356
903.091	4230
903.21	4242
903.328	4371
903.446	4265
903.565	4280
903.683	4344
903.801	4265
903.919	4402
904.038	4440
904.156	4344
904.274	4508
904.392	4436
904.51	4485
904.627	4451
904.745	4550
904.863	4660
904.981	4428
905.098	4287
905.216	4371
905.334	4432
905.451	4443
905.569	4424
905.686	4637
905.803	4538
905.921	4424
906.038	4538
906.155	4493
906.272	4371
906.389	4413
906.506	4344
906.623	4333
906.74	4394
906.857	4322
906.974	4356
907.091	4519
907.208	4706
907.324	4561
907.441	4512
907.557	4333
907.674	4341
907.79	4363
907.907	4428
908.023	4462
908.139	4455
908.256	4402
908.372	4474
908.488	4447
908.604	4284
908.72	4348
908.836	4413
908.952	4371
909.068	4413
909.184	4588
909.3	4440
909.415	4615
909.531	4508
909.647	4303
909.762	4360
909.878	4352
909.993	4459
910.108	4424
910.224	4432
910.339	4455
910.454	4402
910.57	4322
910.685	4314
910.8	4645
910.915	4580
911.03	4489
911.145	4333
911.259	4390
911.374	4409
911.489	4337
911.604	4276
911.718	4124
911.833	4173
911.947	4078
912.062	4013
912.176	4204
912.291	4238
912.405	4230
912.519	4481
912.633	4478
912.748	4348
912.862	4272
912.976	4181
913.09	4090
913.204	4154
913.318	4238
913.431	4413
913.545	4383
913.659	4451
913.772	4303
913.886	4295
914	4223
914.113	4394
914.226	4379
914.34	4421
914.453	4219
914.566	4360
914.68	4276
914.793	4303
914.906	4116
915.019	4124
915.132	4093
915.245	4162
915.358	4207
915.47	4200
915.583	4230
915.696	4276
915.809	4451
915.921	4398
916.034	4303
916.146	4280
916.259	4249
916.371	4375
916.483	4325
916.595	4227
916.708	4344
916.82	4344
916.932	4337
917.044	4325
917.156	4367
917.268	4242
917.38	4291
917.491	4238
917.603	4322
917.715	4398
917.826	4440
917.938	4363
918.049	4257
918.161	4386
918.272	4523
918.384	4531
918.495	4405
918.606	4261
918.717	4211
918.828	4314
918.939	4367
919.05	4257
919.161	4341
919.272	4128
919.383	4238
919.494	4413
919.604	4611
919.715	4428
919.826	4344
919.936	4428
920.047	4504
920.157	4523
920.267	4714
920.378	4550
920.488	4474
920.598	4694
920.708	4866
920.818	4714
920.928	4736
921.038	4953
921.148	4904
921.258	4611
921.368	4554
921.477	4497
921.587	4470
921.697	4363
921.806	4516
921.916	4421
922.025	4249
922.134	4242
922.244	4230
922.353	4322
922.462	4166
922.571	4097
922.68	4036
922.789	3968
922.898	4055
923.007	3926
923.116	4124
923.224	4048
923.333	4086
923.442	4002
923.55	3991
923.659	4055
923.767	4101
923.876	4013
923.984	4086
924.092	3979
924.201	4082
924.309	4124
924.417	4112
924.525	4017
924.633	4071
924.741	5056
924.849	3911
924.956	4116
925.064	3979
925.172	3903
925.279	3956
925.387	4051
925.494	4029
925.602	4188
925.709	4135
925.816	4040
925.924	4162
926.031	4188
926.138	4124
926.245	4204
926.352	4086
926.459	4280
926.566	4314
926.673	4120
926.779	4086
926.886	4071
926.993	3994
927.099	3994
927.206	3960
927.312	3926
927.419	4044
927.525	4021
927.631	4048
927.737	3934
927.843	3949
927.95	3865
928.056	3953
928.162	4002
928.267	4078
928.373	4672
928.479	4097
928.585	3857
928.69	4013
928.796	4074
928.901	3964
929.007	3865
929.112	3994
929.218	3979
929.323	3888
929.428	3934
929.533	4120
929.638	3903
929.743	3968
929.848	4044
929.953	4002
930.058	3953
930.163	3774
930.267	3827
930.372	3972
930.477	3804
930.581	4112
930.685	3956
930.79	3789
930.894	3880
930.998	3880
931.103	3956
931.207	3705
931.311	3709
931.415	3644
931.519	3496
931.623	3492
