Data from test_V78500241_746.txt Node
Date: Fri Mar 25 16:54:11 CST 2022
User: usil
Spectrometer: V785-0024
Trigger mode: 0
Integration Time (sec): 4.000000E-1
Scans to average: 1
Nonlinearity correction enabled: false
Boxcar width: 0
Storing dark spectrum: false
XAxis mode: Wavelengths
Number of Pixels in Spectrum: 1024
>>>>>Begin Spectral Data<<<<<
801.071	7936
801.214	7947
801.356	7807
801.499	7772
801.641	7814
801.783	7852
801.926	7997
802.068	7989
802.211	7947
802.353	7913
802.496	7864
802.638	7826
802.78	7917
802.923	7852
803.065	7902
803.208	7879
803.35	8008
803.492	8100
803.635	8123
803.777	7944
803.919	8115
804.061	8446
804.204	8065
804.346	8058
804.488	7997
804.63	8088
804.773	7928
804.915	8027
805.057	8309
805.199	8081
805.341	8149
805.483	8313
805.626	8218
805.768	8088
805.91	8225
806.052	8164
806.194	8065
806.336	8210
806.478	8111
806.62	8062
806.762	8103
806.904	8195
807.046	8427
807.188	8298
807.33	8294
807.472	8355
807.614	8126
807.756	8031
807.898	7970
808.04	7799
808.182	7921
808.324	7852
808.465	7837
808.607	7955
808.749	8043
808.891	8172
809.033	8305
809.174	8149
809.316	8103
809.458	8012
809.6	8016
809.741	8096
809.883	8039
810.025	8115
810.166	8084
810.308	7986
810.45	7993
810.591	7898
810.733	7719
810.875	7639
811.016	7499
811.158	7430
811.299	7525
811.441	7670
811.582	7677
811.724	7571
811.865	7480
812.007	7529
812.148	7567
812.29	7575
812.431	7643
812.573	7898
812.714	7909
812.855	8195
812.997	8153
813.138	8347
813.279	8229
813.421	7993
813.562	7989
813.703	7871
813.845	7727
813.986	7457
814.127	7263
814.268	7228
814.41	7160
814.551	7164
814.692	7179
814.833	7027
814.974	7069
815.115	7099
815.256	6935
815.397	6886
815.539	6954
815.68	6776
815.821	6753
815.962	6871
816.103	6852
816.244	6692
816.385	6654
816.526	6593
816.666	6513
816.807	6285
816.948	6418
817.089	6361
817.23	6372
817.371	6315
817.512	6388
817.653	6350
817.793	6300
817.934	6422
818.075	6369
818.216	6437
818.356	6414
818.497	6235
818.638	6155
818.778	6091
818.919	6117
819.06	6049
819.2	6292
819.341	6281
819.481	6327
819.622	6574
819.762	6738
819.903	6673
820.043	6639
820.184	6502
820.324	6525
820.465	6669
820.605	6623
820.746	6597
820.886	6467
821.026	6563
821.167	6620
821.307	6783
821.447	6749
821.588	6623
821.728	6555
821.868	6521
822.008	6285
822.149	6388
822.289	6327
822.429	6121
822.569	6045
822.709	6095
822.849	5870
822.99	5859
823.13	5965
823.27	5897
823.41	5722
823.55	5752
823.69	5699
823.83	5805
823.97	5657
824.11	5547
824.25	5493
824.389	5543
824.529	5608
824.669	5463
824.809	5627
824.949	5585
825.089	5528
825.228	5551
825.368	5391
825.508	5315
825.648	5334
825.787	5364
825.927	5376
826.067	5292
826.206	5254
826.346	5345
826.485	5402
826.625	5334
826.765	5524
826.904	5474
827.044	5242
827.183	5181
827.323	5121
827.462	5193
827.601	5170
827.741	5178
827.88	5231
828.02	5060
828.159	5223
828.298	5246
828.437	5353
828.577	5303
828.716	5429
828.855	5322
828.994	5159
829.134	5140
829.273	5166
829.412	5136
829.551	5208
829.69	5109
829.829	5220
829.968	5334
830.107	5288
830.246	5246
830.385	5124
830.524	5121
830.663	5117
830.802	4965
830.941	4870
831.08	4896
831.219	4980
831.357	4946
831.496	5140
831.635	4942
831.774	4862
831.913	4835
832.051	4729
832.19	4767
832.329	4805
832.467	4698
832.606	4641
832.744	4725
832.883	4721
833.022	4763
833.16	4778
833.299	4824
833.437	4809
833.576	4835
833.714	4881
833.852	4828
833.991	4889
834.129	4938
834.267	4915
834.406	4873
834.544	4976
834.682	4919
834.821	4953
834.959	5174
835.097	4980
835.235	5113
835.373	5018
835.511	5105
835.65	4976
835.788	5060
835.926	4862
836.064	4839
836.202	4862
836.34	5151
836.478	5204
836.615	5143
836.753	5181
836.891	5258
837.029	5246
837.167	5166
837.305	5159
837.443	5185
837.58	5041
837.718	5258
837.856	5185
837.993	5197
838.131	5212
838.269	5235
838.406	5166
838.544	5212
838.681	5014
838.819	5018
838.956	4870
839.094	4938
839.231	4987
839.369	5045
839.506	5440
839.643	5277
839.781	5064
839.918	4987
840.055	5064
840.193	5041
840.33	5071
840.467	5105
840.604	5170
840.742	5421
840.879	5079
841.016	5052
841.153	5140
841.29	5379
841.427	5353
841.564	5299
841.701	5364
841.838	5261
841.975	5185
842.112	5239
842.249	5147
842.385	5018
842.522	5315
842.659	5143
842.796	5136
842.933	5239
843.069	5086
843.206	5083
843.343	5345
843.479	5220
843.616	5246
843.752	5014
843.889	5014
844.025	5159
844.162	5033
844.298	5223
844.435	5121
844.571	5033
844.708	5147
844.844	5307
844.98	5307
845.117	5235
845.253	5147
845.389	5064
845.525	5117
845.661	5151
845.798	5064
845.934	5086
846.07	5056
846.206	5185
846.342	5254
846.478	5170
846.614	5003
846.75	4976
846.886	4915
847.022	5128
847.158	5022
847.294	5037
847.429	5124
847.565	5060
847.701	5261
847.837	4850
847.972	4801
848.108	4927
848.244	4911
848.379	4793
848.515	4706
848.65	4675
848.786	4702
848.921	4733
849.057	4862
849.192	4839
849.328	4767
849.463	4858
849.598	4793
849.734	4721
849.869	4668
850.004	4637
850.14	4615
850.275	4622
850.41	4535
850.545	4550
850.68	4558
850.815	4675
850.95	4630
851.085	4816
851.22	4710
851.355	4641
851.49	4569
851.625	4588
851.76	4637
851.895	4546
852.03	4546
852.165	4634
852.299	4668
852.434	4740
852.569	4729
852.703	4755
852.838	4858
852.973	4908
853.107	4866
853.242	4755
853.376	4615
853.511	4554
853.645	4573
853.78	4797
853.914	4653
854.048	4649
854.183	4615
854.317	4702
854.451	4805
854.585	4611
854.72	4622
854.854	4698
854.988	4565
855.122	4664
855.256	4493
855.39	4653
855.524	4717
855.658	4702
855.792	4630
855.926	4675
856.06	4759
856.194	4786
856.327	4649
856.461	4618
856.595	4626
856.729	4630
856.862	4733
856.996	4645
857.13	4683
857.263	4744
857.397	4786
857.53	4607
857.664	4740
857.797	4736
857.931	4717
858.064	4702
858.197	4733
858.331	4656
858.464	4630
858.597	4565
858.731	4634
858.864	4599
858.997	4569
859.13	4626
859.263	4634
859.396	4672
859.529	4596
859.662	4527
859.795	4516
859.928	4615
860.061	4736
860.194	4725
860.327	4603
860.46	4622
860.592	4641
860.725	4752
860.858	4748
860.99	4599
861.123	4546
861.256	4519
861.388	4649
861.521	5368
861.653	4535
861.786	4466
861.918	4451
862.05	4565
862.183	4561
862.315	4626
862.447	4641
862.58	4603
862.712	4390
862.844	4371
862.976	4519
863.108	4516
863.24	4896
863.372	4341
863.504	4474
863.636	4417
863.768	4554
863.9	4432
864.032	4421
864.164	4440
864.296	4443
864.428	4542
864.559	4592
864.691	4622
864.823	4508
864.954	4535
865.086	4504
865.217	4523
865.349	4447
865.48	4504
865.612	4565
865.743	4611
865.875	4485
866.006	4466
866.137	4527
866.269	4504
866.4	4474
866.531	4485
866.662	4398
866.793	4455
866.924	4447
867.055	4546
867.186	4497
867.317	4459
867.448	4413
867.579	4398
867.71	4398
867.841	4432
867.972	4485
868.103	4546
868.233	4493
868.364	4497
868.495	4470
868.625	4721
868.756	4828
868.886	4588
869.017	4675
869.147	4862
869.278	4771
869.408	4687
869.539	4683
869.669	4691
869.799	4683
869.929	4831
870.06	4752
870.19	4995
870.32	4930
870.45	4976
870.58	5048
870.71	5132
870.84	5136
870.97	4984
871.1	4934
871.23	5166
871.36	5155
871.489	5071
871.619	5121
871.749	5121
871.879	5174
872.008	5170
872.138	5083
872.267	5018
872.397	4862
872.526	4828
872.656	4752
872.785	4866
872.915	4949
873.044	5067
873.173	4949
873.303	4999
873.432	5003
873.561	4995
873.69	4923
873.819	4927
873.948	4911
874.077	4850
874.206	4805
874.335	4831
874.464	4984
874.593	5109
874.722	5022
874.851	5098
874.979	5113
875.108	5045
875.237	4908
875.365	4877
875.494	4908
875.623	5052
875.751	4904
875.88	4915
876.008	4968
876.136	5037
876.265	5231
876.393	5345
876.521	5349
876.65	5246
876.778	5235
876.906	5181
877.034	5029
877.162	5041
877.29	4995
877.418	5083
877.546	5079
877.674	5071
877.802	5060
877.93	5075
878.058	4957
878.185	4923
878.313	5003
878.441	4980
878.568	4885
878.696	4889
878.824	4927
878.951	4995
879.079	5128
879.206	5299
879.333	5071
879.461	5014
879.588	5022
879.715	5147
879.842	5223
879.97	5022
880.097	4858
880.224	4771
880.351	4835
880.478	4847
880.605	4801
880.732	4843
880.859	5060
880.986	4934
881.112	4946
881.239	4778
881.366	4725
881.493	4649
881.619	4607
881.746	4679
881.872	4668
881.999	4687
882.125	4691
882.252	4820
882.378	4877
882.505	4919
882.631	4835
882.757	4679
882.883	4740
883.01	4755
883.136	4710
883.262	4573
883.388	4649
883.514	4831
883.64	4828
883.766	4828
883.892	4702
884.018	4714
884.143	4968
884.269	5056
884.395	4714
884.52	4637
884.646	4694
884.772	4630
884.897	4538
885.023	4698
885.148	4801
885.274	4870
885.399	4870
885.524	4736
885.65	4736
885.775	4748
885.9	4755
886.025	4896
886.15	4831
886.275	4755
886.4	4649
886.525	4710
886.65	4717
886.775	4744
886.9	4911
887.025	5052
887.149	4824
887.274	4679
887.399	4615
887.523	4656
887.648	4580
887.773	4622
887.897	4801
888.021	4790
888.146	4668
888.27	4843
888.395	4957
888.519	4831
888.643	4820
888.767	4850
888.891	4733
889.015	4599
889.139	4675
889.263	4634
889.387	4797
889.511	4934
889.635	4805
889.759	4649
889.883	4653
890.006	4752
890.13	4790
890.254	4660
890.377	4683
890.501	4561
890.624	4489
890.748	4668
890.871	4527
890.995	4470
891.118	4409
891.241	4542
891.364	4588
891.488	4672
891.611	4523
891.734	4538
891.857	4649
891.98	4584
892.103	4668
892.226	4588
892.349	4523
892.471	4424
892.594	4588
892.717	4615
892.839	4634
892.962	4641
893.085	4656
893.207	4611
893.33	4481
893.452	4542
893.575	4683
893.697	4622
893.819	4820
893.941	4847
894.064	4771
894.186	4615
894.308	4596
894.43	4767
894.552	4858
894.674	4744
894.796	4558
894.918	4546
895.04	4660
895.161	4771
895.283	4660
895.405	4580
895.526	4634
895.648	4710
895.769	4691
895.891	4698
896.012	4706
896.134	4729
896.255	4733
896.376	4637
896.498	4660
896.619	4698
896.74	4675
896.861	4691
896.982	4957
897.103	5079
897.224	4797
897.345	4740
897.466	4698
897.587	4736
897.708	4881
897.828	4820
897.949	4694
898.07	4580
898.19	4660
898.311	4820
898.431	4691
898.552	4755
898.672	4843
898.792	4809
898.913	4740
899.033	4687
899.153	4531
899.273	4451
899.393	4474
899.513	4516
899.633	4569
899.753	4565
899.873	4508
899.993	4573
900.113	4554
900.232	4615
900.352	4535
900.472	4527
900.591	4459
900.711	4527
900.83	4455
900.95	4584
901.069	4691
901.189	4573
901.308	4367
901.427	4360
901.546	4363
901.665	4485
901.784	4512
901.904	4409
902.023	4375
902.141	4200
902.26	4188
902.379	4337
902.498	4295
902.617	4242
902.735	4352
902.854	4405
902.973	4405
903.091	4162
903.21	4295
903.328	4306
903.446	4303
903.565	4257
903.683	4379
903.801	4322
903.919	4413
904.038	4409
904.156	4341
904.274	4443
904.392	4455
904.51	4428
904.627	4478
904.745	4561
904.863	4626
904.981	4428
905.098	4306
905.216	4409
905.334	4497
905.451	4481
905.569	4455
905.686	4554
905.803	4554
905.921	4447
906.038	4577
906.155	4474
906.272	4432
906.389	4451
906.506	4379
906.623	4398
906.74	4394
906.857	4360
906.974	4409
907.091	4573
907.208	4675
907.324	4569
907.441	4535
907.557	4333
907.674	4348
907.79	4367
907.907	4394
908.023	4527
908.139	4493
908.256	4443
908.372	4481
908.488	4459
908.604	4363
908.72	4390
908.836	4424
908.952	4379
909.068	4432
909.184	4599
909.3	4508
909.415	4649
909.531	4599
909.647	4348
909.762	4360
909.878	4318
909.993	4409
910.108	4409
910.224	4405
910.339	4535
910.454	4417
910.57	4398
910.685	4310
910.8	4626
910.915	4622
911.03	4500
911.145	4363
911.259	4344
911.374	4405
911.489	4310
911.604	4303
911.718	4162
911.833	4246
911.947	4093
912.062	4067
912.176	4219
912.291	4230
912.405	4306
912.519	4493
912.633	4527
912.748	4398
912.862	4325
912.976	4242
913.09	4135
913.204	4204
913.318	4299
913.431	4329
913.545	4360
913.659	4451
913.772	4360
913.886	4257
914	4246
914.113	4432
914.226	4455
914.34	4428
914.453	4238
914.566	4428
914.68	4348
914.793	4318
914.906	4150
915.019	4166
915.132	4109
915.245	4227
915.358	4238
915.47	4257
915.583	4306
915.696	4325
915.809	4413
915.921	4417
916.034	4272
916.146	4299
916.259	4272
916.371	4424
916.483	4386
916.595	4272
916.708	4314
916.82	4348
916.932	4310
917.044	4375
917.156	4344
917.268	4249
917.38	4246
917.491	4314
917.603	4348
917.715	4451
917.826	4436
917.938	4383
918.049	4238
918.161	4455
918.272	4569
918.384	4519
918.495	4459
918.606	4337
918.717	4261
918.828	4341
918.939	4375
919.05	4284
919.161	4337
919.272	4177
919.383	4238
919.494	4432
919.604	4664
919.715	4478
919.826	4398
919.936	4386
920.047	4607
920.157	4516
920.267	4710
920.378	4554
920.488	4527
920.598	4721
920.708	4862
920.818	4763
920.928	4763
921.038	4999
921.148	4873
921.258	4618
921.368	4550
921.477	4516
921.587	4462
921.697	4398
921.806	4565
921.916	4417
922.025	4299
922.134	4284
922.244	4204
922.353	4417
922.462	4131
922.571	4139
922.68	4032
922.789	3968
922.898	4082
923.007	4021
923.116	4093
923.224	4093
923.333	4074
923.442	3998
923.55	3983
923.659	4032
923.767	4109
923.876	4048
923.984	4131
924.092	3968
924.201	4074
924.309	4109
924.417	4166
924.525	4116
924.633	4128
924.741	4896
924.849	3922
924.956	4150
925.064	3998
925.172	3960
925.279	3975
925.387	4097
925.494	4063
925.602	4227
925.709	4147
925.816	4029
925.924	4169
926.031	4219
926.138	4147
926.245	4204
926.352	4116
926.459	4227
926.566	4318
926.673	4158
926.779	4120
926.886	4124
926.993	3987
927.099	3972
927.206	3937
927.312	3964
927.419	4074
927.525	4021
927.631	4109
927.737	3975
927.843	3949
927.95	3861
928.056	3987
928.162	4032
928.267	4120
928.373	4714
928.479	4177
928.585	3888
928.69	4048
928.796	4097
928.901	3998
929.007	3884
929.112	4048
929.218	4013
929.323	3975
929.428	3964
929.533	4143
929.638	3934
929.743	3979
929.848	4086
929.953	4048
930.058	3968
930.163	3861
930.267	3861
930.372	4048
930.477	3838
930.581	4158
930.685	4021
930.79	3835
930.894	3930
930.998	3896
931.103	4067
931.207	3751
931.311	3740
931.415	3717
931.519	3576
931.623	3587
