Data from test_V78500241_1472.txt Node
Date: Fri Mar 25 16:59:14 CST 2022
User: usil
Spectrometer: V785-0024
Trigger mode: 0
Integration Time (sec): 4.000000E-1
Scans to average: 1
Nonlinearity correction enabled: false
Boxcar width: 0
Storing dark spectrum: false
XAxis mode: Wavelengths
Number of Pixels in Spectrum: 1024
>>>>>Begin Spectral Data<<<<<
801.071	7989
801.214	8001
801.356	7852
801.499	7852
801.641	7795
801.783	7784
801.926	7928
802.068	7921
802.211	7940
802.353	7951
802.496	7803
802.638	7894
802.78	7947
802.923	7898
803.065	7871
803.208	7890
803.35	7951
803.492	8062
803.635	8164
803.777	8005
803.919	8142
804.061	8423
804.204	8168
804.346	8043
804.488	8005
804.63	8096
804.773	8005
804.915	8096
805.057	8290
805.199	8115
805.341	8233
805.483	8256
805.626	8187
805.768	8062
805.91	8168
806.052	8172
806.194	8092
806.336	8282
806.478	8058
806.62	8054
806.762	8119
806.904	8317
807.046	8434
807.188	8358
807.33	8256
807.472	8313
807.614	8149
807.756	8065
807.898	8008
808.04	7917
808.182	7833
808.324	7868
808.465	7887
808.607	8107
808.749	8149
808.891	8195
809.033	8275
809.174	8214
809.316	8039
809.458	8050
809.6	8046
809.741	8043
809.883	7993
810.025	8073
810.166	8046
810.308	7993
810.45	8001
810.591	7830
810.733	7719
810.875	7624
811.016	7502
811.158	7453
811.299	7605
811.441	7746
811.582	7647
811.724	7571
811.865	7518
812.007	7567
812.148	7586
812.29	7616
812.431	7807
812.573	7902
812.714	8001
812.855	8130
812.997	8176
813.138	8263
813.279	8157
813.421	8123
813.562	7974
813.703	7837
813.845	7685
813.986	7510
814.127	7247
814.268	7232
814.41	7168
814.551	7206
814.692	7198
814.833	7110
814.974	7088
815.115	7122
815.256	6947
815.397	6947
815.539	6909
815.68	6863
815.821	6715
815.962	6867
816.103	6779
816.244	6662
816.385	6544
816.526	6608
816.666	6479
816.807	6327
816.948	6403
817.089	6460
817.23	6403
817.371	6380
817.512	6388
817.653	6331
817.793	6357
817.934	6407
818.075	6456
818.216	6399
818.356	6353
818.497	6197
818.638	6110
818.778	6129
818.919	6114
819.06	6121
819.2	6254
819.341	6247
819.481	6304
819.622	6525
819.762	6722
819.903	6677
820.043	6604
820.184	6593
820.324	6597
820.465	6707
820.605	6677
820.746	6608
820.886	6486
821.026	6570
821.167	6700
821.307	6753
821.447	6711
821.588	6604
821.728	6544
821.868	6452
822.008	6319
822.149	6384
822.289	6296
822.429	6163
822.569	6136
822.709	6053
822.849	5946
822.99	5863
823.13	5874
823.27	5920
823.41	5779
823.55	5722
823.69	5707
823.83	5748
823.97	5638
824.11	5535
824.25	5478
824.389	5532
824.529	5600
824.669	5524
824.809	5668
824.949	5657
825.089	5634
825.228	5577
825.368	5376
825.508	5322
825.648	5353
825.787	5357
825.927	5368
826.067	5254
826.206	5280
826.346	5341
826.485	5391
826.625	5406
826.765	5501
826.904	5478
827.044	5242
827.183	5162
827.323	5117
827.462	5246
827.601	5117
827.741	5193
827.88	5181
828.02	5067
828.159	5193
828.298	5292
828.437	5307
828.577	5269
828.716	5501
828.855	5311
828.994	5151
829.134	5136
829.273	5185
829.412	5166
829.551	5143
829.69	5155
829.829	5261
829.968	5383
830.107	5280
830.246	5254
830.385	5136
830.524	5159
830.663	5048
830.802	4965
830.941	4877
831.08	4831
831.219	4961
831.357	4984
831.496	5136
831.635	4900
831.774	4831
831.913	4839
832.051	4721
832.19	4748
832.329	4805
832.467	4615
832.606	4653
832.744	4660
832.883	4725
833.022	4733
833.16	4767
833.299	4759
833.437	4839
833.576	4805
833.714	4828
833.852	4885
833.991	4919
834.129	4968
834.267	4923
834.406	4877
834.544	4972
834.682	4991
834.821	4919
834.959	5166
835.097	4980
835.235	5113
835.373	5075
835.511	5162
835.65	5029
835.788	4995
835.926	4889
836.064	4911
836.202	4896
836.34	5124
836.478	5212
836.615	5132
836.753	5227
836.891	5280
837.029	5231
837.167	5193
837.305	5174
837.443	5132
837.58	5083
837.718	5201
837.856	5193
837.993	5143
838.131	5216
838.269	5216
838.406	5128
838.544	5155
838.681	4987
838.819	5041
838.956	4892
839.094	4927
839.231	4987
839.369	5037
839.506	5433
839.643	5235
839.781	5052
839.918	4995
840.055	5098
840.193	5064
840.33	5086
840.467	5181
840.604	5239
840.742	5429
840.879	5041
841.016	5124
841.153	5147
841.29	5376
841.427	5326
841.564	5326
841.701	5345
841.838	5261
841.975	5242
842.112	5227
842.249	5136
842.385	5052
842.522	5292
842.659	5166
842.796	5086
842.933	5181
843.069	5124
843.206	5189
843.343	5341
843.479	5231
843.616	5250
843.752	4999
843.889	4999
844.025	5204
844.162	4999
844.298	5201
844.435	5067
844.571	5014
844.708	5227
844.844	5246
844.98	5337
845.117	5261
845.253	5140
845.389	5048
845.525	5159
845.661	5166
845.798	5048
845.934	5083
846.07	5037
846.206	5220
846.342	5292
846.478	5178
846.614	4968
846.75	4923
846.886	4946
847.022	5075
847.158	4984
847.294	5098
847.429	5136
847.565	5010
847.701	5345
847.837	4793
847.972	4847
848.108	4965
848.244	4911
848.379	4771
848.515	4717
848.65	4698
848.786	4755
848.921	4801
849.057	4877
849.192	4927
849.328	4782
849.463	4831
849.598	4733
849.734	4778
849.869	4679
850.004	4611
850.14	4645
850.275	4630
850.41	4527
850.545	4637
850.68	4569
850.815	4569
850.95	4584
851.085	4820
851.22	4767
851.355	4660
851.49	4641
851.625	4641
851.76	4607
851.895	4561
852.03	4538
852.165	4577
852.299	4752
852.434	4771
852.569	4687
852.703	4771
852.838	4805
852.973	4904
853.107	4870
853.242	4759
853.376	4622
853.511	4542
853.645	4637
853.78	4812
853.914	4694
854.048	4656
854.183	4634
854.317	4653
854.451	4847
854.585	4653
854.72	4637
854.854	4736
854.988	4558
855.122	4660
855.256	4481
855.39	4683
855.524	4797
855.658	4668
855.792	4637
855.926	4687
856.06	4744
856.194	4763
856.327	4694
856.461	4592
856.595	4573
856.729	4653
856.862	4774
856.996	4668
857.13	4702
857.263	4752
857.397	4835
857.53	4645
857.664	4710
857.797	4752
857.931	4771
858.064	4698
858.197	4691
858.331	4660
858.464	4603
858.597	4542
858.731	4637
858.864	4653
858.997	4660
859.13	4641
859.263	4637
859.396	4653
859.529	4592
859.662	4580
859.795	4500
859.928	4668
860.061	4740
860.194	4740
860.327	4615
860.46	4577
860.592	4653
860.725	4691
860.858	4710
860.99	4607
861.123	4512
861.256	4554
861.388	4580
861.521	5398
861.653	4512
861.786	4421
861.918	4481
862.05	4565
862.183	4554
862.315	4603
862.447	4649
862.58	4558
862.712	4421
862.844	4276
862.976	4481
863.108	4478
863.24	4744
863.372	4329
863.504	4413
863.636	4390
863.768	4489
863.9	4424
864.032	4329
864.164	4367
864.296	4504
864.428	4535
864.559	4580
864.691	4527
864.823	4550
864.954	4478
865.086	4462
865.217	4478
865.349	4413
865.48	4421
865.612	4481
865.743	4611
865.875	4481
866.006	4383
866.137	4443
866.269	4432
866.4	4413
866.531	4413
866.662	4417
866.793	4398
866.924	4436
867.055	4455
867.186	4459
867.317	4440
867.448	4360
867.579	4405
867.71	4333
867.841	4337
867.972	4432
868.103	4421
868.233	4478
868.364	4440
868.495	4478
868.625	4675
868.756	4736
868.886	4535
869.017	4588
869.147	4774
869.278	4767
869.408	4649
869.539	4653
869.669	4710
869.799	4626
869.929	4767
870.06	4748
870.19	4877
870.32	4923
870.45	4881
870.58	5014
870.71	5075
870.84	5094
870.97	4915
871.1	4896
871.23	5102
871.36	5136
871.489	5029
871.619	5003
871.749	5052
871.879	5128
872.008	5159
872.138	5010
872.267	4965
872.397	4812
872.526	4790
872.656	4664
872.785	4778
872.915	4946
873.044	5041
873.173	4949
873.303	5014
873.432	4930
873.561	4987
873.69	4858
873.819	4812
873.948	4904
874.077	4835
874.206	4717
874.335	4752
874.464	4885
874.593	5014
874.722	4961
874.851	5098
874.979	5083
875.108	5041
875.237	4892
875.365	4850
875.494	4881
875.623	4968
875.751	4828
875.88	4835
876.008	4984
876.136	4995
876.265	5216
876.393	5292
876.521	5277
876.65	5231
876.778	5124
876.906	5094
877.034	4957
877.162	4984
877.29	4976
877.418	5098
877.546	4987
877.674	5037
877.802	5022
877.93	5056
878.058	4870
878.185	4831
878.313	4934
878.441	4927
878.568	4828
878.696	4889
878.824	4915
878.951	4991
879.079	5121
879.206	5246
879.333	5147
879.461	4972
879.588	4942
879.715	5060
879.842	5197
879.97	4984
880.097	4763
880.224	4706
880.351	4828
880.478	4858
880.605	4786
880.732	4733
880.859	5102
880.986	4908
881.112	4873
881.239	4752
881.366	4656
881.493	4584
881.619	4584
881.746	4626
881.872	4622
881.999	4630
882.125	4710
882.252	4782
882.378	4763
882.505	4946
882.631	4805
882.757	4645
882.883	4755
883.01	4721
883.136	4668
883.262	4577
883.388	4596
883.514	4816
883.64	4835
883.766	4767
883.892	4702
884.018	4706
884.143	4896
884.269	4999
884.395	4645
884.52	4626
884.646	4603
884.772	4577
884.897	4615
885.023	4584
885.148	4744
885.274	4835
885.399	4801
885.524	4733
885.65	4645
885.775	4721
885.9	4710
886.025	4831
886.15	4809
886.275	4702
886.4	4653
886.525	4755
886.65	4664
886.775	4675
886.9	4881
887.025	5037
887.149	4790
887.274	4637
887.399	4546
887.523	4561
887.648	4565
887.773	4569
887.897	4710
888.021	4790
888.146	4660
888.27	4793
888.395	4915
888.519	4831
888.643	4793
888.767	4831
888.891	4634
889.015	4611
889.139	4618
889.263	4588
889.387	4702
889.511	4858
889.635	4774
889.759	4641
889.883	4626
890.006	4725
890.13	4782
890.254	4599
890.377	4672
890.501	4523
890.624	4527
890.748	4668
890.871	4519
890.995	4409
891.118	4379
891.241	4481
891.364	4550
891.488	4611
891.611	4474
891.734	4577
891.857	4577
891.98	4531
892.103	4641
892.226	4573
892.349	4512
892.471	4356
892.594	4508
892.717	4645
892.839	4531
892.962	4622
893.085	4588
893.207	4588
893.33	4481
893.452	4546
893.575	4626
893.697	4565
893.819	4843
893.941	4854
894.064	4752
894.186	4565
894.308	4538
894.43	4717
894.552	4797
894.674	4717
894.796	4588
894.918	4584
895.04	4569
895.161	4759
895.283	4694
895.405	4596
895.526	4592
895.648	4683
895.769	4634
895.891	4759
896.012	4778
896.134	4767
896.255	4615
896.376	4626
896.498	4637
896.619	4634
896.74	4573
896.861	4679
896.982	4942
897.103	5029
897.224	4816
897.345	4710
897.466	4615
897.587	4725
897.708	4919
897.828	4774
897.949	4664
898.07	4554
898.19	4599
898.311	4831
898.431	4664
898.552	4683
898.672	4816
898.792	4816
898.913	4729
899.033	4626
899.153	4542
899.273	4451
899.393	4462
899.513	4523
899.633	4527
899.753	4527
899.873	4538
899.993	4538
900.113	4516
900.232	4573
900.352	4565
900.472	4500
900.591	4379
900.711	4527
900.83	4432
900.95	4588
901.069	4641
901.189	4500
901.308	4341
901.427	4352
901.546	4360
901.665	4451
901.784	4466
901.904	4371
902.023	4329
902.141	4192
902.26	4200
902.379	4344
902.498	4227
902.617	4223
902.735	4322
902.854	4432
902.973	4363
903.091	4166
903.21	4234
903.328	4333
903.446	4242
903.565	4306
903.683	4306
903.801	4295
903.919	4383
904.038	4428
904.156	4291
904.274	4443
904.392	4409
904.51	4421
904.627	4455
904.745	4599
904.863	4607
904.981	4371
905.098	4303
905.216	4329
905.334	4451
905.451	4462
905.569	4409
905.686	4535
905.803	4554
905.921	4371
906.038	4478
906.155	4481
906.272	4394
906.389	4459
906.506	4375
906.623	4337
906.74	4424
906.857	4261
906.974	4386
907.091	4535
907.208	4702
907.324	4554
907.441	4558
907.557	4329
907.674	4348
907.79	4352
907.907	4390
908.023	4497
908.139	4447
908.256	4413
908.372	4485
908.488	4421
908.604	4314
908.72	4314
908.836	4363
908.952	4333
909.068	4337
909.184	4542
909.3	4489
909.415	4607
909.531	4588
909.647	4375
909.762	4409
909.878	4318
909.993	4436
910.108	4440
910.224	4402
910.339	4440
910.454	4398
910.57	4337
910.685	4348
910.8	4615
910.915	4550
911.03	4485
911.145	4280
911.259	4348
911.374	4386
911.489	4249
911.604	4276
911.718	4101
911.833	4162
911.947	4097
912.062	4048
912.176	4204
912.291	4257
912.405	4253
912.519	4474
912.633	4497
912.748	4428
912.862	4318
912.976	4173
913.09	4097
913.204	4143
913.318	4230
913.431	4363
913.545	4367
913.659	4424
913.772	4367
913.886	4265
914	4196
914.113	4398
914.226	4428
914.34	4417
914.453	4249
914.566	4428
914.68	4303
914.793	4325
914.906	4204
915.019	4101
915.132	4093
915.245	4173
915.358	4249
915.47	4230
915.583	4257
915.696	4268
915.809	4402
915.921	4394
916.034	4253
916.146	4215
916.259	4246
916.371	4344
916.483	4390
916.595	4223
916.708	4284
916.82	4314
916.932	4329
917.044	4310
917.156	4337
917.268	4261
917.38	4242
917.491	4257
917.603	4344
917.715	4421
917.826	4432
917.938	4325
918.049	4234
918.161	4421
918.272	4561
918.384	4493
918.495	4451
918.606	4287
918.717	4204
918.828	4360
918.939	4322
919.05	4272
919.161	4291
919.272	4139
919.383	4200
919.494	4424
919.604	4573
919.715	4451
919.826	4322
919.936	4394
920.047	4550
920.157	4451
920.267	4675
920.378	4615
920.488	4474
920.598	4729
920.708	4877
920.818	4778
920.928	4767
921.038	4946
921.148	4904
921.258	4649
921.368	4561
921.477	4481
921.587	4443
921.697	4405
921.806	4478
921.916	4421
922.025	4215
922.134	4242
922.244	4215
922.353	4329
922.462	4162
922.571	4143
922.68	4017
922.789	3972
922.898	4048
923.007	3975
923.116	4067
923.224	4063
923.333	4048
923.442	4029
923.55	3987
923.659	4032
923.767	4101
923.876	4017
923.984	4090
924.092	3991
924.201	4055
924.309	4032
924.417	4109
924.525	4021
924.633	4154
924.741	5045
924.849	3899
924.956	4135
925.064	3956
925.172	3926
925.279	3956
925.387	4093
925.494	4071
925.602	4128
925.709	4196
925.816	4051
925.924	4143
926.031	4215
926.138	4162
926.245	4227
926.352	4116
926.459	4238
926.566	4314
926.673	4135
926.779	4082
926.886	4067
926.993	3994
927.099	3972
927.206	3941
927.312	3918
927.419	4048
927.525	3998
927.631	4059
927.737	3953
927.843	3983
927.95	3861
928.056	3972
928.162	3998
928.267	4048
928.373	4531
928.479	4063
928.585	3876
928.69	4040
928.796	4059
928.901	3941
929.007	3850
929.112	3998
929.218	3991
929.323	3918
929.428	3907
929.533	4097
929.638	3922
929.743	3975
929.848	4044
929.953	4010
930.058	3930
930.163	3781
930.267	3831
930.372	3994
930.477	3759
930.581	4097
930.685	3949
930.79	3842
930.894	3854
930.998	3857
931.103	4059
931.207	3717
931.311	3686
931.415	3656
931.519	3515
931.623	3542
