Data from test_V78500241_1760.txt Node
Date: Fri Mar 25 17:01:14 CST 2022
User: usil
Spectrometer: V785-0024
Trigger mode: 0
Integration Time (sec): 4.000000E-1
Scans to average: 1
Nonlinearity correction enabled: false
Boxcar width: 0
Storing dark spectrum: false
XAxis mode: Wavelengths
Number of Pixels in Spectrum: 1024
>>>>>Begin Spectral Data<<<<<
801.071	8016
801.214	7993
801.356	7830
801.499	7769
801.641	7807
801.783	7776
801.926	7902
802.068	7982
802.211	8012
802.353	8008
802.496	7811
802.638	7795
802.78	7864
802.923	7921
803.065	7841
803.208	7757
803.35	7955
803.492	8092
803.635	8157
803.777	8058
803.919	8134
804.061	8412
804.204	8202
804.346	8054
804.488	7894
804.63	8096
804.773	8119
804.915	8119
805.057	8317
805.199	8130
805.341	8191
805.483	8237
805.626	8183
805.768	8054
805.91	8218
806.052	8298
806.194	8111
806.336	8358
806.478	8081
806.62	8084
806.762	8100
806.904	8214
807.046	8495
807.188	8389
807.33	8362
807.472	8313
807.614	8225
807.756	8100
807.898	8024
808.04	7852
808.182	7913
808.324	7871
808.465	7849
808.607	8024
808.749	8092
808.891	8168
809.033	8252
809.174	8244
809.316	8046
809.458	8073
809.6	8050
809.741	7993
809.883	8020
810.025	8123
810.166	8024
810.308	8069
810.45	7909
810.591	7833
810.733	7708
810.875	7628
811.016	7514
811.158	7518
811.299	7609
811.441	7666
811.582	7689
811.724	7559
811.865	7491
812.007	7601
812.148	7578
812.29	7597
812.431	7685
812.573	7925
812.714	7951
812.855	8100
812.997	8195
813.138	8328
813.279	8145
813.421	8100
813.562	7970
813.703	7837
813.845	7700
813.986	7422
814.127	7247
814.268	7240
814.41	7179
814.551	7110
814.692	7270
814.833	7084
814.974	7053
815.115	7133
815.256	6977
815.397	6962
815.539	6916
815.68	6726
815.821	6753
815.962	6840
816.103	6837
816.244	6669
816.385	6623
816.526	6555
816.666	6467
816.807	6338
816.948	6429
817.089	6471
817.23	6426
817.371	6346
817.512	6388
817.653	6384
817.793	6334
817.934	6395
818.075	6437
818.216	6445
818.356	6384
818.497	6266
818.638	6106
818.778	6144
818.919	6140
819.06	6178
819.2	6380
819.341	6323
819.481	6369
819.622	6555
819.762	6734
819.903	6730
820.043	6665
820.184	6528
820.324	6604
820.465	6753
820.605	6696
820.746	6711
820.886	6627
821.026	6578
821.167	6726
821.307	6814
821.447	6768
821.588	6696
821.728	6502
821.868	6464
822.008	6304
822.149	6376
822.289	6365
822.429	6129
822.569	6076
822.709	6053
822.849	5965
822.99	5901
823.13	5878
823.27	5901
823.41	5779
823.55	5767
823.69	5741
823.83	5775
823.97	5649
824.11	5501
824.25	5505
824.389	5592
824.529	5581
824.669	5543
824.809	5596
824.949	5695
825.089	5619
825.228	5558
825.368	5406
825.508	5288
825.648	5326
825.787	5376
825.927	5311
826.067	5330
826.206	5269
826.346	5360
826.485	5421
826.625	5448
826.765	5471
826.904	5474
827.044	5220
827.183	5174
827.323	5140
827.462	5212
827.601	5132
827.741	5201
827.88	5235
828.02	5136
828.159	5223
828.298	5284
828.437	5360
828.577	5242
828.716	5512
828.855	5337
828.994	5155
829.134	5105
829.273	5235
829.412	5128
829.551	5151
829.69	5204
829.829	5258
829.968	5436
830.107	5303
830.246	5235
830.385	5178
830.524	5086
830.663	5113
830.802	4991
830.941	4889
831.08	4919
831.219	5010
831.357	5041
831.496	5166
831.635	4987
831.774	4843
831.913	4862
832.051	4702
832.19	4778
832.329	4877
832.467	4755
832.606	4672
832.744	4740
832.883	4748
833.022	4759
833.16	4839
833.299	4858
833.437	4866
833.576	4831
833.714	4881
833.852	4843
833.991	4968
834.129	4965
834.267	4965
834.406	4938
834.544	5041
834.682	5014
834.821	4999
834.959	5151
835.097	5056
835.235	5201
835.373	5086
835.511	5151
835.65	5086
835.788	5090
835.926	4892
836.064	4923
836.202	4957
836.34	5212
836.478	5246
836.615	5197
836.753	5235
836.891	5315
837.029	5292
837.167	5216
837.305	5227
837.443	5185
837.58	5124
837.718	5261
837.856	5181
837.993	5201
838.131	5273
838.269	5220
838.406	5208
838.544	5227
838.681	5041
838.819	5064
838.956	4953
839.094	4881
839.231	5048
839.369	5109
839.506	5421
839.643	5288
839.781	5041
839.918	5022
840.055	5121
840.193	5151
840.33	5155
840.467	5124
840.604	5197
840.742	5486
840.879	5185
841.016	5105
841.153	5208
841.29	5414
841.427	5364
841.564	5296
841.701	5391
841.838	5296
841.975	5288
842.112	5265
842.249	5185
842.385	5181
842.522	5360
842.659	5193
842.796	5098
842.933	5216
843.069	5147
843.206	5162
843.343	5299
843.479	5280
843.616	5292
843.752	5105
843.889	5094
844.025	5242
844.162	5025
844.298	5269
844.435	5075
844.571	5064
844.708	5189
844.844	5296
844.98	5372
845.117	5345
845.253	5223
845.389	5105
845.525	5155
845.661	5166
845.798	5010
845.934	5162
846.07	5083
846.206	5242
846.342	5318
846.478	5193
846.614	5022
846.75	4980
846.886	5014
847.022	5162
847.158	5048
847.294	5098
847.429	5132
847.565	5079
847.701	5372
847.837	4949
847.972	4824
848.108	4984
848.244	4980
848.379	4812
848.515	4755
848.65	4736
848.786	4763
848.921	4828
849.057	4881
849.192	4953
849.328	4900
849.463	4885
849.598	4809
849.734	4759
849.869	4752
850.004	4649
850.14	4691
850.275	4630
850.41	4577
850.545	4626
850.68	4645
850.815	4615
850.95	4672
851.085	4877
851.22	4774
851.355	4687
851.49	4691
851.625	4694
851.76	4725
851.895	4550
852.03	4569
852.165	4675
852.299	4729
852.434	4828
852.569	4759
852.703	4793
852.838	4870
852.973	4942
853.107	4972
853.242	4786
853.376	4744
853.511	4618
853.645	4615
853.78	4812
853.914	4710
854.048	4740
854.183	4683
854.317	4736
854.451	4858
854.585	4691
854.72	4668
854.854	4748
854.988	4641
855.122	4687
855.256	4554
855.39	4675
855.524	4790
855.658	4748
855.792	4786
855.926	4698
856.06	4744
856.194	4877
856.327	4729
856.461	4687
856.595	4656
856.729	4660
856.862	4805
856.996	4691
857.13	4744
857.263	4771
857.397	4831
857.53	4660
857.664	4763
857.797	4767
857.931	4793
858.064	4679
858.197	4774
858.331	4672
858.464	4634
858.597	4580
858.731	4634
858.864	4672
858.997	4641
859.13	4672
859.263	4759
859.396	4717
859.529	4611
859.662	4531
859.795	4550
859.928	4683
860.061	4767
860.194	4812
860.327	4618
860.46	4558
860.592	4725
860.725	4706
860.858	4740
860.99	4615
861.123	4569
861.256	4531
861.388	4656
861.521	5288
861.653	4542
861.786	4485
861.918	4508
862.05	4592
862.183	4569
862.315	4653
862.447	4637
862.58	4584
862.712	4421
862.844	4371
862.976	4512
863.108	4546
863.24	4915
863.372	4394
863.504	4447
863.636	4417
863.768	4504
863.9	4493
864.032	4394
864.164	4447
864.296	4493
864.428	4615
864.559	4550
864.691	4546
864.823	4504
864.954	4527
865.086	4519
865.217	4478
865.349	4436
865.48	4497
865.612	4512
865.743	4687
865.875	4512
866.006	4462
866.137	4546
866.269	4497
866.4	4478
866.531	4481
866.662	4432
866.793	4413
866.924	4440
867.055	4519
867.186	4451
867.317	4424
867.448	4436
867.579	4386
867.71	4409
867.841	4394
867.972	4462
868.103	4470
868.233	4421
868.364	4466
868.495	4470
868.625	4679
868.756	4755
868.886	4607
869.017	4645
869.147	4790
869.278	4733
869.408	4683
869.539	4668
869.669	4744
869.799	4672
869.929	4759
870.06	4786
870.19	5003
870.32	4942
870.45	4892
870.58	5048
870.71	5132
870.84	5105
870.97	4972
871.1	4911
871.23	5147
871.36	5090
871.489	5037
871.619	5113
871.749	5083
871.879	5140
872.008	5193
872.138	5075
872.267	4980
872.397	4873
872.526	4831
872.656	4714
872.785	4782
872.915	4961
873.044	5075
873.173	4961
873.303	4976
873.432	4972
873.561	4984
873.69	4904
873.819	4866
873.948	4915
874.077	4812
874.206	4774
874.335	4873
874.464	4930
874.593	5090
874.722	4946
874.851	5109
874.979	5079
875.108	5079
875.237	4915
875.365	4930
875.494	4885
875.623	5022
875.751	4835
875.88	4923
876.008	4976
876.136	5060
876.265	5220
876.393	5376
876.521	5265
876.65	5258
876.778	5189
876.906	5124
877.034	5083
877.162	5086
877.29	4995
877.418	5086
877.546	5033
877.674	5067
877.802	5037
877.93	5067
878.058	4900
878.185	4877
878.313	4965
878.441	4980
878.568	4782
878.696	4873
878.824	4965
878.951	5018
879.079	5170
879.206	5307
879.333	5090
879.461	4976
879.588	5090
879.715	5155
879.842	5212
879.97	4987
880.097	4828
880.224	4816
880.351	4809
880.478	4870
880.605	4847
880.732	4805
880.859	5124
880.986	4904
881.112	4957
881.239	4793
881.366	4710
881.493	4599
881.619	4634
881.746	4630
881.872	4698
881.999	4664
882.125	4714
882.252	4816
882.378	4805
882.505	4980
882.631	4797
882.757	4679
882.883	4771
883.01	4694
883.136	4679
883.262	4637
883.388	4603
883.514	4831
883.64	4835
883.766	4847
883.892	4675
884.018	4740
884.143	4870
884.269	5045
884.395	4694
884.52	4599
884.646	4645
884.772	4603
884.897	4569
885.023	4656
885.148	4816
885.274	4858
885.399	4809
885.524	4748
885.65	4694
885.775	4710
885.9	4744
886.025	4873
886.15	4805
886.275	4748
886.4	4664
886.525	4736
886.65	4733
886.775	4721
886.9	4911
887.025	4995
887.149	4790
887.274	4656
887.399	4668
887.523	4634
887.648	4607
887.773	4588
887.897	4767
888.021	4763
888.146	4687
888.27	4774
888.395	4889
888.519	4782
888.643	4843
888.767	4816
888.891	4672
889.015	4611
889.139	4664
889.263	4630
889.387	4763
889.511	4854
889.635	4763
889.759	4683
889.883	4668
890.006	4755
890.13	4831
890.254	4634
890.377	4687
890.501	4569
890.624	4542
890.748	4618
890.871	4519
890.995	4443
891.118	4375
891.241	4527
891.364	4569
891.488	4641
891.611	4565
891.734	4542
891.857	4607
891.98	4580
892.103	4672
892.226	4603
892.349	4550
892.471	4447
892.594	4554
892.717	4573
892.839	4542
892.962	4554
893.085	4702
893.207	4607
893.33	4504
893.452	4550
893.575	4675
893.697	4599
893.819	4793
893.941	4892
894.064	4797
894.186	4573
894.308	4558
894.43	4782
894.552	4801
894.674	4767
894.796	4523
894.918	4656
895.04	4546
895.161	4691
895.283	4691
895.405	4584
895.526	4664
895.648	4736
895.769	4717
895.891	4702
896.012	4736
896.134	4694
896.255	4679
896.376	4660
896.498	4645
896.619	4717
896.74	4649
896.861	4668
896.982	4896
897.103	5147
897.224	4839
897.345	4755
897.466	4687
897.587	4755
897.708	4854
897.828	4812
897.949	4675
898.07	4565
898.19	4660
898.311	4812
898.431	4672
898.552	4710
898.672	4778
898.792	4812
898.913	4763
899.033	4626
899.153	4516
899.273	4421
899.393	4531
899.513	4519
899.633	4474
899.753	4523
899.873	4519
899.993	4611
900.113	4546
900.232	4615
900.352	4554
900.472	4466
900.591	4390
900.711	4474
900.83	4470
900.95	4645
901.069	4740
901.189	4542
901.308	4371
901.427	4337
901.546	4402
901.665	4481
901.784	4527
901.904	4386
902.023	4348
902.141	4177
902.26	4177
902.379	4310
902.498	4280
902.617	4238
902.735	4360
902.854	4394
902.973	4360
903.091	4219
903.21	4268
903.328	4291
903.446	4276
903.565	4234
903.683	4383
903.801	4303
903.919	4478
904.038	4489
904.156	4360
904.274	4409
904.392	4413
904.51	4394
904.627	4497
904.745	4584
904.863	4637
904.981	4417
905.098	4303
905.216	4394
905.334	4489
905.451	4462
905.569	4466
905.686	4550
905.803	4596
905.921	4447
906.038	4550
906.155	4481
906.272	4417
906.389	4447
906.506	4367
906.623	4424
906.74	4436
906.857	4325
906.974	4356
907.091	4607
907.208	4725
907.324	4561
907.441	4466
907.557	4367
907.674	4318
907.79	4333
907.907	4440
908.023	4504
908.139	4451
908.256	4405
908.372	4493
908.488	4489
908.604	4360
908.72	4322
908.836	4402
908.952	4329
909.068	4432
909.184	4542
909.3	4489
909.415	4550
909.531	4531
909.647	4405
909.762	4417
909.878	4333
909.993	4436
910.108	4398
910.224	4409
910.339	4462
910.454	4367
910.57	4341
910.685	4333
910.8	4660
910.915	4592
911.03	4474
911.145	4318
911.259	4341
911.374	4360
911.489	4325
911.604	4246
911.718	4181
911.833	4200
911.947	4021
912.062	4013
912.176	4207
912.291	4246
912.405	4257
912.519	4493
912.633	4538
912.748	4405
912.862	4284
912.976	4192
913.09	4067
913.204	4215
913.318	4242
913.431	4318
913.545	4394
913.659	4428
913.772	4371
913.886	4284
914	4223
914.113	4375
914.226	4424
914.34	4443
914.453	4238
914.566	4443
914.68	4375
914.793	4329
914.906	4200
915.019	4097
915.132	4101
915.245	4143
915.358	4227
915.47	4219
915.583	4295
915.696	4295
915.809	4428
915.921	4440
916.034	4314
916.146	4265
916.259	4188
916.371	4424
916.483	4337
916.595	4249
916.708	4344
916.82	4344
916.932	4333
917.044	4360
917.156	4337
917.268	4207
917.38	4253
917.491	4284
917.603	4371
917.715	4436
917.826	4432
917.938	4367
918.049	4265
918.161	4421
918.272	4519
918.384	4569
918.495	4462
918.606	4310
918.717	4257
918.828	4360
918.939	4413
919.05	4253
919.161	4344
919.272	4128
919.383	4188
919.494	4497
919.604	4622
919.715	4417
919.826	4348
919.936	4402
920.047	4531
920.157	4519
920.267	4656
920.378	4516
920.488	4527
920.598	4774
920.708	4892
920.818	4729
920.928	4797
921.038	4987
921.148	4911
921.258	4637
921.368	4558
921.477	4497
921.587	4455
921.697	4386
921.806	4546
921.916	4440
922.025	4249
922.134	4280
922.244	4211
922.353	4341
922.462	4188
922.571	4150
922.68	3983
922.789	3979
922.898	4055
923.007	4017
923.116	4109
923.224	4074
923.333	4116
923.442	4013
923.55	3987
923.659	4021
923.767	4105
923.876	3949
923.984	4109
924.092	3987
924.201	4093
924.309	4128
924.417	4169
924.525	4124
924.633	4086
924.741	5064
924.849	3934
924.956	4139
925.064	3941
925.172	3907
925.279	3956
925.387	4036
925.494	4040
925.602	4185
925.709	4219
925.816	4086
925.924	4147
926.031	4249
926.138	4185
926.245	4154
926.352	4109
926.459	4246
926.566	4363
926.673	4143
926.779	4093
926.886	4101
926.993	3998
927.099	3960
927.206	3945
927.312	3941
927.419	4063
927.525	4082
927.631	4090
927.737	3945
927.843	3941
927.95	3827
928.056	3941
928.162	4002
928.267	4051
928.373	4660
928.479	4131
928.585	3880
928.69	4025
928.796	4124
928.901	4044
929.007	3831
929.112	4025
929.218	3987
929.323	3930
929.428	3956
929.533	4166
929.638	3896
929.743	4002
929.848	4029
929.953	3972
930.058	3926
930.163	3755
930.267	3823
930.372	4025
930.477	3808
930.581	4074
930.685	3937
930.79	3827
930.894	3949
930.998	3861
931.103	4029
931.207	3701
931.311	3682
931.415	3667
931.519	3534
931.623	3545
