Data from test_V78500241_2521.txt Node
Date: Fri Mar 25 17:06:31 CST 2022
User: usil
Spectrometer: V785-0024
Trigger mode: 0
Integration Time (sec): 4.000000E-1
Scans to average: 1
Nonlinearity correction enabled: false
Boxcar width: 0
Storing dark spectrum: false
XAxis mode: Wavelengths
Number of Pixels in Spectrum: 1024
>>>>>Begin Spectral Data<<<<<
801.071	8054
801.214	8062
801.356	7887
801.499	7826
801.641	7868
801.783	7807
801.926	7951
802.068	7982
802.211	7989
802.353	8020
802.496	7913
802.638	7856
802.78	7894
802.923	7883
803.065	7826
803.208	7856
803.35	8008
803.492	8062
803.635	8149
803.777	8054
803.919	8130
804.061	8419
804.204	8157
804.346	8103
804.488	8012
804.63	8043
804.773	8065
804.915	8073
805.057	8282
805.199	8153
805.341	8206
805.483	8259
805.626	8271
805.768	8218
805.91	8202
806.052	8187
806.194	8050
806.336	8377
806.478	8065
806.62	8073
806.762	8218
806.904	8233
807.046	8404
807.188	8385
807.33	8412
807.472	8248
807.614	8195
807.756	8081
807.898	7997
808.04	7845
808.182	7947
808.324	7902
808.465	7970
808.607	8119
808.749	8126
808.891	8248
809.033	8282
809.174	8229
809.316	8123
809.458	8046
809.6	8039
809.741	7936
809.883	8046
810.025	8077
810.166	8088
810.308	8001
810.45	8001
810.591	7871
810.733	7708
810.875	7628
811.016	7506
811.158	7495
811.299	7601
811.441	7727
811.582	7708
811.724	7609
811.865	7548
812.007	7674
812.148	7609
812.29	7666
812.431	7776
812.573	7936
812.714	7917
812.855	8157
812.997	8286
813.138	8290
813.279	8149
813.421	8054
813.562	7906
813.703	7860
813.845	7700
813.986	7514
814.127	7278
814.268	7179
814.41	7183
814.551	7202
814.692	7293
814.833	7149
814.974	7114
815.115	7145
815.256	6970
815.397	6947
815.539	6928
815.68	6844
815.821	6852
815.962	6901
816.103	6905
816.244	6677
816.385	6677
816.526	6654
816.666	6506
816.807	6369
816.948	6479
817.089	6513
817.23	6433
817.371	6391
817.512	6403
817.653	6361
817.793	6388
817.934	6464
818.075	6502
818.216	6429
818.356	6391
818.497	6224
818.638	6175
818.778	6213
818.919	6159
819.06	6136
819.2	6342
819.341	6350
819.481	6342
819.622	6528
819.762	6791
819.903	6726
820.043	6585
820.184	6566
820.324	6566
820.465	6741
820.605	6734
820.746	6639
820.886	6559
821.026	6646
821.167	6768
821.307	6875
821.447	6768
821.588	6707
821.728	6620
821.868	6528
822.008	6346
822.149	6418
822.289	6422
822.429	6216
822.569	6121
822.709	6171
822.849	5942
822.99	5893
823.13	5958
823.27	5923
823.41	5775
823.55	5870
823.69	5764
823.83	5783
823.97	5695
824.11	5562
824.25	5471
824.389	5524
824.529	5630
824.669	5543
824.809	5592
824.949	5638
825.089	5570
825.228	5596
825.368	5398
825.508	5395
825.648	5330
825.787	5417
825.927	5364
826.067	5318
826.206	5277
826.346	5387
826.485	5444
826.625	5444
826.765	5505
826.904	5459
827.044	5292
827.183	5185
827.323	5094
827.462	5231
827.601	5181
827.741	5193
827.88	5250
828.02	5132
828.159	5223
828.298	5330
828.437	5318
828.577	5330
828.716	5478
828.855	5299
828.994	5166
829.134	5067
829.273	5174
829.412	5128
829.551	5136
829.69	5166
829.829	5242
829.968	5330
830.107	5261
830.246	5254
830.385	5178
830.524	5155
830.663	5079
830.802	4923
830.941	4923
831.08	4881
831.219	4987
831.357	4961
831.496	5143
831.635	4930
831.774	4850
831.913	4839
832.051	4733
832.19	4721
832.329	4828
832.467	4679
832.606	4622
832.744	4714
832.883	4733
833.022	4691
833.16	4812
833.299	4820
833.437	4771
833.576	4790
833.714	4850
833.852	4858
833.991	4885
834.129	4953
834.267	4930
834.406	4911
834.544	4908
834.682	4942
834.821	4957
834.959	5208
835.097	5022
835.235	5128
835.373	5090
835.511	5086
835.65	5056
835.788	5006
835.926	4881
836.064	4873
836.202	4942
836.34	5170
836.478	5231
836.615	5128
836.753	5162
836.891	5273
837.029	5246
837.167	5185
837.305	5159
837.443	5185
837.58	5075
837.718	5223
837.856	5185
837.993	5128
838.131	5265
838.269	5235
838.406	5178
838.544	5220
838.681	5014
838.819	5033
838.956	4873
839.094	4900
839.231	4984
839.369	5086
839.506	5463
839.643	5265
839.781	5067
839.918	4999
840.055	5128
840.193	5128
840.33	5113
840.467	5159
840.604	5162
840.742	5429
840.879	5060
841.016	5086
841.153	5178
841.29	5425
841.427	5349
841.564	5337
841.701	5330
841.838	5284
841.975	5212
842.112	5254
842.249	5185
842.385	5159
842.522	5311
842.659	5117
842.796	5170
842.933	5197
843.069	5162
843.206	5151
843.343	5337
843.479	5269
843.616	5265
843.752	5010
843.889	5003
844.025	5258
844.162	5037
844.298	5201
844.435	5064
844.571	5075
844.708	5216
844.844	5292
844.98	5334
845.117	5292
845.253	5121
845.389	5067
845.525	5109
845.661	5197
845.798	5025
845.934	5121
846.07	5071
846.206	5201
846.342	5315
846.478	5208
846.614	5022
846.75	4995
846.886	4915
847.022	5132
847.158	5037
847.294	5029
847.429	5117
847.565	5052
847.701	5341
847.837	4847
847.972	4797
848.108	4957
848.244	4965
848.379	4767
848.515	4706
848.65	4698
848.786	4721
848.921	4797
849.057	4904
849.192	4881
849.328	4870
849.463	4820
849.598	4786
849.734	4755
849.869	4706
850.004	4615
850.14	4694
850.275	4622
850.41	4542
850.545	4573
850.68	4626
850.815	4649
850.95	4611
851.085	4797
851.22	4710
851.355	4706
851.49	4580
851.625	4637
851.76	4645
851.895	4558
852.03	4527
852.165	4668
852.299	4736
852.434	4790
852.569	4782
852.703	4812
852.838	4854
852.973	4923
853.107	4915
853.242	4721
853.376	4683
853.511	4599
853.645	4672
853.78	4812
853.914	4672
854.048	4626
854.183	4634
854.317	4664
854.451	4824
854.585	4710
854.72	4637
854.854	4771
854.988	4588
855.122	4664
855.256	4580
855.39	4656
855.524	4790
855.658	4733
855.792	4698
855.926	4733
856.06	4778
856.194	4805
856.327	4694
856.461	4660
856.595	4599
856.729	4622
856.862	4717
856.996	4717
857.13	4771
857.263	4752
857.397	4812
857.53	4622
857.664	4729
857.797	4771
857.931	4820
858.064	4679
858.197	4767
858.331	4714
858.464	4656
858.597	4573
858.731	4664
858.864	4596
858.997	4561
859.13	4641
859.263	4637
859.396	4733
859.529	4588
859.662	4573
859.795	4497
859.928	4607
860.061	4774
860.194	4752
860.327	4565
860.46	4493
860.592	4694
860.725	4702
860.858	4683
860.99	4580
861.123	4561
861.256	4535
861.388	4599
861.521	5239
861.653	4485
861.786	4470
861.918	4504
862.05	4512
862.183	4588
862.315	4596
862.447	4618
862.58	4588
862.712	4390
862.844	4341
862.976	4462
863.108	4481
863.24	4870
863.372	4322
863.504	4421
863.636	4428
863.768	4485
863.9	4443
864.032	4367
864.164	4405
864.296	4519
864.428	4512
864.559	4542
864.691	4535
864.823	4538
864.954	4470
865.086	4519
865.217	4455
865.349	4390
865.48	4470
865.612	4481
865.743	4603
865.875	4493
866.006	4413
866.137	4470
866.269	4443
866.4	4443
866.531	4428
866.662	4379
866.793	4409
866.924	4424
867.055	4470
867.186	4459
867.317	4409
867.448	4367
867.579	4394
867.71	4409
867.841	4383
867.972	4459
868.103	4478
868.233	4424
868.364	4462
868.495	4462
868.625	4668
868.756	4774
868.886	4550
869.017	4653
869.147	4801
869.278	4759
869.408	4687
869.539	4622
869.669	4714
869.799	4653
869.929	4710
870.06	4714
870.19	4923
870.32	4923
870.45	4949
870.58	5064
870.71	5052
870.84	5094
870.97	4927
871.1	4881
871.23	5162
871.36	5056
871.489	5060
871.619	5086
871.749	5136
871.879	5159
872.008	5235
872.138	5064
872.267	4972
872.397	4835
872.526	4809
872.656	4729
872.785	4797
872.915	4976
873.044	5083
873.173	4942
873.303	4957
873.432	4968
873.561	4949
873.69	4850
873.819	4889
873.948	4885
874.077	4839
874.206	4698
874.335	4793
874.464	4911
874.593	5048
874.722	4923
874.851	5083
874.979	5105
875.108	5006
875.237	4908
875.365	4896
875.494	4866
875.623	4972
875.751	4870
875.88	4908
876.008	4968
876.136	5018
876.265	5185
876.393	5345
876.521	5246
876.65	5220
876.778	5181
876.906	5079
877.034	5064
877.162	5025
877.29	5018
877.418	5033
877.546	5048
877.674	5025
877.802	5006
877.93	5045
878.058	4930
878.185	4881
878.313	4934
878.441	4930
878.568	4790
878.696	4892
878.824	4927
878.951	5029
879.079	5056
879.206	5277
879.333	5090
879.461	4976
879.588	5025
879.715	5121
879.842	5280
879.97	4999
880.097	4828
880.224	4805
880.351	4786
880.478	4812
880.605	4797
880.732	4763
880.859	5075
880.986	4824
881.112	4900
881.239	4774
881.366	4656
881.493	4538
881.619	4615
881.746	4668
881.872	4683
881.999	4645
882.125	4687
882.252	4774
882.378	4820
882.505	4968
882.631	4778
882.757	4630
882.883	4698
883.01	4714
883.136	4641
883.262	4565
883.388	4607
883.514	4831
883.64	4896
883.766	4782
883.892	4694
884.018	4736
884.143	4908
884.269	5006
884.395	4691
884.52	4607
884.646	4653
884.772	4569
884.897	4554
885.023	4649
885.148	4752
885.274	4858
885.399	4843
885.524	4733
885.65	4706
885.775	4771
885.9	4717
886.025	4820
886.15	4797
886.275	4706
886.4	4641
886.525	4683
886.65	4714
886.775	4675
886.9	4930
887.025	5037
887.149	4763
887.274	4675
887.399	4565
887.523	4561
887.648	4527
887.773	4626
887.897	4740
888.021	4733
888.146	4683
888.27	4866
888.395	4915
888.519	4820
888.643	4767
888.767	4820
888.891	4675
889.015	4580
889.139	4607
889.263	4603
889.387	4782
889.511	4866
889.635	4790
889.759	4660
889.883	4649
890.006	4721
890.13	4835
890.254	4615
890.377	4698
890.501	4554
890.624	4523
890.748	4577
890.871	4508
890.995	4462
891.118	4409
891.241	4546
891.364	4523
891.488	4630
891.611	4504
891.734	4531
891.857	4569
891.98	4546
892.103	4634
892.226	4573
892.349	4561
892.471	4447
892.594	4538
892.717	4584
892.839	4573
892.962	4592
893.085	4683
893.207	4596
893.33	4466
893.452	4523
893.575	4653
893.697	4569
893.819	4752
893.941	4847
894.064	4763
894.186	4588
894.308	4561
894.43	4694
894.552	4862
894.674	4759
894.796	4527
894.918	4615
895.04	4550
895.161	4679
895.283	4683
895.405	4580
895.526	4675
895.648	4668
895.769	4683
895.891	4706
896.012	4717
896.134	4733
896.255	4641
896.376	4649
896.498	4603
896.619	4653
896.74	4630
896.861	4641
896.982	4934
897.103	5102
897.224	4816
897.345	4752
897.466	4656
897.587	4717
897.708	4854
897.828	4774
897.949	4634
898.07	4554
898.19	4615
898.311	4862
898.431	4664
898.552	4725
898.672	4835
898.792	4797
898.913	4744
899.033	4660
899.153	4478
899.273	4398
899.393	4443
899.513	4519
899.633	4531
899.753	4577
899.873	4497
899.993	4611
900.113	4538
900.232	4561
900.352	4500
900.472	4455
900.591	4390
900.711	4519
900.83	4459
900.95	4630
901.069	4653
901.189	4558
901.308	4398
901.427	4287
901.546	4413
901.665	4497
901.784	4538
901.904	4379
902.023	4310
902.141	4185
902.26	4162
902.379	4341
902.498	4223
902.617	4200
902.735	4379
902.854	4356
902.973	4386
903.091	4219
903.21	4166
903.328	4303
903.446	4295
903.565	4276
903.683	4314
903.801	4249
903.919	4409
904.038	4462
904.156	4322
904.274	4379
904.392	4398
904.51	4424
904.627	4493
904.745	4599
904.863	4573
904.981	4402
905.098	4344
905.216	4363
905.334	4443
905.451	4443
905.569	4421
905.686	4554
905.803	4523
905.921	4402
906.038	4546
906.155	4485
906.272	4383
906.389	4497
906.506	4348
906.623	4379
906.74	4405
906.857	4299
906.974	4402
907.091	4542
907.208	4679
907.324	4592
907.441	4462
907.557	4314
907.674	4375
907.79	4287
907.907	4363
908.023	4443
908.139	4462
908.256	4466
908.372	4485
908.488	4451
908.604	4386
908.72	4344
908.836	4394
908.952	4394
909.068	4424
909.184	4512
909.3	4485
909.415	4615
909.531	4584
909.647	4352
909.762	4360
909.878	4367
909.993	4371
910.108	4428
910.224	4417
910.339	4443
910.454	4375
910.57	4360
910.685	4265
910.8	4645
910.915	4588
911.03	4554
911.145	4299
911.259	4287
911.374	4344
911.489	4287
911.604	4246
911.718	4173
911.833	4196
911.947	4097
912.062	4040
912.176	4147
912.291	4215
912.405	4257
912.519	4432
912.633	4519
912.748	4341
912.862	4329
912.976	4173
913.09	4109
913.204	4185
913.318	4207
913.431	4386
913.545	4348
913.659	4451
913.772	4348
913.886	4238
914	4177
914.113	4344
914.226	4451
914.34	4379
914.453	4211
914.566	4443
914.68	4344
914.793	4360
914.906	4169
915.019	4101
915.132	4112
915.245	4227
915.358	4192
915.47	4223
915.583	4261
915.696	4246
915.809	4379
915.921	4398
916.034	4261
916.146	4242
916.259	4200
916.371	4402
916.483	4348
916.595	4242
916.708	4333
916.82	4306
916.932	4314
917.044	4348
917.156	4333
917.268	4200
917.38	4284
917.491	4246
917.603	4379
917.715	4455
917.826	4413
917.938	4322
918.049	4272
918.161	4356
918.272	4569
918.384	4527
918.495	4485
918.606	4284
918.717	4257
918.828	4306
918.939	4344
919.05	4284
919.161	4299
919.272	4177
919.383	4230
919.494	4447
919.604	4599
919.715	4394
919.826	4337
919.936	4390
920.047	4546
920.157	4493
920.267	4672
920.378	4535
920.488	4538
920.598	4782
920.708	4847
920.818	4763
920.928	4801
921.038	4938
921.148	4862
921.258	4592
921.368	4584
921.477	4497
921.587	4470
921.697	4333
921.806	4550
921.916	4462
922.025	4287
922.134	4234
922.244	4227
922.353	4325
922.462	4211
922.571	4147
922.68	4017
922.789	3991
922.898	4013
923.007	4017
923.116	4101
923.224	4116
923.333	4078
923.442	4029
923.55	3964
923.659	4063
923.767	4105
923.876	4002
923.984	4124
924.092	3972
924.201	4051
924.309	4082
924.417	4128
924.525	4090
924.633	4086
924.741	5098
924.849	3953
924.956	4124
925.064	3953
925.172	3915
925.279	4010
925.387	4032
925.494	4048
925.602	4181
925.709	4162
925.816	4010
925.924	4109
926.031	4249
926.138	4166
926.245	4215
926.352	4109
926.459	4253
926.566	4329
926.673	4120
926.779	4040
926.886	4063
926.993	3979
927.099	3972
927.206	3915
927.312	3941
927.419	4010
927.525	3987
927.631	4116
927.737	3934
927.843	3922
927.95	3816
928.056	3934
928.162	3987
928.267	4074
928.373	4554
928.479	4082
928.585	3899
928.69	4025
928.796	4063
928.901	3956
929.007	3865
929.112	4040
929.218	3968
929.323	3934
929.428	3937
929.533	4147
929.638	3915
929.743	3975
929.848	4071
929.953	4021
930.058	3899
930.163	3781
930.267	3800
930.372	3983
930.477	3793
930.581	4086
930.685	3903
930.79	3835
930.894	3869
930.998	3857
931.103	4029
931.207	3698
931.311	3671
931.415	3705
931.519	3511
931.623	3580
