Data from test_V78500241_2156.txt Node
Date: Fri Mar 25 17:03:59 CST 2022
User: usil
Spectrometer: V785-0024
Trigger mode: 0
Integration Time (sec): 4.000000E-1
Scans to average: 1
Nonlinearity correction enabled: false
Boxcar width: 0
Storing dark spectrum: false
XAxis mode: Wavelengths
Number of Pixels in Spectrum: 1024
>>>>>Begin Spectral Data<<<<<
801.071	8008
801.214	7921
801.356	7917
801.499	7864
801.641	7841
801.783	7837
801.926	8005
802.068	7925
802.211	7993
802.353	8016
802.496	7822
802.638	7890
802.78	7906
802.923	7982
803.065	7898
803.208	7868
803.35	8024
803.492	8065
803.635	8206
803.777	8039
803.919	8164
804.061	8465
804.204	8153
804.346	8062
804.488	7963
804.63	8107
804.773	7986
804.915	8092
805.057	8263
805.199	8161
805.341	8176
805.483	8298
805.626	8221
805.768	8050
805.91	8202
806.052	8286
806.194	8153
806.336	8298
806.478	8096
806.62	8031
806.762	8176
806.904	8309
807.046	8473
807.188	8400
807.33	8267
807.472	8259
807.614	8138
807.756	8142
807.898	7978
808.04	7917
808.182	7898
808.324	7818
808.465	7883
808.607	8088
808.749	8123
808.891	8267
809.033	8275
809.174	8248
809.316	8054
809.458	8107
809.6	8012
809.741	8100
809.883	8062
810.025	8103
810.166	8111
810.308	7974
810.45	7959
810.591	7875
810.733	7696
810.875	7685
811.016	7575
811.158	7476
811.299	7662
811.441	7655
811.582	7556
811.724	7525
811.865	7540
812.007	7605
812.148	7651
812.29	7651
812.431	7681
812.573	7913
812.714	7978
812.855	8153
812.997	8183
813.138	8328
813.279	8161
813.421	8031
813.562	7932
813.703	7856
813.845	7715
813.986	7464
814.127	7270
814.268	7156
814.41	7114
814.551	7171
814.692	7240
814.833	7103
814.974	7122
815.115	7080
815.256	6928
815.397	6928
815.539	6951
815.68	6783
815.821	6738
815.962	6783
816.103	6783
816.244	6650
816.385	6582
816.526	6566
816.666	6502
816.807	6327
816.948	6429
817.089	6483
817.23	6433
817.371	6376
817.512	6376
817.653	6384
817.793	6342
817.934	6433
818.075	6479
818.216	6475
818.356	6369
818.497	6266
818.638	6133
818.778	6152
818.919	6209
819.06	6121
819.2	6342
819.341	6311
819.481	6380
819.622	6521
819.762	6677
819.903	6711
820.043	6642
820.184	6631
820.324	6566
820.465	6658
820.605	6627
820.746	6612
820.886	6528
821.026	6608
821.167	6715
821.307	6779
821.447	6741
821.588	6711
821.728	6570
821.868	6525
822.008	6304
822.149	6407
822.289	6319
822.429	6140
822.569	6076
822.709	6125
822.849	5927
822.99	5939
823.13	5984
823.27	5939
823.41	5794
823.55	5805
823.69	5775
823.83	5802
823.97	5668
824.11	5570
824.25	5512
824.389	5589
824.529	5642
824.669	5520
824.809	5630
824.949	5684
825.089	5668
825.228	5551
825.368	5440
825.508	5364
825.648	5322
825.787	5376
825.927	5417
826.067	5318
826.206	5303
826.346	5398
826.485	5486
826.625	5391
826.765	5532
826.904	5497
827.044	5258
827.183	5239
827.323	5178
827.462	5303
827.601	5170
827.741	5258
827.88	5254
828.02	5147
828.159	5242
828.298	5337
828.437	5425
828.577	5261
828.716	5554
828.855	5379
828.994	5174
829.134	5212
829.273	5231
829.412	5178
829.551	5143
829.69	5189
829.829	5269
829.968	5360
830.107	5322
830.246	5330
830.385	5223
830.524	5181
830.663	5105
830.802	5083
830.941	4896
831.08	4953
831.219	5029
831.357	5029
831.496	5193
831.635	4961
831.774	4881
831.913	4881
832.051	4805
832.19	4793
832.329	4904
832.467	4774
832.606	4702
832.744	4778
832.883	4752
833.022	4778
833.16	4782
833.299	4854
833.437	4930
833.576	4896
833.714	4919
833.852	4911
833.991	4946
834.129	5022
834.267	4972
834.406	4968
834.544	5022
834.682	5025
834.821	5003
834.959	5174
835.097	5052
835.235	5220
835.373	5124
835.511	5105
835.65	5056
835.788	5029
835.926	4942
836.064	4889
836.202	4968
836.34	5197
836.478	5254
836.615	5128
836.753	5235
836.891	5307
837.029	5277
837.167	5261
837.305	5178
837.443	5143
837.58	5105
837.718	5258
837.856	5246
837.993	5178
838.131	5261
838.269	5254
838.406	5250
838.544	5216
838.681	5067
838.819	5060
838.956	4946
839.094	4908
839.231	5006
839.369	5105
839.506	5452
839.643	5269
839.781	5094
839.918	5041
840.055	5136
840.193	5155
840.33	5113
840.467	5155
840.604	5231
840.742	5501
840.879	5143
841.016	5151
841.153	5223
841.29	5421
841.427	5379
841.564	5322
841.701	5429
841.838	5318
841.975	5223
842.112	5322
842.249	5124
842.385	5121
842.522	5368
842.659	5242
842.796	5193
842.933	5204
843.069	5166
843.206	5162
843.343	5383
843.479	5261
843.616	5311
843.752	5083
843.889	5033
844.025	5227
844.162	5018
844.298	5239
844.435	5109
844.571	5060
844.708	5220
844.844	5349
844.98	5414
845.117	5254
845.253	5128
845.389	5071
845.525	5174
845.661	5159
845.798	5071
845.934	5170
846.07	5102
846.206	5197
846.342	5299
846.478	5220
846.614	5064
846.75	5014
846.886	4995
847.022	5121
847.158	4995
847.294	5067
847.429	5113
847.565	5060
847.701	5307
847.837	4866
847.972	4809
848.108	5045
848.244	5003
848.379	4828
848.515	4793
848.65	4702
848.786	4729
848.921	4797
849.057	4881
849.192	4957
849.328	4854
849.463	4870
849.598	4767
849.734	4793
849.869	4675
850.004	4630
850.14	4675
850.275	4645
850.41	4569
850.545	4577
850.68	4607
850.815	4660
850.95	4675
851.085	4896
851.22	4767
851.355	4736
851.49	4622
851.625	4668
851.76	4672
851.895	4550
852.03	4558
852.165	4668
852.299	4771
852.434	4831
852.569	4740
852.703	4839
852.838	4835
852.973	4915
853.107	4915
853.242	4790
853.376	4698
853.511	4615
853.645	4618
853.78	4816
853.914	4725
854.048	4740
854.183	4706
854.317	4759
854.451	4843
854.585	4744
854.72	4645
854.854	4771
854.988	4630
855.122	4725
855.256	4565
855.39	4660
855.524	4824
855.658	4782
855.792	4755
855.926	4801
856.06	4786
856.194	4873
856.327	4698
856.461	4656
856.595	4672
856.729	4645
856.862	4835
856.996	4733
857.13	4801
857.263	4763
857.397	4873
857.53	4641
857.664	4736
857.797	4763
857.931	4816
858.064	4714
858.197	4736
858.331	4649
858.464	4615
858.597	4523
858.731	4653
858.864	4691
858.997	4584
859.13	4679
859.263	4683
859.396	4717
859.529	4584
859.662	4611
859.795	4565
859.928	4702
860.061	4793
860.194	4774
860.327	4660
860.46	4615
860.592	4729
860.725	4736
860.858	4736
860.99	4592
861.123	4546
861.256	4573
861.388	4672
861.521	5368
861.653	4504
861.786	4519
861.918	4462
862.05	4565
862.183	4630
862.315	4634
862.447	4649
862.58	4558
862.712	4421
862.844	4383
862.976	4478
863.108	4470
863.24	4786
863.372	4417
863.504	4424
863.636	4421
863.768	4538
863.9	4432
864.032	4417
864.164	4428
864.296	4493
864.428	4535
864.559	4558
864.691	4546
864.823	4580
864.954	4508
865.086	4550
865.217	4516
865.349	4447
865.48	4493
865.612	4519
865.743	4656
865.875	4519
866.006	4443
866.137	4451
866.269	4432
866.4	4485
866.531	4436
866.662	4409
866.793	4474
866.924	4455
867.055	4474
867.186	4436
867.317	4443
867.448	4398
867.579	4417
867.71	4409
867.841	4390
867.972	4519
868.103	4508
868.233	4462
868.364	4523
868.495	4485
868.625	4687
868.756	4752
868.886	4599
869.017	4599
869.147	4820
869.278	4774
869.408	4656
869.539	4641
869.669	4740
869.799	4660
869.929	4786
870.06	4755
870.19	4965
870.32	4896
870.45	4976
870.58	5006
870.71	5136
870.84	5109
870.97	4961
871.1	4965
871.23	5143
871.36	5166
871.489	5083
871.619	5075
871.749	5140
871.879	5162
872.008	5181
872.138	5022
872.267	5025
872.397	4908
872.526	4889
872.656	4733
872.785	4812
872.915	5018
873.044	5060
873.173	4927
873.303	4987
873.432	5033
873.561	4984
873.69	4915
873.819	4885
873.948	4949
874.077	4801
874.206	4755
874.335	4847
874.464	4976
874.593	5071
874.722	5018
874.851	5124
874.979	5113
875.108	5098
875.237	4976
875.365	4862
875.494	4957
875.623	5010
875.751	4824
875.88	4877
876.008	4946
876.136	5052
876.265	5227
876.393	5368
876.521	5227
876.65	5235
876.778	5185
876.906	5094
877.034	5094
877.162	5098
877.29	5033
877.418	5048
877.546	5052
877.674	5060
877.802	5060
877.93	4980
878.058	5010
878.185	4957
878.313	4972
878.441	4957
878.568	4824
878.696	4904
878.824	4915
878.951	5006
879.079	5136
879.206	5269
879.333	5098
879.461	4991
879.588	4957
879.715	5090
879.842	5235
879.97	5041
880.097	4805
880.224	4763
880.351	4835
880.478	4843
880.605	4835
880.732	4752
880.859	5075
880.986	4942
881.112	4911
881.239	4866
881.366	4702
881.493	4626
881.619	4603
881.746	4645
881.872	4698
881.999	4618
882.125	4702
882.252	4786
882.378	4847
882.505	5029
882.631	4820
882.757	4702
882.883	4755
883.01	4755
883.136	4736
883.262	4672
883.388	4660
883.514	4797
883.64	4919
883.766	4824
883.892	4675
884.018	4755
884.143	4900
884.269	5067
884.395	4698
884.52	4649
884.646	4668
884.772	4554
884.897	4558
885.023	4645
885.148	4805
885.274	4854
885.399	4805
885.524	4733
885.65	4698
885.775	4767
885.9	4675
886.025	4870
886.15	4805
886.275	4748
886.4	4656
886.525	4710
886.65	4683
886.775	4740
886.9	4923
887.025	4995
887.149	4831
887.274	4710
887.399	4626
887.523	4611
887.648	4637
887.773	4546
887.897	4790
888.021	4828
888.146	4668
888.27	4858
888.395	4949
888.519	4824
888.643	4820
888.767	4809
888.891	4714
889.015	4615
889.139	4664
889.263	4630
889.387	4771
889.511	4866
889.635	4801
889.759	4645
889.883	4679
890.006	4748
890.13	4873
890.254	4603
890.377	4611
890.501	4550
890.624	4523
890.748	4653
890.871	4554
890.995	4424
891.118	4375
891.241	4535
891.364	4538
891.488	4653
891.611	4550
891.734	4538
891.857	4622
891.98	4615
892.103	4675
892.226	4584
892.349	4508
892.471	4447
892.594	4554
892.717	4611
892.839	4607
892.962	4641
893.085	4660
893.207	4634
893.33	4462
893.452	4519
893.575	4656
893.697	4577
893.819	4835
893.941	4831
894.064	4763
894.186	4584
894.308	4538
894.43	4752
894.552	4820
894.674	4740
894.796	4588
894.918	4584
895.04	4588
895.161	4702
895.283	4664
895.405	4546
895.526	4672
895.648	4702
895.769	4694
895.891	4702
896.012	4763
896.134	4691
896.255	4694
896.376	4626
896.498	4630
896.619	4675
896.74	4580
896.861	4653
896.982	4984
897.103	5147
897.224	4809
897.345	4710
897.466	4645
897.587	4710
897.708	4824
897.828	4748
897.949	4706
898.07	4554
898.19	4603
898.311	4835
898.431	4675
898.552	4691
898.672	4790
898.792	4835
898.913	4736
899.033	4660
899.153	4500
899.273	4413
899.393	4466
899.513	4527
899.633	4565
899.753	4512
899.873	4565
899.993	4538
900.113	4531
900.232	4561
900.352	4523
900.472	4512
900.591	4383
900.711	4558
900.83	4485
900.95	4630
901.069	4649
901.189	4550
901.308	4432
901.427	4325
901.546	4383
901.665	4459
901.784	4535
901.904	4409
902.023	4318
902.141	4215
902.26	4162
902.379	4337
902.498	4249
902.617	4227
902.735	4371
902.854	4371
902.973	4371
903.091	4204
903.21	4204
903.328	4333
903.446	4234
903.565	4291
903.683	4329
903.801	4306
903.919	4398
904.038	4459
904.156	4352
904.274	4432
904.392	4386
904.51	4462
904.627	4451
904.745	4588
904.863	4637
904.981	4390
905.098	4287
905.216	4310
905.334	4466
905.451	4447
905.569	4428
905.686	4561
905.803	4611
905.921	4440
906.038	4497
906.155	4493
906.272	4440
906.389	4436
906.506	4375
906.623	4363
906.74	4459
906.857	4341
906.974	4394
907.091	4580
907.208	4702
907.324	4577
907.441	4516
907.557	4356
907.674	4375
907.79	4295
907.907	4386
908.023	4481
908.139	4447
908.256	4451
908.372	4519
908.488	4455
908.604	4310
908.72	4303
908.836	4417
908.952	4341
909.068	4402
909.184	4550
909.3	4508
909.415	4519
909.531	4569
909.647	4322
909.762	4356
909.878	4322
909.993	4405
910.108	4424
910.224	4417
910.339	4497
910.454	4432
910.57	4398
910.685	4299
910.8	4622
910.915	4596
911.03	4508
911.145	4337
911.259	4341
911.374	4390
911.489	4276
911.604	4276
911.718	4177
911.833	4196
911.947	4124
912.062	4002
912.176	4207
912.291	4284
912.405	4230
912.519	4485
912.633	4489
912.748	4383
912.862	4306
912.976	4207
913.09	4112
913.204	4177
913.318	4246
913.431	4352
913.545	4344
913.659	4440
913.772	4337
913.886	4215
914	4257
914.113	4325
914.226	4402
914.34	4386
914.453	4215
914.566	4497
914.68	4337
914.793	4287
914.906	4188
915.019	4154
915.132	4055
915.245	4211
915.358	4238
915.47	4295
915.583	4280
915.696	4287
915.809	4451
915.921	4462
916.034	4257
916.146	4223
916.259	4192
916.371	4371
916.483	4360
916.595	4299
916.708	4337
916.82	4325
916.932	4337
917.044	4348
917.156	4356
917.268	4246
917.38	4310
917.491	4318
917.603	4299
917.715	4432
917.826	4417
917.938	4360
918.049	4211
918.161	4405
918.272	4546
918.384	4546
918.495	4421
918.606	4287
918.717	4227
918.828	4329
918.939	4398
919.05	4249
919.161	4276
919.272	4143
919.383	4249
919.494	4436
919.604	4634
919.715	4440
919.826	4371
919.936	4421
920.047	4508
920.157	4447
920.267	4683
920.378	4519
920.488	4489
920.598	4706
920.708	4866
920.818	4790
920.928	4736
921.038	4934
921.148	4923
921.258	4634
921.368	4550
921.477	4447
921.587	4459
921.697	4383
921.806	4516
921.916	4455
922.025	4287
922.134	4261
922.244	4196
922.353	4341
922.462	4196
922.571	4128
922.68	4006
922.789	3930
922.898	4040
923.007	3975
923.116	4086
923.224	4067
923.333	4093
923.442	3975
923.55	3956
923.659	4010
923.767	4109
923.876	3972
923.984	4150
924.092	3968
924.201	4086
924.309	4063
924.417	4086
924.525	4048
924.633	4120
924.741	5079
924.849	3930
924.956	4124
925.064	3930
925.172	3876
925.279	3987
925.387	4063
925.494	4032
925.602	4253
925.709	4223
925.816	4006
925.924	4139
926.031	4219
926.138	4192
926.245	4207
926.352	4074
926.459	4287
926.566	4276
926.673	4131
926.779	4071
926.886	4063
926.993	3994
927.099	3956
927.206	3956
927.312	3964
927.419	4074
927.525	4044
927.631	4097
927.737	4002
927.843	3922
927.95	3850
928.056	3922
928.162	4010
928.267	4021
928.373	4668
928.479	4128
928.585	3884
928.69	4032
928.796	4051
928.901	3930
929.007	3838
929.112	4032
929.218	3994
929.323	3964
929.428	3949
929.533	4078
929.638	3861
929.743	3956
929.848	4032
929.953	3941
930.058	3911
930.163	3808
930.267	3816
930.372	4021
930.477	3835
930.581	4059
930.685	3953
930.79	3804
930.894	3888
930.998	3842
931.103	4025
931.207	3656
931.311	3705
931.415	3648
931.519	3511
931.623	3549
