Data from test_V78500241_2825.txt Node
Date: Fri Mar 25 17:08:38 CST 2022
User: usil
Spectrometer: V785-0024
Trigger mode: 0
Integration Time (sec): 4.000000E-1
Scans to average: 1
Nonlinearity correction enabled: false
Boxcar width: 0
Storing dark spectrum: false
XAxis mode: Wavelengths
Number of Pixels in Spectrum: 1024
>>>>>Begin Spectral Data<<<<<
801.071	8012
801.214	8012
801.356	7898
801.499	7860
801.641	7811
801.783	7860
801.926	7959
802.068	7989
802.211	8016
802.353	8024
802.496	7860
802.638	7925
802.78	7932
802.923	7925
803.065	7860
803.208	7833
803.35	7936
803.492	8161
803.635	8233
803.777	8065
803.919	8195
804.061	8434
804.204	8142
804.346	8084
804.488	7902
804.63	8092
804.773	8088
804.915	8103
805.057	8244
805.199	8130
805.341	8149
805.483	8267
805.626	8168
805.768	8084
805.91	8161
806.052	8172
806.194	8145
806.336	8313
806.478	8153
806.62	7967
806.762	8103
806.904	8282
807.046	8537
807.188	8408
807.33	8362
807.472	8385
807.614	8157
807.756	8183
807.898	8062
808.04	7913
808.182	7849
808.324	7906
808.465	7955
808.607	8126
808.749	8164
808.891	8317
809.033	8301
809.174	8199
809.316	8149
809.458	8088
809.6	8027
809.741	8046
809.883	8081
810.025	8180
810.166	8096
810.308	8020
810.45	7951
810.591	7890
810.733	7792
810.875	7708
811.016	7567
811.158	7468
811.299	7601
811.441	7757
811.582	7693
811.724	7582
811.865	7578
812.007	7662
812.148	7575
812.29	7666
812.431	7727
812.573	7906
812.714	8024
812.855	8161
812.997	8282
813.138	8358
813.279	8214
813.421	8084
813.562	8020
813.703	7837
813.845	7845
813.986	7518
814.127	7255
814.268	7270
814.41	7240
814.551	7247
814.692	7209
814.833	7133
814.974	7095
815.115	7088
815.256	6966
815.397	6886
815.539	6947
815.68	6840
815.821	6795
815.962	6913
816.103	6863
816.244	6722
816.385	6639
816.526	6658
816.666	6521
816.807	6338
816.948	6422
817.089	6391
817.23	6418
817.371	6384
817.512	6429
817.653	6388
817.793	6376
817.934	6467
818.075	6475
818.216	6399
818.356	6391
818.497	6304
818.638	6159
818.778	6197
818.919	6140
819.06	6197
819.2	6353
819.341	6323
819.481	6369
819.622	6525
819.762	6741
819.903	6741
820.043	6585
820.184	6578
820.324	6589
820.465	6700
820.605	6741
820.746	6673
820.886	6593
821.026	6646
821.167	6726
821.307	6798
821.447	6829
821.588	6673
821.728	6650
821.868	6532
822.008	6346
822.149	6445
822.289	6357
822.429	6232
822.569	6175
822.709	6125
822.849	5984
822.99	5961
823.13	6030
823.27	5935
823.41	5832
823.55	5817
823.69	5836
823.83	5802
823.97	5691
824.11	5589
824.25	5532
824.389	5627
824.529	5649
824.669	5585
824.809	5691
824.949	5707
825.089	5615
825.228	5649
825.368	5505
825.508	5410
825.648	5387
825.787	5425
825.927	5417
826.067	5341
826.206	5341
826.346	5425
826.485	5455
826.625	5463
826.765	5596
826.904	5547
827.044	5311
827.183	5227
827.323	5155
827.462	5273
827.601	5197
827.741	5258
827.88	5269
828.02	5185
828.159	5258
828.298	5368
828.437	5345
828.577	5299
828.716	5493
828.855	5318
828.994	5227
829.134	5231
829.273	5201
829.412	5178
829.551	5178
829.69	5178
829.829	5288
829.968	5467
830.107	5296
830.246	5322
830.385	5235
830.524	5143
830.663	5151
830.802	5052
830.941	4885
831.08	4881
831.219	4984
831.357	5041
831.496	5185
831.635	4987
831.774	4881
831.913	4877
832.051	4797
832.19	4771
832.329	4854
832.467	4767
832.606	4672
832.744	4744
832.883	4733
833.022	4721
833.16	4793
833.299	4877
833.437	4892
833.576	4877
833.714	4908
833.852	4900
833.991	4934
834.129	5003
834.267	4965
834.406	4934
834.544	5010
834.682	5041
834.821	5010
834.959	5235
835.097	5041
835.235	5162
835.373	5121
835.511	5136
835.65	5048
835.788	5109
835.926	4904
836.064	4911
836.202	4968
836.34	5223
836.478	5231
836.615	5166
836.753	5189
836.891	5383
837.029	5277
837.167	5208
837.305	5181
837.443	5208
837.58	5136
837.718	5265
837.856	5254
837.993	5151
838.131	5311
838.269	5258
838.406	5220
838.544	5235
838.681	5056
838.819	5037
838.956	4915
839.094	4987
839.231	4987
839.369	5113
839.506	5474
839.643	5265
839.781	5052
839.918	5025
840.055	5117
840.193	5170
840.33	5113
840.467	5178
840.604	5227
840.742	5410
840.879	5121
841.016	5128
841.153	5189
841.29	5379
841.427	5349
841.564	5318
841.701	5429
841.838	5318
841.975	5299
842.112	5265
842.249	5178
842.385	5151
842.522	5360
842.659	5193
842.796	5181
842.933	5220
843.069	5140
843.206	5174
843.343	5368
843.479	5284
843.616	5292
843.752	5086
843.889	5025
844.025	5261
844.162	5048
844.298	5254
844.435	5128
844.571	5098
844.708	5227
844.844	5315
844.98	5353
845.117	5288
845.253	5174
845.389	5105
845.525	5159
845.661	5143
845.798	5090
845.934	5193
846.07	5071
846.206	5204
846.342	5315
846.478	5261
846.614	5033
846.75	5029
846.886	4984
847.022	5166
847.158	5113
847.294	5128
847.429	5117
847.565	5086
847.701	5345
847.837	4870
847.972	4835
848.108	4919
848.244	4927
848.379	4801
848.515	4736
848.65	4721
848.786	4767
848.921	4759
849.057	4896
849.192	4927
849.328	4820
849.463	4915
849.598	4752
849.734	4767
849.869	4748
850.004	4740
850.14	4702
850.275	4626
850.41	4542
850.545	4630
850.68	4603
850.815	4630
850.95	4649
851.085	4889
851.22	4809
851.355	4717
851.49	4626
851.625	4626
851.76	4622
851.895	4615
852.03	4538
852.165	4687
852.299	4786
852.434	4782
852.569	4771
852.703	4748
852.838	4866
852.973	4984
853.107	4938
853.242	4797
853.376	4752
853.511	4580
853.645	4683
853.78	4816
853.914	4725
854.048	4702
854.183	4721
854.317	4702
854.451	4870
854.585	4656
854.72	4622
854.854	4839
854.988	4656
855.122	4634
855.256	4584
855.39	4675
855.524	4801
855.658	4736
855.792	4725
855.926	4778
856.06	4733
856.194	4805
856.327	4721
856.461	4672
856.595	4634
856.729	4645
856.862	4778
856.996	4694
857.13	4714
857.263	4763
857.397	4759
857.53	4687
857.664	4736
857.797	4812
857.931	4866
858.064	4683
858.197	4793
858.331	4729
858.464	4668
858.597	4542
858.731	4714
858.864	4630
858.997	4634
859.13	4683
859.263	4675
859.396	4767
859.529	4641
859.662	4599
859.795	4577
859.928	4641
860.061	4801
860.194	4809
860.327	4641
860.46	4592
860.592	4679
860.725	4752
860.858	4740
860.99	4607
861.123	4550
861.256	4573
861.388	4637
861.521	5368
861.653	4493
861.786	4504
861.918	4546
862.05	4584
862.183	4634
862.315	4611
862.447	4702
862.58	4584
862.712	4421
862.844	4325
862.976	4531
863.108	4493
863.24	4786
863.372	4379
863.504	4470
863.636	4432
863.768	4531
863.9	4478
864.032	4371
864.164	4417
864.296	4451
864.428	4561
864.559	4573
864.691	4588
864.823	4535
864.954	4554
865.086	4550
865.217	4470
865.349	4436
865.48	4447
865.612	4535
865.743	4683
865.875	4478
866.006	4459
866.137	4504
866.269	4504
866.4	4466
866.531	4443
866.662	4451
866.793	4447
866.924	4413
867.055	4489
867.186	4497
867.317	4447
867.448	4428
867.579	4375
867.71	4455
867.841	4348
867.972	4478
868.103	4474
868.233	4485
868.364	4459
868.495	4504
868.625	4668
868.756	4805
868.886	4573
869.017	4615
869.147	4790
869.278	4774
869.408	4698
869.539	4672
869.669	4820
869.799	4725
869.929	4782
870.06	4771
870.19	4946
870.32	4889
870.45	4908
870.58	4972
870.71	5098
870.84	5174
870.97	4965
871.1	4911
871.23	5227
871.36	5174
871.489	5045
871.619	5079
871.749	5140
871.879	5121
872.008	5212
872.138	5098
872.267	5033
872.397	4843
872.526	4812
872.656	4778
872.785	4831
872.915	4942
873.044	5041
873.173	4957
873.303	5041
873.432	4972
873.561	4957
873.69	4839
873.819	4911
873.948	4946
874.077	4812
874.206	4801
874.335	4831
874.464	4957
874.593	5071
874.722	5003
874.851	5083
874.979	5098
875.108	5033
875.237	4934
875.365	4892
875.494	4942
875.623	5006
875.751	4873
875.88	4923
876.008	4984
876.136	5071
876.265	5227
876.393	5353
876.521	5220
876.65	5254
876.778	5197
876.906	5102
877.034	5067
877.162	5079
877.29	5018
877.418	5033
877.546	5079
877.674	5102
877.802	5060
877.93	5064
878.058	4976
878.185	4938
878.313	4968
878.441	4953
878.568	4801
878.696	4911
878.824	4984
878.951	4980
879.079	5136
879.206	5337
879.333	5109
879.461	5006
879.588	5014
879.715	5136
879.842	5193
879.97	5025
880.097	4812
880.224	4755
880.351	4847
880.478	4820
880.605	4805
880.732	4793
880.859	5090
880.986	4885
881.112	4908
881.239	4843
881.366	4717
881.493	4645
881.619	4592
881.746	4660
881.872	4702
881.999	4653
882.125	4740
882.252	4843
882.378	4843
882.505	4961
882.631	4828
882.757	4710
882.883	4740
883.01	4740
883.136	4748
883.262	4630
883.388	4607
883.514	4881
883.64	4877
883.766	4778
883.892	4687
884.018	4691
884.143	4908
884.269	5037
884.395	4668
884.52	4645
884.646	4675
884.772	4577
884.897	4580
885.023	4630
885.148	4824
885.274	4858
885.399	4831
885.524	4733
885.65	4740
885.775	4729
885.9	4717
886.025	4896
886.15	4790
886.275	4729
886.4	4698
886.525	4744
886.65	4717
886.775	4683
886.9	4942
887.025	5075
887.149	4816
887.274	4698
887.399	4580
887.523	4611
887.648	4607
887.773	4622
887.897	4778
888.021	4774
888.146	4668
888.27	4862
888.395	4949
888.519	4809
888.643	4801
888.767	4809
888.891	4691
889.015	4626
889.139	4714
889.263	4622
889.387	4774
889.511	4904
889.635	4831
889.759	4664
889.883	4634
890.006	4752
890.13	4870
890.254	4630
890.377	4687
890.501	4592
890.624	4523
890.748	4577
890.871	4493
890.995	4424
891.118	4405
891.241	4538
891.364	4573
891.488	4622
891.611	4527
891.734	4523
891.857	4687
891.98	4584
892.103	4679
892.226	4641
892.349	4550
892.471	4455
892.594	4535
892.717	4615
892.839	4558
892.962	4603
893.085	4687
893.207	4615
893.33	4489
893.452	4550
893.575	4637
893.697	4584
893.819	4854
893.941	4854
894.064	4774
894.186	4630
894.308	4577
894.43	4733
894.552	4850
894.674	4801
894.796	4573
894.918	4599
895.04	4592
895.161	4679
895.283	4653
895.405	4656
895.526	4683
895.648	4691
895.769	4717
895.891	4763
896.012	4793
896.134	4729
896.255	4641
896.376	4622
896.498	4694
896.619	4717
896.74	4630
896.861	4664
896.982	4934
897.103	5079
897.224	4877
897.345	4733
897.466	4641
897.587	4752
897.708	4889
897.828	4793
897.949	4691
898.07	4599
898.19	4630
898.311	4870
898.431	4653
898.552	4771
898.672	4835
898.792	4778
898.913	4786
899.033	4656
899.153	4504
899.273	4500
899.393	4493
899.513	4527
899.633	4523
899.753	4489
899.873	4535
899.993	4622
900.113	4565
900.232	4596
900.352	4546
900.472	4523
900.591	4436
900.711	4500
900.83	4440
900.95	4626
901.069	4706
901.189	4588
901.308	4421
901.427	4318
901.546	4409
901.665	4481
901.784	4512
901.904	4432
902.023	4352
902.141	4169
902.26	4173
902.379	4352
902.498	4261
902.617	4265
902.735	4356
902.854	4421
902.973	4363
903.091	4230
903.21	4246
903.328	4303
903.446	4253
903.565	4280
903.683	4337
903.801	4306
903.919	4394
904.038	4405
904.156	4341
904.274	4421
904.392	4398
904.51	4466
904.627	4474
904.745	4569
904.863	4637
904.981	4363
905.098	4272
905.216	4413
905.334	4443
905.451	4405
905.569	4481
905.686	4607
905.803	4550
905.921	4383
906.038	4538
906.155	4485
906.272	4424
906.389	4489
906.506	4371
906.623	4379
906.74	4432
906.857	4344
906.974	4379
907.091	4569
907.208	4702
907.324	4538
907.441	4474
907.557	4341
907.674	4398
907.79	4265
907.907	4360
908.023	4527
908.139	4459
908.256	4451
908.372	4508
908.488	4455
908.604	4405
908.72	4310
908.836	4402
908.952	4398
909.068	4462
909.184	4592
909.3	4470
909.415	4573
909.531	4561
909.647	4371
909.762	4379
909.878	4405
909.993	4436
910.108	4436
910.224	4394
910.339	4443
910.454	4386
910.57	4322
910.685	4367
910.8	4664
910.915	4668
911.03	4470
911.145	4314
911.259	4344
911.374	4367
911.489	4325
911.604	4249
911.718	4139
911.833	4188
911.947	4097
912.062	3991
912.176	4204
912.291	4284
912.405	4284
912.519	4493
912.633	4481
912.748	4394
912.862	4333
912.976	4192
913.09	4078
913.204	4173
913.318	4310
913.431	4402
913.545	4371
913.659	4451
913.772	4383
913.886	4306
914	4257
914.113	4394
914.226	4481
914.34	4398
914.453	4246
914.566	4432
914.68	4306
914.793	4371
914.906	4150
915.019	4143
915.132	4074
915.245	4177
915.358	4211
915.47	4280
915.583	4299
915.696	4272
915.809	4402
915.921	4371
916.034	4253
916.146	4265
916.259	4268
916.371	4409
916.483	4405
916.595	4261
916.708	4333
916.82	4360
916.932	4352
917.044	4352
917.156	4318
917.268	4219
917.38	4306
917.491	4287
917.603	4337
917.715	4413
917.826	4424
917.938	4390
918.049	4265
918.161	4413
918.272	4580
918.384	4584
918.495	4470
918.606	4272
918.717	4219
918.828	4360
918.939	4367
919.05	4249
919.161	4341
919.272	4154
919.383	4253
919.494	4417
919.604	4672
919.715	4413
919.826	4360
919.936	4409
920.047	4538
920.157	4508
920.267	4748
920.378	4611
920.488	4550
920.598	4729
920.708	4866
920.818	4752
920.928	4733
921.038	4991
921.148	4904
921.258	4611
921.368	4599
921.477	4550
921.587	4504
921.697	4363
921.806	4558
921.916	4436
922.025	4272
922.134	4318
922.244	4261
922.353	4341
922.462	4181
922.571	4116
922.68	3998
922.789	4013
922.898	4044
923.007	3987
923.116	4116
923.224	4082
923.333	4055
923.442	3987
923.55	4002
923.659	4032
923.767	4120
923.876	4025
923.984	4128
924.092	4036
924.201	4105
924.309	4078
924.417	4097
924.525	4071
924.633	4128
924.741	4885
924.849	3926
924.956	4143
925.064	3975
925.172	3915
925.279	3953
925.387	3987
925.494	4086
925.602	4196
925.709	4196
925.816	4090
925.924	4116
926.031	4280
926.138	4227
926.245	4211
926.352	4097
926.459	4287
926.566	4253
926.673	4200
926.779	4086
926.886	4097
926.993	3964
927.099	3945
927.206	3941
927.312	3960
927.419	4029
927.525	3998
927.631	4120
927.737	3983
927.843	3945
927.95	3869
928.056	3892
928.162	3926
928.267	4040
928.373	4603
928.479	4101
928.585	3888
928.69	4101
928.796	4032
928.901	3998
929.007	3842
929.112	4025
929.218	3941
929.323	3975
929.428	3953
929.533	4112
929.638	3918
929.743	3960
929.848	4013
929.953	4040
930.058	3934
930.163	3781
930.267	3812
930.372	3972
930.477	3778
930.581	4105
930.685	3972
930.79	3846
930.894	3888
930.998	3888
931.103	4071
931.207	3682
931.311	3690
931.415	3720
931.519	3511
931.623	3545
