Data from test_V78500241_1226.txt Node
Date: Fri Mar 25 16:57:31 CST 2022
User: usil
Spectrometer: V785-0024
Trigger mode: 0
Integration Time (sec): 4.000000E-1
Scans to average: 1
Nonlinearity correction enabled: false
Boxcar width: 0
Storing dark spectrum: false
XAxis mode: Wavelengths
Number of Pixels in Spectrum: 1024
>>>>>Begin Spectral Data<<<<<
801.071	8008
801.214	7921
801.356	7894
801.499	7803
801.641	7799
801.783	7738
801.926	7989
802.068	7925
802.211	7917
802.353	7940
802.496	7822
802.638	7826
802.78	7967
802.923	7890
803.065	7841
803.208	7856
803.35	7951
803.492	8084
803.635	8153
803.777	7989
803.919	8111
804.061	8396
804.204	8157
804.346	8001
804.488	7989
804.63	8096
804.773	8065
804.915	8096
805.057	8298
805.199	8221
805.341	8180
805.483	8275
805.626	8202
805.768	8161
805.91	8221
806.052	8244
806.194	8077
806.336	8347
806.478	8054
806.62	8157
806.762	8069
806.904	8317
807.046	8473
807.188	8332
807.33	8275
807.472	8313
807.614	8142
807.756	8130
807.898	7951
808.04	7955
808.182	7849
808.324	7944
808.465	7909
808.607	8084
808.749	8115
808.891	8164
809.033	8381
809.174	8130
809.316	8046
809.458	8016
809.6	8008
809.741	8054
809.883	8008
810.025	8134
810.166	8077
810.308	8043
810.45	8069
810.591	7814
810.733	7662
810.875	7658
811.016	7518
811.158	7476
811.299	7639
811.441	7693
811.582	7655
811.724	7655
811.865	7510
812.007	7525
812.148	7594
812.29	7559
812.431	7746
812.573	7879
812.714	7989
812.855	8100
812.997	8191
813.138	8339
813.279	8157
813.421	8107
813.562	7982
813.703	7871
813.845	7704
813.986	7422
814.127	7278
814.268	7263
814.41	7198
814.551	7156
814.692	7270
814.833	7084
814.974	7027
815.115	7038
815.256	6985
815.397	6901
815.539	6920
815.68	6806
815.821	6760
815.962	6913
816.103	6795
816.244	6669
816.385	6593
816.526	6563
816.666	6479
816.807	6331
816.948	6372
817.089	6471
817.23	6456
817.371	6384
817.512	6399
817.653	6380
817.793	6426
817.934	6388
818.075	6471
818.216	6452
818.356	6433
818.497	6205
818.638	6102
818.778	6155
818.919	6171
819.06	6121
819.2	6331
819.341	6273
819.481	6327
819.622	6544
819.762	6722
819.903	6738
820.043	6547
820.184	6525
820.324	6559
820.465	6673
820.605	6635
820.746	6646
820.886	6448
821.026	6665
821.167	6707
821.307	6791
821.447	6692
821.588	6646
821.728	6563
821.868	6490
822.008	6216
822.149	6350
822.289	6327
822.429	6133
822.569	6030
822.709	6140
822.849	5958
822.99	5878
823.13	5897
823.27	5912
823.41	5775
823.55	5779
823.69	5718
823.83	5783
823.97	5703
824.11	5543
824.25	5543
824.389	5566
824.529	5573
824.669	5524
824.809	5608
824.949	5657
825.089	5570
825.228	5562
825.368	5417
825.508	5277
825.648	5383
825.787	5383
825.927	5330
826.067	5284
826.206	5261
826.346	5303
826.485	5353
826.625	5425
826.765	5535
826.904	5448
827.044	5269
827.183	5151
827.323	5117
827.462	5269
827.601	5185
827.741	5124
827.88	5239
828.02	5128
828.159	5235
828.298	5303
828.437	5330
828.577	5231
828.716	5440
828.855	5303
828.994	5140
829.134	5105
829.273	5162
829.412	5140
829.551	5151
829.69	5178
829.829	5227
829.968	5303
830.107	5174
830.246	5303
830.385	5220
830.524	5140
830.663	5090
830.802	4965
830.941	4873
831.08	4866
831.219	5006
831.357	4987
831.496	5147
831.635	4885
831.774	4835
831.913	4835
832.051	4710
832.19	4778
832.329	4812
832.467	4668
832.606	4622
832.744	4675
832.883	4725
833.022	4717
833.16	4744
833.299	4759
833.437	4778
833.576	4816
833.714	4873
833.852	4793
833.991	4847
834.129	4911
834.267	4892
834.406	4892
834.544	4984
834.682	4957
834.821	4934
834.959	5155
835.097	4957
835.235	5124
835.373	5048
835.511	5159
835.65	5014
835.788	5010
835.926	4885
836.064	4824
836.202	4904
836.34	5128
836.478	5208
836.615	5117
836.753	5170
836.891	5273
837.029	5227
837.167	5212
837.305	5117
837.443	5109
837.58	4976
837.718	5223
837.856	5170
837.993	5136
838.131	5235
838.269	5170
838.406	5178
838.544	5140
838.681	4991
838.819	4972
838.956	4847
839.094	4881
839.231	4949
839.369	5060
839.506	5421
839.643	5220
839.781	5048
839.918	5018
840.055	5075
840.193	5064
840.33	5124
840.467	5128
840.604	5178
840.742	5391
840.879	5071
841.016	5067
841.153	5132
841.29	5376
841.427	5337
841.564	5337
841.701	5341
841.838	5280
841.975	5280
842.112	5254
842.249	5079
842.385	5083
842.522	5311
842.659	5136
842.796	5098
842.933	5204
843.069	5124
843.206	5136
843.343	5280
843.479	5239
843.616	5265
843.752	4976
843.889	4976
844.025	5197
844.162	4965
844.298	5170
844.435	5064
844.571	5018
844.708	5159
844.844	5235
844.98	5360
845.117	5269
845.253	5109
845.389	5079
845.525	5132
845.661	5143
845.798	5025
845.934	5121
846.07	5052
846.206	5201
846.342	5265
846.478	5147
846.614	4999
846.75	4961
846.886	4911
847.022	5071
847.158	5033
847.294	5045
847.429	5109
847.565	5014
847.701	5315
847.837	4850
847.972	4767
848.108	4984
848.244	4946
848.379	4752
848.515	4748
848.65	4763
848.786	4702
848.921	4778
849.057	4843
849.192	4828
849.328	4820
849.463	4778
849.598	4797
849.734	4740
849.869	4679
850.004	4584
850.14	4645
850.275	4599
850.41	4519
850.545	4550
850.68	4561
850.815	4580
850.95	4634
851.085	4774
851.22	4759
851.355	4698
851.49	4611
851.625	4675
851.76	4630
851.895	4497
852.03	4500
852.165	4634
852.299	4691
852.434	4763
852.569	4725
852.703	4740
852.838	4801
852.973	4904
853.107	4930
853.242	4744
853.376	4630
853.511	4546
853.645	4649
853.78	4767
853.914	4679
854.048	4634
854.183	4615
854.317	4634
854.451	4850
854.585	4641
854.72	4592
854.854	4721
854.988	4580
855.122	4672
855.256	4508
855.39	4634
855.524	4782
855.658	4771
855.792	4706
855.926	4714
856.06	4706
856.194	4774
856.327	4672
856.461	4611
856.595	4607
856.729	4618
856.862	4721
856.996	4698
857.13	4672
857.263	4729
857.397	4809
857.53	4645
857.664	4706
857.797	4748
857.931	4736
858.064	4694
858.197	4694
858.331	4653
858.464	4615
858.597	4459
858.731	4645
858.864	4668
858.997	4596
859.13	4645
859.263	4630
859.396	4672
859.529	4558
859.662	4584
859.795	4542
859.928	4603
860.061	4774
860.194	4774
860.327	4596
860.46	4569
860.592	4694
860.725	4733
860.858	4702
860.99	4573
861.123	4531
861.256	4538
861.388	4561
861.521	5387
861.653	4489
861.786	4451
861.918	4478
862.05	4481
862.183	4504
862.315	4531
862.447	4622
862.58	4531
862.712	4344
862.844	4284
862.976	4485
863.108	4428
863.24	4877
863.372	4314
863.504	4424
863.636	4394
863.768	4481
863.9	4379
864.032	4284
864.164	4390
864.296	4485
864.428	4508
864.559	4542
864.691	4519
864.823	4504
864.954	4462
865.086	4451
865.217	4394
865.349	4375
865.48	4459
865.612	4447
865.743	4618
865.875	4432
866.006	4443
866.137	4447
866.269	4466
866.4	4447
866.531	4356
866.662	4386
866.793	4379
866.924	4394
867.055	4478
867.186	4409
867.317	4356
867.448	4306
867.579	4356
867.71	4375
867.841	4386
867.972	4451
868.103	4455
868.233	4447
868.364	4390
868.495	4474
868.625	4618
868.756	4683
868.886	4573
869.017	4626
869.147	4729
869.278	4714
869.408	4626
869.539	4603
869.669	4694
869.799	4611
869.929	4725
870.06	4763
870.19	4942
870.32	4934
870.45	4904
870.58	5014
870.71	5033
870.84	5060
870.97	4896
871.1	4911
871.23	5102
871.36	5083
871.489	4984
871.619	5060
871.749	5048
871.879	5113
872.008	5132
872.138	5029
872.267	4972
872.397	4847
872.526	4702
872.656	4744
872.785	4790
872.915	4961
873.044	5033
873.173	4900
873.303	4889
873.432	4938
873.561	4987
873.69	4877
873.819	4858
873.948	4889
874.077	4790
874.206	4752
874.335	4774
874.464	4946
874.593	5041
874.722	4927
874.851	5117
874.979	5071
875.108	5056
875.237	4911
875.365	4908
875.494	4862
875.623	4980
875.751	4824
875.88	4904
876.008	4995
876.136	5022
876.265	5197
876.393	5360
876.521	5216
876.65	5254
876.778	5174
876.906	5109
877.034	5022
877.162	5071
877.29	5006
877.418	5075
877.546	5086
877.674	5090
877.802	5045
877.93	5064
878.058	4968
878.185	4850
878.313	4957
878.441	4965
878.568	4862
878.696	4919
878.824	4972
878.951	5006
879.079	5124
879.206	5345
879.333	5090
879.461	4984
879.588	5079
879.715	5174
879.842	5258
879.97	5041
880.097	4835
880.224	4835
880.351	4873
880.478	4862
880.605	4839
880.732	4854
880.859	5124
880.986	4911
881.112	4930
881.239	4778
881.366	4706
881.493	4603
881.619	4668
881.746	4717
881.872	4637
881.999	4675
882.125	4679
882.252	4797
882.378	4812
882.505	5010
882.631	4870
882.757	4679
882.883	4721
883.01	4797
883.136	4694
883.262	4637
883.388	4649
883.514	4854
883.64	4904
883.766	4847
883.892	4733
884.018	4763
884.143	4908
884.269	5041
884.395	4675
884.52	4679
884.646	4691
884.772	4599
884.897	4611
885.023	4653
885.148	4816
885.274	4870
885.399	4805
885.524	4790
885.65	4706
885.775	4801
885.9	4740
886.025	4896
886.15	4831
886.275	4782
886.4	4649
886.525	4744
886.65	4740
886.775	4744
886.9	4942
887.025	5033
887.149	4873
887.274	4660
887.399	4626
887.523	4622
887.648	4607
887.773	4675
887.897	4805
888.021	4767
888.146	4702
888.27	4850
888.395	4965
888.519	4786
888.643	4805
888.767	4809
888.891	4649
889.015	4649
889.139	4717
889.263	4618
889.387	4755
889.511	4904
889.635	4809
889.759	4660
889.883	4641
890.006	4790
890.13	4877
890.254	4653
890.377	4675
890.501	4542
890.624	4523
890.748	4615
890.871	4550
890.995	4462
891.118	4451
891.241	4508
891.364	4569
891.488	4656
891.611	4561
891.734	4573
891.857	4611
891.98	4596
892.103	4710
892.226	4611
892.349	4550
892.471	4440
892.594	4596
892.717	4622
892.839	4573
892.962	4607
893.085	4691
893.207	4641
893.33	4504
893.452	4531
893.575	4668
893.697	4596
893.819	4858
893.941	4866
894.064	4812
894.186	4565
894.308	4531
894.43	4740
894.552	4850
894.674	4759
894.796	4607
894.918	4599
895.04	4611
895.161	4748
895.283	4675
895.405	4573
895.526	4653
895.648	4714
895.769	4714
895.891	4797
896.012	4786
896.134	4748
896.255	4687
896.376	4653
896.498	4683
896.619	4679
896.74	4656
896.861	4687
896.982	4980
897.103	5094
897.224	4850
897.345	4733
897.466	4675
897.587	4763
897.708	4843
897.828	4835
897.949	4645
898.07	4611
898.19	4679
898.311	4824
898.431	4672
898.552	4782
898.672	4896
898.792	4831
898.913	4771
899.033	4649
899.153	4497
899.273	4409
899.393	4538
899.513	4542
899.633	4527
899.753	4561
899.873	4519
899.993	4611
900.113	4538
900.232	4664
900.352	4580
900.472	4531
900.591	4470
900.711	4519
900.83	4466
900.95	4615
901.069	4755
901.189	4577
901.308	4424
901.427	4348
901.546	4417
901.665	4504
901.784	4512
901.904	4398
902.023	4344
902.141	4177
902.26	4177
902.379	4352
902.498	4234
902.617	4280
902.735	4440
902.854	4405
902.973	4432
903.091	4249
903.21	4265
903.328	4306
903.446	4291
903.565	4314
903.683	4386
903.801	4333
903.919	4402
904.038	4470
904.156	4325
904.274	4440
904.392	4394
904.51	4455
904.627	4497
904.745	4577
904.863	4588
904.981	4455
905.098	4318
905.216	4409
905.334	4443
905.451	4504
905.569	4459
905.686	4546
905.803	4592
905.921	4413
906.038	4573
906.155	4519
906.272	4443
906.389	4459
906.506	4352
906.623	4424
906.74	4386
906.857	4367
906.974	4394
907.091	4592
907.208	4656
907.324	4626
907.441	4561
907.557	4333
907.674	4424
907.79	4299
907.907	4424
908.023	4500
908.139	4542
908.256	4440
908.372	4466
908.488	4462
908.604	4417
908.72	4344
908.836	4436
908.952	4386
909.068	4405
909.184	4592
909.3	4462
909.415	4637
909.531	4546
909.647	4363
909.762	4383
909.878	4402
909.993	4470
910.108	4443
910.224	4447
910.339	4481
910.454	4432
910.57	4363
910.685	4344
910.8	4664
910.915	4615
911.03	4485
911.145	4322
911.259	4329
911.374	4367
911.489	4325
911.604	4261
911.718	4185
911.833	4215
911.947	4112
912.062	4059
912.176	4234
912.291	4265
912.405	4223
912.519	4504
912.633	4538
912.748	4409
912.862	4398
912.976	4223
913.09	4109
913.204	4215
913.318	4276
913.431	4352
913.545	4402
913.659	4497
913.772	4421
913.886	4238
914	4291
914.113	4424
914.226	4428
914.34	4413
914.453	4299
914.566	4386
914.68	4265
914.793	4337
914.906	4242
915.019	4128
915.132	4093
915.245	4196
915.358	4223
915.47	4306
915.583	4242
915.696	4341
915.809	4383
915.921	4470
916.034	4265
916.146	4306
916.259	4227
916.371	4386
916.483	4337
916.595	4265
916.708	4352
916.82	4318
916.932	4352
917.044	4398
917.156	4341
917.268	4284
917.38	4261
917.491	4299
917.603	4344
917.715	4462
917.826	4413
917.938	4386
918.049	4257
918.161	4440
918.272	4542
918.384	4550
918.495	4489
918.606	4363
918.717	4276
918.828	4375
918.939	4394
919.05	4261
919.161	4363
919.272	4200
919.383	4249
919.494	4466
919.604	4687
919.715	4424
919.826	4379
919.936	4402
920.047	4508
920.157	4542
920.267	4687
920.378	4550
920.488	4516
920.598	4763
920.708	4915
920.818	4801
920.928	4771
921.038	4953
921.148	4923
921.258	4618
921.368	4554
921.477	4443
921.587	4436
921.697	4390
921.806	4588
921.916	4481
922.025	4238
922.134	4287
922.244	4303
922.353	4322
922.462	4196
922.571	4128
922.68	3998
922.789	3968
922.898	4032
923.007	4017
923.116	4128
923.224	4044
923.333	4071
923.442	4006
923.55	3964
923.659	4021
923.767	4067
923.876	4002
923.984	4147
924.092	4025
924.201	4078
924.309	4093
924.417	4166
924.525	4078
924.633	4112
924.741	5056
924.849	3930
924.956	4154
925.064	3956
925.172	3896
925.279	3972
925.387	4063
925.494	4036
925.602	4265
925.709	4219
925.816	4017
925.924	4055
926.031	4219
926.138	4188
926.245	4185
926.352	4086
926.459	4276
926.566	4314
926.673	4169
926.779	4074
926.886	4101
926.993	3983
927.099	3968
927.206	3953
927.312	3991
927.419	4112
927.525	4048
927.631	4090
927.737	4002
927.843	3972
927.95	3854
928.056	3953
928.162	4013
928.267	4074
928.373	4714
928.479	4124
928.585	3911
928.69	4067
928.796	4074
928.901	3991
929.007	3835
929.112	3998
929.218	3983
929.323	3937
929.428	3956
929.533	4090
929.638	3937
929.743	4006
929.848	4059
929.953	4051
930.058	3941
930.163	3781
930.267	3838
930.372	4025
930.477	3846
930.581	4124
930.685	3991
930.79	3835
930.894	3869
930.998	3865
931.103	4067
931.207	3755
931.311	3743
931.415	3629
931.519	3549
931.623	3584
