Data from test_V78500241_1444.txt Node
Date: Fri Mar 25 16:59:02 CST 2022
User: usil
Spectrometer: V785-0024
Trigger mode: 0
Integration Time (sec): 4.000000E-1
Scans to average: 1
Nonlinearity correction enabled: false
Boxcar width: 0
Storing dark spectrum: false
XAxis mode: Wavelengths
Number of Pixels in Spectrum: 1024
>>>>>Begin Spectral Data<<<<<
801.071	7947
801.214	8008
801.356	7917
801.499	7894
801.641	7757
801.783	7818
801.926	7947
802.068	7883
802.211	8035
802.353	7944
802.496	7833
802.638	7868
802.78	7951
802.923	7925
803.065	7921
803.208	7864
803.35	7993
803.492	8054
803.635	8145
803.777	7986
803.919	8103
804.061	8393
804.204	8172
804.346	7989
804.488	8008
804.63	8069
804.773	8039
804.915	8084
805.057	8358
805.199	8183
805.341	8237
805.483	8275
805.626	8259
805.768	8123
805.91	8206
806.052	8214
806.194	8126
806.336	8263
806.478	8103
806.62	8069
806.762	8161
806.904	8328
807.046	8480
807.188	8294
807.33	8339
807.472	8351
807.614	8126
807.756	8164
807.898	7982
808.04	7921
808.182	7951
808.324	7936
808.465	7974
808.607	8100
808.749	8138
808.891	8218
809.033	8259
809.174	8199
809.316	8096
809.458	8096
809.6	8062
809.741	8031
809.883	8054
810.025	8134
810.166	8096
810.308	8008
810.45	7970
810.591	7871
810.733	7719
810.875	7632
811.016	7502
811.158	7468
811.299	7609
811.441	7788
811.582	7666
811.724	7506
811.865	7575
812.007	7597
812.148	7559
812.29	7655
812.431	7761
812.573	7887
812.714	7967
812.855	8119
812.997	8168
813.138	8351
813.279	8233
813.421	8073
813.562	7917
813.703	7883
813.845	7681
813.986	7434
814.127	7278
814.268	7198
814.41	7240
814.551	7095
814.692	7209
814.833	7091
814.974	7126
815.115	7072
815.256	6924
815.397	6989
815.539	6939
815.68	6886
815.821	6814
815.962	6863
816.103	6783
816.244	6684
816.385	6566
816.526	6635
816.666	6441
816.807	6251
816.948	6456
817.089	6433
817.23	6441
817.371	6422
817.512	6365
817.653	6422
817.793	6391
817.934	6445
818.075	6407
818.216	6418
818.356	6353
818.497	6190
818.638	6102
818.778	6152
818.919	6163
819.06	6159
819.2	6388
819.341	6292
819.481	6323
819.622	6604
819.762	6791
819.903	6696
820.043	6578
820.184	6612
820.324	6627
820.465	6669
820.605	6677
820.746	6597
820.886	6464
821.026	6635
821.167	6711
821.307	6806
821.447	6711
821.588	6654
821.728	6513
821.868	6464
822.008	6323
822.149	6350
822.289	6342
822.429	6220
822.569	6057
822.709	6136
822.849	5931
822.99	5920
823.13	5893
823.27	5901
823.41	5729
823.55	5783
823.69	5775
823.83	5764
823.97	5691
824.11	5589
824.25	5448
824.389	5547
824.529	5554
824.669	5493
824.809	5528
824.949	5699
825.089	5566
825.228	5501
825.368	5379
825.508	5341
825.648	5341
825.787	5368
825.927	5337
826.067	5303
826.206	5307
826.346	5387
826.485	5429
826.625	5410
826.765	5558
826.904	5455
827.044	5254
827.183	5201
827.323	5083
827.462	5170
827.601	5189
827.741	5227
827.88	5231
828.02	5128
828.159	5235
828.298	5303
828.437	5360
828.577	5288
828.716	5463
828.855	5349
828.994	5128
829.134	5140
829.273	5204
829.412	5155
829.551	5159
829.69	5227
829.829	5235
829.968	5379
830.107	5273
830.246	5284
830.385	5242
830.524	5109
830.663	5037
830.802	4946
830.941	4889
831.08	4831
831.219	4968
831.357	4999
831.496	5124
831.635	4938
831.774	4843
831.913	4877
832.051	4733
832.19	4782
832.329	4839
832.467	4691
832.606	4656
832.744	4698
832.883	4736
833.022	4725
833.16	4790
833.299	4812
833.437	4820
833.576	4847
833.714	4881
833.852	4831
833.991	4889
834.129	5018
834.267	4957
834.406	4892
834.544	5003
834.682	4946
834.821	4930
834.959	5124
835.097	4984
835.235	5109
835.373	5018
835.511	5105
835.65	4999
835.788	5033
835.926	4866
836.064	4908
836.202	4915
836.34	5147
836.478	5212
836.615	5105
836.753	5212
836.891	5284
837.029	5299
837.167	5193
837.305	5166
837.443	5147
837.58	5086
837.718	5235
837.856	5140
837.993	5136
838.131	5193
838.269	5223
838.406	5185
838.544	5212
838.681	5010
838.819	5033
838.956	4949
839.094	4915
839.231	4961
839.369	5067
839.506	5406
839.643	5315
839.781	5003
839.918	5010
840.055	5079
840.193	5102
840.33	5067
840.467	5109
840.604	5197
840.742	5433
840.879	5121
841.016	5121
841.153	5185
841.29	5406
841.427	5337
841.564	5326
841.701	5357
841.838	5311
841.975	5239
842.112	5273
842.249	5147
842.385	5136
842.522	5307
842.659	5220
842.796	5117
842.933	5128
843.069	5109
843.206	5128
843.343	5311
843.479	5216
843.616	5265
843.752	5006
843.889	5006
844.025	5174
844.162	5052
844.298	5155
844.435	5109
844.571	5048
844.708	5193
844.844	5277
844.98	5357
845.117	5273
845.253	5159
845.389	5109
845.525	5140
845.661	5124
845.798	5018
845.934	5113
846.07	5079
846.206	5189
846.342	5307
846.478	5151
846.614	5014
846.75	5003
846.886	4949
847.022	5094
847.158	5048
847.294	5022
847.429	5090
847.565	5064
847.701	5330
847.837	4809
847.972	4767
848.108	4923
848.244	4980
848.379	4812
848.515	4755
848.65	4736
848.786	4717
848.921	4797
849.057	4889
849.192	4942
849.328	4801
849.463	4873
849.598	4782
849.734	4755
849.869	4691
850.004	4596
850.14	4687
850.275	4577
850.41	4569
850.545	4596
850.68	4603
850.815	4634
850.95	4588
851.085	4801
851.22	4744
851.355	4660
851.49	4592
851.625	4607
851.76	4622
851.895	4542
852.03	4546
852.165	4599
852.299	4736
852.434	4812
852.569	4748
852.703	4763
852.838	4816
852.973	4919
853.107	4896
853.242	4752
853.376	4698
853.511	4508
853.645	4607
853.78	4797
853.914	4660
854.048	4664
854.183	4653
854.317	4725
854.451	4885
854.585	4672
854.72	4607
854.854	4828
854.988	4573
855.122	4622
855.256	4523
855.39	4569
855.524	4786
855.658	4714
855.792	4710
855.926	4721
856.06	4755
856.194	4763
856.327	4691
856.461	4599
856.595	4580
856.729	4584
856.862	4729
856.996	4675
857.13	4698
857.263	4710
857.397	4782
857.53	4675
857.664	4706
857.797	4790
857.931	4812
858.064	4668
858.197	4698
858.331	4660
858.464	4615
858.597	4508
858.731	4607
858.864	4679
858.997	4554
859.13	4668
859.263	4691
859.396	4702
859.529	4558
859.662	4554
859.795	4558
859.928	4607
860.061	4755
860.194	4763
860.327	4618
860.46	4523
860.592	4691
860.725	4714
860.858	4691
860.99	4554
861.123	4485
861.256	4531
861.388	4596
861.521	5387
861.653	4451
861.786	4421
861.918	4432
862.05	4542
862.183	4569
862.315	4538
862.447	4672
862.58	4531
862.712	4390
862.844	4344
862.976	4451
863.108	4466
863.24	4866
863.372	4284
863.504	4432
863.636	4417
863.768	4440
863.9	4424
864.032	4348
864.164	4352
864.296	4470
864.428	4554
864.559	4573
864.691	4516
864.823	4504
864.954	4481
865.086	4428
865.217	4455
865.349	4413
865.48	4462
865.612	4493
865.743	4611
865.875	4447
866.006	4432
866.137	4470
866.269	4470
866.4	4443
866.531	4405
866.662	4421
866.793	4371
866.924	4413
867.055	4497
867.186	4417
867.317	4432
867.448	4394
867.579	4322
867.71	4390
867.841	4390
867.972	4440
868.103	4443
868.233	4462
868.364	4405
868.495	4478
868.625	4679
868.756	4774
868.886	4588
869.017	4653
869.147	4733
869.278	4793
869.408	4622
869.539	4577
869.669	4736
869.799	4668
869.929	4733
870.06	4725
870.19	4949
870.32	4904
870.45	4911
870.58	4987
870.71	5045
870.84	5102
870.97	4911
871.1	4904
871.23	5151
871.36	5109
871.489	5006
871.619	5052
871.749	5075
871.879	5162
872.008	5113
872.138	5014
872.267	4984
872.397	4828
872.526	4801
872.656	4668
872.785	4809
872.915	4896
873.044	4968
873.173	4923
873.303	4953
873.432	4946
873.561	4923
873.69	4892
873.819	4870
873.948	4904
874.077	4862
874.206	4771
874.335	4828
874.464	4870
874.593	5064
874.722	4946
874.851	5113
874.979	5083
875.108	5003
875.237	4854
875.365	4877
875.494	4938
875.623	4961
875.751	4793
875.88	4885
876.008	4987
876.136	5029
876.265	5201
876.393	5334
876.521	5277
876.65	5201
876.778	5159
876.906	5067
877.034	4987
877.162	5025
877.29	4995
877.418	5064
877.546	4984
877.674	5048
877.802	5010
877.93	5010
878.058	4968
878.185	4850
878.313	4953
878.441	4938
878.568	4782
878.696	4877
878.824	4919
878.951	5006
879.079	5121
879.206	5269
879.333	5132
879.461	5003
879.588	5018
879.715	5098
879.842	5223
879.97	4968
880.097	4824
880.224	4736
880.351	4812
880.478	4793
880.605	4782
880.732	4774
880.859	5064
880.986	4854
881.112	4896
881.239	4782
881.366	4664
881.493	4554
881.619	4554
881.746	4645
881.872	4660
881.999	4618
882.125	4679
882.252	4767
882.378	4797
882.505	4934
882.631	4828
882.757	4615
882.883	4752
883.01	4710
883.136	4668
883.262	4596
883.388	4618
883.514	4854
883.64	4881
883.766	4786
883.892	4641
884.018	4725
884.143	4824
884.269	4999
884.395	4672
884.52	4611
884.646	4653
884.772	4611
884.897	4569
885.023	4645
885.148	4778
885.274	4885
885.399	4797
885.524	4740
885.65	4706
885.775	4748
885.9	4675
886.025	4828
886.15	4801
886.275	4668
886.4	4656
886.525	4748
886.65	4683
886.775	4637
886.9	4938
887.025	4995
887.149	4778
887.274	4637
887.399	4626
887.523	4573
887.648	4558
887.773	4561
887.897	4793
888.021	4782
888.146	4683
888.27	4763
888.395	4862
888.519	4820
888.643	4801
888.767	4801
888.891	4641
889.015	4569
889.139	4645
889.263	4626
889.387	4801
889.511	4862
889.635	4793
889.759	4626
889.883	4634
890.006	4694
890.13	4835
890.254	4592
890.377	4672
890.501	4527
890.624	4519
890.748	4592
890.871	4493
890.995	4440
891.118	4348
891.241	4516
891.364	4565
891.488	4672
891.611	4500
891.734	4584
891.857	4603
891.98	4531
892.103	4618
892.226	4626
892.349	4542
892.471	4394
892.594	4512
892.717	4611
892.839	4626
892.962	4607
893.085	4611
893.207	4603
893.33	4398
893.452	4466
893.575	4656
893.697	4554
893.819	4790
893.941	4866
894.064	4759
894.186	4504
894.308	4569
894.43	4736
894.552	4866
894.674	4786
894.796	4531
894.918	4580
895.04	4538
895.161	4656
895.283	4687
895.405	4558
895.526	4660
895.648	4660
895.769	4691
895.891	4729
896.012	4691
896.134	4748
896.255	4637
896.376	4675
896.498	4653
896.619	4660
896.74	4603
896.861	4649
896.982	4923
897.103	5041
897.224	4812
897.345	4755
897.466	4626
897.587	4736
897.708	4850
897.828	4774
897.949	4679
898.07	4535
898.19	4622
898.311	4858
898.431	4694
898.552	4763
898.672	4786
898.792	4824
898.913	4744
899.033	4588
899.153	4432
899.273	4413
899.393	4519
899.513	4512
899.633	4500
899.753	4504
899.873	4470
899.993	4596
900.113	4474
900.232	4592
900.352	4508
900.472	4489
900.591	4337
900.711	4500
900.83	4428
900.95	4607
901.069	4687
901.189	4535
901.308	4341
901.427	4287
901.546	4356
901.665	4451
901.784	4519
901.904	4413
902.023	4341
902.141	4188
902.26	4181
902.379	4325
902.498	4352
902.617	4177
902.735	4352
902.854	4424
902.973	4344
903.091	4215
903.21	4177
903.328	4272
903.446	4287
903.565	4234
903.683	4341
903.801	4246
903.919	4379
904.038	4421
904.156	4287
904.274	4451
904.392	4440
904.51	4432
904.627	4519
904.745	4607
904.863	4618
904.981	4398
905.098	4291
905.216	4360
905.334	4413
905.451	4440
905.569	4459
905.686	4546
905.803	4554
905.921	4413
906.038	4561
906.155	4481
906.272	4417
906.389	4485
906.506	4375
906.623	4383
906.74	4360
906.857	4344
906.974	4337
907.091	4523
907.208	4691
907.324	4607
907.441	4538
907.557	4386
907.674	4337
907.79	4310
907.907	4386
908.023	4474
908.139	4481
908.256	4428
908.372	4417
908.488	4516
908.604	4363
908.72	4322
908.836	4367
908.952	4367
909.068	4428
909.184	4569
909.3	4485
909.415	4599
909.531	4546
909.647	4356
909.762	4375
909.878	4352
909.993	4424
910.108	4405
910.224	4409
910.339	4470
910.454	4367
910.57	4428
910.685	4276
910.8	4653
910.915	4588
911.03	4493
911.145	4284
911.259	4306
911.374	4379
911.489	4299
911.604	4227
911.718	4173
911.833	4192
911.947	4112
912.062	4055
912.176	4154
912.291	4200
912.405	4253
912.519	4470
912.633	4512
912.748	4383
912.862	4322
912.976	4238
913.09	4101
913.204	4150
913.318	4265
913.431	4405
913.545	4386
913.659	4485
913.772	4360
913.886	4230
914	4242
914.113	4424
914.226	4383
914.34	4352
914.453	4238
914.566	4402
914.68	4303
914.793	4280
914.906	4139
915.019	4097
915.132	4067
915.245	4211
915.358	4204
915.47	4219
915.583	4253
915.696	4261
915.809	4383
915.921	4394
916.034	4280
916.146	4234
916.259	4204
916.371	4352
916.483	4344
916.595	4238
916.708	4287
916.82	4284
916.932	4341
917.044	4276
917.156	4299
917.268	4253
917.38	4268
917.491	4280
917.603	4356
917.715	4432
917.826	4436
917.938	4375
918.049	4219
918.161	4421
918.272	4546
918.384	4535
918.495	4478
918.606	4306
918.717	4230
918.828	4322
918.939	4337
919.05	4211
919.161	4329
919.272	4097
919.383	4238
919.494	4413
919.604	4599
919.715	4390
919.826	4310
919.936	4424
920.047	4546
920.157	4466
920.267	4717
920.378	4462
920.488	4478
920.598	4710
920.708	4870
920.818	4725
920.928	4733
921.038	4919
921.148	4862
921.258	4596
921.368	4527
921.477	4519
921.587	4485
921.697	4352
921.806	4523
921.916	4421
922.025	4280
922.134	4219
922.244	4234
922.353	4318
922.462	4192
922.571	4097
922.68	3975
922.789	3930
922.898	3987
923.007	3987
923.116	4078
923.224	4067
923.333	4074
923.442	4063
923.55	3941
923.659	4051
923.767	4093
923.876	3991
923.984	4105
924.092	3964
924.201	4078
924.309	4105
924.417	4105
924.525	4071
924.633	4105
924.741	5105
924.849	3922
924.956	4116
925.064	3934
925.172	3884
925.279	3991
925.387	4063
925.494	4051
925.602	4223
925.709	4147
925.816	4063
925.924	4139
926.031	4238
926.138	4181
926.245	4177
926.352	4082
926.459	4253
926.566	4306
926.673	4105
926.779	4093
926.886	4101
926.993	4010
927.099	3945
927.206	3937
927.312	3975
927.419	4051
927.525	4048
927.631	4078
927.737	3949
927.843	3903
927.95	3842
928.056	3934
928.162	3998
928.267	4032
928.373	4592
928.479	4116
928.585	3888
928.69	4002
928.796	4059
928.901	3953
929.007	3899
929.112	4010
929.218	3968
929.323	3930
929.428	3915
929.533	4124
929.638	3911
929.743	3953
929.848	4048
929.953	4002
930.058	3922
930.163	3800
930.267	3850
930.372	3975
930.477	3789
930.581	4071
930.685	3953
930.79	3793
930.894	3907
930.998	3823
931.103	4010
931.207	3720
931.311	3698
931.415	3656
931.519	3523
931.623	3526
