Data from test_V78500241_1192.txt Node
Date: Fri Mar 25 16:57:17 CST 2022
User: usil
Spectrometer: V785-0024
Trigger mode: 0
Integration Time (sec): 4.000000E-1
Scans to average: 1
Nonlinearity correction enabled: false
Boxcar width: 0
Storing dark spectrum: false
XAxis mode: Wavelengths
Number of Pixels in Spectrum: 1024
>>>>>Begin Spectral Data<<<<<
801.071	8046
801.214	8058
801.356	7906
801.499	7875
801.641	7814
801.783	7704
801.926	7902
802.068	7978
802.211	7959
802.353	8024
802.496	7799
802.638	7856
802.78	7909
802.923	7936
803.065	7932
803.208	7879
803.35	7989
803.492	8024
803.635	8103
803.777	8016
803.919	8149
804.061	8469
804.204	8088
804.346	8065
804.488	7997
804.63	8103
804.773	8001
804.915	8096
805.057	8332
805.199	8130
805.341	8240
805.483	8229
805.626	8142
805.768	8161
805.91	8168
806.052	8221
806.194	8111
806.336	8248
806.478	8107
806.62	8039
806.762	8088
806.904	8161
807.046	8431
807.188	8267
807.33	8301
807.472	8370
807.614	8111
807.756	8119
807.898	7970
808.04	7944
808.182	7871
808.324	7871
808.465	7875
808.607	8138
808.749	8020
808.891	8164
809.033	8240
809.174	8164
809.316	8065
809.458	8016
809.6	8012
809.741	7993
809.883	8012
810.025	8119
810.166	8062
810.308	8039
810.45	8027
810.591	7845
810.733	7715
810.875	7620
811.016	7548
811.158	7533
811.299	7578
811.441	7685
811.582	7609
811.724	7575
811.865	7533
812.007	7575
812.148	7491
812.29	7575
812.431	7750
812.573	7860
812.714	7944
812.855	8065
812.997	8195
813.138	8332
813.279	8138
813.421	8039
813.562	7913
813.703	7811
813.845	7727
813.986	7441
814.127	7244
814.268	7217
814.41	7198
814.551	7156
814.692	7152
814.833	7129
814.974	7088
815.115	7072
815.256	6985
815.397	6905
815.539	6901
815.68	6859
815.821	6730
815.962	6909
816.103	6795
816.244	6696
816.385	6692
816.526	6563
816.666	6471
816.807	6285
816.948	6437
817.089	6502
817.23	6456
817.371	6395
817.512	6292
817.653	6372
817.793	6361
817.934	6391
818.075	6433
818.216	6448
818.356	6338
818.497	6201
818.638	6133
818.778	6114
818.919	6140
819.06	6148
819.2	6262
819.341	6277
819.481	6342
819.622	6528
819.762	6703
819.903	6711
820.043	6631
820.184	6551
820.324	6525
820.465	6700
820.605	6684
820.746	6631
820.886	6498
821.026	6604
821.167	6684
821.307	6779
821.447	6711
821.588	6665
821.728	6574
821.868	6460
822.008	6292
822.149	6376
822.289	6357
822.429	6167
822.569	6079
822.709	6155
822.849	5908
822.99	5904
823.13	5920
823.27	5893
823.41	5745
823.55	5752
823.69	5733
823.83	5802
823.97	5691
824.11	5592
824.25	5471
824.389	5528
824.529	5539
824.669	5505
824.809	5684
824.949	5592
825.089	5558
825.228	5516
825.368	5391
825.508	5387
825.648	5357
825.787	5330
825.927	5345
826.067	5292
826.206	5250
826.346	5337
826.485	5410
826.625	5406
826.765	5535
826.904	5391
827.044	5284
827.183	5181
827.323	5109
827.462	5208
827.601	5124
827.741	5189
827.88	5185
828.02	5090
828.159	5197
828.298	5212
828.437	5360
828.577	5254
828.716	5444
828.855	5334
828.994	5151
829.134	5147
829.273	5151
829.412	5098
829.551	5098
829.69	5151
829.829	5212
829.968	5364
830.107	5208
830.246	5223
830.385	5140
830.524	5124
830.663	5060
830.802	4949
830.941	4873
831.08	4850
831.219	5003
831.357	4976
831.496	5185
831.635	4915
831.774	4839
831.913	4854
832.051	4687
832.19	4729
832.329	4847
832.467	4683
832.606	4622
832.744	4649
832.883	4710
833.022	4698
833.16	4733
833.299	4805
833.437	4782
833.576	4763
833.714	4824
833.852	4877
833.991	4870
834.129	4968
834.267	4984
834.406	4892
834.544	4987
834.682	4953
834.821	4942
834.959	5140
835.097	5014
835.235	5121
835.373	5132
835.511	5060
835.65	5003
835.788	4984
835.926	4850
836.064	4873
836.202	4915
836.34	5113
836.478	5193
836.615	5132
836.753	5204
836.891	5246
837.029	5227
837.167	5216
837.305	5178
837.443	5098
837.58	5060
837.718	5246
837.856	5159
837.993	5124
838.131	5227
838.269	5140
838.406	5185
838.544	5166
838.681	5014
838.819	4999
838.956	4915
839.094	4858
839.231	4984
839.369	5052
839.506	5433
839.643	5223
839.781	5045
839.918	5022
840.055	5170
840.193	5071
840.33	5086
840.467	5159
840.604	5216
840.742	5433
840.879	5079
841.016	5075
841.153	5132
841.29	5379
841.427	5315
841.564	5341
841.701	5391
841.838	5231
841.975	5258
842.112	5265
842.249	5128
842.385	5140
842.522	5307
842.659	5128
842.796	5121
842.933	5185
843.069	5166
843.206	5109
843.343	5307
843.479	5235
843.616	5265
843.752	4995
843.889	4999
844.025	5223
844.162	5018
844.298	5189
844.435	5083
844.571	5025
844.708	5147
844.844	5265
844.98	5379
845.117	5288
845.253	5128
845.389	5045
845.525	5166
845.661	5117
845.798	5033
845.934	5083
846.07	5109
846.206	5151
846.342	5322
846.478	5166
846.614	4972
846.75	4938
846.886	4957
847.022	5140
847.158	4995
847.294	5048
847.429	5117
847.565	5025
847.701	5284
847.837	4778
847.972	4847
848.108	4968
848.244	4911
848.379	4759
848.515	4717
848.65	4706
848.786	4778
848.921	4805
849.057	4854
849.192	4904
849.328	4793
849.463	4831
849.598	4771
849.734	4755
849.869	4668
850.004	4645
850.14	4679
850.275	4550
850.41	4466
850.545	4573
850.68	4596
850.815	4588
850.95	4615
851.085	4870
851.22	4740
851.355	4679
851.49	4615
851.625	4634
851.76	4626
851.895	4630
852.03	4550
852.165	4634
852.299	4755
852.434	4774
852.569	4698
852.703	4763
852.838	4850
852.973	4889
853.107	4877
853.242	4675
853.376	4683
853.511	4573
853.645	4607
853.78	4786
853.914	4668
854.048	4641
854.183	4599
854.317	4672
854.451	4824
854.585	4641
854.72	4664
854.854	4752
854.988	4634
855.122	4596
855.256	4538
855.39	4622
855.524	4774
855.658	4672
855.792	4694
855.926	4710
856.06	4710
856.194	4797
856.327	4679
856.461	4592
856.595	4603
856.729	4611
856.862	4733
856.996	4683
857.13	4729
857.263	4763
857.397	4801
857.53	4645
857.664	4691
857.797	4725
857.931	4752
858.064	4759
858.197	4717
858.331	4656
858.464	4611
858.597	4500
858.731	4580
858.864	4580
858.997	4558
859.13	4611
859.263	4675
859.396	4714
859.529	4569
859.662	4634
859.795	4508
859.928	4626
860.061	4793
860.194	4763
860.327	4565
860.46	4584
860.592	4706
860.725	4698
860.858	4683
860.99	4550
861.123	4531
861.256	4497
861.388	4554
861.521	5326
861.653	4455
861.786	4455
861.918	4417
862.05	4546
862.183	4615
862.315	4596
862.447	4618
862.58	4558
862.712	4402
862.844	4299
862.976	4512
863.108	4417
863.24	4889
863.372	4310
863.504	4386
863.636	4417
863.768	4493
863.9	4455
864.032	4344
864.164	4386
864.296	4481
864.428	4519
864.559	4500
864.691	4512
864.823	4504
864.954	4508
865.086	4516
865.217	4424
865.349	4424
865.48	4478
865.612	4508
865.743	4588
865.875	4527
866.006	4443
866.137	4413
866.269	4432
866.4	4432
866.531	4398
866.662	4352
866.793	4402
866.924	4386
867.055	4451
867.186	4436
867.317	4432
867.448	4390
867.579	4344
867.71	4371
867.841	4318
867.972	4447
868.103	4466
868.233	4424
868.364	4470
868.495	4474
868.625	4599
868.756	4774
868.886	4542
869.017	4599
869.147	4733
869.278	4736
869.408	4668
869.539	4637
869.669	4679
869.799	4615
869.929	4714
870.06	4755
870.19	4942
870.32	4927
870.45	4904
870.58	5006
870.71	5090
870.84	5117
870.97	4911
871.1	4892
871.23	5166
871.36	5075
871.489	4987
871.619	5086
871.749	5067
871.879	5136
872.008	5181
872.138	5014
872.267	4949
872.397	4843
872.526	4782
872.656	4752
872.785	4820
872.915	4953
873.044	5003
873.173	4919
873.303	4965
873.432	4923
873.561	4949
873.69	4873
873.819	4820
873.948	4873
874.077	4828
874.206	4755
874.335	4790
874.464	4911
874.593	5102
874.722	4934
874.851	5083
874.979	5022
875.108	5006
875.237	4881
875.365	4881
875.494	4862
875.623	4953
875.751	4824
875.88	4870
876.008	4946
876.136	5006
876.265	5212
876.393	5292
876.521	5189
876.65	5235
876.778	5136
876.906	5041
877.034	4972
877.162	5056
877.29	4949
877.418	5064
877.546	5025
877.674	5029
877.802	5052
877.93	4991
878.058	4866
878.185	4843
878.313	4991
878.441	4911
878.568	4805
878.696	4866
878.824	4961
878.951	5003
879.079	5079
879.206	5242
879.333	5075
879.461	4965
879.588	5014
879.715	5041
879.842	5197
879.97	4995
880.097	4744
880.224	4755
880.351	4816
880.478	4797
880.605	4809
880.732	4801
880.859	5090
880.986	4877
881.112	4881
881.239	4778
881.366	4637
881.493	4580
881.619	4546
881.746	4626
881.872	4618
881.999	4664
882.125	4687
882.252	4793
882.378	4793
882.505	4889
882.631	4816
882.757	4725
882.883	4706
883.01	4759
883.136	4668
883.262	4592
883.388	4603
883.514	4820
883.64	4831
883.766	4786
883.892	4649
884.018	4717
884.143	4854
884.269	5006
884.395	4622
884.52	4615
884.646	4630
884.772	4554
884.897	4592
885.023	4691
885.148	4744
885.274	4835
885.399	4839
885.524	4729
885.65	4698
885.775	4744
885.9	4691
886.025	4820
886.15	4744
886.275	4710
886.4	4603
886.525	4717
886.65	4679
886.775	4725
886.9	4892
887.025	5029
887.149	4801
887.274	4603
887.399	4542
887.523	4596
887.648	4519
887.773	4592
887.897	4740
888.021	4691
888.146	4664
888.27	4763
888.395	4854
888.519	4805
888.643	4816
888.767	4778
888.891	4702
889.015	4596
889.139	4622
889.263	4618
889.387	4805
889.511	4870
889.635	4786
889.759	4607
889.883	4622
890.006	4740
890.13	4854
890.254	4573
890.377	4599
890.501	4546
890.624	4459
890.748	4561
890.871	4493
890.995	4474
891.118	4363
891.241	4459
891.364	4546
891.488	4649
891.611	4504
891.734	4424
891.857	4569
891.98	4554
892.103	4626
892.226	4573
892.349	4508
892.471	4386
892.594	4538
892.717	4596
892.839	4531
892.962	4611
893.085	4630
893.207	4596
893.33	4371
893.452	4493
893.575	4649
893.697	4569
893.819	4755
893.941	4793
894.064	4752
894.186	4592
894.308	4588
894.43	4748
894.552	4843
894.674	4736
894.796	4546
894.918	4577
895.04	4558
895.161	4691
895.283	4641
895.405	4611
895.526	4599
895.648	4672
895.769	4694
895.891	4672
896.012	4714
896.134	4683
896.255	4660
896.376	4611
896.498	4615
896.619	4694
896.74	4630
896.861	4653
896.982	4896
897.103	5018
897.224	4820
897.345	4725
897.466	4611
897.587	4714
897.708	4854
897.828	4771
897.949	4679
898.07	4573
898.19	4607
898.311	4828
898.431	4714
898.552	4710
898.672	4824
898.792	4782
898.913	4721
899.033	4588
899.153	4504
899.273	4447
899.393	4459
899.513	4542
899.633	4523
899.753	4546
899.873	4519
899.993	4550
900.113	4516
900.232	4580
900.352	4535
900.472	4489
900.591	4405
900.711	4470
900.83	4447
900.95	4615
901.069	4675
901.189	4531
901.308	4344
901.427	4291
901.546	4363
901.665	4432
901.784	4512
901.904	4379
902.023	4318
902.141	4173
902.26	4173
902.379	4295
902.498	4261
902.617	4196
902.735	4386
902.854	4413
902.973	4344
903.091	4207
903.21	4246
903.328	4295
903.446	4230
903.565	4246
903.683	4367
903.801	4242
903.919	4413
904.038	4405
904.156	4306
904.274	4436
904.392	4367
904.51	4436
904.627	4478
904.745	4569
904.863	4603
904.981	4394
905.098	4242
905.216	4371
905.334	4409
905.451	4451
905.569	4459
905.686	4561
905.803	4500
905.921	4405
906.038	4512
906.155	4462
906.272	4344
906.389	4440
906.506	4314
906.623	4337
906.74	4386
906.857	4280
906.974	4379
907.091	4565
907.208	4660
907.324	4550
907.441	4512
907.557	4341
907.674	4352
907.79	4310
907.907	4337
908.023	4428
908.139	4481
908.256	4428
908.372	4474
908.488	4424
908.604	4383
908.72	4303
908.836	4383
908.952	4367
909.068	4443
909.184	4584
909.3	4497
909.415	4630
909.531	4519
909.647	4329
909.762	4360
909.878	4344
909.993	4405
910.108	4455
910.224	4424
910.339	4485
910.454	4402
910.57	4318
910.685	4257
910.8	4668
910.915	4622
911.03	4523
911.145	4291
911.259	4325
911.374	4337
911.489	4272
911.604	4249
911.718	4169
911.833	4257
911.947	4093
912.062	4017
912.176	4219
912.291	4276
912.405	4242
912.519	4500
912.633	4455
912.748	4341
912.862	4284
912.976	4242
913.09	4086
913.204	4131
913.318	4268
913.431	4371
913.545	4341
913.659	4413
913.772	4322
913.886	4192
914	4181
914.113	4367
914.226	4409
914.34	4375
914.453	4230
914.566	4424
914.68	4310
914.793	4371
914.906	4124
915.019	4071
915.132	4063
915.245	4150
915.358	4246
915.47	4204
915.583	4272
915.696	4318
915.809	4337
915.921	4443
916.034	4280
916.146	4253
916.259	4207
916.371	4375
916.483	4360
916.595	4261
916.708	4325
916.82	4280
916.932	4306
917.044	4348
917.156	4261
917.268	4219
917.38	4257
917.491	4287
917.603	4352
917.715	4417
917.826	4417
917.938	4352
918.049	4211
918.161	4398
918.272	4542
918.384	4466
918.495	4447
918.606	4310
918.717	4272
918.828	4352
918.939	4337
919.05	4234
919.161	4318
919.272	4154
919.383	4249
919.494	4375
919.604	4656
919.715	4390
919.826	4375
919.936	4405
920.047	4531
920.157	4466
920.267	4687
920.378	4546
920.488	4523
920.598	4725
920.708	4904
920.818	4736
920.928	4744
921.038	4984
921.148	4900
921.258	4577
921.368	4561
921.477	4455
921.587	4485
921.697	4363
921.806	4516
921.916	4424
922.025	4261
922.134	4299
922.244	4207
922.353	4291
922.462	4169
922.571	4150
922.68	3994
922.789	3949
922.898	4025
923.007	3968
923.116	4067
923.224	4078
923.333	4055
923.442	4044
923.55	3964
923.659	4029
923.767	4071
923.876	3975
923.984	4078
924.092	3926
924.201	4071
924.309	4128
924.417	4154
924.525	4044
924.633	4086
924.741	5010
924.849	3911
924.956	4112
925.064	3907
925.172	3911
925.279	3934
925.387	4002
925.494	4059
925.602	4227
925.709	4185
925.816	4055
925.924	4124
926.031	4219
926.138	4169
926.245	4219
926.352	4074
926.459	4215
926.566	4265
926.673	4150
926.779	4071
926.886	4086
926.993	3937
927.099	3945
927.206	3934
927.312	3911
927.419	4074
927.525	4025
927.631	4078
927.737	3998
927.843	3964
927.95	3789
928.056	3937
928.162	3972
928.267	4021
928.373	4710
928.479	4116
928.585	3857
928.69	4025
928.796	4044
928.901	3964
929.007	3819
929.112	3991
929.218	4006
929.323	3918
929.428	3956
929.533	4097
929.638	3896
929.743	3972
929.848	4036
929.953	3964
930.058	3915
930.163	3751
930.267	3808
930.372	3983
930.477	3770
930.581	4067
930.685	3945
930.79	3800
930.894	3873
930.998	3869
931.103	4071
931.207	3663
931.311	3724
931.415	3705
931.519	3519
931.623	3564
