Data from test_V78500241_1713.txt Node
Date: Fri Mar 25 17:00:54 CST 2022
User: usil
Spectrometer: V785-0024
Trigger mode: 0
Integration Time (sec): 4.000000E-1
Scans to average: 1
Nonlinearity correction enabled: false
Boxcar width: 0
Storing dark spectrum: false
XAxis mode: Wavelengths
Number of Pixels in Spectrum: 1024
>>>>>Begin Spectral Data<<<<<
801.071	8008
801.214	8008
801.356	7906
801.499	7856
801.641	7772
801.783	7799
801.926	7978
802.068	7902
802.211	7947
802.353	7986
802.496	7845
802.638	7761
802.78	7902
802.923	7951
803.065	7902
803.208	7856
803.35	7989
803.492	8111
803.635	8214
803.777	8005
803.919	8138
804.061	8446
804.204	8157
804.346	8024
804.488	7947
804.63	8077
804.773	8001
804.915	8138
805.057	8374
805.199	8168
805.341	8172
805.483	8240
805.626	8157
805.768	8088
805.91	8248
806.052	8240
806.194	8157
806.336	8301
806.478	8126
806.62	8020
806.762	8115
806.904	8233
807.046	8495
807.188	8431
807.33	8263
807.472	8385
807.614	8180
807.756	8107
807.898	7978
808.04	7906
808.182	7856
808.324	7913
808.465	7890
808.607	7967
808.749	8123
808.891	8229
809.033	8267
809.174	8172
809.316	8103
809.458	8073
809.6	8020
809.741	8008
809.883	8031
810.025	8134
810.166	7982
810.308	8050
810.45	8016
810.591	7860
810.733	7727
810.875	7742
811.016	7521
811.158	7529
811.299	7540
811.441	7712
811.582	7616
811.724	7514
811.865	7518
812.007	7575
812.148	7616
812.29	7582
812.431	7780
812.573	7902
812.714	7982
812.855	8096
812.997	8161
813.138	8252
813.279	8210
813.421	8100
813.562	7944
813.703	7841
813.845	7700
813.986	7441
814.127	7240
814.268	7240
814.41	7202
814.551	7137
814.692	7198
814.833	7076
814.974	7072
815.115	7145
815.256	6958
815.397	6951
815.539	6951
815.68	6840
815.821	6783
815.962	6833
816.103	6791
816.244	6738
816.385	6646
816.526	6585
816.666	6448
816.807	6334
816.948	6437
817.089	6460
817.23	6441
817.371	6342
817.512	6407
817.653	6376
817.793	6369
817.934	6429
818.075	6445
818.216	6422
818.356	6414
818.497	6243
818.638	6133
818.778	6178
818.919	6087
819.06	6178
819.2	6311
819.341	6365
819.481	6369
819.622	6544
819.762	6753
819.903	6711
820.043	6559
820.184	6597
820.324	6521
820.465	6715
820.605	6688
820.746	6658
820.886	6525
821.026	6654
821.167	6677
821.307	6760
821.447	6802
821.588	6673
821.728	6536
821.868	6486
822.008	6334
822.149	6350
822.289	6369
822.429	6144
822.569	6087
822.709	6167
822.849	5901
822.99	5920
823.13	5931
823.27	5935
823.41	5783
823.55	5741
823.69	5707
823.83	5760
823.97	5627
824.11	5497
824.25	5501
824.389	5581
824.529	5577
824.669	5551
824.809	5657
824.949	5691
825.089	5585
825.228	5524
825.368	5364
825.508	5387
825.648	5334
825.787	5307
825.927	5376
826.067	5299
826.206	5303
826.346	5398
826.485	5391
826.625	5372
826.765	5566
826.904	5471
827.044	5296
827.183	5201
827.323	5109
827.462	5254
827.601	5128
827.741	5250
827.88	5174
828.02	5147
828.159	5246
828.298	5288
828.437	5353
828.577	5280
828.716	5471
828.855	5292
828.994	5117
829.134	5121
829.273	5220
829.412	5121
829.551	5105
829.69	5151
829.829	5197
829.968	5345
830.107	5185
830.246	5208
830.385	5109
830.524	5090
830.663	5018
830.802	4968
830.941	4854
831.08	4870
831.219	4987
831.357	5014
831.496	5132
831.635	4965
831.774	4820
831.913	4881
832.051	4733
832.19	4782
832.329	4812
832.467	4649
832.606	4672
832.744	4763
832.883	4714
833.022	4717
833.16	4828
833.299	4805
833.437	4828
833.576	4835
833.714	4797
833.852	4839
833.991	4858
834.129	4957
834.267	4949
834.406	4892
834.544	4984
834.682	5018
834.821	4972
834.959	5102
835.097	4942
835.235	5143
835.373	5056
835.511	5090
835.65	5071
835.788	4987
835.926	4889
836.064	4866
836.202	4927
836.34	5185
836.478	5204
836.615	5113
836.753	5212
836.891	5292
837.029	5212
837.167	5201
837.305	5128
837.443	5178
837.58	5075
837.718	5239
837.856	5170
837.993	5071
838.131	5231
838.269	5288
838.406	5208
838.544	5178
838.681	4984
838.819	5003
838.956	4904
839.094	4904
839.231	4953
839.369	5041
839.506	5383
839.643	5258
839.781	5079
839.918	4987
840.055	5102
840.193	5037
840.33	5094
840.467	5102
840.604	5162
840.742	5459
840.879	5045
841.016	5105
841.153	5124
841.29	5326
841.427	5292
841.564	5307
841.701	5318
841.838	5269
841.975	5265
842.112	5280
842.249	5090
842.385	5109
842.522	5322
842.659	5124
842.796	5094
842.933	5189
843.069	5159
843.206	5155
843.343	5284
843.479	5227
843.616	5181
843.752	5041
843.889	5010
844.025	5212
844.162	5029
844.298	5204
844.435	5079
844.571	5018
844.708	5201
844.844	5258
844.98	5311
845.117	5273
845.253	5098
845.389	5086
845.525	5121
845.661	5140
845.798	5041
845.934	5166
846.07	5052
846.206	5212
846.342	5292
846.478	5178
846.614	4999
846.75	4984
846.886	4949
847.022	5128
847.158	4984
847.294	5025
847.429	5128
847.565	5033
847.701	5322
847.837	4900
847.972	4816
848.108	4953
848.244	4938
848.379	4778
848.515	4771
848.65	4717
848.786	4771
848.921	4778
849.057	4820
849.192	4885
849.328	4805
849.463	4862
849.598	4782
849.734	4748
849.869	4691
850.004	4634
850.14	4660
850.275	4573
850.41	4542
850.545	4573
850.68	4584
850.815	4599
850.95	4599
851.085	4809
851.22	4744
851.355	4660
851.49	4599
851.625	4615
851.76	4592
851.895	4554
852.03	4527
852.165	4706
852.299	4710
852.434	4824
852.569	4679
852.703	4771
852.838	4839
852.973	4889
853.107	4919
853.242	4675
853.376	4569
853.511	4577
853.645	4611
853.78	4812
853.914	4721
854.048	4687
854.183	4611
854.317	4706
854.451	4828
854.585	4664
854.72	4615
854.854	4710
854.988	4596
855.122	4622
855.256	4546
855.39	4660
855.524	4786
855.658	4694
855.792	4752
855.926	4714
856.06	4729
856.194	4793
856.327	4679
856.461	4634
856.595	4599
856.729	4641
856.862	4771
856.996	4721
857.13	4778
857.263	4736
857.397	4801
857.53	4653
857.664	4706
857.797	4763
857.931	4801
858.064	4691
858.197	4748
858.331	4691
858.464	4607
858.597	4504
858.731	4599
858.864	4596
858.997	4573
859.13	4668
859.263	4691
859.396	4694
859.529	4542
859.662	4542
859.795	4523
859.928	4592
860.061	4744
860.194	4710
860.327	4588
860.46	4577
860.592	4706
860.725	4698
860.858	4714
860.99	4565
861.123	4535
861.256	4512
861.388	4618
861.521	5189
861.653	4478
861.786	4417
861.918	4428
862.05	4519
862.183	4523
862.315	4599
862.447	4630
862.58	4523
862.712	4375
862.844	4363
862.976	4447
863.108	4470
863.24	4847
863.372	4333
863.504	4409
863.636	4428
863.768	4462
863.9	4466
864.032	4383
864.164	4371
864.296	4481
864.428	4535
864.559	4577
864.691	4554
864.823	4535
864.954	4489
865.086	4512
865.217	4390
865.349	4386
865.48	4417
865.612	4485
865.743	4573
865.875	4459
866.006	4432
866.137	4489
866.269	4478
866.4	4451
866.531	4405
866.662	4462
866.793	4390
866.924	4398
867.055	4455
867.186	4462
867.317	4405
867.448	4386
867.579	4398
867.71	4424
867.841	4398
867.972	4405
868.103	4478
868.233	4436
868.364	4436
868.495	4493
868.625	4664
868.756	4755
868.886	4573
869.017	4618
869.147	4767
869.278	4782
869.408	4634
869.539	4660
869.669	4702
869.799	4588
869.929	4736
870.06	4740
870.19	4923
870.32	4938
870.45	4946
870.58	4980
870.71	5075
870.84	5098
870.97	4946
871.1	4862
871.23	5136
871.36	5060
871.489	5025
871.619	5079
871.749	5083
871.879	5147
872.008	5174
872.138	5064
872.267	5003
872.397	4858
872.526	4801
872.656	4683
872.785	4873
872.915	4987
873.044	4980
873.173	4942
873.303	4923
873.432	4930
873.561	4904
873.69	4831
873.819	4892
873.948	4885
874.077	4805
874.206	4801
874.335	4744
874.464	4919
874.593	5094
874.722	4957
874.851	5098
874.979	5006
875.108	5018
875.237	4942
875.365	4873
875.494	4915
875.623	4961
875.751	4862
875.88	4889
876.008	4980
876.136	5033
876.265	5185
876.393	5315
876.521	5212
876.65	5170
876.778	5124
876.906	5048
877.034	5010
877.162	5048
877.29	4965
877.418	4995
877.546	5010
877.674	5094
877.802	5006
877.93	5018
878.058	4972
878.185	4881
878.313	5006
878.441	4972
878.568	4752
878.696	4858
878.824	4961
878.951	4976
879.079	5113
879.206	5280
879.333	5052
879.461	4999
879.588	4999
879.715	5140
879.842	5204
879.97	5018
880.097	4809
880.224	4736
880.351	4805
880.478	4816
880.605	4816
880.732	4767
880.859	5102
880.986	4870
881.112	4915
881.239	4744
881.366	4710
881.493	4611
881.619	4561
881.746	4660
881.872	4675
881.999	4622
882.125	4683
882.252	4801
882.378	4793
882.505	4923
882.631	4767
882.757	4668
882.883	4740
883.01	4748
883.136	4691
883.262	4618
883.388	4637
883.514	4816
883.64	4904
883.766	4812
883.892	4634
884.018	4717
884.143	4850
884.269	4953
884.395	4706
884.52	4615
884.646	4622
884.772	4565
884.897	4588
885.023	4634
885.148	4736
885.274	4839
885.399	4816
885.524	4744
885.65	4599
885.775	4721
885.9	4710
886.025	4835
886.15	4828
886.275	4698
886.4	4706
886.525	4706
886.65	4729
886.775	4691
886.9	4870
887.025	5064
887.149	4774
887.274	4577
887.399	4599
887.523	4588
887.648	4561
887.773	4538
887.897	4733
888.021	4828
888.146	4634
888.27	4824
888.395	4862
888.519	4793
888.643	4835
888.767	4774
888.891	4679
889.015	4584
889.139	4656
889.263	4519
889.387	4721
889.511	4847
889.635	4782
889.759	4622
889.883	4649
890.006	4733
890.13	4816
890.254	4634
890.377	4691
890.501	4538
890.624	4519
890.748	4611
890.871	4455
890.995	4424
891.118	4443
891.241	4470
891.364	4489
891.488	4630
891.611	4516
891.734	4527
891.857	4615
891.98	4573
892.103	4641
892.226	4599
892.349	4558
892.471	4432
892.594	4538
892.717	4611
892.839	4611
892.962	4618
893.085	4660
893.207	4656
893.33	4478
893.452	4561
893.575	4645
893.697	4622
893.819	4759
893.941	4809
894.064	4793
894.186	4607
894.308	4596
894.43	4721
894.552	4850
894.674	4759
894.796	4538
894.918	4626
895.04	4550
895.161	4714
895.283	4672
895.405	4577
895.526	4660
895.648	4668
895.769	4653
895.891	4668
896.012	4717
896.134	4706
896.255	4656
896.376	4615
896.498	4561
896.619	4668
896.74	4596
896.861	4668
896.982	4866
897.103	5048
897.224	4824
897.345	4729
897.466	4668
897.587	4721
897.708	4877
897.828	4729
897.949	4649
898.07	4531
898.19	4611
898.311	4805
898.431	4672
898.552	4767
898.672	4850
898.792	4763
898.913	4729
899.033	4596
899.153	4489
899.273	4443
899.393	4470
899.513	4542
899.633	4485
899.753	4531
899.873	4519
899.993	4554
900.113	4519
900.232	4596
900.352	4527
900.472	4462
900.591	4459
900.711	4504
900.83	4440
900.95	4577
901.069	4721
901.189	4519
901.308	4379
901.427	4329
901.546	4360
901.665	4447
901.784	4489
901.904	4398
902.023	4287
902.141	4211
902.26	4162
902.379	4325
902.498	4265
902.617	4230
902.735	4367
902.854	4409
902.973	4383
903.091	4188
903.21	4238
903.328	4310
903.446	4306
903.565	4280
903.683	4363
903.801	4253
903.919	4375
904.038	4432
904.156	4341
904.274	4417
904.392	4421
904.51	4428
904.627	4508
904.745	4573
904.863	4630
904.981	4341
905.098	4249
905.216	4383
905.334	4447
905.451	4432
905.569	4447
905.686	4519
905.803	4527
905.921	4421
906.038	4558
906.155	4470
906.272	4432
906.389	4443
906.506	4333
906.623	4383
906.74	4417
906.857	4295
906.974	4375
907.091	4569
907.208	4664
907.324	4569
907.441	4493
907.557	4367
907.674	4314
907.79	4310
907.907	4379
908.023	4489
908.139	4470
908.256	4390
908.372	4462
908.488	4447
908.604	4367
908.72	4329
908.836	4352
908.952	4337
909.068	4405
909.184	4573
909.3	4451
909.415	4554
909.531	4573
909.647	4375
909.762	4333
909.878	4398
909.993	4462
910.108	4379
910.224	4383
910.339	4523
910.454	4394
910.57	4379
910.685	4306
910.8	4645
910.915	4618
911.03	4493
911.145	4265
911.259	4348
911.374	4287
911.489	4303
911.604	4280
911.718	4223
911.833	4188
911.947	4082
912.062	4006
912.176	4200
912.291	4249
912.405	4299
912.519	4436
912.633	4519
912.748	4367
912.862	4329
912.976	4169
913.09	4124
913.204	4207
913.318	4238
913.431	4386
913.545	4333
913.659	4417
913.772	4390
913.886	4253
914	4223
914.113	4375
914.226	4421
914.34	4409
914.453	4230
914.566	4436
914.68	4337
914.793	4284
914.906	4181
915.019	4105
915.132	4063
915.245	4154
915.358	4207
915.47	4257
915.583	4227
915.696	4344
915.809	4390
915.921	4398
916.034	4299
916.146	4230
916.259	4188
916.371	4371
916.483	4329
916.595	4219
916.708	4333
916.82	4344
916.932	4310
917.044	4318
917.156	4310
917.268	4234
917.38	4253
917.491	4268
917.603	4295
917.715	4394
917.826	4405
917.938	4325
918.049	4185
918.161	4409
918.272	4554
918.384	4538
918.495	4432
918.606	4287
918.717	4257
918.828	4329
918.939	4379
919.05	4246
919.161	4322
919.272	4109
919.383	4219
919.494	4436
919.604	4679
919.715	4405
919.826	4333
919.936	4386
920.047	4455
920.157	4466
920.267	4706
920.378	4516
920.488	4481
920.598	4744
920.708	4873
920.818	4714
920.928	4759
921.038	4930
921.148	4923
921.258	4664
921.368	4550
921.477	4493
921.587	4413
921.697	4360
921.806	4519
921.916	4405
922.025	4284
922.134	4253
922.244	4253
922.353	4363
922.462	4166
922.571	4143
922.68	3991
922.789	3979
922.898	3998
923.007	4040
923.116	4124
923.224	4013
923.333	4086
923.442	4021
923.55	4029
923.659	4048
923.767	4109
923.876	3979
923.984	4120
924.092	3998
924.201	4025
924.309	4101
924.417	4162
924.525	4044
924.633	4112
924.741	4892
924.849	3934
924.956	4109
925.064	3964
925.172	3892
925.279	3998
925.387	4025
925.494	4010
925.602	4188
925.709	4124
925.816	4074
925.924	4086
926.031	4204
926.138	4147
926.245	4177
926.352	4105
926.459	4253
926.566	4276
926.673	4166
926.779	4071
926.886	4093
926.993	3949
927.099	3926
927.206	3926
927.312	3922
927.419	4044
927.525	4029
927.631	4101
927.737	3956
927.843	3956
927.95	3823
928.056	3945
928.162	3983
928.267	4071
928.373	4630
928.479	4078
928.585	3896
928.69	4048
928.796	4067
928.901	3964
929.007	3823
929.112	4029
929.218	3930
929.323	3934
929.428	3918
929.533	4116
929.638	3876
929.743	3907
929.848	3994
929.953	3998
930.058	3953
930.163	3778
930.267	3823
930.372	3926
930.477	3793
930.581	4097
930.685	3937
930.79	3823
930.894	3884
930.998	3854
931.103	4051
931.207	3743
931.311	3652
931.415	3622
931.519	3504
931.623	3549
