Data from test_V78500241_2845.txt Node
Date: Fri Mar 25 17:08:47 CST 2022
User: usil
Spectrometer: V785-0024
Trigger mode: 0
Integration Time (sec): 4.000000E-1
Scans to average: 1
Nonlinearity correction enabled: false
Boxcar width: 0
Storing dark spectrum: false
XAxis mode: Wavelengths
Number of Pixels in Spectrum: 1024
>>>>>Begin Spectral Data<<<<<
801.071	7993
801.214	8012
801.356	7822
801.499	7795
801.641	7772
801.783	7826
801.926	7970
802.068	7902
802.211	7940
802.353	7986
802.496	7890
802.638	7875
802.78	7868
802.923	7921
803.065	7833
803.208	7864
803.35	7974
803.492	8123
803.635	8153
803.777	7997
803.919	8145
804.061	8469
804.204	8123
804.346	8012
804.488	7906
804.63	8054
804.773	8020
804.915	8054
805.057	8320
805.199	8149
805.341	8187
805.483	8259
805.626	8195
805.768	8103
805.91	8206
806.052	8233
806.194	8088
806.336	8259
806.478	8119
806.62	7997
806.762	8065
806.904	8202
807.046	8495
807.188	8370
807.33	8301
807.472	8324
807.614	8279
807.756	8168
807.898	8043
808.04	7864
808.182	7841
808.324	7936
808.465	7947
808.607	8142
808.749	8161
808.891	8259
809.033	8355
809.174	8176
809.316	8119
809.458	8062
809.6	7947
809.741	8050
809.883	8069
810.025	8138
810.166	8111
810.308	8008
810.45	8020
810.591	7849
810.733	7769
810.875	7662
811.016	7605
811.158	7502
811.299	7567
811.441	7849
811.582	7753
811.724	7533
811.865	7575
812.007	7552
812.148	7624
812.29	7662
812.431	7769
812.573	7868
812.714	8005
812.855	8153
812.997	8233
813.138	8332
813.279	8153
813.421	8168
813.562	8054
813.703	7921
813.845	7837
813.986	7510
814.127	7346
814.268	7251
814.41	7232
814.551	7202
814.692	7164
814.833	7103
814.974	7091
815.115	7114
815.256	6989
815.397	7027
815.539	6962
815.68	6878
815.821	6859
815.962	6897
816.103	6928
816.244	6707
816.385	6650
816.526	6707
816.666	6544
816.807	6384
816.948	6391
817.089	6460
817.23	6494
817.371	6456
817.512	6384
817.653	6399
817.793	6388
817.934	6437
818.075	6536
818.216	6486
818.356	6483
818.497	6228
818.638	6121
818.778	6175
818.919	6114
819.06	6148
819.2	6380
819.341	6376
819.481	6395
819.622	6574
819.762	6798
819.903	6741
820.043	6650
820.184	6585
820.324	6669
820.465	6749
820.605	6677
820.746	6715
820.886	6544
821.026	6654
821.167	6658
821.307	6829
821.447	6783
821.588	6722
821.728	6631
821.868	6452
822.008	6311
822.149	6399
822.289	6388
822.429	6148
822.569	6121
822.709	6197
822.849	5958
822.99	5908
823.13	5931
823.27	5920
823.41	5802
823.55	5817
823.69	5779
823.83	5809
823.97	5714
824.11	5539
824.25	5512
824.389	5570
824.529	5657
824.669	5528
824.809	5634
824.949	5676
825.089	5627
825.228	5596
825.368	5429
825.508	5330
825.648	5376
825.787	5433
825.927	5383
826.067	5296
826.206	5292
826.346	5452
826.485	5425
826.625	5414
826.765	5592
826.904	5497
827.044	5357
827.183	5235
827.323	5189
827.462	5204
827.601	5189
827.741	5220
827.88	5216
828.02	5113
828.159	5239
828.298	5337
828.437	5353
828.577	5250
828.716	5436
828.855	5345
828.994	5204
829.134	5162
829.273	5174
829.412	5143
829.551	5166
829.69	5178
829.829	5239
829.968	5414
830.107	5265
830.246	5292
830.385	5159
830.524	5178
830.663	5086
830.802	4987
830.941	4927
831.08	4850
831.219	4972
831.357	4972
831.496	5208
831.635	4957
831.774	4900
831.913	4854
832.051	4736
832.19	4767
832.329	4839
832.467	4733
832.606	4668
832.744	4755
832.883	4812
833.022	4748
833.16	4790
833.299	4809
833.437	4873
833.576	4828
833.714	4828
833.852	4881
833.991	4900
834.129	4965
834.267	5041
834.406	4934
834.544	5010
834.682	5010
834.821	4991
834.959	5178
835.097	5048
835.235	5124
835.373	5109
835.511	5098
835.65	5079
835.788	5071
835.926	4919
836.064	4900
836.202	5010
836.34	5185
836.478	5201
836.615	5105
836.753	5235
836.891	5353
837.029	5246
837.167	5227
837.305	5159
837.443	5189
837.58	5098
837.718	5273
837.856	5204
837.993	5159
838.131	5223
838.269	5235
838.406	5239
838.544	5136
838.681	5094
838.819	5037
838.956	4946
839.094	4915
839.231	5003
839.369	5113
839.506	5391
839.643	5273
839.781	5090
839.918	5006
840.055	5067
840.193	5113
840.33	5132
840.467	5143
840.604	5250
840.742	5459
840.879	5086
841.016	5140
841.153	5143
841.29	5395
841.427	5368
841.564	5353
841.701	5417
841.838	5280
841.975	5242
842.112	5277
842.249	5181
842.385	5086
842.522	5395
842.659	5208
842.796	5155
842.933	5254
843.069	5204
843.206	5178
843.343	5284
843.479	5231
843.616	5280
843.752	5052
843.889	5025
844.025	5223
844.162	5086
844.298	5265
844.435	5121
844.571	5121
844.708	5223
844.844	5311
844.98	5368
845.117	5307
845.253	5185
845.389	5098
845.525	5193
845.661	5147
845.798	5067
845.934	5098
846.07	5075
846.206	5254
846.342	5353
846.478	5250
846.614	5060
846.75	4957
846.886	4987
847.022	5159
847.158	5014
847.294	5083
847.429	5048
847.565	5098
847.701	5318
847.837	4858
847.972	4889
848.108	4953
848.244	4972
848.379	4824
848.515	4748
848.65	4694
848.786	4744
848.921	4824
849.057	4873
849.192	4919
849.328	4881
849.463	4934
849.598	4805
849.734	4740
849.869	4687
850.004	4698
850.14	4660
850.275	4622
850.41	4538
850.545	4546
850.68	4645
850.815	4634
850.95	4656
851.085	4866
851.22	4755
851.355	4698
851.49	4664
851.625	4645
851.76	4679
851.895	4599
852.03	4569
852.165	4672
852.299	4721
852.434	4759
852.569	4801
852.703	4767
852.838	4885
852.973	4946
853.107	4904
853.242	4767
853.376	4721
853.511	4577
853.645	4649
853.78	4831
853.914	4675
854.048	4656
854.183	4691
854.317	4706
854.451	4889
854.585	4740
854.72	4653
854.854	4748
854.988	4607
855.122	4694
855.256	4535
855.39	4710
855.524	4828
855.658	4710
855.792	4736
855.926	4733
856.06	4771
856.194	4778
856.327	4672
856.461	4626
856.595	4653
856.729	4630
856.862	4778
856.996	4729
857.13	4744
857.263	4778
857.397	4824
857.53	4679
857.664	4702
857.797	4774
857.931	4797
858.064	4740
858.197	4748
858.331	4694
858.464	4611
858.597	4519
858.731	4622
858.864	4679
858.997	4618
859.13	4660
859.263	4698
859.396	4698
859.529	4580
859.662	4584
859.795	4565
859.928	4626
860.061	4790
860.194	4774
860.327	4577
860.46	4607
860.592	4706
860.725	4740
860.858	4702
860.99	4584
861.123	4558
861.256	4489
861.388	4622
861.521	5486
861.653	4538
861.786	4466
861.918	4516
862.05	4607
862.183	4569
862.315	4630
862.447	4641
862.58	4599
862.712	4421
862.844	4295
862.976	4451
863.108	4493
863.24	4755
863.372	4352
863.504	4474
863.636	4440
863.768	4531
863.9	4436
864.032	4390
864.164	4386
864.296	4451
864.428	4573
864.559	4577
864.691	4523
864.823	4538
864.954	4527
865.086	4527
865.217	4462
865.349	4519
865.48	4481
865.612	4500
865.743	4664
865.875	4436
866.006	4428
866.137	4443
866.269	4432
866.4	4466
866.531	4443
866.662	4386
866.793	4409
866.924	4428
867.055	4527
867.186	4485
867.317	4470
867.448	4409
867.579	4409
867.71	4409
867.841	4360
867.972	4478
868.103	4459
868.233	4478
868.364	4432
868.495	4504
868.625	4672
868.756	4809
868.886	4630
869.017	4664
869.147	4740
869.278	4755
869.408	4672
869.539	4691
869.669	4721
869.799	4733
869.929	4801
870.06	4771
870.19	4976
870.32	4927
870.45	4972
870.58	5033
870.71	5083
870.84	5090
870.97	4953
871.1	4919
871.23	5121
871.36	5102
871.489	5022
871.619	5003
871.749	5143
871.879	5136
872.008	5231
872.138	5060
872.267	5025
872.397	4881
872.526	4812
872.656	4755
872.785	4782
872.915	4934
873.044	5033
873.173	4965
873.303	4957
873.432	4949
873.561	5029
873.69	4896
873.819	4885
873.948	4870
874.077	4850
874.206	4763
874.335	4809
874.464	4885
874.593	5037
874.722	4984
874.851	5105
874.979	5071
875.108	5060
875.237	4938
875.365	4889
875.494	4892
875.623	4991
875.751	4858
875.88	4877
876.008	5010
876.136	5060
876.265	5181
876.393	5334
876.521	5250
876.65	5246
876.778	5231
876.906	5136
877.034	5052
877.162	5079
877.29	4987
877.418	5102
877.546	5098
877.674	5037
877.802	5006
877.93	5029
878.058	4953
878.185	4942
878.313	4968
878.441	4980
878.568	4854
878.696	4949
878.824	5003
878.951	4942
879.079	5181
879.206	5311
879.333	5132
879.461	5060
879.588	5006
879.715	5239
879.842	5227
879.97	5045
880.097	4831
880.224	4759
880.351	4881
880.478	4866
880.605	4793
880.732	4835
880.859	5151
880.986	4930
881.112	4965
881.239	4889
881.366	4714
881.493	4630
881.619	4596
881.746	4717
881.872	4660
881.999	4710
882.125	4755
882.252	4782
882.378	4877
882.505	5006
882.631	4854
882.757	4736
882.883	4771
883.01	4793
883.136	4733
883.262	4653
883.388	4683
883.514	4835
883.64	4949
883.766	4843
883.892	4736
884.018	4797
884.143	4900
884.269	5067
884.395	4755
884.52	4645
884.646	4679
884.772	4596
884.897	4607
885.023	4740
885.148	4820
885.274	4881
885.399	4850
885.524	4759
885.65	4778
885.775	4774
885.9	4691
886.025	4908
886.15	4805
886.275	4725
886.4	4706
886.525	4778
886.65	4759
886.775	4729
886.9	4938
887.025	5086
887.149	4805
887.274	4653
887.399	4641
887.523	4615
887.648	4615
887.773	4611
887.897	4816
888.021	4828
888.146	4717
888.27	4858
888.395	4946
888.519	4850
888.643	4850
888.767	4877
888.891	4717
889.015	4664
889.139	4668
889.263	4691
889.387	4809
889.511	4885
889.635	4839
889.759	4729
889.883	4675
890.006	4812
890.13	4892
890.254	4687
890.377	4755
890.501	4615
890.624	4538
890.748	4683
890.871	4554
890.995	4447
891.118	4413
891.241	4569
891.364	4588
891.488	4656
891.611	4542
891.734	4592
891.857	4691
891.98	4592
892.103	4660
892.226	4634
892.349	4527
892.471	4478
892.594	4607
892.717	4694
892.839	4668
892.962	4634
893.085	4683
893.207	4656
893.33	4470
893.452	4577
893.575	4702
893.697	4649
893.819	4873
893.941	4900
894.064	4816
894.186	4626
894.308	4592
894.43	4771
894.552	4828
894.674	4805
894.796	4596
894.918	4607
895.04	4615
895.161	4748
895.283	4694
895.405	4679
895.526	4664
895.648	4683
895.769	4755
895.891	4778
896.012	4790
896.134	4744
896.255	4660
896.376	4664
896.498	4649
896.619	4740
896.74	4653
896.861	4660
896.982	4953
897.103	5117
897.224	4889
897.345	4786
897.466	4725
897.587	4816
897.708	4911
897.828	4816
897.949	4679
898.07	4611
898.19	4634
898.311	4866
898.431	4717
898.552	4782
898.672	4862
898.792	4854
898.913	4782
899.033	4706
899.153	4573
899.273	4504
899.393	4523
899.513	4535
899.633	4561
899.753	4603
899.873	4542
899.993	4607
900.113	4596
900.232	4634
900.352	4618
900.472	4523
900.591	4428
900.711	4558
900.83	4443
900.95	4641
901.069	4755
901.189	4558
901.308	4409
901.427	4398
901.546	4493
901.665	4558
901.784	4569
901.904	4424
902.023	4333
902.141	4219
902.26	4249
902.379	4314
902.498	4284
902.617	4223
902.735	4390
902.854	4455
902.973	4405
903.091	4230
903.21	4238
903.328	4337
903.446	4299
903.565	4299
903.683	4394
903.801	4295
903.919	4436
904.038	4481
904.156	4337
904.274	4500
904.392	4447
904.51	4421
904.627	4516
904.745	4615
904.863	4668
904.981	4440
905.098	4337
905.216	4409
905.334	4478
905.451	4455
905.569	4447
905.686	4546
905.803	4565
905.921	4474
906.038	4561
906.155	4493
906.272	4436
906.389	4481
906.506	4363
906.623	4356
906.74	4417
906.857	4333
906.974	4398
907.091	4554
907.208	4771
907.324	4615
907.441	4542
907.557	4356
907.674	4375
907.79	4344
907.907	4398
908.023	4531
908.139	4516
908.256	4447
908.372	4493
908.488	4470
908.604	4402
908.72	4356
908.836	4417
908.952	4455
909.068	4451
909.184	4611
909.3	4519
909.415	4599
909.531	4630
909.647	4386
909.762	4413
909.878	4341
909.993	4516
910.108	4455
910.224	4443
910.339	4481
910.454	4405
910.57	4398
910.685	4337
910.8	4637
910.915	4630
911.03	4500
911.145	4421
911.259	4337
911.374	4390
911.489	4322
911.604	4306
911.718	4158
911.833	4215
911.947	4124
912.062	4128
912.176	4257
912.291	4238
912.405	4272
912.519	4512
912.633	4523
912.748	4428
912.862	4367
912.976	4257
913.09	4181
913.204	4215
913.318	4268
913.431	4398
913.545	4367
913.659	4440
913.772	4398
913.886	4295
914	4230
914.113	4383
914.226	4455
914.34	4451
914.453	4238
914.566	4443
914.68	4329
914.793	4375
914.906	4207
915.019	4166
915.132	4082
915.245	4173
915.358	4227
915.47	4227
915.583	4227
915.696	4348
915.809	4440
915.921	4447
916.034	4295
916.146	4306
916.259	4223
916.371	4421
916.483	4379
916.595	4280
916.708	4344
916.82	4356
916.932	4386
917.044	4325
917.156	4337
917.268	4276
917.38	4280
917.491	4284
917.603	4363
917.715	4421
917.826	4447
917.938	4375
918.049	4253
918.161	4417
918.272	4569
918.384	4508
918.495	4466
918.606	4344
918.717	4253
918.828	4398
918.939	4402
919.05	4303
919.161	4325
919.272	4086
919.383	4238
919.494	4508
919.604	4698
919.715	4519
919.826	4375
919.936	4421
920.047	4546
920.157	4466
920.267	4702
920.378	4550
920.488	4512
920.598	4759
920.708	4915
920.818	4736
920.928	4797
921.038	4919
921.148	4927
921.258	4672
921.368	4607
921.477	4500
921.587	4474
921.697	4428
921.806	4580
921.916	4421
922.025	4284
922.134	4303
922.244	4257
922.353	4344
922.462	4169
922.571	4177
922.68	4040
922.789	3983
922.898	4093
923.007	4048
923.116	4150
923.224	4059
923.333	4120
923.442	4010
923.55	4032
923.659	4059
923.767	4120
923.876	4032
923.984	4154
924.092	3949
924.201	4074
924.309	4124
924.417	4147
924.525	4067
924.633	4120
924.741	4904
924.849	3960
924.956	4128
925.064	3941
925.172	3934
925.279	4029
925.387	4112
925.494	4082
925.602	4253
925.709	4185
925.816	4021
925.924	4192
926.031	4253
926.138	4177
926.245	4242
926.352	4090
926.459	4272
926.566	4314
926.673	4200
926.779	4101
926.886	4078
926.993	4017
927.099	3949
927.206	3979
927.312	3975
927.419	4059
927.525	4067
927.631	4078
927.737	4017
927.843	3922
927.95	3873
928.056	3987
928.162	3994
928.267	4071
928.373	4596
928.479	4147
928.585	3934
928.69	4051
928.796	4055
928.901	4010
929.007	3854
929.112	4074
929.218	3964
929.323	3922
929.428	3926
929.533	4090
929.638	3915
929.743	3983
929.848	4082
929.953	4032
930.058	3945
930.163	3800
930.267	3869
930.372	3994
930.477	3774
930.581	4109
930.685	3975
930.79	3854
930.894	3888
930.998	3888
931.103	4059
931.207	3717
931.311	3728
931.415	3629
931.519	3591
931.623	3576
