Data from test_V78500241_1627.txt Node
Date: Fri Mar 25 17:00:18 CST 2022
User: usil
Spectrometer: V785-0024
Trigger mode: 0
Integration Time (sec): 4.000000E-1
Scans to average: 1
Nonlinearity correction enabled: false
Boxcar width: 0
Storing dark spectrum: false
XAxis mode: Wavelengths
Number of Pixels in Spectrum: 1024
>>>>>Begin Spectral Data<<<<<
801.071	7989
801.214	8058
801.356	7963
801.499	7849
801.641	7807
801.783	7864
801.926	7951
802.068	7963
802.211	8020
802.353	8031
802.496	7890
802.638	7894
802.78	8020
802.923	7917
803.065	7883
803.208	7822
803.35	7963
803.492	8134
803.635	8130
803.777	8005
803.919	8149
804.061	8473
804.204	8153
804.346	8073
804.488	7860
804.63	8077
804.773	8020
804.915	8126
805.057	8298
805.199	8149
805.341	8248
805.483	8237
805.626	8225
805.768	8115
805.91	8176
806.052	8206
806.194	8153
806.336	8263
806.478	8107
806.62	8031
806.762	8157
806.904	8339
807.046	8514
807.188	8343
807.33	8267
807.472	8305
807.614	8195
807.756	8263
807.898	7993
808.04	7917
808.182	7963
808.324	7864
808.465	7883
808.607	8115
808.749	8126
808.891	8153
809.033	8229
809.174	8317
809.316	8031
809.458	8107
809.6	8046
809.741	7993
809.883	7982
810.025	8081
810.166	8100
810.308	8054
810.45	7963
810.591	7856
810.733	7666
810.875	7647
811.016	7510
811.158	7468
811.299	7582
811.441	7708
811.582	7670
811.724	7586
811.865	7537
812.007	7578
812.148	7571
812.29	7643
812.431	7795
812.573	7940
812.714	8077
812.855	8119
812.997	8248
813.138	8237
813.279	8176
813.421	8081
813.562	7986
813.703	7898
813.845	7769
813.986	7464
814.127	7274
814.268	7236
814.41	7168
814.551	7183
814.692	7198
814.833	7061
814.974	7122
815.115	7156
815.256	7000
815.397	6977
815.539	6989
815.68	6818
815.821	6776
815.962	6840
816.103	6859
816.244	6696
816.385	6631
816.526	6547
816.666	6445
816.807	6270
816.948	6410
817.089	6509
817.23	6448
817.371	6338
817.512	6357
817.653	6365
817.793	6342
817.934	6403
818.075	6490
818.216	6410
818.356	6334
818.497	6251
818.638	6087
818.778	6121
818.919	6095
819.06	6136
819.2	6319
819.341	6365
819.481	6372
819.622	6563
819.762	6642
819.903	6779
820.043	6639
820.184	6582
820.324	6631
820.465	6722
820.605	6715
820.746	6646
820.886	6563
821.026	6700
821.167	6673
821.307	6837
821.447	6757
821.588	6715
821.728	6563
821.868	6471
822.008	6315
822.149	6372
822.289	6342
822.429	6186
822.569	6125
822.709	6095
822.849	5870
822.99	5851
823.13	5942
823.27	5927
823.41	5775
823.55	5764
823.69	5756
823.83	5779
823.97	5714
824.11	5554
824.25	5520
824.389	5551
824.529	5649
824.669	5516
824.809	5657
824.949	5638
825.089	5630
825.228	5562
825.368	5372
825.508	5334
825.648	5288
825.787	5391
825.927	5402
826.067	5326
826.206	5326
826.346	5474
826.485	5433
826.625	5364
826.765	5570
826.904	5478
827.044	5288
827.183	5208
827.323	5136
827.462	5239
827.601	5155
827.741	5197
827.88	5220
828.02	5147
828.159	5220
828.298	5303
828.437	5364
828.577	5258
828.716	5429
828.855	5303
828.994	5174
829.134	5162
829.273	5208
829.412	5174
829.551	5094
829.69	5136
829.829	5227
829.968	5410
830.107	5239
830.246	5273
830.385	5155
830.524	5098
830.663	5060
830.802	4961
830.941	4908
831.08	4911
831.219	4946
831.357	4972
831.496	5147
831.635	4911
831.774	4854
831.913	4850
832.051	4729
832.19	4771
832.329	4850
832.467	4736
832.606	4672
832.744	4733
832.883	4733
833.022	4706
833.16	4744
833.299	4812
833.437	4843
833.576	4828
833.714	4870
833.852	4873
833.991	4904
834.129	4946
834.267	4942
834.406	4923
834.544	4984
834.682	5041
834.821	4965
834.959	5166
835.097	5018
835.235	5098
835.373	5079
835.511	5105
835.65	5014
835.788	5006
835.926	4873
836.064	4911
836.202	4938
836.34	5151
836.478	5216
836.615	5121
836.753	5235
836.891	5258
837.029	5231
837.167	5204
837.305	5102
837.443	5113
837.58	5094
837.718	5227
837.856	5181
837.993	5147
838.131	5273
838.269	5201
838.406	5189
838.544	5212
838.681	5010
838.819	5003
838.956	4904
839.094	4953
839.231	5006
839.369	5083
839.506	5429
839.643	5273
839.781	5109
839.918	5025
840.055	5083
840.193	5098
840.33	5102
840.467	5185
840.604	5197
840.742	5455
840.879	5124
841.016	5060
841.153	5121
841.29	5311
841.427	5345
841.564	5360
841.701	5429
841.838	5299
841.975	5265
842.112	5280
842.249	5166
842.385	5140
842.522	5326
842.659	5162
842.796	5128
842.933	5227
843.069	5201
843.206	5143
843.343	5326
843.479	5193
843.616	5357
843.752	4987
843.889	4991
844.025	5204
844.162	5022
844.298	5197
844.435	5045
844.571	5018
844.708	5178
844.844	5311
844.98	5311
845.117	5242
845.253	5159
845.389	5033
845.525	5162
845.661	5102
845.798	5014
845.934	5159
846.07	5006
846.206	5155
846.342	5242
846.478	5170
846.614	4999
846.75	4976
846.886	4938
847.022	5162
847.158	5048
847.294	5083
847.429	5094
847.565	5052
847.701	5372
847.837	4885
847.972	4782
848.108	4949
848.244	4934
848.379	4744
848.515	4736
848.65	4744
848.786	4767
848.921	4835
849.057	4843
849.192	4900
849.328	4812
849.463	4870
849.598	4748
849.734	4797
849.869	4675
850.004	4637
850.14	4717
850.275	4626
850.41	4550
850.545	4611
850.68	4615
850.815	4607
850.95	4687
851.085	4824
851.22	4782
851.355	4622
851.49	4622
851.625	4645
851.76	4634
851.895	4508
852.03	4512
852.165	4622
852.299	4714
852.434	4778
852.569	4733
852.703	4793
852.838	4854
852.973	4972
853.107	4908
853.242	4759
853.376	4649
853.511	4565
853.645	4550
853.78	4748
853.914	4694
854.048	4653
854.183	4637
854.317	4721
854.451	4854
854.585	4622
854.72	4641
854.854	4752
854.988	4569
855.122	4596
855.256	4546
855.39	4649
855.524	4782
855.658	4782
855.792	4687
855.926	4717
856.06	4744
856.194	4790
856.327	4672
856.461	4588
856.595	4622
856.729	4588
856.862	4778
856.996	4694
857.13	4714
857.263	4755
857.397	4782
857.53	4645
857.664	4710
857.797	4759
857.931	4755
858.064	4752
858.197	4767
858.331	4664
858.464	4565
858.597	4561
858.731	4599
858.864	4634
858.997	4630
859.13	4668
859.263	4660
859.396	4683
859.529	4580
859.662	4569
859.795	4493
859.928	4649
860.061	4778
860.194	4767
860.327	4580
860.46	4588
860.592	4698
860.725	4740
860.858	4744
860.99	4573
861.123	4542
861.256	4500
861.388	4607
861.521	5162
861.653	4531
861.786	4466
861.918	4424
862.05	4569
862.183	4535
862.315	4603
862.447	4656
862.58	4531
862.712	4386
862.844	4341
862.976	4459
863.108	4455
863.24	4786
863.372	4337
863.504	4424
863.636	4402
863.768	4519
863.9	4447
864.032	4371
864.164	4451
864.296	4409
864.428	4504
864.559	4531
864.691	4500
864.823	4485
864.954	4478
865.086	4481
865.217	4481
865.349	4417
865.48	4481
865.612	4519
865.743	4672
865.875	4470
866.006	4455
866.137	4470
866.269	4428
866.4	4447
866.531	4379
866.662	4421
866.793	4386
866.924	4443
867.055	4512
867.186	4447
867.317	4459
867.448	4367
867.579	4402
867.71	4462
867.841	4360
867.972	4462
868.103	4466
868.233	4451
868.364	4481
868.495	4428
868.625	4656
868.756	4786
868.886	4580
869.017	4596
869.147	4752
869.278	4767
869.408	4615
869.539	4615
869.669	4702
869.799	4622
869.929	4752
870.06	4691
870.19	4919
870.32	4961
870.45	4923
870.58	4976
870.71	5098
870.84	5067
870.97	4873
871.1	4896
871.23	5124
871.36	5143
871.489	5041
871.619	5067
871.749	5045
871.879	5128
872.008	5201
872.138	5071
872.267	4972
872.397	4877
872.526	4824
872.656	4725
872.785	4763
872.915	4923
873.044	5048
873.173	4938
873.303	4961
873.432	4896
873.561	4995
873.69	4831
873.819	4946
873.948	4919
874.077	4801
874.206	4790
874.335	4790
874.464	4904
874.593	5041
874.722	4957
874.851	5094
874.979	5075
875.108	5033
875.237	4866
875.365	4839
875.494	4850
875.623	4938
875.751	4847
875.88	4873
876.008	4961
876.136	4999
876.265	5201
876.393	5334
876.521	5235
876.65	5204
876.778	5181
876.906	5124
877.034	5064
877.162	5022
877.29	4965
877.418	5033
877.546	5064
877.674	5041
877.802	5018
877.93	5018
878.058	4946
878.185	4831
878.313	4961
878.441	4984
878.568	4797
878.696	4847
878.824	4930
878.951	4968
879.079	5132
879.206	5258
879.333	5064
879.461	4987
879.588	5041
879.715	5109
879.842	5151
879.97	5010
880.097	4790
880.224	4706
880.351	4824
880.478	4828
880.605	4782
880.732	4805
880.859	5071
880.986	4881
881.112	4919
881.239	4725
881.366	4725
881.493	4622
881.619	4538
881.746	4660
881.872	4698
881.999	4603
882.125	4668
882.252	4740
882.378	4790
882.505	4961
882.631	4786
882.757	4622
882.883	4717
883.01	4717
883.136	4649
883.262	4584
883.388	4573
883.514	4858
883.64	4854
883.766	4801
883.892	4664
884.018	4687
884.143	4900
884.269	5037
884.395	4645
884.52	4641
884.646	4664
884.772	4622
884.897	4569
885.023	4599
885.148	4763
885.274	4858
885.399	4809
885.524	4679
885.65	4717
885.775	4733
885.9	4725
886.025	4843
886.15	4752
886.275	4740
886.4	4626
886.525	4733
886.65	4717
886.775	4653
886.9	4949
887.025	5045
887.149	4824
887.274	4607
887.399	4550
887.523	4584
887.648	4580
887.773	4577
887.897	4812
888.021	4824
888.146	4687
888.27	4790
888.395	4862
888.519	4809
888.643	4812
888.767	4824
888.891	4645
889.015	4584
889.139	4599
889.263	4607
889.387	4721
889.511	4850
889.635	4774
889.759	4672
889.883	4630
890.006	4725
890.13	4812
890.254	4588
890.377	4714
890.501	4577
890.624	4504
890.748	4634
890.871	4531
890.995	4428
891.118	4432
891.241	4497
891.364	4519
891.488	4603
891.611	4474
891.734	4535
891.857	4603
891.98	4588
892.103	4653
892.226	4554
892.349	4531
892.471	4428
892.594	4538
892.717	4618
892.839	4569
892.962	4542
893.085	4611
893.207	4584
893.33	4455
893.452	4527
893.575	4634
893.697	4565
893.819	4767
893.941	4790
894.064	4809
894.186	4546
894.308	4611
894.43	4733
894.552	4847
894.674	4786
894.796	4535
894.918	4569
895.04	4527
895.161	4717
895.283	4664
895.405	4565
895.526	4641
895.648	4656
895.769	4660
895.891	4694
896.012	4691
896.134	4672
896.255	4679
896.376	4679
896.498	4580
896.619	4634
896.74	4656
896.861	4641
896.982	4938
897.103	5098
897.224	4831
897.345	4767
897.466	4668
897.587	4714
897.708	4862
897.828	4763
897.949	4679
898.07	4580
898.19	4615
898.311	4854
898.431	4645
898.552	4679
898.672	4850
898.792	4812
898.913	4767
899.033	4656
899.153	4500
899.273	4462
899.393	4481
899.513	4538
899.633	4523
899.753	4554
899.873	4535
899.993	4603
900.113	4512
900.232	4603
900.352	4558
900.472	4512
900.591	4356
900.711	4428
900.83	4436
900.95	4615
901.069	4725
901.189	4527
901.308	4383
901.427	4318
901.546	4337
901.665	4500
901.784	4550
901.904	4447
902.023	4337
902.141	4215
902.26	4131
902.379	4295
902.498	4257
902.617	4200
902.735	4356
902.854	4379
902.973	4341
903.091	4188
903.21	4215
903.328	4306
903.446	4276
903.565	4215
903.683	4371
903.801	4299
903.919	4386
904.038	4402
904.156	4333
904.274	4451
904.392	4379
904.51	4413
904.627	4462
904.745	4569
904.863	4634
904.981	4337
905.098	4310
905.216	4352
905.334	4432
905.451	4383
905.569	4466
905.686	4523
905.803	4546
905.921	4413
906.038	4519
906.155	4462
906.272	4352
906.389	4485
906.506	4356
906.623	4333
906.74	4337
906.857	4344
906.974	4348
907.091	4577
907.208	4679
907.324	4554
907.441	4478
907.557	4352
907.674	4341
907.79	4299
907.907	4352
908.023	4485
908.139	4474
908.256	4451
908.372	4451
908.488	4398
908.604	4375
908.72	4337
908.836	4314
908.952	4356
909.068	4409
909.184	4573
909.3	4531
909.415	4577
909.531	4542
909.647	4367
909.762	4352
909.878	4341
909.993	4428
910.108	4405
910.224	4443
910.339	4466
910.454	4371
910.57	4318
910.685	4325
910.8	4649
910.915	4573
911.03	4474
911.145	4291
911.259	4325
911.374	4383
911.489	4272
911.604	4306
911.718	4147
911.833	4204
911.947	4086
912.062	4017
912.176	4227
912.291	4265
912.405	4253
912.519	4462
912.633	4504
912.748	4329
912.862	4329
912.976	4166
913.09	4074
913.204	4173
913.318	4246
913.431	4375
913.545	4363
913.659	4447
913.772	4341
913.886	4234
914	4234
914.113	4352
914.226	4432
914.34	4417
914.453	4230
914.566	4428
914.68	4322
914.793	4287
914.906	4131
915.019	4120
915.132	4063
915.245	4131
915.358	4215
915.47	4272
915.583	4257
915.696	4325
915.809	4375
915.921	4402
916.034	4192
916.146	4268
916.259	4230
916.371	4367
916.483	4367
916.595	4284
916.708	4329
916.82	4306
916.932	4287
917.044	4375
917.156	4344
917.268	4253
917.38	4242
917.491	4204
917.603	4318
917.715	4386
917.826	4421
917.938	4344
918.049	4223
918.161	4356
918.272	4554
918.384	4527
918.495	4470
918.606	4261
918.717	4227
918.828	4341
918.939	4379
919.05	4211
919.161	4333
919.272	4135
919.383	4211
919.494	4455
919.604	4637
919.715	4485
919.826	4329
919.936	4333
920.047	4497
920.157	4466
920.267	4706
920.378	4550
920.488	4497
920.598	4691
920.708	4820
920.818	4782
920.928	4702
921.038	4930
921.148	4892
921.258	4615
921.368	4561
921.477	4535
921.587	4478
921.697	4386
921.806	4550
921.916	4402
922.025	4295
922.134	4272
922.244	4246
922.353	4299
922.462	4166
922.571	4120
922.68	3994
922.789	3964
922.898	4029
923.007	3987
923.116	4090
923.224	4051
923.333	4086
923.442	4006
923.55	4010
923.659	4044
923.767	4063
923.876	4040
923.984	4086
924.092	3941
924.201	4082
924.309	4063
924.417	4109
924.525	4040
924.633	4090
924.741	4824
924.849	3934
924.956	4093
925.064	3964
925.172	3865
925.279	3941
925.387	4017
925.494	4059
925.602	4227
925.709	4173
925.816	4051
925.924	4109
926.031	4219
926.138	4147
926.245	4169
926.352	4055
926.459	4249
926.566	4329
926.673	4200
926.779	4105
926.886	4109
926.993	3945
927.099	3941
927.206	3964
927.312	3941
927.419	4067
927.525	4044
927.631	4147
927.737	3983
927.843	3937
927.95	3865
928.056	3964
928.162	4002
928.267	4044
928.373	4584
928.479	4131
928.585	3888
928.69	4032
928.796	4051
928.901	3941
929.007	3846
929.112	4032
929.218	3972
929.323	3949
929.428	3968
929.533	4143
929.638	3888
929.743	3949
929.848	4029
929.953	3972
930.058	3873
930.163	3827
930.267	3838
930.372	4010
930.477	3800
930.581	4112
930.685	3994
930.79	3823
930.894	3846
930.998	3861
931.103	4002
931.207	3728
931.311	3694
931.415	3637
931.519	3542
931.623	3576
