Data from test_V78500241_488.txt Node
Date: Fri Mar 25 16:52:23 CST 2022
User: usil
Spectrometer: V785-0024
Trigger mode: 0
Integration Time (sec): 4.000000E-1
Scans to average: 1
Nonlinearity correction enabled: false
Boxcar width: 0
Storing dark spectrum: false
XAxis mode: Wavelengths
Number of Pixels in Spectrum: 1024
>>>>>Begin Spectral Data<<<<<
801.071	8088
801.214	7913
801.356	7917
801.499	7860
801.641	7856
801.783	7883
801.926	8008
802.068	7997
802.211	8077
802.353	8062
802.496	7913
802.638	7936
802.78	8058
802.923	7959
803.065	7883
803.208	7909
803.35	7982
803.492	8073
803.635	8126
803.777	7986
803.919	8119
804.061	8488
804.204	8164
804.346	8062
804.488	7986
804.63	8134
804.773	7955
804.915	8130
805.057	8286
805.199	8191
805.341	8157
805.483	8229
805.626	8164
805.768	8065
805.91	8142
806.052	8142
806.194	8092
806.336	8252
806.478	8073
806.62	8069
806.762	8142
806.904	8206
807.046	8549
807.188	8233
807.33	8214
807.472	8252
807.614	8176
807.756	8138
807.898	8008
808.04	7894
808.182	8005
808.324	7894
808.465	7906
808.607	8043
808.749	8092
808.891	8233
809.033	8286
809.174	8233
809.316	8027
809.458	8039
809.6	8031
809.741	8035
809.883	8001
810.025	8096
810.166	8123
810.308	8050
810.45	7986
810.591	7921
810.733	7761
810.875	7696
811.016	7476
811.158	7540
811.299	7624
811.441	7742
811.582	7723
811.724	7601
811.865	7582
812.007	7670
812.148	7620
812.29	7609
812.431	7772
812.573	7928
812.714	8016
812.855	8157
812.997	8279
813.138	8347
813.279	8168
813.421	8115
813.562	8142
813.703	7932
813.845	7902
813.986	7495
814.127	7331
814.268	7285
814.41	7282
814.551	7232
814.692	7206
814.833	7084
814.974	7095
815.115	7179
815.256	6977
815.397	6943
815.539	6939
815.68	6909
815.821	6890
815.962	6901
816.103	6856
816.244	6848
816.385	6627
816.526	6654
816.666	6601
816.807	6323
816.948	6483
817.089	6498
817.23	6464
817.371	6372
817.512	6361
817.653	6433
817.793	6372
817.934	6426
818.075	6433
818.216	6414
818.356	6433
818.497	6311
818.638	6140
818.778	6190
818.919	6110
819.06	6114
819.2	6388
819.341	6289
819.481	6323
819.622	6544
819.762	6760
819.903	6673
820.043	6593
820.184	6612
820.324	6597
820.465	6722
820.605	6650
820.746	6650
820.886	6486
821.026	6623
821.167	6726
821.307	6734
821.447	6734
821.588	6639
821.728	6601
821.868	6467
822.008	6403
822.149	6414
822.289	6391
822.429	6129
822.569	6110
822.709	6125
822.849	5927
822.99	5878
823.13	5893
823.27	5961
823.41	5809
823.55	5805
823.69	5718
823.83	5767
823.97	5714
824.11	5543
824.25	5501
824.389	5562
824.529	5570
824.669	5524
824.809	5627
824.949	5627
825.089	5653
825.228	5570
825.368	5440
825.508	5433
825.648	5391
825.787	5402
825.927	5357
826.067	5307
826.206	5341
826.346	5402
826.485	5433
826.625	5433
826.765	5570
826.904	5463
827.044	5265
827.183	5197
827.323	5147
827.462	5250
827.601	5159
827.741	5193
827.88	5223
828.02	5128
828.159	5227
828.298	5277
828.437	5360
828.577	5284
828.716	5493
828.855	5368
828.994	5185
829.134	5204
829.273	5174
829.412	5162
829.551	5136
829.69	5239
829.829	5242
829.968	5364
830.107	5296
830.246	5277
830.385	5189
830.524	5143
830.663	5090
830.802	4949
830.941	4976
831.08	4942
831.219	5029
831.357	4999
831.496	5181
831.635	4904
831.774	4877
831.913	4873
832.051	4759
832.19	4763
832.329	4843
832.467	4729
832.606	4672
832.744	4710
832.883	4717
833.022	4729
833.16	4820
833.299	4854
833.437	4816
833.576	4862
833.714	4881
833.852	4892
833.991	4854
834.129	4961
834.267	4980
834.406	4961
834.544	5029
834.682	4972
834.821	4999
834.959	5201
835.097	5014
835.235	5140
835.373	5067
835.511	5136
835.65	5003
835.788	5056
835.926	4946
836.064	4889
836.202	4938
836.34	5136
836.478	5201
836.615	5083
836.753	5208
836.891	5292
837.029	5246
837.167	5216
837.305	5162
837.443	5166
837.58	5113
837.718	5299
837.856	5159
837.993	5174
838.131	5231
838.269	5174
838.406	5193
838.544	5151
838.681	5041
838.819	4976
838.956	4896
839.094	4919
839.231	4938
839.369	5083
839.506	5398
839.643	5242
839.781	5083
839.918	5029
840.055	5128
840.193	5086
840.33	5056
840.467	5208
840.604	5208
840.742	5516
840.879	5086
841.016	5121
841.153	5170
841.29	5360
841.427	5364
841.564	5364
841.701	5406
841.838	5288
841.975	5258
842.112	5273
842.249	5140
842.385	5151
842.522	5330
842.659	5220
842.796	5090
842.933	5212
843.069	5151
843.206	5208
843.343	5364
843.479	5231
843.616	5296
843.752	5071
843.889	4965
844.025	5231
844.162	5079
844.298	5231
844.435	5060
844.571	5075
844.708	5185
844.844	5311
844.98	5368
845.117	5334
845.253	5181
845.389	5159
845.525	5132
845.661	5174
845.798	5041
845.934	5143
846.07	5083
846.206	5181
846.342	5269
846.478	5201
846.614	5033
846.75	5025
846.886	5006
847.022	5117
847.158	5067
847.294	5037
847.429	5132
847.565	5064
847.701	5410
847.837	4858
847.972	4812
848.108	4946
848.244	4946
848.379	4778
848.515	4778
848.65	4706
848.786	4740
848.921	4797
849.057	4866
849.192	4908
849.328	4854
849.463	4866
849.598	4793
849.734	4740
849.869	4721
850.004	4683
850.14	4683
850.275	4607
850.41	4573
850.545	4577
850.68	4641
850.815	4630
850.95	4645
851.085	4854
851.22	4778
851.355	4691
851.49	4672
851.625	4637
851.76	4641
851.895	4558
852.03	4542
852.165	4618
852.299	4717
852.434	4767
852.569	4752
852.703	4763
852.838	4790
852.973	4938
853.107	4892
853.242	4736
853.376	4668
853.511	4546
853.645	4611
853.78	4828
853.914	4656
854.048	4698
854.183	4626
854.317	4675
854.451	4831
854.585	4698
854.72	4645
854.854	4755
854.988	4607
855.122	4626
855.256	4519
855.39	4672
855.524	4778
855.658	4710
855.792	4706
855.926	4733
856.06	4801
856.194	4774
856.327	4729
856.461	4596
856.595	4637
856.729	4607
856.862	4748
856.996	4740
857.13	4752
857.263	4755
857.397	4850
857.53	4698
857.664	4721
857.797	4774
857.931	4759
858.064	4725
858.197	4744
858.331	4694
858.464	4618
858.597	4561
858.731	4618
858.864	4607
858.997	4634
859.13	4691
859.263	4721
859.396	4710
859.529	4577
859.662	4588
859.795	4599
859.928	4634
860.061	4786
860.194	4752
860.327	4565
860.46	4630
860.592	4725
860.725	4706
860.858	4672
860.99	4546
861.123	4550
861.256	4523
861.388	4599
861.521	5360
861.653	4478
861.786	4493
861.918	4478
862.05	4519
862.183	4588
862.315	4584
862.447	4641
862.58	4599
862.712	4413
862.844	4344
862.976	4489
863.108	4478
863.24	4801
863.372	4341
863.504	4421
863.636	4417
863.768	4462
863.9	4413
864.032	4341
864.164	4440
864.296	4523
864.428	4508
864.559	4588
864.691	4611
864.823	4497
864.954	4481
865.086	4493
865.217	4470
865.349	4363
865.48	4436
865.612	4519
865.743	4645
865.875	4470
866.006	4447
866.137	4459
866.269	4443
866.4	4405
866.531	4447
866.662	4394
866.793	4333
866.924	4462
867.055	4512
867.186	4485
867.317	4421
867.448	4417
867.579	4383
867.71	4375
867.841	4375
867.972	4466
868.103	4424
868.233	4466
868.364	4493
868.495	4500
868.625	4656
868.756	4729
868.886	4527
869.017	4645
869.147	4774
869.278	4752
869.408	4668
869.539	4653
869.669	4736
869.799	4668
869.929	4744
870.06	4767
870.19	4953
870.32	4927
870.45	4930
870.58	4984
870.71	5075
870.84	5105
870.97	4938
871.1	4915
871.23	5094
871.36	5162
871.489	5037
871.619	5121
871.749	5086
871.879	5128
872.008	5197
872.138	5048
872.267	4995
872.397	4835
872.526	4809
872.656	4733
872.785	4812
872.915	4961
873.044	5018
873.173	4949
873.303	4911
873.432	4968
873.561	4938
873.69	4900
873.819	4847
873.948	4911
874.077	4812
874.206	4729
874.335	4805
874.464	4896
874.593	5056
874.722	4934
874.851	5147
874.979	5052
875.108	4980
875.237	4908
875.365	4892
875.494	4870
875.623	4976
875.751	4793
875.88	4858
876.008	5037
876.136	5041
876.265	5227
876.393	5322
876.521	5265
876.65	5250
876.778	5170
876.906	5064
877.034	5079
877.162	5022
877.29	5086
877.418	5056
877.546	5083
877.674	5098
877.802	5071
877.93	5025
878.058	4965
878.185	4919
878.313	4991
878.441	4995
878.568	4782
878.696	4881
878.824	4949
878.951	5041
879.079	5162
879.206	5250
879.333	5094
879.461	4995
879.588	5041
879.715	5136
879.842	5162
879.97	5041
880.097	4816
880.224	4786
880.351	4763
880.478	4831
880.605	4839
880.732	4725
880.859	5109
880.986	4896
881.112	4953
881.239	4797
881.366	4679
881.493	4634
881.619	4592
881.746	4698
881.872	4649
881.999	4649
882.125	4675
882.252	4790
882.378	4801
882.505	4957
882.631	4774
882.757	4694
882.883	4683
883.01	4759
883.136	4702
883.262	4592
883.388	4645
883.514	4820
883.64	4828
883.766	4748
883.892	4645
884.018	4744
884.143	4919
884.269	5018
884.395	4672
884.52	4630
884.646	4618
884.772	4603
884.897	4573
885.023	4675
885.148	4831
885.274	4854
885.399	4782
885.524	4706
885.65	4706
885.775	4797
885.9	4755
886.025	4843
886.15	4782
886.275	4710
886.4	4645
886.525	4736
886.65	4740
886.775	4698
886.9	4911
887.025	5067
887.149	4812
887.274	4653
887.399	4592
887.523	4588
887.648	4565
887.773	4592
887.897	4782
888.021	4835
888.146	4660
888.27	4839
888.395	4908
888.519	4824
888.643	4782
888.767	4847
888.891	4706
889.015	4580
889.139	4607
889.263	4580
889.387	4771
889.511	4892
889.635	4793
889.759	4622
889.883	4641
890.006	4744
890.13	4831
890.254	4641
890.377	4706
890.501	4577
890.624	4527
890.748	4656
890.871	4558
890.995	4459
891.118	4398
891.241	4489
891.364	4535
891.488	4653
891.611	4493
891.734	4500
891.857	4596
891.98	4527
892.103	4668
892.226	4634
892.349	4516
892.471	4459
892.594	4565
892.717	4603
892.839	4603
892.962	4611
893.085	4660
893.207	4634
893.33	4424
893.452	4577
893.575	4656
893.697	4569
893.819	4763
893.941	4793
894.064	4843
894.186	4542
894.308	4573
894.43	4744
894.552	4854
894.674	4763
894.796	4584
894.918	4660
895.04	4584
895.161	4740
895.283	4656
895.405	4607
895.526	4637
895.648	4702
895.769	4721
895.891	4702
896.012	4740
896.134	4702
896.255	4683
896.376	4679
896.498	4592
896.619	4641
896.74	4584
896.861	4668
896.982	4915
897.103	5064
897.224	4843
897.345	4706
897.466	4679
897.587	4752
897.708	4850
897.828	4748
897.949	4660
898.07	4645
898.19	4664
898.311	4778
898.431	4687
898.552	4729
898.672	4809
898.792	4809
898.913	4755
899.033	4603
899.153	4527
899.273	4405
899.393	4531
899.513	4569
899.633	4516
899.753	4584
899.873	4512
899.993	4615
900.113	4531
900.232	4603
900.352	4512
900.472	4493
900.591	4390
900.711	4398
900.83	4443
900.95	4622
901.069	4679
901.189	4558
901.308	4356
901.427	4383
901.546	4371
901.665	4443
901.784	4527
901.904	4405
902.023	4314
902.141	4219
902.26	4116
902.379	4352
902.498	4280
902.617	4230
902.735	4413
902.854	4379
902.973	4386
903.091	4188
903.21	4238
903.328	4246
903.446	4242
903.565	4230
903.683	4383
903.801	4276
903.919	4379
904.038	4451
904.156	4272
904.274	4470
904.392	4405
904.51	4417
904.627	4485
904.745	4558
904.863	4649
904.981	4333
905.098	4299
905.216	4390
905.334	4398
905.451	4447
905.569	4428
905.686	4542
905.803	4558
905.921	4424
906.038	4558
906.155	4478
906.272	4341
906.389	4424
906.506	4379
906.623	4413
906.74	4409
906.857	4299
906.974	4440
907.091	4523
907.208	4717
907.324	4561
907.441	4462
907.557	4375
907.674	4333
907.79	4341
907.907	4394
908.023	4497
908.139	4443
908.256	4436
908.372	4493
908.488	4417
908.604	4348
908.72	4318
908.836	4402
908.952	4356
909.068	4443
909.184	4519
909.3	4443
909.415	4615
909.531	4580
909.647	4360
909.762	4348
909.878	4363
909.993	4459
910.108	4413
910.224	4424
910.339	4527
910.454	4394
910.57	4352
910.685	4337
910.8	4675
910.915	4592
911.03	4489
911.145	4329
911.259	4348
911.374	4348
911.489	4310
911.604	4280
911.718	4234
911.833	4173
911.947	4128
912.062	4086
912.176	4242
912.291	4253
912.405	4265
912.519	4481
912.633	4519
912.748	4371
912.862	4371
912.976	4280
913.09	4112
913.204	4204
913.318	4257
913.431	4363
913.545	4337
913.659	4455
913.772	4398
913.886	4207
914	4299
914.113	4405
914.226	4424
914.34	4375
914.453	4211
914.566	4489
914.68	4337
914.793	4299
914.906	4124
915.019	4101
915.132	4124
915.245	4188
915.358	4215
915.47	4280
915.583	4337
915.696	4310
915.809	4409
915.921	4398
916.034	4249
916.146	4261
916.259	4177
916.371	4398
916.483	4341
916.595	4253
916.708	4287
916.82	4318
916.932	4363
917.044	4344
917.156	4310
917.268	4188
917.38	4280
917.491	4287
917.603	4360
917.715	4390
917.826	4447
917.938	4375
918.049	4276
918.161	4424
918.272	4588
918.384	4558
918.495	4432
918.606	4272
918.717	4219
918.828	4325
918.939	4360
919.05	4249
919.161	4299
919.272	4162
919.383	4227
919.494	4462
919.604	4603
919.715	4459
919.826	4337
919.936	4443
920.047	4546
920.157	4535
920.267	4748
920.378	4527
920.488	4527
920.598	4759
920.708	4900
920.818	4729
920.928	4763
921.038	4927
921.148	4919
921.258	4596
921.368	4561
921.477	4489
921.587	4436
921.697	4379
921.806	4592
921.916	4440
922.025	4268
922.134	4257
922.244	4265
922.353	4363
922.462	4173
922.571	4116
922.68	4025
922.789	3964
922.898	4048
923.007	4021
923.116	4116
923.224	4063
923.333	4063
923.442	3991
923.55	3983
923.659	4029
923.767	4063
923.876	3968
923.984	4135
924.092	3979
924.201	4093
924.309	4048
924.417	4082
924.525	4086
924.633	4112
924.741	5029
924.849	3911
924.956	4143
925.064	3945
925.172	3915
925.279	3937
925.387	4044
925.494	4055
925.602	4223
925.709	4177
925.816	4040
925.924	4158
926.031	4249
926.138	4177
926.245	4265
926.352	4090
926.459	4299
926.566	4337
926.673	4185
926.779	4063
926.886	4048
926.993	3991
927.099	3956
927.206	3960
927.312	3945
927.419	4086
927.525	4029
927.631	4090
927.737	3987
927.843	3934
927.95	3827
928.056	3945
928.162	4006
928.267	4048
928.373	4702
928.479	4105
928.585	3899
928.69	4017
928.796	4048
928.901	3991
929.007	3842
929.112	4063
929.218	4013
929.323	3937
929.428	3907
929.533	4109
929.638	3888
929.743	3926
929.848	4063
929.953	4021
930.058	3937
930.163	3793
930.267	3869
930.372	4029
930.477	3823
930.581	4082
930.685	3934
930.79	3850
930.894	3892
930.998	3827
931.103	4021
931.207	3705
931.311	3667
931.415	3709
931.519	3504
931.623	3599
