Data from test_V78500241_1922.txt Node
Date: Fri Mar 25 17:02:21 CST 2022
User: usil
Spectrometer: V785-0024
Trigger mode: 0
Integration Time (sec): 4.000000E-1
Scans to average: 1
Nonlinearity correction enabled: false
Boxcar width: 0
Storing dark spectrum: false
XAxis mode: Wavelengths
Number of Pixels in Spectrum: 1024
>>>>>Begin Spectral Data<<<<<
801.071	7978
801.214	8031
801.356	7814
801.499	7932
801.641	7856
801.783	7822
801.926	7947
802.068	7959
802.211	7928
802.353	8012
802.496	7830
802.638	7845
802.78	7883
802.923	7868
803.065	7814
803.208	7909
803.35	7993
803.492	8073
803.635	8195
803.777	7993
803.919	8123
804.061	8423
804.204	8180
804.346	8149
804.488	7955
804.63	8096
804.773	8043
804.915	8103
805.057	8298
805.199	8206
805.341	8180
805.483	8218
805.626	8210
805.768	8058
805.91	8237
806.052	8176
806.194	8130
806.336	8324
806.478	8081
806.62	8062
806.762	8180
806.904	8263
807.046	8541
807.188	8366
807.33	8301
807.472	8362
807.614	8145
807.756	8138
807.898	8062
808.04	7963
808.182	8001
808.324	7883
808.465	7894
808.607	8058
808.749	8123
808.891	8191
809.033	8309
809.174	8275
809.316	8119
809.458	8103
809.6	8001
809.741	8081
809.883	8054
810.025	8161
810.166	8039
810.308	8012
810.45	7963
810.591	7822
810.733	7693
810.875	7704
811.016	7556
811.158	7544
811.299	7590
811.441	7792
811.582	7689
811.724	7597
811.865	7563
812.007	7609
812.148	7605
812.29	7666
812.431	7765
812.573	7944
812.714	7997
812.855	8149
812.997	8225
813.138	8294
813.279	8168
813.421	8130
813.562	7951
813.703	7852
813.845	7719
813.986	7434
814.127	7274
814.268	7236
814.41	7160
814.551	7156
814.692	7183
814.833	7107
814.974	7072
815.115	7129
815.256	6962
815.397	6905
815.539	6947
815.68	6837
815.821	6760
815.962	6837
816.103	6764
816.244	6768
816.385	6623
816.526	6623
816.666	6540
816.807	6357
816.948	6407
817.089	6464
817.23	6467
817.371	6384
817.512	6331
817.653	6426
817.793	6414
817.934	6399
818.075	6483
818.216	6452
818.356	6433
818.497	6251
818.638	6083
818.778	6197
818.919	6197
819.06	6159
819.2	6350
819.341	6334
819.481	6407
819.622	6559
819.762	6768
819.903	6768
820.043	6627
820.184	6593
820.324	6585
820.465	6684
820.605	6673
820.746	6681
820.886	6563
821.026	6604
821.167	6700
821.307	6840
821.447	6833
821.588	6673
821.728	6540
821.868	6513
822.008	6342
822.149	6369
822.289	6403
822.429	6167
822.569	6121
822.709	6098
822.849	5950
822.99	5927
823.13	5965
823.27	5973
823.41	5851
823.55	5767
823.69	5817
823.83	5790
823.97	5699
824.11	5524
824.25	5474
824.389	5611
824.529	5630
824.669	5570
824.809	5672
824.949	5684
825.089	5585
825.228	5570
825.368	5391
825.508	5299
825.648	5379
825.787	5360
825.927	5364
826.067	5269
826.206	5299
826.346	5395
826.485	5436
826.625	5440
826.765	5566
826.904	5436
827.044	5223
827.183	5174
827.323	5147
827.462	5181
827.601	5204
827.741	5235
827.88	5227
828.02	5136
828.159	5208
828.298	5269
828.437	5315
828.577	5292
828.716	5467
828.855	5345
828.994	5220
829.134	5143
829.273	5220
829.412	5086
829.551	5094
829.69	5159
829.829	5250
829.968	5376
830.107	5265
830.246	5261
830.385	5189
830.524	5132
830.663	5083
830.802	4942
830.941	4923
831.08	4900
831.219	5003
831.357	4999
831.496	5117
831.635	4942
831.774	4839
831.913	4839
832.051	4748
832.19	4763
832.329	4816
832.467	4714
832.606	4675
832.744	4706
832.883	4767
833.022	4763
833.16	4801
833.299	4839
833.437	4805
833.576	4850
833.714	4877
833.852	4877
833.991	4889
834.129	4984
834.267	4934
834.406	4862
834.544	4995
834.682	4976
834.821	4965
834.959	5208
835.097	5006
835.235	5170
835.373	5109
835.511	5113
835.65	5052
835.788	4987
835.926	4873
836.064	4930
836.202	4889
836.34	5151
836.478	5265
836.615	5136
836.753	5220
836.891	5330
837.029	5239
837.167	5223
837.305	5151
837.443	5143
837.58	5060
837.718	5212
837.856	5220
837.993	5151
838.131	5227
838.269	5181
838.406	5254
838.544	5254
838.681	4995
838.819	5041
838.956	4862
839.094	4889
839.231	4995
839.369	5090
839.506	5463
839.643	5254
839.781	5060
839.918	5064
840.055	5094
840.193	5102
840.33	5140
840.467	5136
840.604	5166
840.742	5448
840.879	5109
841.016	5075
841.153	5151
841.29	5345
841.427	5360
841.564	5330
841.701	5364
841.838	5239
841.975	5193
842.112	5307
842.249	5166
842.385	5128
842.522	5364
842.659	5166
842.796	5132
842.933	5216
843.069	5136
843.206	5170
843.343	5288
843.479	5261
843.616	5250
843.752	5010
843.889	4980
844.025	5273
844.162	5052
844.298	5178
844.435	5029
844.571	5079
844.708	5223
844.844	5273
844.98	5341
845.117	5353
845.253	5147
845.389	5090
845.525	5121
845.661	5140
845.798	5018
845.934	5140
846.07	5098
846.206	5185
846.342	5254
846.478	5174
846.614	4980
846.75	4980
846.886	4908
847.022	5121
847.158	5033
847.294	5045
847.429	5159
847.565	5098
847.701	5231
847.837	4896
847.972	4793
848.108	4965
848.244	4927
848.379	4790
848.515	4706
848.65	4717
848.786	4771
848.921	4733
849.057	4873
849.192	4862
849.328	4816
849.463	4870
849.598	4771
849.734	4786
849.869	4710
850.004	4656
850.14	4660
850.275	4611
850.41	4565
850.545	4584
850.68	4584
850.815	4694
850.95	4626
851.085	4793
851.22	4786
851.355	4599
851.49	4626
851.625	4664
851.76	4607
851.895	4569
852.03	4546
852.165	4641
852.299	4759
852.434	4778
852.569	4767
852.703	4809
852.838	4873
852.973	4930
853.107	4911
853.242	4733
853.376	4668
853.511	4577
853.645	4656
853.78	4816
853.914	4725
854.048	4664
854.183	4656
854.317	4660
854.451	4805
854.585	4698
854.72	4679
854.854	4790
854.988	4607
855.122	4664
855.256	4573
855.39	4664
855.524	4759
855.658	4687
855.792	4710
855.926	4755
856.06	4771
856.194	4774
856.327	4744
856.461	4618
856.595	4603
856.729	4641
856.862	4736
856.996	4694
857.13	4752
857.263	4729
857.397	4767
857.53	4653
857.664	4714
857.797	4786
857.931	4797
858.064	4733
858.197	4721
858.331	4698
858.464	4588
858.597	4470
858.731	4656
858.864	4588
858.997	4596
859.13	4649
859.263	4675
859.396	4714
859.529	4588
859.662	4611
859.795	4550
859.928	4611
860.061	4725
860.194	4744
860.327	4611
860.46	4554
860.592	4740
860.725	4656
860.858	4729
860.99	4618
861.123	4538
861.256	4497
861.388	4649
861.521	5250
861.653	4436
861.786	4443
861.918	4466
862.05	4527
862.183	4489
862.315	4660
862.447	4596
862.58	4527
862.712	4383
862.844	4363
862.976	4500
863.108	4462
863.24	4740
863.372	4356
863.504	4413
863.636	4432
863.768	4523
863.9	4424
864.032	4386
864.164	4379
864.296	4474
864.428	4580
864.559	4588
864.691	4561
864.823	4531
864.954	4535
865.086	4531
865.217	4462
865.349	4436
865.48	4447
865.612	4485
865.743	4611
865.875	4459
866.006	4440
866.137	4447
866.269	4383
866.4	4493
866.531	4443
866.662	4360
866.793	4379
866.924	4470
867.055	4466
867.186	4428
867.317	4462
867.448	4375
867.579	4421
867.71	4394
867.841	4360
867.972	4447
868.103	4443
868.233	4474
868.364	4478
868.495	4485
868.625	4656
868.756	4797
868.886	4558
869.017	4611
869.147	4733
869.278	4740
869.408	4660
869.539	4668
869.669	4691
869.799	4653
869.929	4767
870.06	4714
870.19	4953
870.32	4976
870.45	4919
870.58	5018
870.71	5094
870.84	5060
870.97	4919
871.1	4900
871.23	5174
871.36	5124
871.489	5003
871.619	5033
871.749	5102
871.879	5121
872.008	5174
872.138	5022
872.267	4976
872.397	4843
872.526	4782
872.656	4687
872.785	4816
872.915	4953
873.044	4957
873.173	4968
873.303	4999
873.432	4896
873.561	4919
873.69	4889
873.819	4858
873.948	4965
874.077	4805
874.206	4771
874.335	4786
874.464	4904
874.593	5090
874.722	5010
874.851	5132
874.979	5025
875.108	5041
875.237	4953
875.365	4885
875.494	4908
875.623	4961
875.751	4843
875.88	4850
876.008	4961
876.136	4991
876.265	5181
876.393	5364
876.521	5223
876.65	5174
876.778	5166
876.906	5105
877.034	5025
877.162	5003
877.29	4999
877.418	5014
877.546	5048
877.674	5045
877.802	4972
877.93	4980
878.058	4892
878.185	4854
878.313	4995
878.441	4957
878.568	4816
878.696	4847
878.824	4915
878.951	5056
879.079	5113
879.206	5280
879.333	5075
879.461	4930
879.588	5014
879.715	5136
879.842	5197
879.97	5018
880.097	4763
880.224	4752
880.351	4824
880.478	4801
880.605	4790
880.732	4759
880.859	5067
880.986	4889
881.112	4915
881.239	4843
881.366	4653
881.493	4603
881.619	4584
881.746	4622
881.872	4653
881.999	4660
882.125	4694
882.252	4812
882.378	4824
882.505	4919
882.631	4805
882.757	4672
882.883	4691
883.01	4725
883.136	4599
883.262	4561
883.388	4641
883.514	4793
883.64	4847
883.766	4786
883.892	4641
884.018	4675
884.143	4854
884.269	5014
884.395	4656
884.52	4618
884.646	4634
884.772	4584
884.897	4592
885.023	4656
885.148	4782
885.274	4896
885.399	4797
885.524	4683
885.65	4664
885.775	4759
885.9	4714
886.025	4801
886.15	4752
886.275	4691
886.4	4653
886.525	4706
886.65	4717
886.775	4710
886.9	4911
887.025	5064
887.149	4809
887.274	4653
887.399	4596
887.523	4599
887.648	4603
887.773	4588
887.897	4771
888.021	4717
888.146	4668
888.27	4778
888.395	4942
888.519	4812
888.643	4801
888.767	4820
888.891	4641
889.015	4584
889.139	4641
889.263	4611
889.387	4767
889.511	4885
889.635	4797
889.759	4615
889.883	4630
890.006	4736
890.13	4774
890.254	4596
890.377	4694
890.501	4554
890.624	4542
890.748	4634
890.871	4489
890.995	4440
891.118	4356
891.241	4538
891.364	4493
891.488	4611
891.611	4466
891.734	4596
891.857	4588
891.98	4519
892.103	4660
892.226	4577
892.349	4516
892.471	4462
892.594	4535
892.717	4615
892.839	4592
892.962	4580
893.085	4626
893.207	4577
893.33	4421
893.452	4550
893.575	4641
893.697	4611
893.819	4717
893.941	4828
894.064	4782
894.186	4519
894.308	4561
894.43	4740
894.552	4793
894.674	4771
894.796	4538
894.918	4558
895.04	4535
895.161	4698
895.283	4660
895.405	4580
895.526	4611
895.648	4702
895.769	4675
895.891	4679
896.012	4694
896.134	4736
896.255	4698
896.376	4607
896.498	4618
896.619	4660
896.74	4615
896.861	4626
896.982	4900
897.103	5048
897.224	4816
897.345	4733
897.466	4653
897.587	4672
897.708	4850
897.828	4755
897.949	4672
898.07	4580
898.19	4622
898.311	4816
898.431	4675
898.552	4717
898.672	4797
898.792	4847
898.913	4721
899.033	4634
899.153	4516
899.273	4409
899.393	4523
899.513	4516
899.633	4519
899.753	4512
899.873	4523
899.993	4558
900.113	4519
900.232	4569
900.352	4554
900.472	4466
900.591	4432
900.711	4493
900.83	4417
900.95	4618
901.069	4679
901.189	4546
901.308	4333
901.427	4329
901.546	4363
901.665	4481
901.784	4500
901.904	4428
902.023	4333
902.141	4219
902.26	4169
902.379	4341
902.498	4211
902.617	4234
902.735	4337
902.854	4402
902.973	4352
903.091	4238
903.21	4211
903.328	4284
903.446	4268
903.565	4265
903.683	4318
903.801	4280
903.919	4402
904.038	4440
904.156	4341
904.274	4421
904.392	4386
904.51	4394
904.627	4424
904.745	4565
904.863	4603
904.981	4451
905.098	4306
905.216	4360
905.334	4432
905.451	4497
905.569	4417
905.686	4512
905.803	4599
905.921	4390
906.038	4569
906.155	4459
906.272	4386
906.389	4497
906.506	4325
906.623	4371
906.74	4394
906.857	4299
906.974	4341
907.091	4558
907.208	4634
907.324	4596
907.441	4500
907.557	4341
907.674	4375
907.79	4299
907.907	4375
908.023	4500
908.139	4481
908.256	4470
908.372	4474
908.488	4447
908.604	4348
908.72	4295
908.836	4409
908.952	4379
909.068	4424
909.184	4565
909.3	4451
909.415	4558
909.531	4523
909.647	4333
909.762	4341
909.878	4360
909.993	4417
910.108	4421
910.224	4363
910.339	4493
910.454	4421
910.57	4306
910.685	4295
910.8	4672
910.915	4569
911.03	4481
911.145	4352
911.259	4341
911.374	4363
911.489	4329
911.604	4303
911.718	4181
911.833	4207
911.947	4105
912.062	4051
912.176	4230
912.291	4219
912.405	4272
912.519	4459
912.633	4485
912.748	4398
912.862	4322
912.976	4188
913.09	4109
913.204	4150
913.318	4204
913.431	4363
913.545	4348
913.659	4424
913.772	4390
913.886	4234
914	4219
914.113	4386
914.226	4421
914.34	4329
914.453	4261
914.566	4421
914.68	4299
914.793	4265
914.906	4139
915.019	4078
915.132	4010
915.245	4166
915.358	4185
915.47	4219
915.583	4268
915.696	4329
915.809	4436
915.921	4447
916.034	4310
916.146	4291
916.259	4169
916.371	4390
916.483	4348
916.595	4246
916.708	4276
916.82	4337
916.932	4314
917.044	4310
917.156	4329
917.268	4230
917.38	4280
917.491	4249
917.603	4310
917.715	4424
917.826	4375
917.938	4303
918.049	4261
918.161	4379
918.272	4535
918.384	4554
918.495	4436
918.606	4291
918.717	4284
918.828	4329
918.939	4306
919.05	4207
919.161	4337
919.272	4082
919.383	4185
919.494	4428
919.604	4607
919.715	4428
919.826	4344
919.936	4390
920.047	4478
920.157	4459
920.267	4691
920.378	4565
920.488	4538
920.598	4710
920.708	4858
920.818	4733
920.928	4774
921.038	4919
921.148	4919
921.258	4618
921.368	4565
921.477	4497
921.587	4459
921.697	4417
921.806	4538
921.916	4409
922.025	4227
922.134	4242
922.244	4162
922.353	4356
922.462	4143
922.571	4139
922.68	3934
922.789	3960
922.898	4029
923.007	3987
923.116	4071
923.224	4029
923.333	4086
923.442	3956
923.55	4013
923.659	3972
923.767	4048
923.876	4017
923.984	4093
924.092	3953
924.201	4063
924.309	4078
924.417	4074
924.525	3972
924.633	4112
924.741	4995
924.849	3888
924.956	4131
925.064	3941
925.172	3918
925.279	3964
925.387	4086
925.494	4048
925.602	4162
925.709	4166
925.816	4006
925.924	4131
926.031	4280
926.138	4147
926.245	4169
926.352	4067
926.459	4299
926.566	4314
926.673	4135
926.779	4093
926.886	4082
926.993	3991
927.099	3941
927.206	3975
927.312	3915
927.419	4002
927.525	4036
927.631	4059
927.737	3968
927.843	3907
927.95	3876
928.056	3968
928.162	3972
928.267	4036
928.373	4565
928.479	4116
928.585	3861
928.69	3979
928.796	4055
928.901	3941
929.007	3808
929.112	3972
929.218	4013
929.323	3983
929.428	3934
929.533	4105
929.638	3884
929.743	3934
929.848	4048
929.953	3960
930.058	3873
930.163	3743
930.267	3869
930.372	3983
930.477	3774
930.581	4082
930.685	3964
930.79	3781
930.894	3888
930.998	3884
931.103	4059
931.207	3740
931.311	3728
931.415	3686
931.519	3485
931.623	3553
