Data from test_V78500241_2428.txt Node
Date: Fri Mar 25 17:05:53 CST 2022
User: usil
Spectrometer: V785-0024
Trigger mode: 0
Integration Time (sec): 4.000000E-1
Scans to average: 1
Nonlinearity correction enabled: false
Boxcar width: 0
Storing dark spectrum: false
XAxis mode: Wavelengths
Number of Pixels in Spectrum: 1024
>>>>>Begin Spectral Data<<<<<
801.071	7974
801.214	7947
801.356	7830
801.499	7769
801.641	7750
801.783	7799
801.926	7993
802.068	7902
802.211	7936
802.353	8005
802.496	7860
802.638	7879
802.78	7845
802.923	7951
803.065	7868
803.208	7837
803.35	8001
803.492	8043
803.635	8180
803.777	8043
803.919	8134
804.061	8549
804.204	8210
804.346	8054
804.488	8008
804.63	8157
804.773	8012
804.915	8062
805.057	8301
805.199	8149
805.341	8195
805.483	8252
805.626	8290
805.768	8168
805.91	8199
806.052	8206
806.194	8157
806.336	8290
806.478	8100
806.62	8077
806.762	8134
806.904	8317
807.046	8400
807.188	8385
807.33	8286
807.472	8324
807.614	8142
807.756	8153
807.898	8031
808.04	7879
808.182	7871
808.324	7917
808.465	7978
808.607	8062
808.749	8168
808.891	8229
809.033	8282
809.174	8233
809.316	8149
809.458	8073
809.6	8031
809.741	8035
809.883	8123
810.025	8084
810.166	8115
810.308	8016
810.45	7997
810.591	7890
810.733	7685
810.875	7685
811.016	7495
811.158	7434
811.299	7582
811.441	7704
811.582	7708
811.724	7586
811.865	7525
812.007	7575
812.148	7544
812.29	7556
812.431	7696
812.573	7849
812.714	8008
812.855	8126
812.997	8084
813.138	8240
813.279	8153
813.421	8088
813.562	7955
813.703	7849
813.845	7765
813.986	7468
814.127	7244
814.268	7202
814.41	7129
814.551	7232
814.692	7247
814.833	7118
814.974	7141
815.115	7118
815.256	6928
815.397	6985
815.539	6932
815.68	6840
815.821	6764
815.962	6905
816.103	6806
816.244	6802
816.385	6578
816.526	6608
816.666	6570
816.807	6281
816.948	6429
817.089	6460
817.23	6410
817.371	6414
817.512	6300
817.653	6395
817.793	6391
817.934	6407
818.075	6448
818.216	6380
818.356	6429
818.497	6254
818.638	6110
818.778	6098
818.919	6152
819.06	6224
819.2	6342
819.341	6327
819.481	6414
819.622	6597
819.762	6776
819.903	6711
820.043	6597
820.184	6601
820.324	6616
820.465	6745
820.605	6654
820.746	6711
820.886	6563
821.026	6662
821.167	6760
821.307	6768
821.447	6768
821.588	6730
821.728	6551
821.868	6475
822.008	6338
822.149	6376
822.289	6403
822.429	6197
822.569	6098
822.709	6163
822.849	5946
822.99	5950
823.13	5927
823.27	5923
823.41	5764
823.55	5786
823.69	5779
823.83	5790
823.97	5608
824.11	5600
824.25	5524
824.389	5589
824.529	5562
824.669	5562
824.809	5649
824.949	5653
825.089	5646
825.228	5581
825.368	5414
825.508	5345
825.648	5311
825.787	5345
825.927	5353
826.067	5299
826.206	5261
826.346	5440
826.485	5357
826.625	5391
826.765	5543
826.904	5493
827.044	5292
827.183	5174
827.323	5201
827.462	5201
827.601	5170
827.741	5227
827.88	5189
828.02	5102
828.159	5269
828.298	5280
828.437	5330
828.577	5277
828.716	5467
828.855	5349
828.994	5155
829.134	5094
829.273	5185
829.412	5151
829.551	5083
829.69	5193
829.829	5216
829.968	5368
830.107	5299
830.246	5246
830.385	5147
830.524	5166
830.663	5067
830.802	5003
830.941	4881
831.08	4919
831.219	4991
831.357	4965
831.496	5151
831.635	4957
831.774	4850
831.913	4820
832.051	4717
832.19	4717
832.329	4816
832.467	4714
832.606	4664
832.744	4706
832.883	4672
833.022	4736
833.16	4778
833.299	4828
833.437	4790
833.576	4835
833.714	4896
833.852	4835
833.991	4843
834.129	4942
834.267	4987
834.406	4942
834.544	4984
834.682	4934
834.821	4919
834.959	5136
835.097	4976
835.235	5170
835.373	5048
835.511	5083
835.65	5056
835.788	5033
835.926	4866
836.064	4915
836.202	4896
836.34	5151
836.478	5231
836.615	5140
836.753	5212
836.891	5269
837.029	5235
837.167	5227
837.305	5155
837.443	5143
837.58	5083
837.718	5246
837.856	5220
837.993	5159
838.131	5258
838.269	5197
838.406	5208
838.544	5185
838.681	5045
838.819	4991
838.956	4889
839.094	4881
839.231	4995
839.369	5098
839.506	5387
839.643	5254
839.781	5060
839.918	4995
840.055	5105
840.193	5098
840.33	5064
840.467	5147
840.604	5174
840.742	5398
840.879	5102
841.016	5090
841.153	5166
841.29	5433
841.427	5406
841.564	5277
841.701	5357
841.838	5322
841.975	5197
842.112	5242
842.249	5132
842.385	5071
842.522	5318
842.659	5178
842.796	5143
842.933	5132
843.069	5140
843.206	5147
843.343	5303
843.479	5261
843.616	5258
843.752	5006
843.889	4972
844.025	5250
844.162	4980
844.298	5174
844.435	5113
844.571	5075
844.708	5155
844.844	5265
844.98	5349
845.117	5261
845.253	5178
845.389	5067
845.525	5170
845.661	5170
845.798	5060
845.934	5132
846.07	5022
846.206	5178
846.342	5235
846.478	5170
846.614	4976
846.75	4953
846.886	4972
847.022	5140
847.158	5010
847.294	5056
847.429	5147
847.565	5083
847.701	5303
847.837	4889
847.972	4812
848.108	4938
848.244	4930
848.379	4778
848.515	4767
848.65	4687
848.786	4744
848.921	4771
849.057	4850
849.192	4896
849.328	4793
849.463	4858
849.598	4805
849.734	4771
849.869	4664
850.004	4645
850.14	4736
850.275	4611
850.41	4538
850.545	4565
850.68	4584
850.815	4626
850.95	4679
851.085	4854
851.22	4725
851.355	4664
851.49	4584
851.625	4630
851.76	4649
851.895	4527
852.03	4512
852.165	4702
852.299	4740
852.434	4771
852.569	4740
852.703	4740
852.838	4831
852.973	4919
853.107	4919
853.242	4721
853.376	4683
853.511	4558
853.645	4580
853.78	4774
853.914	4710
854.048	4675
854.183	4637
854.317	4691
854.451	4854
854.585	4668
854.72	4637
854.854	4744
854.988	4580
855.122	4622
855.256	4561
855.39	4679
855.524	4736
855.658	4717
855.792	4626
855.926	4759
856.06	4744
856.194	4793
856.327	4698
856.461	4577
856.595	4603
856.729	4603
856.862	4797
856.996	4740
857.13	4710
857.263	4755
857.397	4831
857.53	4630
857.664	4733
857.797	4763
857.931	4786
858.064	4679
858.197	4725
858.331	4675
858.464	4607
858.597	4519
858.731	4596
858.864	4649
858.997	4538
859.13	4637
859.263	4660
859.396	4694
859.529	4653
859.662	4550
859.795	4497
859.928	4611
860.061	4782
860.194	4752
860.327	4618
860.46	4550
860.592	4687
860.725	4702
860.858	4714
860.99	4588
861.123	4485
861.256	4577
861.388	4641
861.521	5345
861.653	4500
861.786	4394
861.918	4489
862.05	4500
862.183	4519
862.315	4596
862.447	4653
862.58	4546
862.712	4417
862.844	4303
862.976	4470
863.108	4383
863.24	4771
863.372	4325
863.504	4424
863.636	4428
863.768	4466
863.9	4462
864.032	4356
864.164	4409
864.296	4466
864.428	4554
864.559	4554
864.691	4531
864.823	4519
864.954	4531
865.086	4531
865.217	4466
865.349	4367
865.48	4447
865.612	4500
865.743	4607
865.875	4459
866.006	4424
866.137	4447
866.269	4428
866.4	4424
866.531	4386
866.662	4432
866.793	4386
866.924	4390
867.055	4523
867.186	4478
867.317	4417
867.448	4333
867.579	4379
867.71	4379
867.841	4352
867.972	4443
868.103	4447
868.233	4459
868.364	4436
868.495	4481
868.625	4675
868.756	4702
868.886	4588
869.017	4599
869.147	4771
869.278	4786
869.408	4683
869.539	4634
869.669	4698
869.799	4664
869.929	4744
870.06	4752
870.19	4980
870.32	4877
870.45	4930
870.58	5041
870.71	5067
870.84	5117
870.97	4953
871.1	4835
871.23	5136
871.36	5136
871.489	5010
871.619	5041
871.749	5090
871.879	5140
872.008	5197
872.138	5117
872.267	4934
872.397	4824
872.526	4797
872.656	4771
872.785	4835
872.915	4976
873.044	5029
873.173	4946
873.303	4949
873.432	4995
873.561	4965
873.69	4911
873.819	4900
873.948	4873
874.077	4809
874.206	4729
874.335	4850
874.464	4900
874.593	5060
874.722	4991
874.851	5109
874.979	5060
875.108	5037
875.237	4972
875.365	4881
875.494	4934
875.623	4991
875.751	4850
875.88	4942
876.008	5003
876.136	5056
876.265	5273
876.393	5337
876.521	5250
876.65	5235
876.778	5151
876.906	5064
877.034	5086
877.162	5090
877.29	5014
877.418	5037
877.546	5033
877.674	5029
877.802	5086
877.93	4991
878.058	4915
878.185	4873
878.313	5006
878.441	4930
878.568	4824
878.696	4858
878.824	4961
878.951	5060
879.079	5098
879.206	5277
879.333	5098
879.461	4984
879.588	4976
879.715	5166
879.842	5178
879.97	4987
880.097	4767
880.224	4736
880.351	4805
880.478	4870
880.605	4812
880.732	4782
880.859	5094
880.986	4900
881.112	4965
881.239	4778
881.366	4736
881.493	4615
881.619	4596
881.746	4603
881.872	4599
881.999	4618
882.125	4675
882.252	4801
882.378	4767
882.505	4972
882.631	4782
882.757	4675
882.883	4702
883.01	4736
883.136	4660
883.262	4622
883.388	4599
883.514	4816
883.64	4866
883.766	4805
883.892	4630
884.018	4740
884.143	4911
884.269	4995
884.395	4649
884.52	4588
884.646	4607
884.772	4561
884.897	4561
885.023	4656
885.148	4759
885.274	4873
885.399	4828
885.524	4717
885.65	4702
885.775	4782
885.9	4683
886.025	4892
886.15	4778
886.275	4721
886.4	4660
886.525	4714
886.65	4714
886.775	4721
886.9	4923
887.025	5022
887.149	4786
887.274	4615
887.399	4550
887.523	4607
887.648	4615
887.773	4599
887.897	4786
888.021	4790
888.146	4679
888.27	4797
888.395	4911
888.519	4797
888.643	4793
888.767	4850
888.891	4702
889.015	4550
889.139	4637
889.263	4569
889.387	4725
889.511	4904
889.635	4778
889.759	4649
889.883	4664
890.006	4790
890.13	4824
890.254	4607
890.377	4664
890.501	4519
890.624	4531
890.748	4626
890.871	4523
890.995	4386
891.118	4360
891.241	4512
891.364	4550
891.488	4626
891.611	4550
891.734	4565
891.857	4580
891.98	4550
892.103	4645
892.226	4603
892.349	4531
892.471	4481
892.594	4535
892.717	4565
892.839	4550
892.962	4542
893.085	4660
893.207	4584
893.33	4489
893.452	4512
893.575	4622
893.697	4577
893.819	4824
893.941	4824
894.064	4759
894.186	4622
894.308	4577
894.43	4748
894.552	4816
894.674	4755
894.796	4577
894.918	4599
895.04	4554
895.161	4748
895.283	4710
895.405	4588
895.526	4611
895.648	4687
895.769	4626
895.891	4691
896.012	4714
896.134	4721
896.255	4698
896.376	4641
896.498	4611
896.619	4706
896.74	4603
896.861	4630
896.982	4972
897.103	5090
897.224	4828
897.345	4793
897.466	4645
897.587	4740
897.708	4892
897.828	4767
897.949	4656
898.07	4573
898.19	4622
898.311	4850
898.431	4694
898.552	4702
898.672	4824
898.792	4847
898.913	4778
899.033	4603
899.153	4523
899.273	4451
899.393	4493
899.513	4516
899.633	4512
899.753	4546
899.873	4466
899.993	4558
900.113	4542
900.232	4577
900.352	4516
900.472	4470
900.591	4379
900.711	4516
900.83	4402
900.95	4558
901.069	4668
901.189	4538
901.308	4341
901.427	4341
901.546	4383
901.665	4493
901.784	4504
901.904	4379
902.023	4367
902.141	4158
902.26	4116
902.379	4272
902.498	4257
902.617	4227
902.735	4356
902.854	4409
902.973	4352
903.091	4215
903.21	4215
903.328	4261
903.446	4306
903.565	4246
903.683	4363
903.801	4268
903.919	4409
904.038	4398
904.156	4314
904.274	4413
904.392	4394
904.51	4466
904.627	4447
904.745	4558
904.863	4611
904.981	4371
905.098	4314
905.216	4325
905.334	4424
905.451	4424
905.569	4405
905.686	4611
905.803	4596
905.921	4421
906.038	4550
906.155	4474
906.272	4398
906.389	4500
906.506	4348
906.623	4363
906.74	4402
906.857	4363
906.974	4379
907.091	4558
907.208	4672
907.324	4584
907.441	4481
907.557	4352
907.674	4367
907.79	4284
907.907	4356
908.023	4451
908.139	4443
908.256	4443
908.372	4497
908.488	4436
908.604	4318
908.72	4341
908.836	4352
908.952	4367
909.068	4436
909.184	4622
909.3	4443
909.415	4588
909.531	4565
909.647	4383
909.762	4371
909.878	4303
909.993	4432
910.108	4405
910.224	4409
910.339	4478
910.454	4390
910.57	4344
910.685	4291
910.8	4618
910.915	4580
911.03	4512
911.145	4356
911.259	4295
911.374	4341
911.489	4276
911.604	4234
911.718	4158
911.833	4219
911.947	4120
912.062	4051
912.176	4185
912.291	4246
912.405	4253
912.519	4421
912.633	4485
912.748	4413
912.862	4253
912.976	4196
913.09	4082
913.204	4158
913.318	4246
913.431	4375
913.545	4348
913.659	4466
913.772	4363
913.886	4230
914	4219
914.113	4405
914.226	4413
914.34	4356
914.453	4238
914.566	4371
914.68	4341
914.793	4325
914.906	4181
915.019	4128
915.132	4086
915.245	4200
915.358	4211
915.47	4261
915.583	4223
915.696	4344
915.809	4443
915.921	4424
916.034	4268
916.146	4291
916.259	4204
916.371	4379
916.483	4310
916.595	4204
916.708	4314
916.82	4329
916.932	4318
917.044	4333
917.156	4299
917.268	4204
917.38	4306
917.491	4242
917.603	4322
917.715	4428
917.826	4432
917.938	4325
918.049	4249
918.161	4443
918.272	4569
918.384	4558
918.495	4462
918.606	4341
918.717	4249
918.828	4348
918.939	4356
919.05	4242
919.161	4322
919.272	4147
919.383	4242
919.494	4421
919.604	4615
919.715	4409
919.826	4375
919.936	4375
920.047	4531
920.157	4489
920.267	4691
920.378	4561
920.488	4478
920.598	4698
920.708	4870
920.818	4725
920.928	4797
921.038	4930
921.148	4862
921.258	4672
921.368	4580
921.477	4500
921.587	4493
921.697	4356
921.806	4584
921.916	4398
922.025	4268
922.134	4314
922.244	4223
922.353	4348
922.462	4215
922.571	4162
922.68	4013
922.789	3979
922.898	4036
923.007	3968
923.116	4131
923.224	4078
923.333	4082
923.442	3960
923.55	3956
923.659	4036
923.767	4082
923.876	4029
923.984	4128
924.092	3987
924.201	4097
924.309	4051
924.417	4109
924.525	4067
924.633	4120
924.741	5048
924.849	3934
924.956	4112
925.064	3975
925.172	3827
925.279	3937
925.387	4048
925.494	4032
925.602	4196
925.709	4162
925.816	4059
925.924	4082
926.031	4215
926.138	4158
926.245	4207
926.352	4071
926.459	4257
926.566	4295
926.673	4204
926.779	4093
926.886	4059
926.993	3975
927.099	3941
927.206	3964
927.312	3937
927.419	4055
927.525	4040
927.631	4090
927.737	3953
927.843	3968
927.95	3842
928.056	3953
928.162	3994
928.267	4048
928.373	4694
928.479	4097
928.585	3892
928.69	4048
928.796	4013
928.901	3930
929.007	3880
929.112	3998
929.218	3960
929.323	3918
929.428	3937
929.533	4120
929.638	3934
929.743	4002
929.848	4071
929.953	4002
930.058	3892
930.163	3770
930.267	3854
930.372	3994
930.477	3797
930.581	4063
930.685	3945
930.79	3816
930.894	3899
930.998	3846
931.103	4010
931.207	3705
931.311	3675
931.415	3720
931.519	3538
931.623	3507
