Data from test_V78500241_821.txt Node
Date: Fri Mar 25 16:54:42 CST 2022
User: usil
Spectrometer: V785-0024
Trigger mode: 0
Integration Time (sec): 4.000000E-1
Scans to average: 1
Nonlinearity correction enabled: false
Boxcar width: 0
Storing dark spectrum: false
XAxis mode: Wavelengths
Number of Pixels in Spectrum: 1024
>>>>>Begin Spectral Data<<<<<
801.071	8020
801.214	7978
801.356	7898
801.499	7890
801.641	7731
801.783	7894
801.926	7997
802.068	7963
802.211	8005
802.353	7940
802.496	7837
802.638	7879
802.78	7947
802.923	7890
803.065	7925
803.208	7921
803.35	7997
803.492	8100
803.635	8164
803.777	8027
803.919	8123
804.061	8427
804.204	8149
804.346	8058
804.488	7993
804.63	8096
804.773	7997
804.915	8084
805.057	8294
805.199	8195
805.341	8195
805.483	8248
805.626	8138
805.768	8088
805.91	8176
806.052	8240
806.194	8145
806.336	8259
806.478	8138
806.62	8046
806.762	8107
806.904	8248
807.046	8446
807.188	8366
807.33	8279
807.472	8282
807.614	8202
807.756	8172
807.898	7925
808.04	7890
808.182	7841
808.324	7932
808.465	7917
808.607	8027
808.749	8069
808.891	8142
809.033	8355
809.174	8240
809.316	8111
809.458	8043
809.6	8039
809.741	8065
809.883	8024
810.025	8058
810.166	8084
810.308	8012
810.45	7997
810.591	7906
810.733	7712
810.875	7700
811.016	7548
811.158	7559
811.299	7521
811.441	7700
811.582	7658
811.724	7613
811.865	7533
812.007	7537
812.148	7559
812.29	7601
812.431	7738
812.573	7883
812.714	7986
812.855	8043
812.997	8172
813.138	8370
813.279	8180
813.421	8145
813.562	8046
813.703	7788
813.845	7788
813.986	7415
814.127	7278
814.268	7270
814.41	7168
814.551	7160
814.692	7126
814.833	7034
814.974	7076
815.115	7084
815.256	7027
815.397	6924
815.539	6932
815.68	6814
815.821	6829
815.962	6844
816.103	6814
816.244	6696
816.385	6623
816.526	6631
816.666	6460
816.807	6308
816.948	6365
817.089	6391
817.23	6391
817.371	6357
817.512	6399
817.653	6395
817.793	6353
817.934	6369
818.075	6422
818.216	6350
818.356	6410
818.497	6247
818.638	6117
818.778	6136
818.919	6095
819.06	6190
819.2	6289
819.341	6270
819.481	6403
819.622	6559
819.762	6692
819.903	6631
820.043	6601
820.184	6547
820.324	6551
820.465	6677
820.605	6669
820.746	6658
820.886	6525
821.026	6669
821.167	6738
821.307	6867
821.447	6798
821.588	6642
821.728	6589
821.868	6479
822.008	6361
822.149	6346
822.289	6395
822.429	6140
822.569	6102
822.709	6148
822.849	5882
822.99	5923
823.13	5939
823.27	5889
823.41	5836
823.55	5786
823.69	5790
823.83	5821
823.97	5665
824.11	5566
824.25	5524
824.389	5539
824.529	5585
824.669	5589
824.809	5661
824.949	5741
825.089	5634
825.228	5558
825.368	5474
825.508	5391
825.648	5406
825.787	5421
825.927	5383
826.067	5315
826.206	5315
826.346	5433
826.485	5455
826.625	5467
826.765	5512
826.904	5528
827.044	5296
827.183	5242
827.323	5189
827.462	5303
827.601	5185
827.741	5197
827.88	5261
828.02	5109
828.159	5269
828.298	5303
828.437	5410
828.577	5307
828.716	5497
828.855	5341
828.994	5223
829.134	5140
829.273	5208
829.412	5193
829.551	5208
829.69	5159
829.829	5280
829.968	5364
830.107	5307
830.246	5273
830.385	5181
830.524	5174
830.663	5109
830.802	4991
830.941	4942
831.08	4862
831.219	4987
831.357	5075
831.496	5185
831.635	4934
831.774	4847
831.913	4889
832.051	4733
832.19	4771
832.329	4877
832.467	4752
832.606	4645
832.744	4793
832.883	4774
833.022	4771
833.16	4831
833.299	4900
833.437	4782
833.576	4873
833.714	4858
833.852	4919
833.991	4904
834.129	5006
834.267	5022
834.406	4900
834.544	5014
834.682	5029
834.821	4991
834.959	5220
835.097	4999
835.235	5147
835.373	5086
835.511	5102
835.65	5064
835.788	5003
835.926	4900
836.064	4915
836.202	4938
836.34	5208
836.478	5258
836.615	5204
836.753	5277
836.891	5254
837.029	5345
837.167	5231
837.305	5193
837.443	5170
837.58	5132
837.718	5231
837.856	5250
837.993	5201
838.131	5220
838.269	5223
838.406	5201
838.544	5261
838.681	5105
838.819	4999
838.956	4900
839.094	4972
839.231	4976
839.369	5090
839.506	5421
839.643	5357
839.781	5132
839.918	4984
840.055	5105
840.193	5102
840.33	5094
840.467	5204
840.604	5231
840.742	5486
840.879	5090
841.016	5162
841.153	5159
841.29	5417
841.427	5345
841.564	5341
841.701	5398
841.838	5334
841.975	5292
842.112	5296
842.249	5155
842.385	5147
842.522	5368
842.659	5216
842.796	5181
842.933	5181
843.069	5121
843.206	5181
843.343	5349
843.479	5284
843.616	5273
843.752	5025
843.889	5025
844.025	5258
844.162	5010
844.298	5261
844.435	5102
844.571	5006
844.708	5220
844.844	5341
844.98	5368
845.117	5303
845.253	5189
845.389	5117
845.525	5174
845.661	5147
845.798	5056
845.934	5151
846.07	5060
846.206	5246
846.342	5299
846.478	5151
846.614	4999
846.75	4972
846.886	4961
847.022	5166
847.158	5037
847.294	5086
847.429	5132
847.565	5071
847.701	5387
847.837	4889
847.972	4889
848.108	4987
848.244	4942
848.379	4759
848.515	4774
848.65	4801
848.786	4755
848.921	4786
849.057	4953
849.192	4934
849.328	4858
849.463	4938
849.598	4839
849.734	4812
849.869	4687
850.004	4630
850.14	4683
850.275	4641
850.41	4538
850.545	4588
850.68	4622
850.815	4660
850.95	4630
851.085	4862
851.22	4755
851.355	4694
851.49	4649
851.625	4630
851.76	4698
851.895	4584
852.03	4618
852.165	4698
852.299	4706
852.434	4790
852.569	4759
852.703	4828
852.838	4870
852.973	4904
853.107	4961
853.242	4725
853.376	4687
853.511	4607
853.645	4672
853.78	4797
853.914	4748
854.048	4668
854.183	4679
854.317	4706
854.451	4885
854.585	4679
854.72	4668
854.854	4763
854.988	4626
855.122	4649
855.256	4493
855.39	4656
855.524	4793
855.658	4706
855.792	4694
855.926	4736
856.06	4759
856.194	4843
856.327	4694
856.461	4584
856.595	4641
856.729	4615
856.862	4710
856.996	4694
857.13	4752
857.263	4801
857.397	4866
857.53	4687
857.664	4744
857.797	4771
857.931	4790
858.064	4675
858.197	4755
858.331	4660
858.464	4649
858.597	4531
858.731	4687
858.864	4672
858.997	4630
859.13	4668
859.263	4725
859.396	4679
859.529	4622
859.662	4577
859.795	4592
859.928	4694
860.061	4763
860.194	4797
860.327	4626
860.46	4611
860.592	4755
860.725	4721
860.858	4706
860.99	4611
861.123	4523
861.256	4554
861.388	4622
861.521	5296
861.653	4466
861.786	4462
861.918	4493
862.05	4550
862.183	4535
862.315	4649
862.447	4683
862.58	4565
862.712	4386
862.844	4356
862.976	4481
863.108	4508
863.24	4805
863.372	4352
863.504	4421
863.636	4436
863.768	4440
863.9	4421
864.032	4440
864.164	4417
864.296	4493
864.428	4565
864.559	4561
864.691	4523
864.823	4531
864.954	4478
865.086	4535
865.217	4485
865.349	4443
865.48	4478
865.612	4527
865.743	4645
865.875	4466
866.006	4443
866.137	4500
866.269	4500
866.4	4485
866.531	4466
866.662	4455
866.793	4470
866.924	4462
867.055	4508
867.186	4462
867.317	4417
867.448	4383
867.579	4383
867.71	4379
867.841	4356
867.972	4523
868.103	4508
868.233	4489
868.364	4462
868.495	4523
868.625	4706
868.756	4759
868.886	4569
869.017	4649
869.147	4763
869.278	4763
869.408	4653
869.539	4641
869.669	4759
869.799	4675
869.929	4797
870.06	4759
870.19	4927
870.32	4919
870.45	4957
870.58	5083
870.71	5105
870.84	5166
870.97	4957
871.1	4923
871.23	5121
871.36	5143
871.489	5029
871.619	5075
871.749	5105
871.879	5132
872.008	5197
872.138	5094
872.267	4991
872.397	4839
872.526	4774
872.656	4740
872.785	4843
872.915	4987
873.044	5029
873.173	4911
873.303	4965
873.432	4961
873.561	4946
873.69	4927
873.819	4862
873.948	4965
874.077	4797
874.206	4752
874.335	4793
874.464	4976
874.593	5094
874.722	4965
874.851	5166
874.979	5086
875.108	5041
875.237	4934
875.365	4854
875.494	4968
875.623	4961
875.751	4786
875.88	4904
876.008	4949
876.136	5048
876.265	5189
876.393	5318
876.521	5303
876.65	5242
876.778	5162
876.906	5079
877.034	5041
877.162	5033
877.29	5041
877.418	5079
877.546	5045
877.674	5056
877.802	5025
877.93	5018
878.058	4934
878.185	4892
878.313	4999
878.441	4965
878.568	4786
878.696	4828
878.824	4991
878.951	4961
879.079	5121
879.206	5303
879.333	5121
879.461	5048
879.588	5003
879.715	5109
879.842	5212
879.97	4984
880.097	4805
880.224	4774
880.351	4809
880.478	4850
880.605	4809
880.732	4816
880.859	5098
880.986	4881
881.112	4873
881.239	4801
881.366	4649
881.493	4664
881.619	4580
881.746	4611
881.872	4710
881.999	4710
882.125	4698
882.252	4828
882.378	4843
882.505	4930
882.631	4866
882.757	4653
882.883	4714
883.01	4797
883.136	4649
883.262	4596
883.388	4653
883.514	4858
883.64	4862
883.766	4759
883.892	4691
884.018	4752
884.143	4908
884.269	5048
884.395	4615
884.52	4634
884.646	4664
884.772	4607
884.897	4618
885.023	4706
885.148	4790
885.274	4873
885.399	4835
885.524	4694
885.65	4725
885.775	4748
885.9	4736
886.025	4847
886.15	4805
886.275	4706
886.4	4687
886.525	4710
886.65	4725
886.775	4725
886.9	4908
887.025	5052
887.149	4847
887.274	4656
887.399	4535
887.523	4596
887.648	4599
887.773	4573
887.897	4774
888.021	4759
888.146	4721
888.27	4797
888.395	4919
888.519	4828
888.643	4831
888.767	4881
888.891	4668
889.015	4664
889.139	4645
889.263	4607
889.387	4786
889.511	4919
889.635	4774
889.759	4630
889.883	4714
890.006	4790
890.13	4854
890.254	4611
890.377	4683
890.501	4519
890.624	4508
890.748	4611
890.871	4485
890.995	4417
891.118	4356
891.241	4531
891.364	4558
891.488	4683
891.611	4485
891.734	4565
891.857	4577
891.98	4561
892.103	4634
892.226	4561
892.349	4497
892.471	4413
892.594	4561
892.717	4592
892.839	4618
892.962	4580
893.085	4691
893.207	4645
893.33	4478
893.452	4535
893.575	4694
893.697	4516
893.819	4786
893.941	4816
894.064	4771
894.186	4569
894.308	4542
894.43	4710
894.552	4862
894.674	4778
894.796	4527
894.918	4569
895.04	4538
895.161	4710
895.283	4691
895.405	4634
895.526	4615
895.648	4725
895.769	4736
895.891	4698
896.012	4736
896.134	4698
896.255	4714
896.376	4630
896.498	4622
896.619	4691
896.74	4649
896.861	4664
896.982	4968
897.103	5117
897.224	4843
897.345	4755
897.466	4649
897.587	4767
897.708	4843
897.828	4771
897.949	4607
898.07	4561
898.19	4702
898.311	4892
898.431	4675
898.552	4740
898.672	4828
898.792	4812
898.913	4725
899.033	4622
899.153	4546
899.273	4470
899.393	4481
899.513	4512
899.633	4527
899.753	4538
899.873	4527
899.993	4577
900.113	4542
900.232	4596
900.352	4538
900.472	4504
900.591	4432
900.711	4462
900.83	4455
900.95	4607
901.069	4641
901.189	4565
901.308	4398
901.427	4318
901.546	4367
901.665	4512
901.784	4512
901.904	4421
902.023	4299
902.141	4215
902.26	4158
902.379	4325
902.498	4227
902.617	4242
902.735	4402
902.854	4432
902.973	4390
903.091	4234
903.21	4253
903.328	4253
903.446	4276
903.565	4265
903.683	4333
903.801	4287
903.919	4405
904.038	4470
904.156	4314
904.274	4459
904.392	4363
904.51	4409
904.627	4500
904.745	4554
904.863	4615
904.981	4394
905.098	4322
905.216	4352
905.334	4432
905.451	4413
905.569	4440
905.686	4538
905.803	4596
905.921	4417
906.038	4561
906.155	4481
906.272	4462
906.389	4474
906.506	4383
906.623	4394
906.74	4371
906.857	4322
906.974	4314
907.091	4542
907.208	4694
907.324	4577
907.441	4455
907.557	4310
907.674	4344
907.79	4299
907.907	4398
908.023	4451
908.139	4493
908.256	4440
908.372	4474
908.488	4432
908.604	4371
908.72	4318
908.836	4394
908.952	4421
909.068	4443
909.184	4584
909.3	4489
909.415	4561
909.531	4550
909.647	4367
909.762	4363
909.878	4417
909.993	4443
910.108	4409
910.224	4451
910.339	4424
910.454	4386
910.57	4386
910.685	4287
910.8	4660
910.915	4626
911.03	4516
911.145	4329
911.259	4375
911.374	4352
911.489	4306
911.604	4280
911.718	4177
911.833	4227
911.947	4101
912.062	4048
912.176	4238
912.291	4215
912.405	4276
912.519	4470
912.633	4516
912.748	4394
912.862	4303
912.976	4253
913.09	4059
913.204	4177
913.318	4234
913.431	4360
913.545	4394
913.659	4451
913.772	4371
913.886	4219
914	4234
914.113	4383
914.226	4440
914.34	4371
914.453	4211
914.566	4462
914.68	4341
914.793	4341
914.906	4143
915.019	4192
915.132	4093
915.245	4162
915.358	4188
915.47	4215
915.583	4249
915.696	4306
915.809	4424
915.921	4481
916.034	4249
916.146	4268
916.259	4227
916.371	4371
916.483	4341
916.595	4287
916.708	4352
916.82	4344
916.932	4314
917.044	4325
917.156	4337
917.268	4246
917.38	4291
917.491	4249
917.603	4276
917.715	4436
917.826	4409
917.938	4375
918.049	4227
918.161	4363
918.272	4478
918.384	4538
918.495	4451
918.606	4303
918.717	4242
918.828	4329
918.939	4306
919.05	4253
919.161	4333
919.272	4154
919.383	4238
919.494	4421
919.604	4626
919.715	4443
919.826	4360
919.936	4379
920.047	4538
920.157	4516
920.267	4637
920.378	4523
920.488	4478
920.598	4736
920.708	4908
920.818	4752
920.928	4733
921.038	4942
921.148	4904
921.258	4626
921.368	4558
921.477	4466
921.587	4455
921.697	4409
921.806	4546
921.916	4440
922.025	4246
922.134	4276
922.244	4227
922.353	4367
922.462	4173
922.571	4116
922.68	4010
922.789	3994
922.898	4067
923.007	4002
923.116	4109
923.224	4082
923.333	4048
923.442	3953
923.55	3934
923.659	4025
923.767	4109
923.876	3994
923.984	4169
924.092	4006
924.201	4044
924.309	4078
924.417	4135
924.525	4090
924.633	4166
924.741	4911
924.849	3892
924.956	4116
925.064	3960
925.172	3888
925.279	3964
925.387	4071
925.494	4055
925.602	4181
925.709	4139
925.816	4017
925.924	4120
926.031	4238
926.138	4143
926.245	4185
926.352	4105
926.459	4207
926.566	4314
926.673	4120
926.779	4090
926.886	4093
926.993	3972
927.099	3972
927.206	3918
927.312	3953
927.419	4051
927.525	4051
927.631	4112
927.737	3945
927.843	3911
927.95	3835
928.056	3922
928.162	3998
928.267	4040
928.373	4656
928.479	4173
928.585	3884
928.69	4002
928.796	4093
928.901	3983
929.007	3850
929.112	3975
929.218	3968
929.323	3941
929.428	3918
929.533	4158
929.638	3884
929.743	3926
929.848	4082
929.953	3987
930.058	3934
930.163	3743
930.267	3846
930.372	3953
930.477	3846
930.581	4059
930.685	3972
930.79	3842
930.894	3873
930.998	3865
931.103	4002
931.207	3705
931.311	3641
931.415	3656
931.519	3500
931.623	3572
