Data from test_V78500241_525.txt Node
Date: Fri Mar 25 16:52:39 CST 2022
User: usil
Spectrometer: V785-0024
Trigger mode: 0
Integration Time (sec): 4.000000E-1
Scans to average: 1
Nonlinearity correction enabled: false
Boxcar width: 0
Storing dark spectrum: false
XAxis mode: Wavelengths
Number of Pixels in Spectrum: 1024
>>>>>Begin Spectral Data<<<<<
801.071	8039
801.214	7986
801.356	7852
801.499	7849
801.641	7792
801.783	7845
801.926	8024
802.068	7906
802.211	7951
802.353	8005
802.496	7944
802.638	7909
802.78	7925
802.923	7890
803.065	7860
803.208	7792
803.35	7936
803.492	7986
803.635	8096
803.777	7970
803.919	8088
804.061	8412
804.204	8123
804.346	8035
804.488	7849
804.63	8100
804.773	7947
804.915	8081
805.057	8279
805.199	8149
805.341	8259
805.483	8332
805.626	8202
805.768	8020
805.91	8161
806.052	8172
806.194	8134
806.336	8240
806.478	8031
806.62	8062
806.762	8142
806.904	8256
807.046	8461
807.188	8305
807.33	8256
807.472	8294
807.614	8191
807.756	8157
807.898	7902
808.04	7894
808.182	7982
808.324	7868
808.465	7936
808.607	8069
808.749	8084
808.891	8286
809.033	8240
809.174	8145
809.316	7978
809.458	8024
809.6	7967
809.741	7986
809.883	8012
810.025	8016
810.166	8134
810.308	8054
810.45	7989
810.591	7852
810.733	7696
810.875	7575
811.016	7533
811.158	7537
811.299	7613
811.441	7792
811.582	7696
811.724	7567
811.865	7575
812.007	7636
812.148	7628
812.29	7556
812.431	7750
812.573	7898
812.714	7978
812.855	8107
812.997	8210
813.138	8343
813.279	8229
813.421	8149
813.562	8050
813.703	7898
813.845	7830
813.986	7457
814.127	7384
814.268	7278
814.41	7282
814.551	7209
814.692	7118
814.833	7110
814.974	7072
815.115	7129
815.256	7000
815.397	6890
815.539	6901
815.68	6795
815.821	6779
815.962	6821
816.103	6814
816.244	6734
816.385	6620
816.526	6642
816.666	6498
816.807	6338
816.948	6479
817.089	6464
817.23	6456
817.371	6334
817.512	6388
817.653	6334
817.793	6403
817.934	6391
818.075	6448
818.216	6422
818.356	6414
818.497	6186
818.638	6148
818.778	6167
818.919	6095
819.06	6144
819.2	6285
819.341	6300
819.481	6308
819.622	6467
819.762	6757
819.903	6677
820.043	6585
820.184	6563
820.324	6540
820.465	6631
820.605	6639
820.746	6559
820.886	6506
821.026	6677
821.167	6738
821.307	6783
821.447	6684
821.588	6623
821.728	6574
821.868	6490
822.008	6254
822.149	6357
822.289	6342
822.429	6209
822.569	6095
822.709	6110
822.849	5935
822.99	5897
823.13	5904
823.27	5935
823.41	5813
823.55	5809
823.69	5760
823.83	5790
823.97	5642
824.11	5558
824.25	5509
824.389	5577
824.529	5589
824.669	5528
824.809	5615
824.949	5657
825.089	5649
825.228	5562
825.368	5398
825.508	5334
825.648	5296
825.787	5368
825.927	5387
826.067	5334
826.206	5292
826.346	5410
826.485	5372
826.625	5360
826.765	5543
826.904	5440
827.044	5277
827.183	5235
827.323	5113
827.462	5223
827.601	5178
827.741	5185
827.88	5178
828.02	5136
828.159	5258
828.298	5357
828.437	5345
828.577	5239
828.716	5417
828.855	5345
828.994	5151
829.134	5162
829.273	5174
829.412	5185
829.551	5132
829.69	5117
829.829	5242
829.968	5376
830.107	5261
830.246	5284
830.385	5159
830.524	5204
830.663	5052
830.802	4976
830.941	4877
831.08	4824
831.219	5022
831.357	4972
831.496	5121
831.635	4911
831.774	4862
831.913	4828
832.051	4675
832.19	4755
832.329	4820
832.467	4675
832.606	4622
832.744	4702
832.883	4649
833.022	4744
833.16	4790
833.299	4790
833.437	4786
833.576	4850
833.714	4809
833.852	4870
833.991	4919
834.129	4953
834.267	4915
834.406	4881
834.544	4942
834.682	4946
834.821	4972
834.959	5159
835.097	4991
835.235	5136
835.373	5083
835.511	5083
835.65	5010
835.788	5003
835.926	4923
836.064	4877
836.202	4965
836.34	5128
836.478	5254
836.615	5113
836.753	5220
836.891	5246
837.029	5239
837.167	5174
837.305	5151
837.443	5132
837.58	5086
837.718	5246
837.856	5185
837.993	5128
838.131	5269
838.269	5185
838.406	5174
838.544	5208
838.681	5041
838.819	4972
838.956	4854
839.094	4877
839.231	4984
839.369	5094
839.506	5410
839.643	5296
839.781	5018
839.918	5025
840.055	5064
840.193	5075
840.33	5075
840.467	5128
840.604	5235
840.742	5429
840.879	5060
841.016	5109
841.153	5109
841.29	5353
841.427	5277
841.564	5280
841.701	5353
841.838	5246
841.975	5242
842.112	5258
842.249	5162
842.385	5124
842.522	5296
842.659	5204
842.796	5147
842.933	5189
843.069	5197
843.206	5170
843.343	5299
843.479	5223
843.616	5250
843.752	5006
843.889	5003
844.025	5185
844.162	4987
844.298	5174
844.435	5086
844.571	5025
844.708	5147
844.844	5250
844.98	5368
845.117	5315
845.253	5064
845.389	5052
845.525	5166
845.661	5117
845.798	4968
845.934	5094
846.07	5064
846.206	5178
846.342	5284
846.478	5181
846.614	5033
846.75	4949
846.886	4953
847.022	5117
847.158	4999
847.294	5117
847.429	5136
847.565	5045
847.701	5273
847.837	4828
847.972	4793
848.108	4957
848.244	4873
848.379	4729
848.515	4736
848.65	4759
848.786	4744
848.921	4782
849.057	4828
849.192	4873
849.328	4805
849.463	4850
849.598	4755
849.734	4778
849.869	4691
850.004	4607
850.14	4675
850.275	4592
850.41	4538
850.545	4569
850.68	4607
850.815	4630
850.95	4592
851.085	4854
851.22	4740
851.355	4653
851.49	4622
851.625	4649
851.76	4588
851.895	4558
852.03	4565
852.165	4664
852.299	4717
852.434	4774
852.569	4740
852.703	4752
852.838	4847
852.973	4911
853.107	4904
853.242	4698
853.376	4702
853.511	4546
853.645	4641
853.78	4793
853.914	4694
854.048	4706
854.183	4649
854.317	4702
854.451	4831
854.585	4664
854.72	4630
854.854	4755
854.988	4630
855.122	4630
855.256	4554
855.39	4637
855.524	4763
855.658	4729
855.792	4660
855.926	4717
856.06	4736
856.194	4767
856.327	4656
856.461	4607
856.595	4615
856.729	4599
856.862	4805
856.996	4752
857.13	4736
857.263	4763
857.397	4774
857.53	4637
857.664	4706
857.797	4717
857.931	4805
858.064	4687
858.197	4702
858.331	4672
858.464	4653
858.597	4489
858.731	4622
858.864	4664
858.997	4542
859.13	4611
859.263	4630
859.396	4740
859.529	4596
859.662	4565
859.795	4542
859.928	4641
860.061	4721
860.194	4797
860.327	4554
860.46	4569
860.592	4748
860.725	4706
860.858	4763
860.99	4592
861.123	4497
861.256	4493
861.388	4611
861.521	5395
861.653	4516
861.786	4485
861.918	4436
862.05	4519
862.183	4565
862.315	4569
862.447	4634
862.58	4523
862.712	4436
862.844	4276
862.976	4443
863.108	4481
863.24	4889
863.372	4322
863.504	4363
863.636	4402
863.768	4462
863.9	4443
864.032	4375
864.164	4421
864.296	4466
864.428	4485
864.559	4504
864.691	4538
864.823	4508
864.954	4493
865.086	4478
865.217	4470
865.349	4428
865.48	4421
865.612	4527
865.743	4615
865.875	4451
866.006	4390
866.137	4508
866.269	4417
866.4	4447
866.531	4462
866.662	4413
866.793	4428
866.924	4436
867.055	4493
867.186	4451
867.317	4436
867.448	4375
867.579	4337
867.71	4367
867.841	4356
867.972	4451
868.103	4459
868.233	4428
868.364	4424
868.495	4478
868.625	4672
868.756	4691
868.886	4573
869.017	4622
869.147	4763
869.278	4733
869.408	4698
869.539	4577
869.669	4725
869.799	4656
869.929	4748
870.06	4710
870.19	4953
870.32	4915
870.45	4961
870.58	5014
870.71	5067
870.84	5067
870.97	4930
871.1	4896
871.23	5128
871.36	5132
871.489	5033
871.619	5067
871.749	5056
871.879	5098
872.008	5102
872.138	5064
872.267	5003
872.397	4854
872.526	4797
872.656	4725
872.785	4816
872.915	4930
873.044	5033
873.173	4953
873.303	4953
873.432	4957
873.561	4980
873.69	4896
873.819	4877
873.948	4942
874.077	4816
874.206	4744
874.335	4797
874.464	4923
874.593	5033
874.722	5018
874.851	5102
874.979	5052
875.108	5010
875.237	4881
875.365	4862
875.494	4850
875.623	4923
875.751	4805
875.88	4881
876.008	5003
876.136	5018
876.265	5174
876.393	5299
876.521	5269
876.65	5201
876.778	5189
876.906	5079
877.034	5041
877.162	5041
877.29	4972
877.418	5075
877.546	5067
877.674	5006
877.802	4995
877.93	5048
878.058	4942
878.185	4847
878.313	4968
878.441	4949
878.568	4797
878.696	4850
878.824	4934
878.951	4972
879.079	5117
879.206	5269
879.333	5128
879.461	4987
879.588	5079
879.715	5113
879.842	5220
879.97	4976
880.097	4828
880.224	4782
880.351	4850
880.478	4801
880.605	4812
880.732	4801
880.859	5056
880.986	4904
881.112	4892
881.239	4786
881.366	4622
881.493	4630
881.619	4607
881.746	4668
881.872	4622
881.999	4706
882.125	4660
882.252	4774
882.378	4839
882.505	4976
882.631	4824
882.757	4675
882.883	4771
883.01	4782
883.136	4679
883.262	4611
883.388	4599
883.514	4835
883.64	4862
883.766	4816
883.892	4668
884.018	4721
884.143	4877
884.269	5056
884.395	4706
884.52	4641
884.646	4660
884.772	4580
884.897	4504
885.023	4702
885.148	4824
885.274	4847
885.399	4824
885.524	4672
885.65	4710
885.775	4790
885.9	4717
886.025	4828
886.15	4801
886.275	4759
886.4	4649
886.525	4721
886.65	4645
886.775	4656
886.9	4900
887.025	4999
887.149	4824
887.274	4691
887.399	4596
887.523	4603
887.648	4554
887.773	4596
887.897	4717
888.021	4748
888.146	4649
888.27	4782
888.395	4911
888.519	4801
888.643	4870
888.767	4801
888.891	4622
889.015	4558
889.139	4683
889.263	4596
889.387	4767
889.511	4862
889.635	4771
889.759	4596
889.883	4656
890.006	4725
890.13	4858
890.254	4588
890.377	4645
890.501	4519
890.624	4527
890.748	4660
890.871	4550
890.995	4462
891.118	4383
891.241	4493
891.364	4550
891.488	4588
891.611	4500
891.734	4500
891.857	4577
891.98	4569
892.103	4660
892.226	4611
892.349	4550
892.471	4447
892.594	4554
892.717	4542
892.839	4592
892.962	4615
893.085	4649
893.207	4592
893.33	4481
893.452	4516
893.575	4630
893.697	4588
893.819	4717
893.941	4866
894.064	4809
894.186	4561
894.308	4603
894.43	4717
894.552	4854
894.674	4771
894.796	4577
894.918	4569
895.04	4561
895.161	4675
895.283	4706
895.405	4554
895.526	4675
895.648	4714
895.769	4721
895.891	4679
896.012	4752
896.134	4691
896.255	4634
896.376	4637
896.498	4615
896.619	4683
896.74	4615
896.861	4622
896.982	4908
897.103	5079
897.224	4843
897.345	4710
897.466	4698
897.587	4744
897.708	4839
897.828	4767
897.949	4683
898.07	4561
898.19	4622
898.311	4858
898.431	4641
898.552	4710
898.672	4820
898.792	4816
898.913	4759
899.033	4653
899.153	4481
899.273	4421
899.393	4466
899.513	4516
899.633	4592
899.753	4508
899.873	4527
899.993	4622
900.113	4481
900.232	4550
900.352	4538
900.472	4500
900.591	4360
900.711	4519
900.83	4421
900.95	4622
901.069	4649
901.189	4527
901.308	4371
901.427	4314
901.546	4375
901.665	4455
901.784	4546
901.904	4379
902.023	4322
902.141	4207
902.26	4166
902.379	4329
902.498	4215
902.617	4242
902.735	4405
902.854	4383
902.973	4386
903.091	4185
903.21	4227
903.328	4333
903.446	4227
903.565	4242
903.683	4306
903.801	4299
903.919	4451
904.038	4466
904.156	4348
904.274	4455
904.392	4398
904.51	4417
904.627	4443
904.745	4573
904.863	4653
904.981	4413
905.098	4261
905.216	4375
905.334	4504
905.451	4440
905.569	4447
905.686	4508
905.803	4531
905.921	4421
906.038	4558
906.155	4500
906.272	4379
906.389	4455
906.506	4348
906.623	4417
906.74	4375
906.857	4333
906.974	4363
907.091	4580
907.208	4675
907.324	4577
907.441	4478
907.557	4329
907.674	4394
907.79	4318
907.907	4367
908.023	4470
908.139	4432
908.256	4470
908.372	4462
908.488	4485
908.604	4356
908.72	4318
908.836	4386
908.952	4390
909.068	4462
909.184	4573
909.3	4504
909.415	4542
909.531	4565
909.647	4379
909.762	4383
909.878	4344
909.993	4485
910.108	4421
910.224	4432
910.339	4470
910.454	4375
910.57	4379
910.685	4344
910.8	4691
910.915	4580
911.03	4447
911.145	4341
911.259	4329
911.374	4371
911.489	4253
911.604	4287
911.718	4188
911.833	4223
911.947	4051
912.062	4021
912.176	4211
912.291	4223
912.405	4249
912.519	4451
912.633	4516
912.748	4398
912.862	4291
912.976	4162
913.09	4055
913.204	4177
913.318	4268
913.431	4379
913.545	4394
913.659	4459
913.772	4352
913.886	4192
914	4234
914.113	4371
914.226	4462
914.34	4375
914.453	4230
914.566	4417
914.68	4287
914.793	4310
914.906	4147
915.019	4097
915.132	4112
915.245	4154
915.358	4242
915.47	4287
915.583	4272
915.696	4329
915.809	4440
915.921	4485
916.034	4257
916.146	4299
916.259	4196
916.371	4333
916.483	4402
916.595	4246
916.708	4280
916.82	4291
916.932	4299
917.044	4310
917.156	4341
917.268	4253
917.38	4230
917.491	4284
917.603	4325
917.715	4390
917.826	4451
917.938	4375
918.049	4219
918.161	4398
918.272	4538
918.384	4542
918.495	4455
918.606	4329
918.717	4303
918.828	4318
918.939	4390
919.05	4230
919.161	4284
919.272	4177
919.383	4246
919.494	4447
919.604	4592
919.715	4436
919.826	4314
919.936	4367
920.047	4535
920.157	4485
920.267	4691
920.378	4542
920.488	4516
920.598	4748
920.708	4881
920.818	4782
920.928	4752
921.038	4915
921.148	4866
921.258	4577
921.368	4573
921.477	4508
921.587	4459
921.697	4352
921.806	4538
921.916	4421
922.025	4310
922.134	4314
922.244	4192
922.353	4341
922.462	4185
922.571	4162
922.68	4013
922.789	3975
922.898	4029
923.007	3987
923.116	4139
923.224	4071
923.333	4116
923.442	3975
923.55	3964
923.659	4013
923.767	4135
923.876	3998
923.984	4135
924.092	3975
924.201	4067
924.309	4063
924.417	4086
924.525	4086
924.633	4078
924.741	5052
924.849	3922
924.956	4082
925.064	3960
925.172	3873
925.279	3949
925.387	4059
925.494	4063
925.602	4219
925.709	4158
925.816	4105
925.924	4135
926.031	4219
926.138	4162
926.245	4147
926.352	4105
926.459	4234
926.566	4272
926.673	4185
926.779	4055
926.886	4097
926.993	4010
927.099	3964
927.206	3918
927.312	3949
927.419	4036
927.525	4051
927.631	4090
927.737	3983
927.843	3937
927.95	3850
928.056	3972
928.162	3979
928.267	4059
928.373	4672
928.479	4124
928.585	3838
928.69	4021
928.796	4067
928.901	3941
929.007	3857
929.112	4017
929.218	4017
929.323	3949
929.428	3949
929.533	4093
929.638	3915
929.743	3987
929.848	4010
929.953	3972
930.058	3953
930.163	3766
930.267	3880
930.372	3979
930.477	3781
930.581	4063
930.685	3937
930.79	3831
930.894	3907
930.998	3876
931.103	4013
931.207	3743
931.311	3755
931.415	3648
931.519	3488
931.623	3526
