Data from test_V78500241_485.txt Node
Date: Fri Mar 25 16:52:22 CST 2022
User: usil
Spectrometer: V785-0024
Trigger mode: 0
Integration Time (sec): 4.000000E-1
Scans to average: 1
Nonlinearity correction enabled: false
Boxcar width: 0
Storing dark spectrum: false
XAxis mode: Wavelengths
Number of Pixels in Spectrum: 1024
>>>>>Begin Spectral Data<<<<<
801.071	8043
801.214	7974
801.356	7871
801.499	7875
801.641	7849
801.783	7894
801.926	7947
802.068	7959
802.211	8016
802.353	8008
802.496	7852
802.638	7898
802.78	7925
802.923	7970
803.065	7879
803.208	7826
803.35	7986
803.492	8062
803.635	8062
803.777	7978
803.919	8164
804.061	8495
804.204	8103
804.346	8035
804.488	7913
804.63	8096
804.773	7951
804.915	8039
805.057	8282
805.199	8119
805.341	8221
805.483	8279
805.626	8195
805.768	8027
805.91	8164
806.052	8233
806.194	8153
806.336	8362
806.478	8081
806.62	8031
806.762	8149
806.904	8240
807.046	8381
807.188	8328
807.33	8225
807.472	8214
807.614	8115
807.756	8084
807.898	7982
808.04	7906
808.182	7921
808.324	7944
808.465	7951
808.607	8046
808.749	8046
808.891	8206
809.033	8259
809.174	8202
809.316	8016
809.458	7951
809.6	7959
809.741	8039
809.883	8005
810.025	8115
810.166	8054
810.308	7925
810.45	7974
810.591	7906
810.733	7731
810.875	7723
811.016	7487
811.158	7491
811.299	7655
811.441	7746
811.582	7731
811.724	7605
811.865	7487
812.007	7616
812.148	7624
812.29	7628
812.431	7712
812.573	7890
812.714	8035
812.855	8142
812.997	8206
813.138	8427
813.279	8210
813.421	8103
813.562	8088
813.703	7936
813.845	7772
813.986	7537
814.127	7327
814.268	7301
814.41	7244
814.551	7236
814.692	7217
814.833	7031
814.974	7122
815.115	7175
815.256	6962
815.397	6863
815.539	6897
815.68	6837
815.821	6768
815.962	6901
816.103	6825
816.244	6730
816.385	6570
816.526	6593
816.666	6475
816.807	6350
816.948	6452
817.089	6509
817.23	6433
817.371	6422
817.512	6369
817.653	6361
817.793	6350
817.934	6414
818.075	6479
818.216	6395
818.356	6391
818.497	6209
818.638	6152
818.778	6095
818.919	6136
819.06	6133
819.2	6319
819.341	6327
819.481	6357
819.622	6456
819.762	6760
819.903	6757
820.043	6631
820.184	6574
820.324	6540
820.465	6669
820.605	6612
820.746	6684
820.886	6532
821.026	6677
821.167	6848
821.307	6810
821.447	6760
821.588	6673
821.728	6585
821.868	6460
822.008	6361
822.149	6369
822.289	6357
822.429	6216
822.569	6106
822.709	6201
822.849	5958
822.99	5878
823.13	5927
823.27	5969
823.41	5832
823.55	5775
823.69	5836
823.83	5817
823.97	5661
824.11	5600
824.25	5535
824.389	5623
824.529	5604
824.669	5554
824.809	5718
824.949	5710
825.089	5676
825.228	5608
825.368	5410
825.508	5364
825.648	5398
825.787	5414
825.927	5436
826.067	5330
826.206	5364
826.346	5471
826.485	5436
826.625	5455
826.765	5577
826.904	5539
827.044	5288
827.183	5220
827.323	5181
827.462	5315
827.601	5216
827.741	5223
827.88	5273
828.02	5162
828.159	5334
828.298	5315
828.437	5421
828.577	5326
828.716	5520
828.855	5337
828.994	5212
829.134	5201
829.273	5246
829.412	5220
829.551	5143
829.69	5189
829.829	5284
829.968	5402
830.107	5292
830.246	5273
830.385	5235
830.524	5185
830.663	5105
830.802	5045
830.941	4976
831.08	4915
831.219	4984
831.357	4968
831.496	5185
831.635	4987
831.774	4870
831.913	4908
832.051	4790
832.19	4809
832.329	4892
832.467	4755
832.606	4675
832.744	4725
832.883	4771
833.022	4797
833.16	4812
833.299	4847
833.437	4793
833.576	4923
833.714	4858
833.852	4927
833.991	4934
834.129	4972
834.267	4984
834.406	4873
834.544	4999
834.682	5014
834.821	5041
834.959	5162
835.097	5029
835.235	5227
835.373	5094
835.511	5162
835.65	5041
835.788	5083
835.926	4938
836.064	4953
836.202	4984
836.34	5174
836.478	5227
836.615	5136
836.753	5235
836.891	5326
837.029	5261
837.167	5212
837.305	5181
837.443	5159
837.58	5159
837.718	5258
837.856	5201
837.993	5212
838.131	5315
838.269	5220
838.406	5204
838.544	5246
838.681	5079
838.819	5060
838.956	4953
839.094	4934
839.231	5018
839.369	5071
839.506	5417
839.643	5280
839.781	5086
839.918	5060
840.055	5109
840.193	5113
840.33	5105
840.467	5250
840.604	5277
840.742	5467
840.879	5102
841.016	5094
841.153	5159
841.29	5417
841.427	5284
841.564	5341
841.701	5345
841.838	5269
841.975	5258
842.112	5299
842.249	5223
842.385	5136
842.522	5398
842.659	5197
842.796	5166
842.933	5193
843.069	5174
843.206	5162
843.343	5299
843.479	5265
843.616	5250
843.752	5006
843.889	5052
844.025	5292
844.162	5056
844.298	5258
844.435	5128
844.571	5105
844.708	5265
844.844	5337
844.98	5395
845.117	5280
845.253	5197
845.389	5117
845.525	5181
845.661	5197
845.798	5086
845.934	5151
846.07	5086
846.206	5189
846.342	5269
846.478	5231
846.614	5090
846.75	5022
846.886	5010
847.022	5201
847.158	5022
847.294	5102
847.429	5155
847.565	5140
847.701	5372
847.837	4862
847.972	4839
848.108	5014
848.244	4968
848.379	4843
848.515	4759
848.65	4755
848.786	4778
848.921	4809
849.057	4839
849.192	4915
849.328	4862
849.463	4835
849.598	4831
849.734	4828
849.869	4717
850.004	4664
850.14	4717
850.275	4630
850.41	4599
850.545	4569
850.68	4599
850.815	4649
850.95	4664
851.085	4847
851.22	4771
851.355	4702
851.49	4672
851.625	4660
851.76	4645
851.895	4569
852.03	4546
852.165	4691
852.299	4740
852.434	4790
852.569	4733
852.703	4862
852.838	4858
852.973	4953
853.107	4976
853.242	4725
853.376	4740
853.511	4516
853.645	4656
853.78	4824
853.914	4717
854.048	4660
854.183	4687
854.317	4740
854.451	4953
854.585	4736
854.72	4656
854.854	4824
854.988	4626
855.122	4634
855.256	4550
855.39	4698
855.524	4786
855.658	4771
855.792	4736
855.926	4763
856.06	4767
856.194	4854
856.327	4752
856.461	4626
856.595	4611
856.729	4645
856.862	4820
856.996	4714
857.13	4812
857.263	4812
857.397	4847
857.53	4729
857.664	4748
857.797	4778
857.931	4793
858.064	4721
858.197	4805
858.331	4630
858.464	4634
858.597	4527
858.731	4664
858.864	4714
858.997	4672
859.13	4683
859.263	4698
859.396	4694
859.529	4607
859.662	4592
859.795	4550
859.928	4675
860.061	4774
860.194	4797
860.327	4664
860.46	4599
860.592	4740
860.725	4725
860.858	4744
860.99	4596
861.123	4535
861.256	4592
861.388	4626
861.521	5353
861.653	4531
861.786	4436
861.918	4497
862.05	4554
862.183	4592
862.315	4626
862.447	4710
862.58	4580
862.712	4394
862.844	4394
862.976	4550
863.108	4474
863.24	4752
863.372	4375
863.504	4508
863.636	4455
863.768	4546
863.9	4474
864.032	4424
864.164	4455
864.296	4462
864.428	4569
864.559	4603
864.691	4542
864.823	4516
864.954	4497
865.086	4512
865.217	4455
865.349	4466
865.48	4508
865.612	4527
865.743	4649
865.875	4493
866.006	4432
866.137	4474
866.269	4466
866.4	4470
866.531	4440
866.662	4417
866.793	4440
866.924	4459
867.055	4523
867.186	4493
867.317	4462
867.448	4432
867.579	4409
867.71	4436
867.841	4356
867.972	4531
868.103	4504
868.233	4481
868.364	4478
868.495	4523
868.625	4706
868.756	4812
868.886	4618
869.017	4618
869.147	4782
869.278	4801
869.408	4664
869.539	4634
869.669	4767
869.799	4660
869.929	4790
870.06	4755
870.19	5006
870.32	4980
870.45	4889
870.58	4995
870.71	5147
870.84	5124
870.97	4999
871.1	4915
871.23	5155
871.36	5143
871.489	5083
871.619	5098
871.749	5109
871.879	5178
872.008	5212
872.138	5067
872.267	4961
872.397	4877
872.526	4839
872.656	4702
872.785	4816
872.915	4934
873.044	5033
873.173	4953
873.303	5014
873.432	4949
873.561	4980
873.69	4873
873.819	4911
873.948	4923
874.077	4862
874.206	4729
874.335	4805
874.464	4934
874.593	5083
874.722	4991
874.851	5128
874.979	5079
875.108	5086
875.237	4873
875.365	4873
875.494	4938
875.623	5003
875.751	4831
875.88	4839
876.008	5022
876.136	5041
876.265	5223
876.393	5341
876.521	5242
876.65	5235
876.778	5151
876.906	5086
877.034	5041
877.162	5052
877.29	4961
877.418	5151
877.546	5037
877.674	5045
877.802	5079
877.93	5022
878.058	4927
878.185	4866
878.313	4968
878.441	4919
878.568	4820
878.696	4904
878.824	4953
878.951	5029
879.079	5124
879.206	5284
879.333	5086
879.461	4995
879.588	5048
879.715	5147
879.842	5265
879.97	5029
880.097	4786
880.224	4778
880.351	4820
880.478	4831
880.605	4824
880.732	4835
880.859	5113
880.986	4915
881.112	4911
881.239	4828
881.366	4660
881.493	4626
881.619	4626
881.746	4668
881.872	4668
881.999	4672
882.125	4733
882.252	4782
882.378	4828
882.505	4999
882.631	4824
882.757	4694
882.883	4752
883.01	4782
883.136	4668
883.262	4634
883.388	4645
883.514	4820
883.64	4873
883.766	4809
883.892	4653
884.018	4755
884.143	4919
884.269	5041
884.395	4694
884.52	4694
884.646	4660
884.772	4615
884.897	4554
885.023	4683
885.148	4801
885.274	4896
885.399	4820
885.524	4740
885.65	4767
885.775	4805
885.9	4736
886.025	4850
886.15	4809
886.275	4729
886.4	4599
886.525	4748
886.65	4725
886.775	4748
886.9	4889
887.025	5067
887.149	4786
887.274	4706
887.399	4607
887.523	4615
887.648	4569
887.773	4618
887.897	4812
888.021	4797
888.146	4725
888.27	4843
888.395	4915
888.519	4812
888.643	4858
888.767	4816
888.891	4706
889.015	4580
889.139	4630
889.263	4634
889.387	4771
889.511	4866
889.635	4828
889.759	4675
889.883	4668
890.006	4744
890.13	4847
890.254	4626
890.377	4702
890.501	4558
890.624	4546
890.748	4626
890.871	4542
890.995	4485
891.118	4428
891.241	4542
891.364	4527
891.488	4664
891.611	4474
891.734	4516
891.857	4603
891.98	4558
892.103	4675
892.226	4596
892.349	4592
892.471	4409
892.594	4584
892.717	4607
892.839	4607
892.962	4596
893.085	4706
893.207	4592
893.33	4485
893.452	4550
893.575	4668
893.697	4615
893.819	4847
893.941	4850
894.064	4759
894.186	4592
894.308	4618
894.43	4733
894.552	4847
894.674	4774
894.796	4565
894.918	4622
895.04	4637
895.161	4687
895.283	4634
895.405	4550
895.526	4694
895.648	4675
895.769	4717
895.891	4736
896.012	4771
896.134	4748
896.255	4668
896.376	4618
896.498	4649
896.619	4694
896.74	4599
896.861	4721
896.982	4934
897.103	5109
897.224	4854
897.345	4710
897.466	4694
897.587	4729
897.708	4873
897.828	4740
897.949	4660
898.07	4542
898.19	4626
898.311	4858
898.431	4660
898.552	4763
898.672	4805
898.792	4816
898.913	4809
899.033	4634
899.153	4508
899.273	4436
899.393	4485
899.513	4577
899.633	4554
899.753	4550
899.873	4508
899.993	4603
900.113	4493
900.232	4599
900.352	4523
900.472	4527
900.591	4386
900.711	4500
900.83	4455
900.95	4618
901.069	4637
901.189	4512
901.308	4379
901.427	4306
901.546	4390
901.665	4485
901.784	4519
901.904	4394
902.023	4318
902.141	4204
902.26	4204
902.379	4310
902.498	4219
902.617	4219
902.735	4390
902.854	4405
902.973	4356
903.091	4223
903.21	4265
903.328	4329
903.446	4280
903.565	4265
903.683	4360
903.801	4291
903.919	4390
904.038	4466
904.156	4337
904.274	4424
904.392	4421
904.51	4432
904.627	4428
904.745	4573
904.863	4607
904.981	4398
905.098	4341
905.216	4421
905.334	4440
905.451	4440
905.569	4455
905.686	4603
905.803	4592
905.921	4383
906.038	4573
906.155	4436
906.272	4421
906.389	4413
906.506	4360
906.623	4394
906.74	4352
906.857	4306
906.974	4367
907.091	4573
907.208	4717
907.324	4561
907.441	4500
907.557	4322
907.674	4379
907.79	4276
907.907	4428
908.023	4512
908.139	4512
908.256	4428
908.372	4504
908.488	4512
908.604	4405
908.72	4367
908.836	4394
908.952	4341
909.068	4447
909.184	4577
909.3	4500
909.415	4588
909.531	4588
909.647	4367
909.762	4371
909.878	4371
909.993	4455
910.108	4383
910.224	4405
910.339	4493
910.454	4417
910.57	4386
910.685	4291
910.8	4706
910.915	4599
911.03	4508
911.145	4318
911.259	4280
911.374	4363
911.489	4356
911.604	4322
911.718	4215
911.833	4261
911.947	4086
912.062	4074
912.176	4230
912.291	4261
912.405	4242
912.519	4485
912.633	4508
912.748	4379
912.862	4371
912.976	4238
913.09	4086
913.204	4192
913.318	4272
913.431	4421
913.545	4341
913.659	4470
913.772	4352
913.886	4257
914	4211
914.113	4363
914.226	4413
914.34	4417
914.453	4223
914.566	4443
914.68	4325
914.793	4360
914.906	4139
915.019	4097
915.132	4109
915.245	4196
915.358	4253
915.47	4261
915.583	4310
915.696	4291
915.809	4424
915.921	4432
916.034	4230
916.146	4253
916.259	4223
916.371	4356
916.483	4352
916.595	4246
916.708	4284
916.82	4299
916.932	4322
917.044	4341
917.156	4371
917.268	4215
917.38	4291
917.491	4257
917.603	4363
917.715	4428
917.826	4447
917.938	4341
918.049	4204
918.161	4405
918.272	4481
918.384	4527
918.495	4436
918.606	4314
918.717	4276
918.828	4379
918.939	4409
919.05	4261
919.161	4329
919.272	4150
919.383	4227
919.494	4459
919.604	4592
919.715	4440
919.826	4360
919.936	4371
920.047	4512
920.157	4516
920.267	4664
920.378	4565
920.488	4531
920.598	4702
920.708	4927
920.818	4809
920.928	4752
921.038	4968
921.148	4908
921.258	4630
921.368	4592
921.477	4489
921.587	4493
921.697	4367
921.806	4535
921.916	4447
922.025	4257
922.134	4287
922.244	4162
922.353	4341
922.462	4211
922.571	4116
922.68	4029
922.789	3968
922.898	4013
923.007	4002
923.116	4124
923.224	4067
923.333	4101
923.442	3968
923.55	3972
923.659	4029
923.767	4112
923.876	3991
923.984	4135
924.092	3941
924.201	4093
924.309	4086
924.417	4150
924.525	4040
924.633	4078
924.741	5052
924.849	3922
924.956	4139
925.064	3930
925.172	3911
925.279	3972
925.387	4055
925.494	4044
925.602	4207
925.709	4204
925.816	4074
925.924	4135
926.031	4238
926.138	4150
926.245	4234
926.352	4093
926.459	4268
926.566	4371
926.673	4158
926.779	4082
926.886	4093
926.993	3994
927.099	4013
927.206	3911
927.312	3922
927.419	4074
927.525	4044
927.631	4093
927.737	3930
927.843	3945
927.95	3850
928.056	3956
928.162	3979
928.267	4055
928.373	4710
928.479	4154
928.585	3846
928.69	4010
928.796	4101
928.901	4010
929.007	3823
929.112	4021
929.218	3953
929.323	3896
929.428	3903
929.533	4166
929.638	3869
929.743	3968
929.848	4051
929.953	3998
930.058	3956
930.163	3850
930.267	3800
930.372	3960
930.477	3808
930.581	4055
930.685	3934
930.79	3800
930.894	3865
930.998	3838
931.103	4036
931.207	3717
931.311	3755
931.415	3660
931.519	3519
931.623	3542
