Data from test_V78500241_1171.txt Node
Date: Fri Mar 25 16:57:08 CST 2022
User: usil
Spectrometer: V785-0024
Trigger mode: 0
Integration Time (sec): 4.000000E-1
Scans to average: 1
Nonlinearity correction enabled: false
Boxcar width: 0
Storing dark spectrum: false
XAxis mode: Wavelengths
Number of Pixels in Spectrum: 1024
>>>>>Begin Spectral Data<<<<<
801.071	8035
801.214	7986
801.356	7833
801.499	7963
801.641	7784
801.783	7856
801.926	7928
802.068	7932
802.211	7993
802.353	7947
802.496	7849
802.638	7913
802.78	7951
802.923	7963
803.065	7951
803.208	7871
803.35	7944
803.492	8107
803.635	8142
803.777	8008
803.919	8134
804.061	8370
804.204	8111
804.346	8043
804.488	7951
804.63	8157
804.773	7974
804.915	8142
805.057	8218
805.199	8183
805.341	8221
805.483	8244
805.626	8218
805.768	8111
805.91	8176
806.052	8221
806.194	8107
806.336	8286
806.478	8088
806.62	8103
806.762	8149
806.904	8263
807.046	8457
807.188	8343
807.33	8290
807.472	8355
807.614	8157
807.756	8096
807.898	7951
808.04	7925
808.182	7879
808.324	7898
808.465	7868
808.607	8077
808.749	8088
808.891	8210
809.033	8214
809.174	8233
809.316	8065
809.458	8119
809.6	7909
809.741	8008
809.883	8050
810.025	8062
810.166	8031
810.308	7997
810.45	8016
810.591	7902
810.733	7742
810.875	7693
811.016	7552
811.158	7495
811.299	7628
811.441	7715
811.582	7712
811.724	7552
811.865	7544
812.007	7578
812.148	7624
812.29	7632
812.431	7681
812.573	7830
812.714	7947
812.855	8111
812.997	8206
813.138	8301
813.279	8225
813.421	8206
813.562	8016
813.703	7890
813.845	7757
813.986	7441
814.127	7305
814.268	7225
814.41	7244
814.551	7179
814.692	7190
814.833	7031
814.974	7057
815.115	7034
815.256	6905
815.397	6848
815.539	6958
815.68	6791
815.821	6722
815.962	6844
816.103	6802
816.244	6711
816.385	6642
816.526	6673
816.666	6441
816.807	6292
816.948	6452
817.089	6475
817.23	6426
817.371	6429
817.512	6395
817.653	6410
817.793	6361
817.934	6369
818.075	6403
818.216	6388
818.356	6369
818.497	6273
818.638	6106
818.778	6152
818.919	6163
819.06	6148
819.2	6304
819.341	6331
819.481	6365
819.622	6456
819.762	6715
819.903	6681
820.043	6494
820.184	6578
820.324	6627
820.465	6711
820.605	6631
820.746	6585
820.886	6486
821.026	6604
821.167	6684
821.307	6818
821.447	6700
821.588	6616
821.728	6582
821.868	6475
822.008	6342
822.149	6342
822.289	6376
822.429	6159
822.569	6079
822.709	6095
822.849	5977
822.99	5958
823.13	5882
823.27	5950
823.41	5874
823.55	5786
823.69	5813
823.83	5764
823.97	5653
824.11	5589
824.25	5474
824.389	5562
824.529	5604
824.669	5554
824.809	5623
824.949	5703
825.089	5672
825.228	5600
825.368	5391
825.508	5368
825.648	5398
825.787	5440
825.927	5398
826.067	5341
826.206	5379
826.346	5433
826.485	5395
826.625	5398
826.765	5562
826.904	5474
827.044	5246
827.183	5235
827.323	5136
827.462	5261
827.601	5204
827.741	5239
827.88	5261
828.02	5181
828.159	5292
828.298	5330
828.437	5417
828.577	5326
828.716	5509
828.855	5383
828.994	5223
829.134	5223
829.273	5220
829.412	5181
829.551	5174
829.69	5212
829.829	5288
829.968	5410
830.107	5330
830.246	5303
830.385	5159
830.524	5178
830.663	5094
830.802	5014
830.941	4972
831.08	4892
831.219	5006
831.357	4976
831.496	5193
831.635	4946
831.774	4923
831.913	4866
832.051	4721
832.19	4801
832.329	4843
832.467	4740
832.606	4668
832.744	4752
832.883	4778
833.022	4763
833.16	4793
833.299	4858
833.437	4866
833.576	4908
833.714	4870
833.852	4889
833.991	4908
834.129	4976
834.267	4953
834.406	4961
834.544	5006
834.682	4987
834.821	4961
834.959	5162
835.097	5064
835.235	5162
835.373	5124
835.511	5098
835.65	5090
835.788	5086
835.926	4889
836.064	4930
836.202	4911
836.34	5151
836.478	5258
836.615	5189
836.753	5201
836.891	5341
837.029	5269
837.167	5204
837.305	5242
837.443	5136
837.58	5105
837.718	5227
837.856	5185
837.993	5140
838.131	5235
838.269	5216
838.406	5208
838.544	5204
838.681	5022
838.819	5052
838.956	4934
839.094	4961
839.231	5006
839.369	5098
839.506	5414
839.643	5349
839.781	5113
839.918	5067
840.055	5117
840.193	5064
840.33	5147
840.467	5132
840.604	5242
840.742	5509
840.879	5121
841.016	5121
841.153	5201
841.29	5398
841.427	5307
841.564	5357
841.701	5353
841.838	5318
841.975	5261
842.112	5284
842.249	5159
842.385	5090
842.522	5330
842.659	5162
842.796	5212
842.933	5208
843.069	5147
843.206	5197
843.343	5288
843.479	5280
843.616	5376
843.752	5048
843.889	5052
844.025	5239
844.162	5056
844.298	5193
844.435	5124
844.571	5060
844.708	5189
844.844	5326
844.98	5307
845.117	5330
845.253	5143
845.389	5155
845.525	5201
845.661	5204
845.798	5022
845.934	5132
846.07	5105
846.206	5231
846.342	5254
846.478	5235
846.614	5071
846.75	5025
846.886	4961
847.022	5117
847.158	5041
847.294	5094
847.429	5124
847.565	5079
847.701	5322
847.837	4885
847.972	4828
848.108	4980
848.244	4968
848.379	4831
848.515	4706
848.65	4767
848.786	4748
848.921	4820
849.057	4904
849.192	4923
849.328	4839
849.463	4885
849.598	4812
849.734	4828
849.869	4740
850.004	4653
850.14	4710
850.275	4630
850.41	4580
850.545	4596
850.68	4599
850.815	4698
850.95	4607
851.085	4831
851.22	4740
851.355	4656
851.49	4618
851.625	4656
851.76	4649
851.895	4546
852.03	4519
852.165	4679
852.299	4721
852.434	4733
852.569	4740
852.703	4797
852.838	4847
852.973	4938
853.107	4953
853.242	4744
853.376	4710
853.511	4561
853.645	4637
853.78	4812
853.914	4717
854.048	4656
854.183	4664
854.317	4763
854.451	4858
854.585	4675
854.72	4668
854.854	4759
854.988	4603
855.122	4679
855.256	4607
855.39	4653
855.524	4744
855.658	4687
855.792	4710
855.926	4786
856.06	4759
856.194	4812
856.327	4698
856.461	4615
856.595	4668
856.729	4664
856.862	4793
856.996	4694
857.13	4755
857.263	4748
857.397	4809
857.53	4664
857.664	4725
857.797	4809
857.931	4786
858.064	4725
858.197	4702
858.331	4675
858.464	4664
858.597	4596
858.731	4656
858.864	4634
858.997	4622
859.13	4653
859.263	4691
859.396	4755
859.529	4626
859.662	4603
859.795	4538
859.928	4672
860.061	4740
860.194	4763
860.327	4603
860.46	4588
860.592	4714
860.725	4740
860.858	4767
860.99	4554
861.123	4531
861.256	4531
861.388	4641
861.521	5216
861.653	4455
861.786	4424
861.918	4489
862.05	4550
862.183	4588
862.315	4679
862.447	4694
862.58	4599
862.712	4436
862.844	4341
862.976	4485
863.108	4455
863.24	4904
863.372	4348
863.504	4478
863.636	4478
863.768	4519
863.9	4443
864.032	4356
864.164	4424
864.296	4500
864.428	4596
864.559	4550
864.691	4558
864.823	4523
864.954	4474
865.086	4558
865.217	4497
865.349	4459
865.48	4459
865.612	4519
865.743	4634
865.875	4470
866.006	4478
866.137	4527
866.269	4432
866.4	4451
866.531	4451
866.662	4413
866.793	4424
866.924	4428
867.055	4481
867.186	4436
867.317	4436
867.448	4375
867.579	4390
867.71	4402
867.841	4379
867.972	4451
868.103	4447
868.233	4527
868.364	4447
868.495	4474
868.625	4611
868.756	4729
868.886	4561
869.017	4668
869.147	4790
869.278	4797
869.408	4622
869.539	4672
869.669	4717
869.799	4649
869.929	4778
870.06	4755
870.19	4881
870.32	4862
870.45	4949
870.58	5037
870.71	5071
870.84	5075
870.97	4961
871.1	4862
871.23	5113
871.36	5159
871.489	4999
871.619	5045
871.749	5041
871.879	5189
872.008	5147
872.138	5029
872.267	4953
872.397	4866
872.526	4847
872.656	4710
872.785	4816
872.915	4942
873.044	5048
873.173	4961
873.303	4961
873.432	4961
873.561	4953
873.69	4908
873.819	4881
873.948	4915
874.077	4866
874.206	4767
874.335	4816
874.464	4987
874.593	5064
874.722	4934
874.851	5117
874.979	5048
875.108	5045
875.237	4934
875.365	4877
875.494	4938
875.623	4968
875.751	4824
875.88	4843
876.008	5003
876.136	5022
876.265	5181
876.393	5357
876.521	5269
876.65	5197
876.778	5174
876.906	5079
877.034	5045
877.162	5079
877.29	5014
877.418	5083
877.546	5037
877.674	5060
877.802	4995
877.93	5067
878.058	4892
878.185	4858
878.313	4896
878.441	4961
878.568	4797
878.696	4850
878.824	4984
878.951	4976
879.079	5113
879.206	5246
879.333	5102
879.461	4930
879.588	5052
879.715	5204
879.842	5288
879.97	4984
880.097	4767
880.224	4721
880.351	4873
880.478	4812
880.605	4847
880.732	4828
880.859	5033
880.986	4862
881.112	4900
881.239	4797
881.366	4611
881.493	4664
881.619	4580
881.746	4653
881.872	4649
881.999	4656
882.125	4736
882.252	4812
882.378	4805
882.505	4953
882.631	4835
882.757	4702
882.883	4752
883.01	4740
883.136	4710
883.262	4599
883.388	4615
883.514	4771
883.64	4835
883.766	4839
883.892	4664
884.018	4725
884.143	4870
884.269	5029
884.395	4710
884.52	4664
884.646	4603
884.772	4607
884.897	4569
885.023	4660
885.148	4774
885.274	4881
885.399	4805
885.524	4694
885.65	4683
885.775	4778
885.9	4725
886.025	4911
886.15	4778
886.275	4763
886.4	4679
886.525	4744
886.65	4679
886.775	4694
886.9	4965
887.025	5010
887.149	4850
887.274	4653
887.399	4573
887.523	4622
887.648	4580
887.773	4565
887.897	4752
888.021	4812
888.146	4664
888.27	4774
888.395	4870
888.519	4778
888.643	4786
888.767	4820
888.891	4668
889.015	4622
889.139	4687
889.263	4580
889.387	4759
889.511	4816
889.635	4805
889.759	4634
889.883	4668
890.006	4702
890.13	4870
890.254	4611
890.377	4672
890.501	4561
890.624	4508
890.748	4660
890.871	4500
890.995	4462
891.118	4424
891.241	4470
891.364	4550
891.488	4653
891.611	4512
891.734	4565
891.857	4615
891.98	4554
892.103	4637
892.226	4599
892.349	4500
892.471	4413
892.594	4531
892.717	4596
892.839	4569
892.962	4577
893.085	4668
893.207	4618
893.33	4508
893.452	4535
893.575	4687
893.697	4535
893.819	4763
893.941	4809
894.064	4790
894.186	4603
894.308	4561
894.43	4755
894.552	4797
894.674	4790
894.796	4542
894.918	4542
895.04	4561
895.161	4729
895.283	4645
895.405	4584
895.526	4649
895.648	4706
895.769	4729
895.891	4687
896.012	4714
896.134	4721
896.255	4618
896.376	4653
896.498	4641
896.619	4675
896.74	4558
896.861	4622
896.982	4930
897.103	5143
897.224	4828
897.345	4752
897.466	4634
897.587	4740
897.708	4862
897.828	4793
897.949	4683
898.07	4558
898.19	4637
898.311	4793
898.431	4694
898.552	4736
898.672	4835
898.792	4790
898.913	4687
899.033	4634
899.153	4504
899.273	4417
899.393	4535
899.513	4538
899.633	4523
899.753	4538
899.873	4542
899.993	4577
900.113	4527
900.232	4569
900.352	4523
900.472	4481
900.591	4375
900.711	4436
900.83	4466
900.95	4584
901.069	4714
901.189	4542
901.308	4356
901.427	4268
901.546	4360
901.665	4466
901.784	4538
901.904	4371
902.023	4314
902.141	4211
902.26	4158
902.379	4360
902.498	4299
902.617	4257
902.735	4383
902.854	4386
902.973	4371
903.091	4207
903.21	4177
903.328	4306
903.446	4249
903.565	4238
903.683	4394
903.801	4219
903.919	4402
904.038	4478
904.156	4344
904.274	4421
904.392	4413
904.51	4466
904.627	4481
904.745	4592
904.863	4630
904.981	4375
905.098	4341
905.216	4367
905.334	4398
905.451	4436
905.569	4455
905.686	4565
905.803	4550
905.921	4402
906.038	4565
906.155	4462
906.272	4428
906.389	4440
906.506	4348
906.623	4398
906.74	4405
906.857	4299
906.974	4360
907.091	4550
907.208	4645
907.324	4588
907.441	4485
907.557	4314
907.674	4371
907.79	4284
907.907	4367
908.023	4478
908.139	4485
908.256	4402
908.372	4481
908.488	4455
908.604	4352
908.72	4344
908.836	4379
908.952	4417
909.068	4417
909.184	4611
909.3	4500
909.415	4573
909.531	4519
909.647	4337
909.762	4363
909.878	4352
909.993	4485
910.108	4341
910.224	4398
910.339	4436
910.454	4417
910.57	4348
910.685	4318
910.8	4637
910.915	4577
911.03	4478
911.145	4360
911.259	4325
911.374	4363
911.489	4291
911.604	4299
911.718	4143
911.833	4196
911.947	4078
912.062	4010
912.176	4207
912.291	4200
912.405	4234
912.519	4443
912.633	4489
912.748	4383
912.862	4310
912.976	4207
913.09	4086
913.204	4166
913.318	4230
913.431	4394
913.545	4386
913.659	4436
913.772	4390
913.886	4211
914	4261
914.113	4367
914.226	4432
914.34	4390
914.453	4207
914.566	4402
914.68	4314
914.793	4325
914.906	4204
915.019	4097
915.132	4051
915.245	4215
915.358	4219
915.47	4257
915.583	4238
915.696	4272
915.809	4394
915.921	4405
916.034	4211
916.146	4268
916.259	4215
916.371	4383
916.483	4394
916.595	4249
916.708	4352
916.82	4322
916.932	4322
917.044	4333
917.156	4337
917.268	4223
917.38	4257
917.491	4257
917.603	4310
917.715	4394
917.826	4440
917.938	4322
918.049	4223
918.161	4341
918.272	4523
918.384	4535
918.495	4489
918.606	4287
918.717	4261
918.828	4287
918.939	4440
919.05	4246
919.161	4299
919.272	4135
919.383	4227
919.494	4462
919.604	4618
919.715	4390
919.826	4344
919.936	4394
920.047	4489
920.157	4432
920.267	4714
920.378	4569
920.488	4500
920.598	4721
920.708	4881
920.818	4729
920.928	4755
921.038	4987
921.148	4866
921.258	4653
921.368	4558
921.477	4424
921.587	4478
921.697	4398
921.806	4500
921.916	4417
922.025	4276
922.134	4261
922.244	4211
922.353	4322
922.462	4249
922.571	4120
922.68	4021
922.789	4010
922.898	4006
923.007	4002
923.116	4090
923.224	4040
923.333	4029
923.442	3911
923.55	3979
923.659	4071
923.767	4112
923.876	4002
923.984	4120
924.092	3945
924.201	4059
924.309	4093
924.417	4162
924.525	4055
924.633	4082
924.741	5090
924.849	3903
924.956	4139
925.064	3956
925.172	3896
925.279	3930
925.387	4036
925.494	4032
925.602	4196
925.709	4188
925.816	4040
925.924	4090
926.031	4188
926.138	4150
926.245	4200
926.352	4059
926.459	4158
926.566	4284
926.673	4162
926.779	4124
926.886	4082
926.993	4002
927.099	3964
927.206	3934
927.312	3956
927.419	4067
927.525	4029
927.631	4090
927.737	3945
927.843	3983
927.95	3831
928.056	3972
928.162	3960
928.267	4055
928.373	4630
928.479	4086
928.585	3899
928.69	3979
928.796	4048
928.901	3937
929.007	3846
929.112	3979
929.218	3972
929.323	3949
929.428	3911
929.533	4120
929.638	3884
929.743	3922
929.848	4021
929.953	3998
930.058	3949
930.163	3751
930.267	3850
930.372	3964
930.477	3797
930.581	4055
930.685	3941
930.79	3838
930.894	3892
930.998	3896
931.103	4040
931.207	3774
931.311	3694
931.415	3663
931.519	3488
931.623	3553
