Data from test_V78500241_2302.txt Node
Date: Fri Mar 25 17:05:00 CST 2022
User: usil
Spectrometer: V785-0024
Trigger mode: 0
Integration Time (sec): 4.000000E-1
Scans to average: 1
Nonlinearity correction enabled: false
Boxcar width: 0
Storing dark spectrum: false
XAxis mode: Wavelengths
Number of Pixels in Spectrum: 1024
>>>>>Begin Spectral Data<<<<<
801.071	8005
801.214	7955
801.356	7894
801.499	7818
801.641	7852
801.783	7852
801.926	7967
802.068	7868
802.211	7944
802.353	8012
802.496	7887
802.638	7833
802.78	7932
802.923	7928
803.065	7818
803.208	7883
803.35	7944
803.492	8100
803.635	8180
803.777	7974
803.919	8187
804.061	8396
804.204	8123
804.346	8107
804.488	8005
804.63	8069
804.773	8020
804.915	8145
805.057	8324
805.199	8206
805.341	8164
805.483	8202
805.626	8244
805.768	8168
805.91	8225
806.052	8168
806.194	8084
806.336	8275
806.478	8096
806.62	8092
806.762	8119
806.904	8259
807.046	8469
807.188	8347
807.33	8263
807.472	8358
807.614	8218
807.756	8123
807.898	8020
808.04	7860
808.182	7917
808.324	7875
808.465	7883
808.607	8069
808.749	8096
808.891	8157
809.033	8294
809.174	8142
809.316	8115
809.458	8062
809.6	8016
809.741	8027
809.883	8081
810.025	8058
810.166	8092
810.308	8039
810.45	7955
810.591	7868
810.733	7666
810.875	7693
811.016	7510
811.158	7438
811.299	7525
811.441	7727
811.582	7651
811.724	7544
811.865	7540
812.007	7582
812.148	7594
812.29	7605
812.431	7765
812.573	7879
812.714	8020
812.855	8180
812.997	8252
813.138	8290
813.279	8088
813.421	8069
813.562	7982
813.703	7795
813.845	7727
813.986	7343
814.127	7278
814.268	7225
814.41	7236
814.551	7187
814.692	7240
814.833	7133
814.974	7061
815.115	7141
815.256	6962
815.397	6970
815.539	6996
815.68	6814
815.821	6734
815.962	6840
816.103	6833
816.244	6711
816.385	6665
816.526	6669
816.666	6506
816.807	6311
816.948	6437
817.089	6506
817.23	6422
817.371	6357
817.512	6346
817.653	6353
817.793	6315
817.934	6467
818.075	6506
818.216	6464
818.356	6418
818.497	6273
818.638	6125
818.778	6140
818.919	6167
819.06	6182
819.2	6376
819.341	6334
819.481	6388
819.622	6582
819.762	6776
819.903	6726
820.043	6582
820.184	6547
820.324	6555
820.465	6707
820.605	6677
820.746	6635
820.886	6551
821.026	6597
821.167	6703
821.307	6798
821.447	6738
821.588	6700
821.728	6566
821.868	6448
822.008	6327
822.149	6395
822.289	6357
822.429	6136
822.569	6148
822.709	6148
822.849	5935
822.99	5878
823.13	5897
823.27	5897
823.41	5771
823.55	5775
823.69	5752
823.83	5760
823.97	5665
824.11	5539
824.25	5452
824.389	5573
824.529	5623
824.669	5497
824.809	5562
824.949	5661
825.089	5630
825.228	5585
825.368	5357
825.508	5372
825.648	5337
825.787	5421
825.927	5376
826.067	5322
826.206	5280
826.346	5376
826.485	5402
826.625	5417
826.765	5524
826.904	5463
827.044	5227
827.183	5204
827.323	5136
827.462	5269
827.601	5178
827.741	5231
827.88	5220
828.02	5098
828.159	5204
828.298	5254
828.437	5341
828.577	5315
828.716	5493
828.855	5315
828.994	5159
829.134	5181
829.273	5185
829.412	5136
829.551	5151
829.69	5189
829.829	5273
829.968	5436
830.107	5254
830.246	5273
830.385	5216
830.524	5067
830.663	5052
830.802	4980
830.941	4915
831.08	4911
831.219	5014
831.357	5022
831.496	5174
831.635	4927
831.774	4866
831.913	4850
832.051	4767
832.19	4736
832.329	4862
832.467	4683
832.606	4584
832.744	4744
832.883	4702
833.022	4691
833.16	4778
833.299	4816
833.437	4835
833.576	4801
833.714	4854
833.852	4866
833.991	4870
834.129	4930
834.267	4965
834.406	4877
834.544	4980
834.682	4957
834.821	4980
834.959	5155
835.097	4999
835.235	5132
835.373	5094
835.511	5086
835.65	5102
835.788	5010
835.926	4843
836.064	4866
836.202	4885
836.34	5166
836.478	5227
836.615	5132
836.753	5220
836.891	5288
837.029	5265
837.167	5181
837.305	5098
837.443	5147
837.58	5086
837.718	5254
837.856	5181
837.993	5197
838.131	5227
838.269	5220
838.406	5170
838.544	5185
838.681	5003
838.819	4995
838.956	4885
839.094	4949
839.231	4957
839.369	4976
839.506	5383
839.643	5280
839.781	5022
839.918	5033
840.055	5090
840.193	5086
840.33	5117
840.467	5064
840.604	5189
840.742	5410
840.879	5102
841.016	5113
841.153	5143
841.29	5368
841.427	5315
841.564	5307
841.701	5353
841.838	5269
841.975	5242
842.112	5261
842.249	5102
842.385	5037
842.522	5284
842.659	5162
842.796	5159
842.933	5197
843.069	5109
843.206	5193
843.343	5322
843.479	5201
843.616	5258
843.752	5022
843.889	4980
844.025	5170
844.162	5025
844.298	5185
844.435	5079
844.571	5109
844.708	5109
844.844	5292
844.98	5364
845.117	5311
845.253	5151
845.389	5090
845.525	5155
845.661	5162
845.798	5037
845.934	5102
846.07	5029
846.206	5197
846.342	5326
846.478	5220
846.614	5029
846.75	4999
846.886	4957
847.022	5079
847.158	5060
847.294	5102
847.429	5124
847.565	5037
847.701	5341
847.837	4847
847.972	4752
848.108	4919
848.244	4900
848.379	4767
848.515	4778
848.65	4717
848.786	4710
848.921	4782
849.057	4889
849.192	4866
849.328	4812
849.463	4809
849.598	4839
849.734	4771
849.869	4687
850.004	4603
850.14	4653
850.275	4645
850.41	4554
850.545	4538
850.68	4546
850.815	4599
850.95	4641
851.085	4805
851.22	4729
851.355	4664
851.49	4611
851.625	4634
851.76	4622
851.895	4504
852.03	4538
852.165	4675
852.299	4687
852.434	4812
852.569	4729
852.703	4740
852.838	4877
852.973	4972
853.107	4930
853.242	4759
853.376	4706
853.511	4554
853.645	4565
853.78	4816
853.914	4653
854.048	4634
854.183	4626
854.317	4725
854.451	4858
854.585	4725
854.72	4622
854.854	4733
854.988	4622
855.122	4603
855.256	4466
855.39	4664
855.524	4774
855.658	4733
855.792	4694
855.926	4752
856.06	4782
856.194	4774
856.327	4637
856.461	4569
856.595	4599
856.729	4653
856.862	4714
856.996	4645
857.13	4714
857.263	4774
857.397	4782
857.53	4649
857.664	4706
857.797	4801
857.931	4774
858.064	4691
858.197	4744
858.331	4653
858.464	4580
858.597	4481
858.731	4584
858.864	4622
858.997	4630
859.13	4649
859.263	4615
859.396	4660
859.529	4592
859.662	4561
859.795	4542
859.928	4630
860.061	4740
860.194	4740
860.327	4618
860.46	4584
860.592	4744
860.725	4714
860.858	4687
860.99	4550
861.123	4569
861.256	4558
861.388	4584
861.521	5201
861.653	4470
861.786	4402
861.918	4451
862.05	4565
862.183	4554
862.315	4626
862.447	4660
862.58	4538
862.712	4371
862.844	4352
862.976	4500
863.108	4455
863.24	4828
863.372	4325
863.504	4424
863.636	4413
863.768	4489
863.9	4459
864.032	4367
864.164	4394
864.296	4459
864.428	4516
864.559	4569
864.691	4527
864.823	4516
864.954	4493
865.086	4500
865.217	4478
865.349	4409
865.48	4462
865.612	4512
865.743	4649
865.875	4523
866.006	4440
866.137	4519
866.269	4432
866.4	4443
866.531	4394
866.662	4322
866.793	4417
866.924	4428
867.055	4504
867.186	4443
867.317	4432
867.448	4371
867.579	4432
867.71	4356
867.841	4367
867.972	4451
868.103	4470
868.233	4462
868.364	4424
868.495	4493
868.625	4649
868.756	4714
868.886	4550
869.017	4664
869.147	4736
869.278	4812
869.408	4694
869.539	4653
869.669	4725
869.799	4660
869.929	4759
870.06	4736
870.19	4953
870.32	4870
870.45	4881
870.58	5033
870.71	5037
870.84	5045
870.97	4904
871.1	4892
871.23	5178
871.36	5124
871.489	5033
871.619	5075
871.749	5079
871.879	5162
872.008	5155
872.138	5064
872.267	4968
872.397	4831
872.526	4786
872.656	4656
872.785	4835
872.915	4953
873.044	5064
873.173	4976
873.303	4934
873.432	4908
873.561	4934
873.69	4889
873.819	4858
873.948	4904
874.077	4839
874.206	4767
874.335	4801
874.464	4915
874.593	5025
874.722	4896
874.851	5060
874.979	5090
875.108	5037
875.237	4892
875.365	4797
875.494	4889
875.623	5003
875.751	4850
875.88	4885
876.008	4934
876.136	4991
876.265	5201
876.393	5326
876.521	5242
876.65	5227
876.778	5181
876.906	5064
877.034	5052
877.162	5071
877.29	4999
877.418	5067
877.546	4999
877.674	5018
877.802	5010
877.93	4976
878.058	4976
878.185	4828
878.313	4915
878.441	4927
878.568	4721
878.696	4896
878.824	4957
878.951	4987
879.079	5124
879.206	5269
879.333	5075
879.461	4999
879.588	5014
879.715	5155
879.842	5208
879.97	5010
880.097	4748
880.224	4733
880.351	4786
880.478	4809
880.605	4790
880.732	4771
880.859	5094
880.986	4896
881.112	4957
881.239	4748
881.366	4656
881.493	4607
881.619	4592
881.746	4637
881.872	4634
881.999	4592
882.125	4702
882.252	4763
882.378	4839
882.505	4976
882.631	4790
882.757	4649
882.883	4698
883.01	4729
883.136	4664
883.262	4637
883.388	4637
883.514	4847
883.64	4862
883.766	4790
883.892	4634
884.018	4694
884.143	4889
884.269	5041
884.395	4729
884.52	4645
884.646	4641
884.772	4611
884.897	4577
885.023	4687
885.148	4793
885.274	4835
885.399	4793
885.524	4679
885.65	4714
885.775	4752
885.9	4725
886.025	4850
886.15	4831
886.275	4714
886.4	4668
886.525	4755
886.65	4702
886.775	4656
886.9	4896
887.025	5018
887.149	4786
887.274	4706
887.399	4645
887.523	4653
887.648	4527
887.773	4611
887.897	4797
888.021	4771
888.146	4702
888.27	4805
888.395	4858
888.519	4733
888.643	4790
888.767	4797
888.891	4653
889.015	4592
889.139	4675
889.263	4630
889.387	4778
889.511	4866
889.635	4809
889.759	4683
889.883	4630
890.006	4752
890.13	4816
890.254	4634
890.377	4706
890.501	4497
890.624	4497
890.748	4637
890.871	4489
890.995	4394
891.118	4371
891.241	4523
891.364	4527
891.488	4664
891.611	4443
891.734	4516
891.857	4588
891.98	4546
892.103	4618
892.226	4630
892.349	4516
892.471	4390
892.594	4508
892.717	4580
892.839	4584
892.962	4611
893.085	4702
893.207	4558
893.33	4474
893.452	4474
893.575	4687
893.697	4565
893.819	4752
893.941	4774
894.064	4767
894.186	4561
894.308	4584
894.43	4694
894.552	4820
894.674	4801
894.796	4577
894.918	4592
895.04	4535
895.161	4675
895.283	4672
895.405	4550
895.526	4565
895.648	4706
895.769	4675
895.891	4687
896.012	4782
896.134	4691
896.255	4641
896.376	4649
896.498	4584
896.619	4672
896.74	4596
896.861	4672
896.982	4961
897.103	5045
897.224	4831
897.345	4759
897.466	4694
897.587	4740
897.708	4908
897.828	4793
897.949	4664
898.07	4523
898.19	4603
898.311	4805
898.431	4710
898.552	4691
898.672	4828
898.792	4820
898.913	4782
899.033	4618
899.153	4558
899.273	4459
899.393	4481
899.513	4523
899.633	4523
899.753	4523
899.873	4504
899.993	4596
900.113	4561
900.232	4584
900.352	4516
900.472	4478
900.591	4413
900.711	4489
900.83	4443
900.95	4603
901.069	4691
901.189	4527
901.308	4344
901.427	4265
901.546	4409
901.665	4512
901.784	4462
901.904	4421
902.023	4322
902.141	4177
902.26	4192
902.379	4322
902.498	4192
902.617	4185
902.735	4375
902.854	4379
902.973	4375
903.091	4211
903.21	4261
903.328	4295
903.446	4295
903.565	4291
903.683	4341
903.801	4276
903.919	4402
904.038	4428
904.156	4322
904.274	4493
904.392	4363
904.51	4421
904.627	4474
904.745	4504
904.863	4607
904.981	4405
905.098	4310
905.216	4352
905.334	4455
905.451	4424
905.569	4413
905.686	4584
905.803	4542
905.921	4440
906.038	4497
906.155	4527
906.272	4424
906.389	4478
906.506	4341
906.623	4344
906.74	4371
906.857	4303
906.974	4379
907.091	4550
907.208	4653
907.324	4554
907.441	4500
907.557	4348
907.674	4306
907.79	4318
907.907	4367
908.023	4485
908.139	4474
908.256	4459
908.372	4470
908.488	4455
908.604	4367
908.72	4284
908.836	4344
908.952	4371
909.068	4478
909.184	4558
909.3	4489
909.415	4569
909.531	4538
909.647	4348
909.762	4360
909.878	4310
909.993	4428
910.108	4409
910.224	4386
910.339	4535
910.454	4375
910.57	4367
910.685	4291
910.8	4694
910.915	4622
911.03	4531
911.145	4333
911.259	4306
911.374	4409
911.489	4303
911.604	4238
911.718	4188
911.833	4204
911.947	4109
912.062	4013
912.176	4211
912.291	4230
912.405	4257
912.519	4474
912.633	4531
912.748	4344
912.862	4318
912.976	4200
913.09	4109
913.204	4173
913.318	4268
913.431	4363
913.545	4371
913.659	4421
913.772	4344
913.886	4223
914	4215
914.113	4375
914.226	4436
914.34	4367
914.453	4211
914.566	4390
914.68	4284
914.793	4341
914.906	4143
915.019	4120
915.132	4093
915.245	4169
915.358	4234
915.47	4230
915.583	4268
915.696	4310
915.809	4356
915.921	4371
916.034	4246
916.146	4257
916.259	4188
916.371	4337
916.483	4333
916.595	4261
916.708	4348
916.82	4303
916.932	4325
917.044	4325
917.156	4329
917.268	4234
917.38	4303
917.491	4299
917.603	4325
917.715	4413
917.826	4447
917.938	4341
918.049	4223
918.161	4390
918.272	4558
918.384	4558
918.495	4440
918.606	4280
918.717	4204
918.828	4284
918.939	4360
919.05	4246
919.161	4314
919.272	4093
919.383	4246
919.494	4447
919.604	4599
919.715	4428
919.826	4356
919.936	4379
920.047	4500
920.157	4447
920.267	4649
920.378	4573
920.488	4516
920.598	4717
920.708	4885
920.818	4736
920.928	4694
921.038	4942
921.148	4839
921.258	4675
921.368	4554
921.477	4478
921.587	4459
921.697	4360
921.806	4565
921.916	4413
922.025	4253
922.134	4246
922.244	4242
922.353	4291
922.462	4196
922.571	4116
922.68	3998
922.789	3975
922.898	4025
923.007	3979
923.116	4105
923.224	4082
923.333	4063
923.442	3968
923.55	3991
923.659	4059
923.767	4063
923.876	3991
923.984	4131
924.092	3983
924.201	4048
924.309	4032
924.417	4143
924.525	4090
924.633	4078
924.741	4980
924.849	3941
924.956	4143
925.064	3972
925.172	3892
925.279	3937
925.387	4029
925.494	4029
925.602	4207
925.709	4188
925.816	4036
925.924	4120
926.031	4249
926.138	4196
926.245	4204
926.352	4071
926.459	4261
926.566	4291
926.673	4112
926.779	4074
926.886	4051
926.993	4025
927.099	3987
927.206	3941
927.312	3956
927.419	4074
927.525	3964
927.631	4124
927.737	4006
927.843	3922
927.95	3854
928.056	3922
928.162	4017
928.267	4086
928.373	4706
928.479	4124
928.585	3865
928.69	4025
928.796	4071
928.901	3979
929.007	3876
929.112	3994
929.218	4021
929.323	3937
929.428	3964
929.533	4158
929.638	3926
929.743	3941
929.848	4071
929.953	4021
930.058	3915
930.163	3766
930.267	3816
930.372	3972
930.477	3835
930.581	4082
930.685	3918
930.79	3812
930.894	3899
930.998	3907
931.103	3994
931.207	3694
931.311	3705
931.415	3667
931.519	3538
931.623	3534
