Data from test_V78500241_1829.txt Node
Date: Fri Mar 25 17:01:43 CST 2022
User: usil
Spectrometer: V785-0024
Trigger mode: 0
Integration Time (sec): 4.000000E-1
Scans to average: 1
Nonlinearity correction enabled: false
Boxcar width: 0
Storing dark spectrum: false
XAxis mode: Wavelengths
Number of Pixels in Spectrum: 1024
>>>>>Begin Spectral Data<<<<<
801.071	7959
801.214	8046
801.356	7860
801.499	7909
801.641	7799
801.783	7868
801.926	8005
802.068	7936
802.211	7989
802.353	8024
802.496	7875
802.638	7871
802.78	7947
802.923	7944
803.065	7845
803.208	7868
803.35	7993
803.492	8020
803.635	8157
803.777	7967
803.919	8134
804.061	8438
804.204	8119
804.346	8081
804.488	7989
804.63	8088
804.773	8005
804.915	8153
805.057	8324
805.199	8164
805.341	8206
805.483	8290
805.626	8221
805.768	8012
805.91	8187
806.052	8259
806.194	8123
806.336	8294
806.478	8115
806.62	7989
806.762	8077
806.904	8305
807.046	8533
807.188	8404
807.33	8229
807.472	8343
807.614	8187
807.756	8183
807.898	8035
808.04	7875
808.182	7940
808.324	7845
808.465	7967
808.607	8062
808.749	8111
808.891	8199
809.033	8313
809.174	8218
809.316	8107
809.458	8088
809.6	7982
809.741	8020
809.883	8069
810.025	8149
810.166	8027
810.308	8069
810.45	7993
810.591	7814
810.733	7738
810.875	7712
811.016	7594
811.158	7502
811.299	7571
811.441	7742
811.582	7632
811.724	7502
811.865	7563
812.007	7559
812.148	7601
812.29	7666
812.431	7734
812.573	7940
812.714	7871
812.855	8111
812.997	8221
813.138	8328
813.279	8206
813.421	8081
813.562	7947
813.703	7868
813.845	7788
813.986	7464
814.127	7236
814.268	7247
814.41	7164
814.551	7149
814.692	7221
814.833	7095
814.974	7080
815.115	7190
815.256	6932
815.397	6947
815.539	6958
815.68	6802
815.821	6783
815.962	6810
816.103	6745
816.244	6791
816.385	6631
816.526	6616
816.666	6498
816.807	6308
816.948	6441
817.089	6498
817.23	6414
817.371	6414
817.512	6445
817.653	6350
817.793	6410
817.934	6384
818.075	6456
818.216	6429
818.356	6441
818.497	6247
818.638	6091
818.778	6167
818.919	6182
819.06	6148
819.2	6315
819.341	6331
819.481	6414
819.622	6566
819.762	6719
819.903	6673
820.043	6616
820.184	6559
820.324	6532
820.465	6696
820.605	6711
820.746	6650
820.886	6540
821.026	6681
821.167	6696
821.307	6814
821.447	6806
821.588	6635
821.728	6559
821.868	6467
822.008	6346
822.149	6422
822.289	6384
822.429	6125
822.569	6095
822.709	6117
822.849	5954
822.99	5893
823.13	5904
823.27	5904
823.41	5813
823.55	5752
823.69	5790
823.83	5809
823.97	5691
824.11	5535
824.25	5509
824.389	5535
824.529	5535
824.669	5478
824.809	5634
824.949	5691
825.089	5630
825.228	5558
825.368	5368
825.508	5337
825.648	5345
825.787	5334
825.927	5337
826.067	5292
826.206	5326
826.346	5341
826.485	5387
826.625	5414
826.765	5535
826.904	5486
827.044	5201
827.183	5193
827.323	5117
827.462	5235
827.601	5185
827.741	5189
827.88	5231
828.02	5132
828.159	5254
828.298	5284
828.437	5311
828.577	5254
828.716	5497
828.855	5315
828.994	5109
829.134	5151
829.273	5193
829.412	5178
829.551	5189
829.69	5162
829.829	5223
829.968	5383
830.107	5242
830.246	5216
830.385	5212
830.524	5128
830.663	5060
830.802	4942
830.941	4923
831.08	4889
831.219	4949
831.357	4972
831.496	5162
831.635	4949
831.774	4858
831.913	4866
832.051	4774
832.19	4736
832.329	4805
832.467	4656
832.606	4641
832.744	4744
832.883	4717
833.022	4706
833.16	4748
833.299	4816
833.437	4820
833.576	4809
833.714	4816
833.852	4896
833.991	4896
834.129	5003
834.267	4965
834.406	4911
834.544	5003
834.682	4942
834.821	5022
834.959	5121
835.097	5018
835.235	5136
835.373	5071
835.511	5128
835.65	4999
835.788	5022
835.926	4911
836.064	4877
836.202	4866
836.34	5155
836.478	5178
836.615	5090
836.753	5220
836.891	5322
837.029	5261
837.167	5235
837.305	5185
837.443	5124
837.58	5102
837.718	5265
837.856	5166
837.993	5166
838.131	5212
838.269	5201
838.406	5197
838.544	5208
838.681	4987
838.819	5025
838.956	4870
839.094	4900
839.231	4919
839.369	5060
839.506	5440
839.643	5277
839.781	5006
839.918	5033
840.055	5105
840.193	5071
840.33	5094
840.467	5109
840.604	5178
840.742	5436
840.879	5079
841.016	5105
841.153	5143
841.29	5368
841.427	5296
841.564	5269
841.701	5368
841.838	5318
841.975	5265
842.112	5261
842.249	5109
842.385	5117
842.522	5315
842.659	5121
842.796	5105
842.933	5159
843.069	5128
843.206	5170
843.343	5288
843.479	5220
843.616	5284
843.752	5018
843.889	4938
844.025	5132
844.162	5045
844.298	5166
844.435	5064
844.571	5037
844.708	5227
844.844	5284
844.98	5364
845.117	5277
845.253	5140
845.389	5098
845.525	5185
845.661	5147
845.798	5037
845.934	5132
846.07	5048
846.206	5124
846.342	5303
846.478	5227
846.614	5029
846.75	4976
846.886	4930
847.022	5136
847.158	5014
847.294	5018
847.429	5170
847.565	5025
847.701	5269
847.837	4847
847.972	4782
848.108	4953
848.244	4972
848.379	4793
848.515	4698
848.65	4702
848.786	4744
848.921	4755
849.057	4858
849.192	4915
849.328	4820
849.463	4835
849.598	4797
849.734	4752
849.869	4698
850.004	4607
850.14	4687
850.275	4599
850.41	4489
850.545	4577
850.68	4611
850.815	4611
850.95	4622
851.085	4831
851.22	4721
851.355	4698
851.49	4668
851.625	4645
851.76	4615
851.895	4554
852.03	4558
852.165	4630
852.299	4694
852.434	4816
852.569	4736
852.703	4755
852.838	4858
852.973	4919
853.107	4919
853.242	4687
853.376	4691
853.511	4561
853.645	4626
853.78	4839
853.914	4691
854.048	4641
854.183	4626
854.317	4679
854.451	4843
854.585	4683
854.72	4611
854.854	4717
854.988	4577
855.122	4675
855.256	4500
855.39	4649
855.524	4812
855.658	4691
855.792	4721
855.926	4702
856.06	4717
856.194	4805
856.327	4672
856.461	4603
856.595	4664
856.729	4622
856.862	4729
856.996	4744
857.13	4755
857.263	4702
857.397	4763
857.53	4668
857.664	4702
857.797	4717
857.931	4801
858.064	4675
858.197	4710
858.331	4618
858.464	4607
858.597	4527
858.731	4607
858.864	4649
858.997	4580
859.13	4649
859.263	4675
859.396	4717
859.529	4599
859.662	4546
859.795	4516
859.928	4618
860.061	4752
860.194	4740
860.327	4630
860.46	4493
860.592	4714
860.725	4752
860.858	4687
860.99	4573
861.123	4527
861.256	4497
861.388	4656
861.521	5284
861.653	4447
861.786	4443
861.918	4455
862.05	4538
862.183	4542
862.315	4577
862.447	4622
862.58	4527
862.712	4348
862.844	4363
862.976	4443
863.108	4428
863.24	4896
863.372	4295
863.504	4489
863.636	4386
863.768	4493
863.9	4440
864.032	4337
864.164	4379
864.296	4489
864.428	4519
864.559	4523
864.691	4546
864.823	4527
864.954	4489
865.086	4474
865.217	4497
865.349	4440
865.48	4409
865.612	4538
865.743	4660
865.875	4462
866.006	4405
866.137	4432
866.269	4474
866.4	4459
866.531	4371
866.662	4390
866.793	4383
866.924	4379
867.055	4478
867.186	4466
867.317	4405
867.448	4344
867.579	4352
867.71	4371
867.841	4356
867.972	4489
868.103	4470
868.233	4451
868.364	4478
868.495	4500
868.625	4672
868.756	4763
868.886	4550
869.017	4653
869.147	4740
869.278	4763
869.408	4660
869.539	4664
869.669	4736
869.799	4645
869.929	4755
870.06	4797
870.19	4938
870.32	4866
870.45	4930
870.58	4976
870.71	5071
870.84	5075
870.97	4965
871.1	4847
871.23	5113
871.36	5117
871.489	5003
871.619	5094
871.749	5128
871.879	5151
872.008	5174
872.138	5075
872.267	4999
872.397	4831
872.526	4820
872.656	4721
872.785	4759
872.915	4968
873.044	5064
873.173	4965
873.303	4908
873.432	4900
873.561	4904
873.69	4881
873.819	4843
873.948	4900
874.077	4809
874.206	4752
874.335	4793
874.464	4911
874.593	5048
874.722	4919
874.851	5117
874.979	5037
875.108	5041
875.237	4900
875.365	4881
875.494	4877
875.623	4976
875.751	4870
875.88	4889
876.008	5033
876.136	4987
876.265	5159
876.393	5322
876.521	5250
876.65	5204
876.778	5105
876.906	5079
877.034	5029
877.162	5075
877.29	4991
877.418	5010
877.546	5041
877.674	5037
877.802	5014
877.93	5003
878.058	4930
878.185	4831
878.313	4915
878.441	4942
878.568	4774
878.696	4858
878.824	4968
878.951	4976
879.079	5109
879.206	5220
879.333	5094
879.461	4980
879.588	4991
879.715	5121
879.842	5231
879.97	4961
880.097	4774
880.224	4755
880.351	4843
880.478	4870
880.605	4778
880.732	4763
880.859	5098
880.986	4908
881.112	4896
881.239	4744
881.366	4660
881.493	4584
881.619	4599
881.746	4634
881.872	4618
881.999	4660
882.125	4694
882.252	4778
882.378	4831
882.505	4904
882.631	4793
882.757	4660
882.883	4740
883.01	4759
883.136	4645
883.262	4603
883.388	4603
883.514	4816
883.64	4828
883.766	4805
883.892	4641
884.018	4744
884.143	4896
884.269	4987
884.395	4653
884.52	4622
884.646	4660
884.772	4558
884.897	4580
885.023	4698
885.148	4744
885.274	4820
885.399	4782
885.524	4717
885.65	4679
885.775	4763
885.9	4679
886.025	4873
886.15	4790
886.275	4630
886.4	4599
886.525	4714
886.65	4649
886.775	4698
886.9	4870
887.025	5071
887.149	4854
887.274	4630
887.399	4596
887.523	4580
887.648	4546
887.773	4603
887.897	4763
888.021	4801
888.146	4729
888.27	4793
888.395	4892
888.519	4755
888.643	4820
888.767	4824
888.891	4687
889.015	4615
889.139	4660
889.263	4603
889.387	4744
889.511	4873
889.635	4820
889.759	4622
889.883	4607
890.006	4748
890.13	4866
890.254	4580
890.377	4694
890.501	4508
890.624	4504
890.748	4603
890.871	4512
890.995	4440
891.118	4344
891.241	4504
891.364	4538
891.488	4626
891.611	4447
891.734	4569
891.857	4637
891.98	4531
892.103	4660
892.226	4588
892.349	4516
892.471	4428
892.594	4535
892.717	4588
892.839	4599
892.962	4653
893.085	4664
893.207	4634
893.33	4493
893.452	4504
893.575	4637
893.697	4565
893.819	4797
893.941	4824
894.064	4778
894.186	4558
894.308	4516
894.43	4748
894.552	4831
894.674	4767
894.796	4554
894.918	4618
895.04	4596
895.161	4656
895.283	4653
895.405	4577
895.526	4630
895.648	4733
895.769	4691
895.891	4672
896.012	4729
896.134	4694
896.255	4660
896.376	4611
896.498	4592
896.619	4672
896.74	4580
896.861	4664
896.982	4968
897.103	5090
897.224	4809
897.345	4679
897.466	4672
897.587	4725
897.708	4877
897.828	4771
897.949	4649
898.07	4565
898.19	4626
898.311	4801
898.431	4679
898.552	4729
898.672	4786
898.792	4816
898.913	4725
899.033	4641
899.153	4504
899.273	4421
899.393	4527
899.513	4546
899.633	4538
899.753	4519
899.873	4516
899.993	4531
900.113	4542
900.232	4550
900.352	4535
900.472	4508
900.591	4413
900.711	4508
900.83	4451
900.95	4607
901.069	4637
901.189	4577
901.308	4398
901.427	4310
901.546	4341
901.665	4443
901.784	4516
901.904	4405
902.023	4318
902.141	4177
902.26	4181
902.379	4284
902.498	4207
902.617	4261
902.735	4413
902.854	4417
902.973	4360
903.091	4181
903.21	4253
903.328	4303
903.446	4306
903.565	4227
903.683	4348
903.801	4280
903.919	4367
904.038	4443
904.156	4322
904.274	4398
904.392	4375
904.51	4432
904.627	4504
904.745	4554
904.863	4577
904.981	4413
905.098	4295
905.216	4405
905.334	4436
905.451	4398
905.569	4379
905.686	4535
905.803	4550
905.921	4432
906.038	4542
906.155	4462
906.272	4375
906.389	4489
906.506	4314
906.623	4325
906.74	4375
906.857	4348
906.974	4398
907.091	4554
907.208	4664
907.324	4565
907.441	4516
907.557	4341
907.674	4310
907.79	4314
907.907	4421
908.023	4470
908.139	4447
908.256	4394
908.372	4550
908.488	4512
908.604	4360
908.72	4348
908.836	4424
908.952	4318
909.068	4424
909.184	4584
909.3	4516
909.415	4558
909.531	4546
909.647	4356
909.762	4390
909.878	4276
909.993	4428
910.108	4417
910.224	4398
910.339	4493
910.454	4440
910.57	4394
910.685	4341
910.8	4679
910.915	4569
911.03	4504
911.145	4337
911.259	4299
911.374	4363
911.489	4318
911.604	4314
911.718	4219
911.833	4219
911.947	4105
912.062	4021
912.176	4192
912.291	4238
912.405	4253
912.519	4428
912.633	4500
912.748	4348
912.862	4303
912.976	4215
913.09	4116
913.204	4169
913.318	4223
913.431	4363
913.545	4371
913.659	4409
913.772	4333
913.886	4295
914	4242
914.113	4348
914.226	4443
914.34	4394
914.453	4295
914.566	4447
914.68	4356
914.793	4303
914.906	4181
915.019	4112
915.132	4044
915.245	4204
915.358	4204
915.47	4272
915.583	4257
915.696	4295
915.809	4421
915.921	4440
916.034	4242
916.146	4238
916.259	4196
916.371	4371
916.483	4390
916.595	4242
916.708	4333
916.82	4299
916.932	4299
917.044	4280
917.156	4329
917.268	4204
917.38	4257
917.491	4257
917.603	4322
917.715	4424
917.826	4432
917.938	4310
918.049	4284
918.161	4371
918.272	4535
918.384	4531
918.495	4432
918.606	4329
918.717	4215
918.828	4322
918.939	4394
919.05	4253
919.161	4356
919.272	4128
919.383	4211
919.494	4466
919.604	4630
919.715	4436
919.826	4371
919.936	4398
920.047	4523
920.157	4500
920.267	4691
920.378	4531
920.488	4470
920.598	4710
920.708	4816
920.818	4725
920.928	4698
921.038	4957
921.148	4904
921.258	4622
921.368	4538
921.477	4489
921.587	4424
921.697	4325
921.806	4554
921.916	4424
922.025	4306
922.134	4272
922.244	4215
922.353	4325
922.462	4166
922.571	4116
922.68	3998
922.789	3987
922.898	4044
923.007	3975
923.116	4124
923.224	4017
923.333	4082
923.442	3975
923.55	3960
923.659	4021
923.767	4116
923.876	3960
923.984	4097
924.092	3979
924.201	4048
924.309	4093
924.417	4147
924.525	4082
924.633	4139
924.741	5075
924.849	3888
924.956	4120
925.064	3960
925.172	3922
925.279	3949
925.387	4017
925.494	4002
925.602	4211
925.709	4207
925.816	4032
925.924	4097
926.031	4166
926.138	4158
926.245	4204
926.352	4101
926.459	4192
926.566	4314
926.673	4135
926.779	4116
926.886	4051
926.993	3956
927.099	3998
927.206	3937
927.312	3930
927.419	4082
927.525	4002
927.631	4048
927.737	3915
927.843	3979
927.95	3850
928.056	3911
928.162	3956
928.267	4029
928.373	4565
928.479	4071
928.585	3865
928.69	3991
928.796	4093
928.901	3964
929.007	3854
929.112	3987
929.218	3983
929.323	3945
929.428	3907
929.533	4109
929.638	3903
929.743	3956
929.848	4021
929.953	4029
930.058	3926
930.163	3823
930.267	3812
930.372	3968
930.477	3850
930.581	4044
930.685	3964
930.79	3819
930.894	3876
930.998	3827
931.103	4051
931.207	3732
931.311	3663
931.415	3682
931.519	3496
931.623	3507
