Data from test_V78500241_861.txt Node
Date: Fri Mar 25 16:54:59 CST 2022
User: usil
Spectrometer: V785-0024
Trigger mode: 0
Integration Time (sec): 4.000000E-1
Scans to average: 1
Nonlinearity correction enabled: false
Boxcar width: 0
Storing dark spectrum: false
XAxis mode: Wavelengths
Number of Pixels in Spectrum: 1024
>>>>>Begin Spectral Data<<<<<
801.071	8039
801.214	8016
801.356	7871
801.499	7887
801.641	7757
801.783	7788
801.926	8012
802.068	7849
802.211	7989
802.353	7974
802.496	7803
802.638	7887
802.78	7818
802.923	7951
803.065	7890
803.208	7860
803.35	8035
803.492	8065
803.635	8153
803.777	8043
803.919	8062
804.061	8347
804.204	8054
804.346	7997
804.488	7890
804.63	8111
804.773	7967
804.915	8107
805.057	8256
805.199	8123
805.341	8187
805.483	8214
805.626	8157
805.768	8073
805.91	8176
806.052	8145
806.194	8039
806.336	8252
806.478	8024
806.62	8012
806.762	8134
806.904	8233
807.046	8393
807.188	8305
807.33	8358
807.472	8351
807.614	8134
807.756	8157
807.898	8012
808.04	7871
808.182	7795
808.324	7841
808.465	7841
808.607	8020
808.749	8065
808.891	8180
809.033	8263
809.174	8202
809.316	8050
809.458	8065
809.6	7940
809.741	8058
809.883	8012
810.025	8115
810.166	8016
810.308	8069
810.45	8054
810.591	7898
810.733	7761
810.875	7700
811.016	7537
811.158	7601
811.299	7609
811.441	7655
811.582	7563
811.724	7582
811.865	7521
812.007	7597
812.148	7616
812.29	7544
812.431	7647
812.573	7845
812.714	7997
812.855	8043
812.997	8142
813.138	8248
813.279	8199
813.421	8126
813.562	7993
813.703	7830
813.845	7727
813.986	7476
814.127	7274
814.268	7274
814.41	7179
814.551	7084
814.692	7080
814.833	7038
814.974	7080
815.115	7065
815.256	6928
815.397	6897
815.539	6894
815.68	6833
815.821	6779
815.962	6878
816.103	6795
816.244	6715
816.385	6612
816.526	6547
816.666	6506
816.807	6262
816.948	6399
817.089	6445
817.23	6433
817.371	6376
817.512	6418
817.653	6311
817.793	6308
817.934	6380
818.075	6433
818.216	6391
818.356	6395
818.497	6167
818.638	6072
818.778	6167
818.919	6213
819.06	6102
819.2	6239
819.341	6289
819.481	6384
819.622	6490
819.762	6681
819.903	6646
820.043	6593
820.184	6544
820.324	6566
820.465	6658
820.605	6593
820.746	6608
820.886	6437
821.026	6646
821.167	6696
821.307	6779
821.447	6760
821.588	6620
821.728	6502
821.868	6486
822.008	6331
822.149	6384
822.289	6292
822.429	6133
822.569	6072
822.709	6136
822.849	5923
822.99	5844
823.13	5885
823.27	5901
823.41	5802
823.55	5836
823.69	5733
823.83	5805
823.97	5691
824.11	5520
824.25	5524
824.389	5486
824.529	5570
824.669	5490
824.809	5596
824.949	5657
825.089	5581
825.228	5547
825.368	5322
825.508	5334
825.648	5360
825.787	5376
825.927	5425
826.067	5258
826.206	5337
826.346	5395
826.485	5364
826.625	5353
826.765	5528
826.904	5414
827.044	5261
827.183	5151
827.323	5140
827.462	5220
827.601	5162
827.741	5147
827.88	5204
828.02	5098
828.159	5223
828.298	5303
828.437	5341
828.577	5307
828.716	5482
828.855	5273
828.994	5250
829.134	5143
829.273	5193
829.412	5151
829.551	5136
829.69	5193
829.829	5258
829.968	5315
830.107	5231
830.246	5315
830.385	5197
830.524	5216
830.663	5071
830.802	4991
830.941	4942
831.08	4881
831.219	5010
831.357	5010
831.496	5174
831.635	4999
831.774	4877
831.913	4820
832.051	4725
832.19	4790
832.329	4881
832.467	4763
832.606	4691
832.744	4740
832.883	4714
833.022	4748
833.16	4790
833.299	4850
833.437	4892
833.576	4824
833.714	4889
833.852	4911
833.991	4949
834.129	4999
834.267	4957
834.406	4930
834.544	5022
834.682	4999
834.821	4927
834.959	5208
835.097	5025
835.235	5189
835.373	5121
835.511	5136
835.65	5098
835.788	5071
835.926	4904
836.064	4904
836.202	4946
836.34	5178
836.478	5250
836.615	5185
836.753	5166
836.891	5296
837.029	5315
837.167	5220
837.305	5208
837.443	5155
837.58	5079
837.718	5292
837.856	5201
837.993	5189
838.131	5239
838.269	5239
838.406	5208
838.544	5208
838.681	5079
838.819	5010
838.956	4900
839.094	4885
839.231	5029
839.369	5178
839.506	5417
839.643	5315
839.781	5136
839.918	5025
840.055	5105
840.193	5136
840.33	5166
840.467	5143
840.604	5204
840.742	5417
840.879	5067
841.016	5132
841.153	5162
841.29	5425
841.427	5402
841.564	5330
841.701	5341
841.838	5315
841.975	5231
842.112	5288
842.249	5189
842.385	5136
842.522	5318
842.659	5197
842.796	5181
842.933	5239
843.069	5170
843.206	5166
843.343	5357
843.479	5246
843.616	5303
843.752	5067
843.889	5075
844.025	5299
844.162	5037
844.298	5258
844.435	5083
844.571	5090
844.708	5235
844.844	5353
844.98	5315
845.117	5288
845.253	5193
845.389	5094
845.525	5155
845.661	5181
845.798	5105
845.934	5124
846.07	5037
846.206	5227
846.342	5292
846.478	5208
846.614	4995
846.75	4972
846.886	4938
847.022	5166
847.158	5003
847.294	5075
847.429	5166
847.565	5083
847.701	5387
847.837	4923
847.972	4850
848.108	4991
848.244	4961
848.379	4790
848.515	4736
848.65	4706
848.786	4797
848.921	4782
849.057	4915
849.192	4953
849.328	4831
849.463	4889
849.598	4862
849.734	4733
849.869	4729
850.004	4691
850.14	4649
850.275	4653
850.41	4558
850.545	4645
850.68	4622
850.815	4679
850.95	4630
851.085	4881
851.22	4839
851.355	4668
851.49	4691
851.625	4630
851.76	4641
851.895	4580
852.03	4542
852.165	4653
852.299	4714
852.434	4812
852.569	4786
852.703	4793
852.838	4786
852.973	4972
853.107	4987
853.242	4793
853.376	4706
853.511	4592
853.645	4611
853.78	4831
853.914	4710
854.048	4664
854.183	4637
854.317	4733
854.451	4881
854.585	4675
854.72	4649
854.854	4797
854.988	4622
855.122	4664
855.256	4569
855.39	4691
855.524	4820
855.658	4733
855.792	4683
855.926	4755
856.06	4759
856.194	4812
856.327	4683
856.461	4596
856.595	4607
856.729	4653
856.862	4767
856.996	4736
857.13	4759
857.263	4752
857.397	4793
857.53	4656
857.664	4752
857.797	4759
857.931	4850
858.064	4717
858.197	4740
858.331	4675
858.464	4588
858.597	4519
858.731	4630
858.864	4656
858.997	4607
859.13	4672
859.263	4675
859.396	4729
859.529	4637
859.662	4580
859.795	4588
859.928	4618
860.061	4812
860.194	4805
860.327	4626
860.46	4607
860.592	4797
860.725	4744
860.858	4736
860.99	4618
861.123	4516
861.256	4554
861.388	4668
861.521	5258
861.653	4466
861.786	4436
861.918	4497
862.05	4558
862.183	4554
862.315	4599
862.447	4664
862.58	4577
862.712	4424
862.844	4379
862.976	4542
863.108	4497
863.24	4778
863.372	4344
863.504	4440
863.636	4421
863.768	4519
863.9	4470
864.032	4383
864.164	4424
864.296	4512
864.428	4596
864.559	4580
864.691	4538
864.823	4546
864.954	4466
865.086	4508
865.217	4466
865.349	4447
865.48	4508
865.612	4489
865.743	4634
865.875	4508
866.006	4451
866.137	4485
866.269	4462
866.4	4485
866.531	4424
866.662	4398
866.793	4436
866.924	4440
867.055	4519
867.186	4474
867.317	4428
867.448	4375
867.579	4394
867.71	4413
867.841	4367
867.972	4527
868.103	4519
868.233	4470
868.364	4462
868.495	4508
868.625	4710
868.756	4774
868.886	4607
869.017	4668
869.147	4767
869.278	4778
869.408	4729
869.539	4637
869.669	4714
869.799	4679
869.929	4744
870.06	4793
870.19	4949
870.32	4938
870.45	5010
870.58	4995
870.71	5166
870.84	5086
870.97	5029
871.1	4908
871.23	5121
871.36	5147
871.489	4991
871.619	5064
871.749	5128
871.879	5147
872.008	5204
872.138	5060
872.267	5037
872.397	4877
872.526	4786
872.656	4729
872.785	4767
872.915	4965
873.044	5048
873.173	4923
873.303	4927
873.432	4957
873.561	4942
873.69	4850
873.819	4877
873.948	4885
874.077	4858
874.206	4805
874.335	4786
874.464	4877
874.593	5071
874.722	4965
874.851	5079
874.979	5102
875.108	5003
875.237	4961
875.365	4854
875.494	4908
875.623	5048
875.751	4850
875.88	4908
876.008	4984
876.136	4987
876.265	5170
876.393	5322
876.521	5261
876.65	5201
876.778	5140
876.906	5113
877.034	5041
877.162	5022
877.29	4980
877.418	5045
877.546	5067
877.674	5029
877.802	4995
877.93	5083
878.058	4938
878.185	4911
878.313	4930
878.441	4942
878.568	4793
878.696	4919
878.824	4923
878.951	5045
879.079	5140
879.206	5269
879.333	5083
879.461	5022
879.588	5060
879.715	5086
879.842	5265
879.97	5048
880.097	4790
880.224	4774
880.351	4771
880.478	4847
880.605	4801
880.732	4835
880.859	5117
880.986	4889
881.112	4873
881.239	4774
881.366	4694
881.493	4611
881.619	4626
881.746	4672
881.872	4687
881.999	4656
882.125	4679
882.252	4790
882.378	4850
882.505	4911
882.631	4816
882.757	4694
882.883	4774
883.01	4755
883.136	4675
883.262	4603
883.388	4615
883.514	4824
883.64	4843
883.766	4786
883.892	4725
884.018	4736
884.143	4949
884.269	5022
884.395	4687
884.52	4641
884.646	4694
884.772	4649
884.897	4542
885.023	4691
885.148	4786
885.274	4854
885.399	4835
885.524	4706
885.65	4744
885.775	4725
885.9	4744
886.025	4881
886.15	4759
886.275	4763
886.4	4725
886.525	4736
886.65	4706
886.775	4733
886.9	4881
887.025	5052
887.149	4831
887.274	4660
887.399	4588
887.523	4603
887.648	4580
887.773	4588
887.897	4771
888.021	4790
888.146	4683
888.27	4786
888.395	4885
888.519	4805
888.643	4835
888.767	4828
888.891	4691
889.015	4634
889.139	4683
889.263	4637
889.387	4812
889.511	4854
889.635	4812
889.759	4649
889.883	4675
890.006	4717
890.13	4847
890.254	4569
890.377	4675
890.501	4565
890.624	4500
890.748	4683
890.871	4538
890.995	4459
891.118	4455
891.241	4542
891.364	4599
891.488	4668
891.611	4493
891.734	4527
891.857	4603
891.98	4538
892.103	4641
892.226	4558
892.349	4512
892.471	4371
892.594	4538
892.717	4611
892.839	4546
892.962	4675
893.085	4675
893.207	4618
893.33	4428
893.452	4527
893.575	4630
893.697	4580
893.819	4831
893.941	4919
894.064	4782
894.186	4588
894.308	4573
894.43	4736
894.552	4801
894.674	4755
894.796	4550
894.918	4596
895.04	4519
895.161	4771
895.283	4660
895.405	4599
895.526	4622
895.648	4694
895.769	4664
895.891	4691
896.012	4736
896.134	4752
896.255	4679
896.376	4622
896.498	4649
896.619	4675
896.74	4622
896.861	4679
896.982	4938
897.103	5121
897.224	4793
897.345	4752
897.466	4683
897.587	4694
897.708	4854
897.828	4778
897.949	4694
898.07	4592
898.19	4698
898.311	4866
898.431	4664
898.552	4725
898.672	4812
898.792	4820
898.913	4733
899.033	4634
899.153	4451
899.273	4443
899.393	4500
899.513	4577
899.633	4489
899.753	4512
899.873	4512
899.993	4542
900.113	4558
900.232	4577
900.352	4535
900.472	4489
900.591	4447
900.711	4478
900.83	4455
900.95	4622
901.069	4691
901.189	4592
901.308	4344
901.427	4268
901.546	4383
901.665	4459
901.784	4474
901.904	4348
902.023	4348
902.141	4200
902.26	4200
902.379	4318
902.498	4268
902.617	4261
902.735	4360
902.854	4398
902.973	4379
903.091	4207
903.21	4303
903.328	4310
903.446	4265
903.565	4268
903.683	4356
903.801	4238
903.919	4428
904.038	4436
904.156	4329
904.274	4466
904.392	4405
904.51	4436
904.627	4500
904.745	4577
904.863	4592
904.981	4390
905.098	4341
905.216	4409
905.334	4451
905.451	4398
905.569	4466
905.686	4573
905.803	4538
905.921	4409
906.038	4527
906.155	4493
906.272	4394
906.389	4455
906.506	4356
906.623	4360
906.74	4371
906.857	4333
906.974	4367
907.091	4596
907.208	4687
907.324	4565
907.441	4516
907.557	4375
907.674	4333
907.79	4322
907.907	4394
908.023	4432
908.139	4512
908.256	4443
908.372	4466
908.488	4459
908.604	4341
908.72	4337
908.836	4402
908.952	4356
909.068	4424
909.184	4577
909.3	4493
909.415	4584
909.531	4558
909.647	4325
909.762	4348
909.878	4325
909.993	4413
910.108	4375
910.224	4424
910.339	4481
910.454	4447
910.57	4367
910.685	4333
910.8	4687
910.915	4542
911.03	4504
911.145	4356
911.259	4348
911.374	4348
911.489	4325
911.604	4265
911.718	4219
911.833	4200
911.947	4128
912.062	4029
912.176	4211
912.291	4265
912.405	4234
912.519	4478
912.633	4508
912.748	4383
912.862	4360
912.976	4215
913.09	4101
913.204	4173
913.318	4227
913.431	4360
913.545	4367
913.659	4485
913.772	4333
913.886	4230
914	4215
914.113	4352
914.226	4451
914.34	4413
914.453	4249
914.566	4455
914.68	4322
914.793	4322
914.906	4177
915.019	4143
915.132	4078
915.245	4211
915.358	4227
915.47	4249
915.583	4253
915.696	4268
915.809	4421
915.921	4447
916.034	4276
916.146	4291
916.259	4219
916.371	4398
916.483	4352
916.595	4276
916.708	4314
916.82	4272
916.932	4322
917.044	4325
917.156	4287
917.268	4242
917.38	4284
917.491	4303
917.603	4341
917.715	4371
917.826	4455
917.938	4318
918.049	4223
918.161	4383
918.272	4542
918.384	4508
918.495	4443
918.606	4284
918.717	4242
918.828	4314
918.939	4341
919.05	4265
919.161	4356
919.272	4150
919.383	4238
919.494	4440
919.604	4664
919.715	4413
919.826	4325
919.936	4398
920.047	4538
920.157	4516
920.267	4736
920.378	4561
920.488	4485
920.598	4710
920.708	4892
920.818	4752
920.928	4755
921.038	4946
921.148	4881
921.258	4645
921.368	4580
921.477	4470
921.587	4470
921.697	4424
921.806	4542
921.916	4440
922.025	4287
922.134	4257
922.244	4242
922.353	4341
922.462	4135
922.571	4055
922.68	4040
922.789	3998
922.898	4078
923.007	3972
923.116	4086
923.224	4071
923.333	4051
923.442	3968
923.55	3994
923.659	4025
923.767	4090
923.876	3972
923.984	4082
924.092	4002
924.201	4013
924.309	4078
924.417	4131
924.525	4025
924.633	4090
924.741	4831
924.849	3930
924.956	4131
925.064	3960
925.172	3911
925.279	3991
925.387	4010
925.494	4086
925.602	4238
925.709	4188
925.816	4067
925.924	4128
926.031	4219
926.138	4147
926.245	4246
926.352	4093
926.459	4242
926.566	4322
926.673	4124
926.779	4120
926.886	4086
926.993	3972
927.099	3934
927.206	3934
927.312	3953
927.419	4013
927.525	4059
927.631	4120
927.737	3945
927.843	3953
927.95	3808
928.056	3991
928.162	3975
928.267	4078
928.373	4584
928.479	4116
928.585	3896
928.69	4002
928.796	4059
928.901	3972
929.007	3842
929.112	3998
929.218	4017
929.323	3915
929.428	3972
929.533	4078
929.638	3934
929.743	3941
929.848	3987
929.953	3994
930.058	3934
930.163	3816
930.267	3823
930.372	3994
930.477	3812
930.581	4086
930.685	3915
930.79	3808
930.894	3888
930.998	3835
931.103	4082
931.207	3720
931.311	3709
931.415	3663
931.519	3561
931.623	3545
