Data from test_V78500241_516.txt Node
Date: Fri Mar 25 16:52:35 CST 2022
User: usil
Spectrometer: V785-0024
Trigger mode: 0
Integration Time (sec): 4.000000E-1
Scans to average: 1
Nonlinearity correction enabled: false
Boxcar width: 0
Storing dark spectrum: false
XAxis mode: Wavelengths
Number of Pixels in Spectrum: 1024
>>>>>Begin Spectral Data<<<<<
801.071	8039
801.214	8039
801.356	7830
801.499	7845
801.641	7807
801.783	7917
801.926	7993
802.068	7989
802.211	7974
802.353	7986
802.496	7917
802.638	7947
802.78	7963
802.923	7921
803.065	7856
803.208	7833
803.35	7909
803.492	8077
803.635	8142
803.777	8039
803.919	8100
804.061	8457
804.204	8069
804.346	8001
804.488	7890
804.63	8142
804.773	8001
804.915	8043
805.057	8294
805.199	8168
805.341	8195
805.483	8275
805.626	8225
805.768	8088
805.91	8172
806.052	8210
806.194	8020
806.336	8343
806.478	8138
806.62	8134
806.762	8100
806.904	8237
807.046	8381
807.188	8237
807.33	8259
807.472	8221
807.614	8119
807.756	8142
807.898	7978
808.04	7845
808.182	7959
808.324	7925
808.465	7852
808.607	7997
808.749	8107
808.891	8240
809.033	8229
809.174	8138
809.316	8069
809.458	7951
809.6	7986
809.741	8008
809.883	7986
810.025	8088
810.166	8031
810.308	7982
810.45	7986
810.591	7864
810.733	7715
810.875	7670
811.016	7548
811.158	7518
811.299	7575
811.441	7795
811.582	7689
811.724	7521
811.865	7460
812.007	7571
812.148	7651
812.29	7605
812.431	7753
812.573	7887
812.714	8008
812.855	8073
812.997	8218
813.138	8366
813.279	8237
813.421	8164
813.562	8062
813.703	7906
813.845	7826
813.986	7468
814.127	7312
814.268	7327
814.41	7251
814.551	7213
814.692	7168
814.833	7110
814.974	7072
815.115	7076
815.256	6928
815.397	6894
815.539	6916
815.68	6867
815.821	6768
815.962	6852
816.103	6764
816.244	6764
816.385	6631
816.526	6620
816.666	6532
816.807	6285
816.948	6479
817.089	6486
817.23	6376
817.371	6429
817.512	6399
817.653	6395
817.793	6281
817.934	6403
818.075	6509
818.216	6410
818.356	6357
818.497	6281
818.638	6049
818.778	6083
818.919	6144
819.06	6148
819.2	6296
819.341	6281
819.481	6357
819.622	6429
819.762	6749
819.903	6684
820.043	6593
820.184	6574
820.324	6513
820.465	6730
820.605	6589
820.746	6540
820.886	6452
821.026	6662
821.167	6665
821.307	6768
821.447	6745
821.588	6589
821.728	6555
821.868	6498
822.008	6266
822.149	6346
822.289	6361
822.429	6129
822.569	6079
822.709	6125
822.849	5939
822.99	5908
823.13	5927
823.27	5863
823.41	5809
823.55	5733
823.69	5775
823.83	5786
823.97	5703
824.11	5547
824.25	5528
824.389	5581
824.529	5604
824.669	5535
824.809	5653
824.949	5638
825.089	5562
825.228	5566
825.368	5345
825.508	5318
825.648	5349
825.787	5410
825.927	5368
826.067	5341
826.206	5280
826.346	5395
826.485	5357
826.625	5395
826.765	5543
826.904	5444
827.044	5212
827.183	5189
827.323	5155
827.462	5178
827.601	5132
827.741	5193
827.88	5212
828.02	5086
828.159	5212
828.298	5280
828.437	5372
828.577	5250
828.716	5497
828.855	5269
828.994	5185
829.134	5143
829.273	5181
829.412	5121
829.551	5155
829.69	5185
829.829	5231
829.968	5379
830.107	5258
830.246	5277
830.385	5151
830.524	5071
830.663	5060
830.802	4968
830.941	4858
831.08	4908
831.219	4972
831.357	4953
831.496	5140
831.635	4927
831.774	4824
831.913	4816
832.051	4736
832.19	4706
832.329	4809
832.467	4710
832.606	4660
832.744	4721
832.883	4706
833.022	4717
833.16	4812
833.299	4797
833.437	4782
833.576	4778
833.714	4885
833.852	4850
833.991	4873
834.129	4968
834.267	4904
834.406	4919
834.544	4961
834.682	4976
834.821	4999
834.959	5151
835.097	4968
835.235	5136
835.373	5102
835.511	5067
835.65	5014
835.788	5025
835.926	4862
836.064	4866
836.202	4927
836.34	5132
836.478	5178
836.615	5170
836.753	5239
836.891	5223
837.029	5250
837.167	5201
837.305	5159
837.443	5113
837.58	5037
837.718	5246
837.856	5189
837.993	5117
838.131	5239
838.269	5212
838.406	5220
838.544	5159
838.681	5033
838.819	5037
838.956	4919
839.094	4930
839.231	4930
839.369	5045
839.506	5444
839.643	5311
839.781	5045
839.918	5010
840.055	5090
840.193	5060
840.33	5109
840.467	5178
840.604	5201
840.742	5364
840.879	5075
841.016	5075
841.153	5166
841.29	5387
841.427	5364
841.564	5318
841.701	5353
841.838	5261
841.975	5239
842.112	5239
842.249	5132
842.385	5113
842.522	5357
842.659	5136
842.796	5174
842.933	5162
843.069	5162
843.206	5132
843.343	5288
843.479	5189
843.616	5261
843.752	5037
843.889	4957
844.025	5113
844.162	4980
844.298	5250
844.435	5045
844.571	5060
844.708	5193
844.844	5280
844.98	5341
845.117	5280
845.253	5136
845.389	5083
845.525	5147
845.661	5151
845.798	4999
845.934	5136
846.07	5033
846.206	5178
846.342	5296
846.478	5174
846.614	4995
846.75	4987
846.886	4942
847.022	5155
847.158	4995
847.294	5067
847.429	5109
847.565	5094
847.701	5330
847.837	4820
847.972	4820
848.108	4942
848.244	4953
848.379	4759
848.515	4748
848.65	4679
848.786	4733
848.921	4771
849.057	4866
849.192	4930
849.328	4763
849.463	4854
849.598	4801
849.734	4729
849.869	4687
850.004	4630
850.14	4622
850.275	4615
850.41	4519
850.545	4527
850.68	4561
850.815	4615
850.95	4622
851.085	4873
851.22	4740
851.355	4630
851.49	4618
851.625	4592
851.76	4641
851.895	4577
852.03	4546
852.165	4645
852.299	4687
852.434	4812
852.569	4717
852.703	4752
852.838	4835
852.973	4927
853.107	4896
853.242	4767
853.376	4694
853.511	4554
853.645	4626
853.78	4820
853.914	4694
854.048	4656
854.183	4630
854.317	4706
854.451	4858
854.585	4664
854.72	4649
854.854	4786
854.988	4618
855.122	4637
855.256	4577
855.39	4649
855.524	4809
855.658	4698
855.792	4679
855.926	4721
856.06	4729
856.194	4767
856.327	4668
856.461	4649
856.595	4596
856.729	4588
856.862	4771
856.996	4710
857.13	4702
857.263	4698
857.397	4839
857.53	4668
857.664	4714
857.797	4839
857.931	4793
858.064	4706
858.197	4717
858.331	4618
858.464	4622
858.597	4504
858.731	4599
858.864	4607
858.997	4577
859.13	4626
859.263	4702
859.396	4733
859.529	4596
859.662	4569
859.795	4527
859.928	4603
860.061	4812
860.194	4767
860.327	4615
860.46	4535
860.592	4706
860.725	4691
860.858	4714
860.99	4592
861.123	4535
861.256	4569
861.388	4573
861.521	5391
861.653	4451
861.786	4451
861.918	4447
862.05	4462
862.183	4535
862.315	4577
862.447	4634
862.58	4538
862.712	4398
862.844	4402
862.976	4470
863.108	4447
863.24	4877
863.372	4344
863.504	4451
863.636	4417
863.768	4478
863.9	4402
864.032	4371
864.164	4413
864.296	4443
864.428	4580
864.559	4546
864.691	4538
864.823	4535
864.954	4523
865.086	4481
865.217	4523
865.349	4405
865.48	4413
865.612	4527
865.743	4630
865.875	4500
866.006	4462
866.137	4451
866.269	4478
866.4	4451
866.531	4432
866.662	4367
866.793	4417
866.924	4383
867.055	4500
867.186	4474
867.317	4390
867.448	4360
867.579	4379
867.71	4405
867.841	4375
867.972	4451
868.103	4478
868.233	4405
868.364	4432
868.495	4485
868.625	4706
868.756	4759
868.886	4558
869.017	4615
869.147	4755
869.278	4790
869.408	4660
869.539	4630
869.669	4714
869.799	4618
869.929	4740
870.06	4782
870.19	4976
870.32	4942
870.45	4965
870.58	4984
870.71	5098
870.84	5075
870.97	4946
871.1	4919
871.23	5128
871.36	5162
871.489	5067
871.619	5060
871.749	5117
871.879	5143
872.008	5201
872.138	5048
872.267	4961
872.397	4847
872.526	4767
872.656	4694
872.785	4812
872.915	4923
873.044	5064
873.173	4885
873.303	4946
873.432	4968
873.561	4953
873.69	4881
873.819	4850
873.948	4889
874.077	4805
874.206	4733
874.335	4805
874.464	4942
874.593	5060
874.722	4889
874.851	5128
874.979	5079
875.108	5045
875.237	4904
875.365	4835
875.494	4850
875.623	4965
875.751	4824
875.88	4858
876.008	4942
876.136	5060
876.265	5140
876.393	5315
876.521	5239
876.65	5223
876.778	5162
876.906	5071
877.034	5010
877.162	5045
877.29	5010
877.418	5048
877.546	5064
877.674	5029
877.802	4949
877.93	4999
878.058	4957
878.185	4843
878.313	4976
878.441	4972
878.568	4790
878.696	4870
878.824	4946
878.951	5022
879.079	5102
879.206	5261
879.333	5083
879.461	4938
879.588	5006
879.715	5083
879.842	5239
879.97	5033
880.097	4809
880.224	4755
880.351	4828
880.478	4816
880.605	4793
880.732	4801
880.859	5060
880.986	4923
881.112	4930
881.239	4752
881.366	4656
881.493	4584
881.619	4622
881.746	4599
881.872	4645
881.999	4641
882.125	4691
882.252	4767
882.378	4858
882.505	4927
882.631	4828
882.757	4679
882.883	4675
883.01	4725
883.136	4748
883.262	4645
883.388	4641
883.514	4835
883.64	4866
883.766	4801
883.892	4721
884.018	4793
884.143	4927
884.269	5045
884.395	4717
884.52	4668
884.646	4668
884.772	4649
884.897	4634
885.023	4687
885.148	4816
885.274	4870
885.399	4854
885.524	4759
885.65	4786
885.775	4801
885.9	4755
886.025	4911
886.15	4805
886.275	4752
886.4	4679
886.525	4763
886.65	4721
886.775	4763
886.9	4999
887.025	5102
887.149	4850
887.274	4694
887.399	4622
887.523	4649
887.648	4588
887.773	4538
887.897	4831
888.021	4816
888.146	4725
888.27	4835
888.395	4961
888.519	4854
888.643	4847
888.767	4885
888.891	4736
889.015	4653
889.139	4740
889.263	4649
889.387	4786
889.511	4934
889.635	4831
889.759	4672
889.883	4664
890.006	4748
890.13	4904
890.254	4702
890.377	4717
890.501	4565
890.624	4558
890.748	4664
890.871	4500
890.995	4500
891.118	4413
891.241	4569
891.364	4584
891.488	4717
891.611	4508
891.734	4565
891.857	4641
891.98	4668
892.103	4691
892.226	4626
892.349	4538
892.471	4489
892.594	4626
892.717	4618
892.839	4596
892.962	4626
893.085	4698
893.207	4622
893.33	4512
893.452	4584
893.575	4733
893.697	4573
893.819	4877
893.941	4927
894.064	4797
894.186	4577
894.308	4577
894.43	4767
894.552	4881
894.674	4778
894.796	4607
894.918	4679
895.04	4573
895.161	4702
895.283	4714
895.405	4649
895.526	4691
895.648	4744
895.769	4714
895.891	4748
896.012	4793
896.134	4786
896.255	4752
896.376	4679
896.498	4687
896.619	4752
896.74	4675
896.861	4714
896.982	4927
897.103	5109
897.224	4854
897.345	4759
897.466	4698
897.587	4759
897.708	4938
897.828	4782
897.949	4675
898.07	4637
898.19	4691
898.311	4892
898.431	4729
898.552	4759
898.672	4828
898.792	4812
898.913	4778
899.033	4668
899.153	4535
899.273	4493
899.393	4554
899.513	4531
899.633	4569
899.753	4569
899.873	4546
899.993	4611
900.113	4554
900.232	4611
900.352	4565
900.472	4512
900.591	4405
900.711	4485
900.83	4443
900.95	4626
901.069	4717
901.189	4615
901.308	4394
901.427	4344
901.546	4440
901.665	4489
901.784	4512
901.904	4398
902.023	4329
902.141	4238
902.26	4185
902.379	4348
902.498	4215
902.617	4268
902.735	4402
902.854	4440
902.973	4386
903.091	4227
903.21	4268
903.328	4367
903.446	4333
903.565	4284
903.683	4394
903.801	4322
903.919	4447
904.038	4500
904.156	4386
904.274	4451
904.392	4428
904.51	4459
904.627	4508
904.745	4672
904.863	4694
904.981	4443
905.098	4348
905.216	4390
905.334	4527
905.451	4440
905.569	4459
905.686	4580
905.803	4592
905.921	4436
906.038	4611
906.155	4459
906.272	4367
906.389	4535
906.506	4398
906.623	4409
906.74	4421
906.857	4352
906.974	4390
907.091	4656
907.208	4656
907.324	4649
907.441	4497
907.557	4402
907.674	4394
907.79	4325
907.907	4417
908.023	4519
908.139	4478
908.256	4455
908.372	4512
908.488	4516
908.604	4383
908.72	4360
908.836	4443
908.952	4421
909.068	4474
909.184	4618
909.3	4489
909.415	4626
909.531	4630
909.647	4379
909.762	4443
909.878	4428
909.993	4470
910.108	4466
910.224	4440
910.339	4512
910.454	4428
910.57	4375
910.685	4356
910.8	4675
910.915	4626
911.03	4519
911.145	4386
911.259	4344
911.374	4421
911.489	4299
911.604	4375
911.718	4257
911.833	4253
911.947	4135
912.062	4093
912.176	4230
912.291	4265
912.405	4268
912.519	4531
912.633	4500
912.748	4371
912.862	4341
912.976	4215
913.09	4109
913.204	4219
913.318	4295
913.431	4421
913.545	4436
913.659	4436
913.772	4383
913.886	4287
914	4234
914.113	4367
914.226	4516
914.34	4409
914.453	4246
914.566	4493
914.68	4314
914.793	4356
914.906	4185
915.019	4162
915.132	4093
915.245	4227
915.358	4227
915.47	4299
915.583	4280
915.696	4329
915.809	4459
915.921	4470
916.034	4295
916.146	4261
916.259	4276
916.371	4405
916.483	4428
916.595	4268
916.708	4333
916.82	4329
916.932	4379
917.044	4352
917.156	4329
917.268	4246
917.38	4337
917.491	4295
917.603	4375
917.715	4432
917.826	4424
917.938	4360
918.049	4295
918.161	4440
918.272	4561
918.384	4565
918.495	4462
918.606	4344
918.717	4272
918.828	4390
918.939	4413
919.05	4284
919.161	4325
919.272	4139
919.383	4242
919.494	4459
919.604	4637
919.715	4470
919.826	4329
919.936	4432
920.047	4550
920.157	4500
920.267	4675
920.378	4554
920.488	4565
920.598	4744
920.708	4976
920.818	4755
920.928	4793
921.038	4915
921.148	4900
921.258	4649
921.368	4588
921.477	4535
921.587	4481
921.697	4383
921.806	4580
921.916	4455
922.025	4314
922.134	4257
922.244	4265
922.353	4409
922.462	4207
922.571	4112
922.68	3994
922.789	4002
922.898	4032
923.007	4044
923.116	4105
923.224	4139
923.333	4059
923.442	4013
923.55	4040
923.659	4067
923.767	4154
923.876	4006
923.984	4090
924.092	3994
924.201	4082
924.309	4067
924.417	4131
924.525	4078
924.633	4116
924.741	5067
924.849	3907
924.956	4169
925.064	3975
925.172	3941
925.279	3991
925.387	4109
925.494	4055
925.602	4227
925.709	4196
925.816	4055
925.924	4143
926.031	4223
926.138	4143
926.245	4257
926.352	4135
926.459	4291
926.566	4325
926.673	4223
926.779	4105
926.886	4097
926.993	4002
927.099	3998
927.206	3934
927.312	4006
927.419	4071
927.525	4044
927.631	4109
927.737	4006
927.843	3991
927.95	3857
928.056	3937
928.162	3998
928.267	4074
928.373	4706
928.479	4128
928.585	3930
928.69	4059
928.796	4135
928.901	3972
929.007	3831
929.112	4006
929.218	4006
929.323	3934
929.428	3979
929.533	4169
929.638	3930
929.743	3987
929.848	4036
929.953	4051
930.058	3972
930.163	3800
930.267	3842
930.372	4040
930.477	3800
930.581	4109
930.685	3953
930.79	3823
930.894	3888
930.998	3876
931.103	4040
931.207	3732
931.311	3686
931.415	3694
931.519	3504
931.623	3568
