Data from test_V78500241_2042.txt Node
Date: Fri Mar 25 17:03:11 CST 2022
User: usil
Spectrometer: V785-0024
Trigger mode: 0
Integration Time (sec): 4.000000E-1
Scans to average: 1
Nonlinearity correction enabled: false
Boxcar width: 0
Storing dark spectrum: false
XAxis mode: Wavelengths
Number of Pixels in Spectrum: 1024
>>>>>Begin Spectral Data<<<<<
801.071	8005
801.214	7974
801.356	7792
801.499	7822
801.641	7765
801.783	7860
801.926	7921
802.068	7940
802.211	8031
802.353	7970
802.496	7902
802.638	7830
802.78	7917
802.923	7925
803.065	7868
803.208	7849
803.35	7974
803.492	8088
803.635	8130
803.777	7970
803.919	8115
804.061	8385
804.204	8172
804.346	8073
804.488	7959
804.63	8092
804.773	8016
804.915	8103
805.057	8286
805.199	8176
805.341	8252
805.483	8225
805.626	8221
805.768	8084
805.91	8214
806.052	8172
806.194	8103
806.336	8290
806.478	8115
806.62	8126
806.762	8164
806.904	8279
807.046	8461
807.188	8385
807.33	8332
807.472	8332
807.614	8187
807.756	8138
807.898	8046
808.04	7890
808.182	7913
808.324	7845
808.465	7917
808.607	8062
808.749	8145
808.891	8187
809.033	8317
809.174	8279
809.316	8062
809.458	8111
809.6	8024
809.741	8031
809.883	8062
810.025	8058
810.166	8020
810.308	7978
810.45	7913
810.591	7879
810.733	7670
810.875	7696
811.016	7514
811.158	7445
811.299	7552
811.441	7715
811.582	7696
811.724	7605
811.865	7540
812.007	7548
812.148	7616
812.29	7594
812.431	7715
812.573	7913
812.714	8001
812.855	8130
812.997	8168
813.138	8240
813.279	8134
813.421	8111
813.562	7875
813.703	7852
813.845	7708
813.986	7392
814.127	7225
814.268	7175
814.41	7213
814.551	7149
814.692	7190
814.833	7152
814.974	7118
815.115	7099
815.256	6947
815.397	6909
815.539	6909
815.68	6818
815.821	6726
815.962	6837
816.103	6772
816.244	6673
816.385	6597
816.526	6627
816.666	6513
816.807	6311
816.948	6464
817.089	6418
817.23	6410
817.371	6353
817.512	6399
817.653	6414
817.793	6403
817.934	6365
818.075	6513
818.216	6452
818.356	6414
818.497	6224
818.638	6163
818.778	6140
818.919	6140
819.06	6098
819.2	6289
819.341	6327
819.481	6414
819.622	6502
819.762	6715
819.903	6692
820.043	6551
820.184	6589
820.324	6597
820.465	6696
820.605	6669
820.746	6612
820.886	6513
821.026	6635
821.167	6684
821.307	6730
821.447	6719
821.588	6688
821.728	6547
821.868	6486
822.008	6350
822.149	6445
822.289	6388
822.429	6171
822.569	6114
822.709	6133
822.849	5897
822.99	5897
823.13	5889
823.27	5878
823.41	5775
823.55	5756
823.69	5775
823.83	5745
823.97	5668
824.11	5516
824.25	5543
824.389	5558
824.529	5592
824.669	5482
824.809	5623
824.949	5630
825.089	5619
825.228	5547
825.368	5406
825.508	5391
825.648	5334
825.787	5414
825.927	5387
826.067	5292
826.206	5284
826.346	5372
826.485	5395
826.625	5395
826.765	5524
826.904	5493
827.044	5201
827.183	5178
827.323	5113
827.462	5220
827.601	5178
827.741	5216
827.88	5193
828.02	5121
828.159	5273
828.298	5296
828.437	5341
828.577	5299
828.716	5490
828.855	5307
828.994	5208
829.134	5181
829.273	5147
829.412	5121
829.551	5098
829.69	5124
829.829	5201
829.968	5364
830.107	5174
830.246	5315
830.385	5212
830.524	5197
830.663	4965
830.802	4984
830.941	4911
831.08	4870
831.219	5018
831.357	4972
831.496	5159
831.635	4881
831.774	4835
831.913	4877
832.051	4721
832.19	4733
832.329	4809
832.467	4691
832.606	4645
832.744	4729
832.883	4687
833.022	4710
833.16	4752
833.299	4858
833.437	4835
833.576	4858
833.714	4839
833.852	4866
833.991	4930
834.129	4953
834.267	4942
834.406	4942
834.544	4968
834.682	4946
834.821	4946
834.959	5113
835.097	4965
835.235	5143
835.373	5045
835.511	5083
835.65	5060
835.788	5003
835.926	4892
836.064	4850
836.202	4911
836.34	5151
836.478	5201
836.615	5094
836.753	5201
836.891	5307
837.029	5223
837.167	5235
837.305	5174
837.443	5128
837.58	5045
837.718	5220
837.856	5159
837.993	5113
838.131	5235
838.269	5212
838.406	5178
838.544	5189
838.681	5067
838.819	4984
838.956	4881
839.094	4938
839.231	4980
839.369	5060
839.506	5379
839.643	5292
839.781	5060
839.918	4946
840.055	5071
840.193	5075
840.33	5132
840.467	5132
840.604	5189
840.742	5414
840.879	5071
841.016	5067
841.153	5181
841.29	5402
841.427	5349
841.564	5288
841.701	5292
841.838	5284
841.975	5193
842.112	5258
842.249	5147
842.385	5143
842.522	5299
842.659	5147
842.796	5143
842.933	5159
843.069	5166
843.206	5140
843.343	5345
843.479	5227
843.616	5265
843.752	4991
843.889	5025
844.025	5265
844.162	5006
844.298	5216
844.435	5113
844.571	5086
844.708	5212
844.844	5288
844.98	5337
845.117	5277
845.253	5094
845.389	5060
845.525	5143
845.661	5159
845.798	4980
845.934	5170
846.07	5060
846.206	5216
846.342	5311
846.478	5242
846.614	4987
846.75	4946
846.886	4953
847.022	5140
847.158	4980
847.294	5022
847.429	5117
847.565	5045
847.701	5296
847.837	4850
847.972	4839
848.108	4946
848.244	4965
848.379	4733
848.515	4702
848.65	4668
848.786	4725
848.921	4736
849.057	4862
849.192	4908
849.328	4812
849.463	4870
849.598	4820
849.734	4752
849.869	4717
850.004	4615
850.14	4637
850.275	4611
850.41	4523
850.545	4573
850.68	4588
850.815	4630
850.95	4615
851.085	4797
851.22	4767
851.355	4656
851.49	4611
851.625	4592
851.76	4645
851.895	4569
852.03	4550
852.165	4672
852.299	4679
852.434	4782
852.569	4698
852.703	4824
852.838	4866
852.973	4930
853.107	4904
853.242	4706
853.376	4710
853.511	4519
853.645	4641
853.78	4778
853.914	4717
854.048	4687
854.183	4653
854.317	4721
854.451	4812
854.585	4634
854.72	4622
854.854	4778
854.988	4630
855.122	4626
855.256	4546
855.39	4668
855.524	4767
855.658	4725
855.792	4717
855.926	4710
856.06	4710
856.194	4805
856.327	4634
856.461	4630
856.595	4607
856.729	4656
856.862	4736
856.996	4748
857.13	4714
857.263	4763
857.397	4759
857.53	4634
857.664	4698
857.797	4786
857.931	4801
858.064	4653
858.197	4752
858.331	4637
858.464	4611
858.597	4523
858.731	4580
858.864	4630
858.997	4596
859.13	4622
859.263	4710
859.396	4698
859.529	4573
859.662	4592
859.795	4527
859.928	4618
860.061	4786
860.194	4710
860.327	4672
860.46	4573
860.592	4714
860.725	4694
860.858	4672
860.99	4531
861.123	4504
861.256	4500
861.388	4592
861.521	5292
861.653	4554
861.786	4447
861.918	4466
862.05	4561
862.183	4569
862.315	4607
862.447	4615
862.58	4519
862.712	4383
862.844	4303
862.976	4417
863.108	4436
863.24	4733
863.372	4402
863.504	4417
863.636	4394
863.768	4451
863.9	4466
864.032	4394
864.164	4344
864.296	4462
864.428	4527
864.559	4577
864.691	4485
864.823	4550
864.954	4459
865.086	4504
865.217	4443
865.349	4367
865.48	4451
865.612	4478
865.743	4588
865.875	4485
866.006	4402
866.137	4436
866.269	4436
866.4	4402
866.531	4424
866.662	4371
866.793	4417
866.924	4371
867.055	4519
867.186	4383
867.317	4428
867.448	4398
867.579	4318
867.71	4390
867.841	4409
867.972	4451
868.103	4489
868.233	4421
868.364	4417
868.495	4474
868.625	4687
868.756	4748
868.886	4558
869.017	4637
869.147	4759
869.278	4755
869.408	4645
869.539	4615
869.669	4683
869.799	4641
869.929	4763
870.06	4702
870.19	4949
870.32	4892
870.45	4938
870.58	4972
870.71	5102
870.84	5124
870.97	4957
871.1	4896
871.23	5193
871.36	5140
871.489	5010
871.619	5064
871.749	5102
871.879	5147
872.008	5132
872.138	5056
872.267	4965
872.397	4847
872.526	4805
872.656	4729
872.785	4793
872.915	4919
873.044	5025
873.173	4972
873.303	4984
873.432	4999
873.561	5006
873.69	4889
873.819	4839
873.948	4919
874.077	4809
874.206	4740
874.335	4778
874.464	4930
874.593	5048
874.722	4930
874.851	5105
874.979	5052
875.108	5006
875.237	4904
875.365	4847
875.494	4877
875.623	4953
875.751	4790
875.88	4896
876.008	4953
876.136	5018
876.265	5181
876.393	5330
876.521	5250
876.65	5227
876.778	5151
876.906	5045
877.034	5006
877.162	5052
877.29	4961
877.418	5079
877.546	5071
877.674	5029
877.802	5052
877.93	5086
878.058	4965
878.185	4900
878.313	4942
878.441	4957
878.568	4820
878.696	4892
878.824	4934
878.951	4987
879.079	5079
879.206	5280
879.333	5086
879.461	4946
879.588	4999
879.715	5117
879.842	5227
879.97	5014
880.097	4759
880.224	4736
880.351	4786
880.478	4801
880.605	4771
880.732	4771
880.859	5056
880.986	4870
881.112	4877
881.239	4774
881.366	4687
881.493	4626
881.619	4603
881.746	4702
881.872	4611
881.999	4660
882.125	4668
882.252	4774
882.378	4854
882.505	4927
882.631	4797
882.757	4683
882.883	4664
883.01	4714
883.136	4668
883.262	4592
883.388	4618
883.514	4767
883.64	4892
883.766	4786
883.892	4729
884.018	4702
884.143	4854
884.269	5003
884.395	4672
884.52	4618
884.646	4645
884.772	4561
884.897	4531
885.023	4664
885.148	4786
885.274	4843
885.399	4839
885.524	4714
885.65	4679
885.775	4752
885.9	4752
886.025	4877
886.15	4793
886.275	4691
886.4	4645
886.525	4740
886.65	4721
886.775	4687
886.9	4949
887.025	5090
887.149	4755
887.274	4637
887.399	4580
887.523	4641
887.648	4550
887.773	4577
887.897	4725
888.021	4801
888.146	4679
888.27	4816
888.395	4904
888.519	4790
888.643	4839
888.767	4839
888.891	4691
889.015	4596
889.139	4687
889.263	4588
889.387	4748
889.511	4870
889.635	4763
889.759	4645
889.883	4611
890.006	4752
890.13	4790
890.254	4573
890.377	4694
890.501	4550
890.624	4535
890.748	4592
890.871	4508
890.995	4424
891.118	4337
891.241	4542
891.364	4565
891.488	4668
891.611	4489
891.734	4485
891.857	4558
891.98	4611
892.103	4691
892.226	4618
892.349	4554
892.471	4398
892.594	4542
892.717	4588
892.839	4538
892.962	4603
893.085	4634
893.207	4626
893.33	4474
893.452	4531
893.575	4672
893.697	4584
893.819	4816
893.941	4839
894.064	4740
894.186	4580
894.308	4588
894.43	4706
894.552	4767
894.674	4759
894.796	4538
894.918	4592
895.04	4554
895.161	4691
895.283	4725
895.405	4637
895.526	4622
895.648	4687
895.769	4717
895.891	4706
896.012	4702
896.134	4710
896.255	4698
896.376	4611
896.498	4626
896.619	4679
896.74	4660
896.861	4634
896.982	4911
897.103	5056
897.224	4809
897.345	4748
897.466	4675
897.587	4706
897.708	4850
897.828	4778
897.949	4672
898.07	4565
898.19	4656
898.311	4831
898.431	4687
898.552	4721
898.672	4809
898.792	4786
898.913	4729
899.033	4626
899.153	4497
899.273	4405
899.393	4478
899.513	4523
899.633	4550
899.753	4554
899.873	4493
899.993	4577
900.113	4527
900.232	4569
900.352	4546
900.472	4462
900.591	4428
900.711	4512
900.83	4447
900.95	4592
901.069	4675
901.189	4565
901.308	4352
901.427	4341
901.546	4348
901.665	4493
901.784	4516
901.904	4356
902.023	4287
902.141	4147
902.26	4150
902.379	4295
902.498	4234
902.617	4207
902.735	4352
902.854	4459
902.973	4356
903.091	4181
903.21	4230
903.328	4265
903.446	4287
903.565	4265
903.683	4363
903.801	4287
903.919	4421
904.038	4478
904.156	4348
904.274	4455
904.392	4386
904.51	4417
904.627	4462
904.745	4569
904.863	4615
904.981	4344
905.098	4291
905.216	4386
905.334	4421
905.451	4413
905.569	4417
905.686	4538
905.803	4531
905.921	4428
906.038	4535
906.155	4436
906.272	4379
906.389	4443
906.506	4299
906.623	4363
906.74	4375
906.857	4295
906.974	4379
907.091	4512
907.208	4698
907.324	4565
907.441	4459
907.557	4352
907.674	4303
907.79	4299
907.907	4390
908.023	4497
908.139	4481
908.256	4409
908.372	4474
908.488	4481
908.604	4287
908.72	4337
908.836	4322
908.952	4375
909.068	4459
909.184	4573
909.3	4455
909.415	4577
909.531	4535
909.647	4371
909.762	4322
909.878	4329
909.993	4451
910.108	4417
910.224	4424
910.339	4481
910.454	4421
910.57	4360
910.685	4265
910.8	4649
910.915	4634
911.03	4542
911.145	4348
911.259	4344
911.374	4356
911.489	4333
911.604	4268
911.718	4207
911.833	4207
911.947	4071
912.062	4029
912.176	4192
912.291	4223
912.405	4265
912.519	4451
912.633	4508
912.748	4390
912.862	4306
912.976	4242
913.09	4116
913.204	4166
913.318	4242
913.431	4333
913.545	4375
913.659	4432
913.772	4356
913.886	4227
914	4215
914.113	4379
914.226	4440
914.34	4371
914.453	4261
914.566	4398
914.68	4303
914.793	4352
914.906	4173
915.019	4086
915.132	4059
915.245	4166
915.358	4169
915.47	4234
915.583	4276
915.696	4303
915.809	4394
915.921	4402
916.034	4265
916.146	4265
916.259	4223
916.371	4390
916.483	4333
916.595	4261
916.708	4344
916.82	4356
916.932	4280
917.044	4337
917.156	4356
917.268	4253
917.38	4238
917.491	4299
917.603	4306
917.715	4386
917.826	4421
917.938	4356
918.049	4223
918.161	4402
918.272	4542
918.384	4535
918.495	4413
918.606	4223
918.717	4219
918.828	4352
918.939	4348
919.05	4276
919.161	4299
919.272	4105
919.383	4261
919.494	4474
919.604	4615
919.715	4398
919.826	4356
919.936	4367
920.047	4546
920.157	4462
920.267	4725
920.378	4558
920.488	4485
920.598	4710
920.708	4911
920.818	4763
920.928	4774
921.038	4968
921.148	4900
921.258	4645
921.368	4565
921.477	4432
921.587	4481
921.697	4405
921.806	4561
921.916	4409
922.025	4318
922.134	4272
922.244	4215
922.353	4348
922.462	4192
922.571	4135
922.68	3991
922.789	3983
922.898	4002
923.007	3968
923.116	4124
923.224	4051
923.333	4040
923.442	3956
923.55	3964
923.659	4021
923.767	4074
923.876	4013
923.984	4112
924.092	4025
924.201	4112
924.309	4063
924.417	4143
924.525	4059
924.633	4093
924.741	5014
924.849	3930
924.956	4143
925.064	3945
925.172	3926
925.279	3953
925.387	4071
925.494	4017
925.602	4196
925.709	4211
925.816	4048
925.924	4124
926.031	4227
926.138	4185
926.245	4200
926.352	4082
926.459	4227
926.566	4329
926.673	4139
926.779	4067
926.886	4067
926.993	4013
927.099	3949
927.206	3941
927.312	3991
927.419	4071
927.525	4017
927.631	4067
927.737	3964
927.843	3941
927.95	3827
928.056	3937
928.162	4040
928.267	4067
928.373	4558
928.479	4116
928.585	3857
928.69	4067
928.796	4048
928.901	4010
929.007	3861
929.112	4021
929.218	3968
929.323	3972
929.428	3937
929.533	4120
929.638	3922
929.743	3941
929.848	4006
929.953	4017
930.058	3922
930.163	3736
930.267	3804
930.372	4002
930.477	3774
930.581	4124
930.685	3964
930.79	3819
930.894	3903
930.998	3854
931.103	4059
931.207	3747
931.311	3705
931.415	3648
931.519	3515
931.623	3526
