Data from test_V78500241_2403.txt Node
Date: Fri Mar 25 17:05:42 CST 2022
User: usil
Spectrometer: V785-0024
Trigger mode: 0
Integration Time (sec): 4.000000E-1
Scans to average: 1
Nonlinearity correction enabled: false
Boxcar width: 0
Storing dark spectrum: false
XAxis mode: Wavelengths
Number of Pixels in Spectrum: 1024
>>>>>Begin Spectral Data<<<<<
801.071	8008
801.214	7997
801.356	7864
801.499	7788
801.641	7814
801.783	7822
801.926	7932
802.068	7902
802.211	7902
802.353	7989
802.496	7849
802.638	7864
802.78	7947
802.923	7917
803.065	7928
803.208	7902
803.35	7974
803.492	8024
803.635	8199
803.777	7982
803.919	8138
804.061	8385
804.204	8183
804.346	8092
804.488	7955
804.63	8062
804.773	8016
804.915	8142
805.057	8252
805.199	8221
805.341	8153
805.483	8275
805.626	8244
805.768	8195
805.91	8199
806.052	8172
806.194	8100
806.336	8317
806.478	8092
806.62	8111
806.762	8081
806.904	8259
807.046	8461
807.188	8355
807.33	8343
807.472	8317
807.614	8123
807.756	8107
807.898	8012
808.04	7864
808.182	7875
808.324	7917
808.465	7906
808.607	8092
808.749	8119
808.891	8221
809.033	8279
809.174	8237
809.316	8050
809.458	8054
809.6	7951
809.741	7993
809.883	8043
810.025	8081
810.166	8134
810.308	8005
810.45	7986
810.591	7849
810.733	7708
810.875	7643
811.016	7457
811.158	7441
811.299	7571
811.441	7685
811.582	7700
811.724	7548
811.865	7518
812.007	7590
812.148	7616
812.29	7567
812.431	7677
812.573	7856
812.714	8001
812.855	8176
812.997	8202
813.138	8214
813.279	8134
813.421	8077
813.562	7959
813.703	7837
813.845	7765
813.986	7449
814.127	7255
814.268	7183
814.41	7255
814.551	7175
814.692	7251
814.833	7133
814.974	7152
815.115	7179
815.256	6970
815.397	6916
815.539	6932
815.68	6837
815.821	6825
815.962	6875
816.103	6840
816.244	6745
816.385	6616
816.526	6582
816.666	6460
816.807	6304
816.948	6502
817.089	6486
817.23	6448
817.371	6384
817.512	6391
817.653	6399
817.793	6410
817.934	6372
818.075	6467
818.216	6426
818.356	6429
818.497	6258
818.638	6106
818.778	6175
818.919	6144
819.06	6136
819.2	6296
819.341	6342
819.481	6369
819.622	6566
819.762	6719
819.903	6688
820.043	6601
820.184	6574
820.324	6642
820.465	6696
820.605	6623
820.746	6719
820.886	6570
821.026	6627
821.167	6726
821.307	6837
821.447	6757
821.588	6677
821.728	6559
821.868	6498
822.008	6331
822.149	6426
822.289	6372
822.429	6140
822.569	6076
822.709	6129
822.849	5920
822.99	5946
823.13	5973
823.27	5916
823.41	5805
823.55	5779
823.69	5790
823.83	5760
823.97	5646
824.11	5512
824.25	5520
824.389	5520
824.529	5535
824.669	5562
824.809	5577
824.949	5608
825.089	5596
825.228	5554
825.368	5364
825.508	5311
825.648	5368
825.787	5410
825.927	5398
826.067	5288
826.206	5296
826.346	5383
826.485	5368
826.625	5440
826.765	5520
826.904	5585
827.044	5273
827.183	5201
827.323	5140
827.462	5227
827.601	5136
827.741	5197
827.88	5242
828.02	5094
828.159	5246
828.298	5280
828.437	5364
828.577	5284
828.716	5478
828.855	5387
828.994	5143
829.134	5147
829.273	5178
829.412	5117
829.551	5140
829.69	5235
829.829	5227
829.968	5376
830.107	5280
830.246	5296
830.385	5166
830.524	5147
830.663	5094
830.802	4984
830.941	4881
831.08	4885
831.219	5037
831.357	4953
831.496	5151
831.635	4930
831.774	4854
831.913	4828
832.051	4733
832.19	4717
832.329	4843
832.467	4679
832.606	4660
832.744	4714
832.883	4778
833.022	4725
833.16	4759
833.299	4824
833.437	4820
833.576	4831
833.714	4847
833.852	4839
833.991	4915
834.129	4957
834.267	4934
834.406	4858
834.544	4915
834.682	4930
834.821	4942
834.959	5128
835.097	4968
835.235	5162
835.373	5079
835.511	5132
835.65	5056
835.788	5022
835.926	4892
836.064	4904
836.202	4919
836.34	5208
836.478	5242
836.615	5128
836.753	5208
836.891	5292
837.029	5239
837.167	5223
837.305	5178
837.443	5102
837.58	5083
837.718	5273
837.856	5212
837.993	5124
838.131	5265
838.269	5208
838.406	5159
838.544	5208
838.681	5060
838.819	4991
838.956	4904
839.094	4854
839.231	5022
839.369	5075
839.506	5440
839.643	5265
839.781	5105
839.918	5045
840.055	5086
840.193	5094
840.33	5094
840.467	5166
840.604	5105
840.742	5425
840.879	5113
841.016	5064
841.153	5140
841.29	5357
841.427	5307
841.564	5353
841.701	5364
841.838	5307
841.975	5246
842.112	5227
842.249	5113
842.385	5143
842.522	5357
842.659	5132
842.796	5178
842.933	5170
843.069	5151
843.206	5155
843.343	5299
843.479	5223
843.616	5254
843.752	5041
843.889	5003
844.025	5235
844.162	4995
844.298	5185
844.435	5052
844.571	5067
844.708	5212
844.844	5330
844.98	5330
845.117	5280
845.253	5189
845.389	5075
845.525	5124
845.661	5166
845.798	5010
845.934	5094
846.07	5003
846.206	5204
846.342	5345
846.478	5193
846.614	5067
846.75	4953
846.886	4930
847.022	5140
847.158	4972
847.294	5029
847.429	5132
847.565	5041
847.701	5250
847.837	4816
847.972	4786
848.108	4911
848.244	4949
848.379	4736
848.515	4687
848.65	4672
848.786	4752
848.921	4767
849.057	4873
849.192	4896
849.328	4782
849.463	4889
849.598	4797
849.734	4767
849.869	4721
850.004	4599
850.14	4683
850.275	4630
850.41	4542
850.545	4542
850.68	4573
850.815	4603
850.95	4626
851.085	4862
851.22	4763
851.355	4679
851.49	4611
851.625	4615
851.76	4660
851.895	4554
852.03	4565
852.165	4626
852.299	4721
852.434	4797
852.569	4752
852.703	4710
852.838	4820
852.973	4957
853.107	4923
853.242	4763
853.376	4702
853.511	4546
853.645	4626
853.78	4843
853.914	4736
854.048	4645
854.183	4656
854.317	4637
854.451	4839
854.585	4672
854.72	4599
854.854	4767
854.988	4584
855.122	4653
855.256	4538
855.39	4679
855.524	4801
855.658	4752
855.792	4706
855.926	4736
856.06	4736
856.194	4850
856.327	4717
856.461	4611
856.595	4611
856.729	4630
856.862	4748
856.996	4683
857.13	4710
857.263	4782
857.397	4812
857.53	4675
857.664	4687
857.797	4733
857.931	4771
858.064	4729
858.197	4736
858.331	4672
858.464	4580
858.597	4523
858.731	4683
858.864	4645
858.997	4569
859.13	4687
859.263	4702
859.396	4702
859.529	4618
859.662	4546
859.795	4538
859.928	4603
860.061	4812
860.194	4748
860.327	4592
860.46	4592
860.592	4683
860.725	4691
860.858	4706
860.99	4577
861.123	4531
861.256	4538
861.388	4550
861.521	5353
861.653	4474
861.786	4432
861.918	4451
862.05	4550
862.183	4523
862.315	4660
862.447	4660
862.58	4497
862.712	4371
862.844	4333
862.976	4466
863.108	4489
863.24	4755
863.372	4360
863.504	4409
863.636	4440
863.768	4535
863.9	4421
864.032	4379
864.164	4443
864.296	4462
864.428	4527
864.559	4577
864.691	4550
864.823	4523
864.954	4481
865.086	4500
865.217	4451
865.349	4474
865.48	4459
865.612	4470
865.743	4668
865.875	4443
866.006	4421
866.137	4447
866.269	4455
866.4	4424
866.531	4413
866.662	4390
866.793	4394
866.924	4428
867.055	4512
867.186	4459
867.317	4367
867.448	4356
867.579	4333
867.71	4424
867.841	4363
867.972	4413
868.103	4447
868.233	4432
868.364	4398
868.495	4497
868.625	4626
868.756	4778
868.886	4527
869.017	4656
869.147	4763
869.278	4755
869.408	4698
869.539	4641
869.669	4668
869.799	4653
869.929	4763
870.06	4755
870.19	4949
870.32	4904
870.45	4949
870.58	5003
870.71	5117
870.84	5147
870.97	4930
871.1	4919
871.23	5136
871.36	5193
871.489	5010
871.619	5045
871.749	5052
871.879	5151
872.008	5166
872.138	4984
872.267	5006
872.397	4862
872.526	4801
872.656	4736
872.785	4812
872.915	4972
873.044	4984
873.173	4927
873.303	4946
873.432	4957
873.561	4961
873.69	4866
873.819	4896
873.948	4900
874.077	4797
874.206	4729
874.335	4805
874.464	4930
874.593	5098
874.722	4957
874.851	5079
874.979	5045
875.108	5037
875.237	4930
875.365	4930
875.494	4881
875.623	4999
875.751	4843
875.88	4904
876.008	4980
876.136	5029
876.265	5242
876.393	5292
876.521	5254
876.65	5201
876.778	5174
876.906	5094
877.034	5014
877.162	5014
877.29	5048
877.418	5067
877.546	5075
877.674	5117
877.802	4976
877.93	5003
878.058	4911
878.185	4835
878.313	4942
878.441	4934
878.568	4797
878.696	4896
878.824	4976
878.951	5006
879.079	5178
879.206	5273
879.333	5041
879.461	4987
879.588	4984
879.715	5132
879.842	5235
879.97	5018
880.097	4778
880.224	4706
880.351	4805
880.478	4847
880.605	4778
880.732	4805
880.859	5075
880.986	4904
881.112	4900
881.239	4790
881.366	4683
881.493	4588
881.619	4649
881.746	4679
881.872	4622
881.999	4653
882.125	4683
882.252	4782
882.378	4835
882.505	4949
882.631	4790
882.757	4691
882.883	4748
883.01	4736
883.136	4714
883.262	4584
883.388	4641
883.514	4820
883.64	4908
883.766	4824
883.892	4675
884.018	4694
884.143	4892
884.269	5010
884.395	4622
884.52	4577
884.646	4660
884.772	4546
884.897	4535
885.023	4615
885.148	4733
885.274	4881
885.399	4786
885.524	4733
885.65	4714
885.775	4729
885.9	4717
886.025	4870
886.15	4767
886.275	4710
886.4	4710
886.525	4778
886.65	4675
886.775	4675
886.9	4915
887.025	5094
887.149	4797
887.274	4694
887.399	4637
887.523	4626
887.648	4584
887.773	4634
887.897	4790
888.021	4786
888.146	4630
888.27	4805
888.395	4892
888.519	4759
888.643	4778
888.767	4816
888.891	4664
889.015	4630
889.139	4637
889.263	4615
889.387	4767
889.511	4870
889.635	4828
889.759	4656
889.883	4637
890.006	4717
890.13	4782
890.254	4622
890.377	4649
890.501	4542
890.624	4474
890.748	4618
890.871	4485
890.995	4455
891.118	4337
891.241	4474
891.364	4523
891.488	4584
891.611	4478
891.734	4481
891.857	4618
891.98	4569
892.103	4653
892.226	4599
892.349	4512
892.471	4424
892.594	4542
892.717	4599
892.839	4542
892.962	4588
893.085	4664
893.207	4603
893.33	4462
893.452	4508
893.575	4675
893.697	4538
893.819	4793
893.941	4831
894.064	4752
894.186	4546
894.308	4558
894.43	4755
894.552	4805
894.674	4752
894.796	4573
894.918	4584
895.04	4565
895.161	4706
895.283	4668
895.405	4519
895.526	4660
895.648	4660
895.769	4672
895.891	4679
896.012	4763
896.134	4740
896.255	4679
896.376	4622
896.498	4607
896.619	4634
896.74	4592
896.861	4679
896.982	4965
897.103	5113
897.224	4824
897.345	4786
897.466	4698
897.587	4736
897.708	4889
897.828	4835
897.949	4664
898.07	4550
898.19	4634
898.311	4797
898.431	4645
898.552	4679
898.672	4858
898.792	4759
898.913	4740
899.033	4607
899.153	4478
899.273	4432
899.393	4512
899.513	4481
899.633	4516
899.753	4516
899.873	4497
899.993	4580
900.113	4516
900.232	4527
900.352	4558
900.472	4470
900.591	4436
900.711	4489
900.83	4432
900.95	4561
901.069	4706
901.189	4538
901.308	4352
901.427	4325
901.546	4383
901.665	4455
901.784	4580
901.904	4405
902.023	4325
902.141	4238
902.26	4192
902.379	4280
902.498	4238
902.617	4234
902.735	4379
902.854	4409
902.973	4356
903.091	4238
903.21	4223
903.328	4299
903.446	4306
903.565	4284
903.683	4386
903.801	4295
903.919	4352
904.038	4447
904.156	4318
904.274	4413
904.392	4428
904.51	4409
904.627	4489
904.745	4573
904.863	4634
904.981	4390
905.098	4352
905.216	4398
905.334	4451
905.451	4398
905.569	4417
905.686	4573
905.803	4584
905.921	4405
906.038	4535
906.155	4440
906.272	4383
906.389	4489
906.506	4360
906.623	4356
906.74	4352
906.857	4333
906.974	4333
907.091	4588
907.208	4668
907.324	4550
907.441	4546
907.557	4363
907.674	4344
907.79	4348
907.907	4413
908.023	4497
908.139	4500
908.256	4451
908.372	4436
908.488	4440
908.604	4329
908.72	4367
908.836	4390
908.952	4379
909.068	4413
909.184	4554
909.3	4489
909.415	4558
909.531	4542
909.647	4398
909.762	4371
909.878	4360
909.993	4440
910.108	4371
910.224	4440
910.339	4485
910.454	4413
910.57	4383
910.685	4348
910.8	4672
910.915	4565
911.03	4455
911.145	4303
911.259	4375
911.374	4360
911.489	4246
911.604	4291
911.718	4154
911.833	4219
911.947	4055
912.062	4032
912.176	4223
912.291	4227
912.405	4280
912.519	4527
912.633	4542
912.748	4394
912.862	4314
912.976	4219
913.09	4097
913.204	4181
913.318	4253
913.431	4432
913.545	4383
913.659	4390
913.772	4352
913.886	4227
914	4230
914.113	4356
914.226	4466
914.34	4432
914.453	4253
914.566	4451
914.68	4306
914.793	4287
914.906	4147
915.019	4166
915.132	4109
915.245	4177
915.358	4162
915.47	4181
915.583	4280
915.696	4333
915.809	4413
915.921	4398
916.034	4272
916.146	4295
916.259	4242
916.371	4417
916.483	4356
916.595	4246
916.708	4360
916.82	4337
916.932	4363
917.044	4337
917.156	4337
917.268	4207
917.38	4306
917.491	4314
917.603	4375
917.715	4417
917.826	4440
917.938	4379
918.049	4223
918.161	4394
918.272	4550
918.384	4546
918.495	4478
918.606	4291
918.717	4204
918.828	4310
918.939	4413
919.05	4268
919.161	4299
919.272	4131
919.383	4230
919.494	4447
919.604	4615
919.715	4474
919.826	4314
919.936	4383
920.047	4577
920.157	4470
920.267	4710
920.378	4565
920.488	4497
920.598	4744
920.708	4908
920.818	4778
920.928	4748
921.038	4938
921.148	4930
921.258	4637
921.368	4565
921.477	4519
921.587	4409
921.697	4352
921.806	4538
921.916	4424
922.025	4230
922.134	4242
922.244	4196
922.353	4310
922.462	4185
922.571	4116
922.68	4032
922.789	4044
922.898	4044
923.007	3968
923.116	4048
923.224	4086
923.333	4097
923.442	4002
923.55	3972
923.659	3956
923.767	4143
923.876	4006
923.984	4128
924.092	3983
924.201	4067
924.309	4093
924.417	4128
924.525	4112
924.633	4082
924.741	5045
924.849	3907
924.956	4154
925.064	3979
925.172	3918
925.279	4013
925.387	4055
925.494	4029
925.602	4196
925.709	4211
925.816	4059
925.924	4112
926.031	4215
926.138	4135
926.245	4154
926.352	4067
926.459	4227
926.566	4318
926.673	4158
926.779	4067
926.886	4124
926.993	3979
927.099	3964
927.206	3930
927.312	3964
927.419	4063
927.525	4021
927.631	4131
927.737	3956
927.843	3884
927.95	3880
928.056	3861
928.162	3975
928.267	4071
928.373	4660
928.479	4116
928.585	3865
928.69	3983
928.796	4078
928.901	3964
929.007	3838
929.112	3998
929.218	3953
929.323	3983
929.428	3945
929.533	4101
929.638	3888
929.743	3983
929.848	4051
929.953	3975
930.058	3899
930.163	3778
930.267	3816
930.372	3949
930.477	3816
930.581	4101
930.685	3937
930.79	3816
930.894	3903
930.998	3831
931.103	4044
931.207	3713
931.311	3705
931.415	3656
931.519	3542
931.623	3530
