Data from test_V78500241_2669.txt Node
Date: Fri Mar 25 17:07:33 CST 2022
User: usil
Spectrometer: V785-0024
Trigger mode: 0
Integration Time (sec): 4.000000E-1
Scans to average: 1
Nonlinearity correction enabled: false
Boxcar width: 0
Storing dark spectrum: false
XAxis mode: Wavelengths
Number of Pixels in Spectrum: 1024
>>>>>Begin Spectral Data<<<<<
801.071	7974
801.214	8020
801.356	7868
801.499	7879
801.641	7757
801.783	7860
801.926	7959
802.068	7978
802.211	8020
802.353	7997
802.496	7928
802.638	7928
802.78	7898
802.923	7970
803.065	7852
803.208	7830
803.35	7921
803.492	8096
803.635	8180
803.777	8043
803.919	8138
804.061	8507
804.204	8134
804.346	8077
804.488	8031
804.63	8172
804.773	7997
804.915	8096
805.057	8309
805.199	8172
805.341	8248
805.483	8256
805.626	8240
805.768	8138
805.91	8252
806.052	8202
806.194	8107
806.336	8347
806.478	8092
806.62	8054
806.762	8130
806.904	8229
807.046	8442
807.188	8320
807.33	8324
807.472	8339
807.614	8176
807.756	8142
807.898	8024
808.04	7830
808.182	7871
808.324	7868
808.465	7890
808.607	8138
808.749	8183
808.891	8195
809.033	8225
809.174	8252
809.316	8081
809.458	8096
809.6	7959
809.741	8062
809.883	8054
810.025	8130
810.166	8046
810.308	8031
810.45	7993
810.591	7792
810.733	7708
810.875	7689
811.016	7514
811.158	7449
811.299	7624
811.441	7719
811.582	7719
811.724	7578
811.865	7563
812.007	7594
812.148	7597
812.29	7578
812.431	7757
812.573	7993
812.714	7963
812.855	8180
812.997	8157
813.138	8324
813.279	8187
813.421	8084
813.562	7974
813.703	7852
813.845	7784
813.986	7449
814.127	7282
814.268	7247
814.41	7179
814.551	7145
814.692	7164
814.833	7065
814.974	7065
815.115	7057
815.256	6973
815.397	6973
815.539	6932
815.68	6795
815.821	6806
815.962	6894
816.103	6859
816.244	6779
816.385	6635
816.526	6612
816.666	6513
816.807	6300
816.948	6467
817.089	6506
817.23	6418
817.371	6380
817.512	6331
817.653	6380
817.793	6372
817.934	6395
818.075	6456
818.216	6479
818.356	6361
818.497	6235
818.638	6136
818.778	6144
818.919	6087
819.06	6232
819.2	6338
819.341	6327
819.481	6380
819.622	6578
819.762	6726
819.903	6650
820.043	6639
820.184	6578
820.324	6585
820.465	6696
820.605	6726
820.746	6665
820.886	6509
821.026	6627
821.167	6738
821.307	6856
821.447	6741
821.588	6623
821.728	6551
821.868	6528
822.008	6300
822.149	6433
822.289	6342
822.429	6136
822.569	6129
822.709	6087
822.849	5939
822.99	5866
823.13	5923
823.27	5908
823.41	5809
823.55	5790
823.69	5779
823.83	5786
823.97	5642
824.11	5554
824.25	5505
824.389	5558
824.529	5600
824.669	5512
824.809	5623
824.949	5653
825.089	5627
825.228	5535
825.368	5433
825.508	5372
825.648	5318
825.787	5395
825.927	5364
826.067	5315
826.206	5269
826.346	5364
826.485	5410
826.625	5436
826.765	5501
826.904	5486
827.044	5269
827.183	5235
827.323	5094
827.462	5239
827.601	5162
827.741	5159
827.88	5250
828.02	5098
828.159	5216
828.298	5307
828.437	5353
828.577	5254
828.716	5455
828.855	5303
828.994	5185
829.134	5151
829.273	5204
829.412	5128
829.551	5094
829.69	5170
829.829	5239
829.968	5368
830.107	5265
830.246	5303
830.385	5193
830.524	5128
830.663	5041
830.802	4991
830.941	4923
831.08	4881
831.219	4961
831.357	5014
831.496	5140
831.635	4915
831.774	4854
831.913	4850
832.051	4683
832.19	4782
832.329	4904
832.467	4664
832.606	4588
832.744	4733
832.883	4710
833.022	4691
833.16	4759
833.299	4793
833.437	4854
833.576	4820
833.714	4850
833.852	4862
833.991	4915
834.129	4968
834.267	4942
834.406	4877
834.544	5018
834.682	4984
834.821	5006
834.959	5162
835.097	5010
835.235	5174
835.373	5071
835.511	5086
835.65	5025
835.788	5029
835.926	4881
836.064	4881
836.202	4934
836.34	5178
836.478	5254
836.615	5079
836.753	5204
836.891	5258
837.029	5296
837.167	5178
837.305	5136
837.443	5140
837.58	5117
837.718	5242
837.856	5155
837.993	5124
838.131	5204
838.269	5235
838.406	5204
838.544	5254
838.681	5048
838.819	4930
838.956	4889
839.094	4881
839.231	4957
839.369	5079
839.506	5376
839.643	5223
839.781	5056
839.918	4991
840.055	5109
840.193	5113
840.33	5102
840.467	5136
840.604	5178
840.742	5448
840.879	5075
841.016	5102
841.153	5143
841.29	5387
841.427	5299
841.564	5322
841.701	5330
841.838	5258
841.975	5208
842.112	5318
842.249	5140
842.385	5071
842.522	5383
842.659	5204
842.796	5136
842.933	5197
843.069	5181
843.206	5124
843.343	5322
843.479	5284
843.616	5288
843.752	5033
843.889	4984
844.025	5189
844.162	5014
844.298	5181
844.435	5075
844.571	5045
844.708	5220
844.844	5315
844.98	5337
845.117	5318
845.253	5102
845.389	5048
845.525	5136
845.661	5143
845.798	5014
845.934	5143
846.07	5071
846.206	5212
846.342	5299
846.478	5166
846.614	5029
846.75	4987
846.886	4961
847.022	5105
847.158	5018
847.294	5052
847.429	5052
847.565	5052
847.701	5322
847.837	4843
847.972	4835
848.108	4991
848.244	4949
848.379	4721
848.515	4729
848.65	4744
848.786	4706
848.921	4759
849.057	4896
849.192	4892
849.328	4854
849.463	4843
849.598	4782
849.734	4752
849.869	4710
850.004	4668
850.14	4672
850.275	4580
850.41	4535
850.545	4611
850.68	4618
850.815	4592
850.95	4675
851.085	4858
851.22	4786
851.355	4649
851.49	4611
851.625	4637
851.76	4596
851.895	4531
852.03	4550
852.165	4645
852.299	4733
852.434	4797
852.569	4725
852.703	4759
852.838	4877
852.973	4923
853.107	4892
853.242	4717
853.376	4668
853.511	4580
853.645	4607
853.78	4782
853.914	4679
854.048	4675
854.183	4660
854.317	4668
854.451	4870
854.585	4698
854.72	4637
854.854	4763
854.988	4565
855.122	4649
855.256	4580
855.39	4683
855.524	4790
855.658	4656
855.792	4683
855.926	4721
856.06	4771
856.194	4812
856.327	4694
856.461	4531
856.595	4607
856.729	4630
856.862	4736
856.996	4702
857.13	4637
857.263	4752
857.397	4790
857.53	4641
857.664	4763
857.797	4744
857.931	4763
858.064	4698
858.197	4717
858.331	4649
858.464	4626
858.597	4546
858.731	4634
858.864	4634
858.997	4622
859.13	4630
859.263	4691
859.396	4710
859.529	4592
859.662	4542
859.795	4508
859.928	4588
860.061	4752
860.194	4733
860.327	4561
860.46	4580
860.592	4710
860.725	4691
860.858	4733
860.99	4561
861.123	4516
861.256	4516
861.388	4611
861.521	5368
861.653	4455
861.786	4489
861.918	4489
862.05	4550
862.183	4516
862.315	4558
862.447	4622
862.58	4622
862.712	4428
862.844	4329
862.976	4474
863.108	4428
863.24	4778
863.372	4352
863.504	4436
863.636	4436
863.768	4497
863.9	4451
864.032	4360
864.164	4363
864.296	4462
864.428	4538
864.559	4550
864.691	4542
864.823	4558
864.954	4516
865.086	4481
865.217	4478
865.349	4398
865.48	4481
865.612	4485
865.743	4618
865.875	4440
866.006	4470
866.137	4451
866.269	4443
866.4	4413
866.531	4478
866.662	4352
866.793	4379
866.924	4421
867.055	4447
867.186	4428
867.317	4417
867.448	4398
867.579	4402
867.71	4386
867.841	4356
867.972	4462
868.103	4432
868.233	4417
868.364	4451
868.495	4436
868.625	4649
868.756	4748
868.886	4577
869.017	4592
869.147	4797
869.278	4824
869.408	4618
869.539	4664
869.669	4736
869.799	4668
869.929	4752
870.06	4733
870.19	4965
870.32	4911
870.45	4908
870.58	5003
870.71	5124
870.84	5064
870.97	4930
871.1	4889
871.23	5162
871.36	5136
871.489	5029
871.619	5048
871.749	5117
871.879	5071
872.008	5239
872.138	5090
872.267	4995
872.397	4850
872.526	4835
872.656	4729
872.785	4809
872.915	4892
873.044	5067
873.173	4915
873.303	4957
873.432	4930
873.561	4904
873.69	4873
873.819	4839
873.948	4896
874.077	4824
874.206	4752
874.335	4805
874.464	4946
874.593	5064
874.722	4995
874.851	5124
874.979	5094
875.108	5037
875.237	4949
875.365	4858
875.494	4896
875.623	4949
875.751	4835
875.88	4908
876.008	4965
876.136	5045
876.265	5201
876.393	5360
876.521	5254
876.65	5197
876.778	5185
876.906	5124
877.034	4995
877.162	5067
877.29	5003
877.418	5048
877.546	5037
877.674	5037
877.802	5014
877.93	5033
878.058	4946
878.185	4877
878.313	4946
878.441	4923
878.568	4759
878.696	4881
878.824	4999
878.951	5018
879.079	5117
879.206	5311
879.333	5098
879.461	4995
879.588	5006
879.715	5037
879.842	5235
879.97	5006
880.097	4790
880.224	4782
880.351	4759
880.478	4786
880.605	4782
880.732	4782
880.859	5010
880.986	4892
881.112	4858
881.239	4752
881.366	4656
881.493	4554
881.619	4615
881.746	4645
881.872	4683
881.999	4641
882.125	4736
882.252	4752
882.378	4847
882.505	5003
882.631	4774
882.757	4714
882.883	4706
883.01	4717
883.136	4672
883.262	4577
883.388	4611
883.514	4797
883.64	4908
883.766	4771
883.892	4668
884.018	4767
884.143	4942
884.269	5029
884.395	4672
884.52	4634
884.646	4694
884.772	4603
884.897	4592
885.023	4660
885.148	4759
885.274	4828
885.399	4778
885.524	4683
885.65	4706
885.775	4759
885.9	4687
886.025	4816
886.15	4812
886.275	4683
886.4	4656
886.525	4710
886.65	4687
886.775	4710
886.9	4889
887.025	4995
887.149	4797
887.274	4679
887.399	4527
887.523	4615
887.648	4584
887.773	4573
887.897	4721
888.021	4778
888.146	4634
888.27	4797
888.395	4900
888.519	4812
888.643	4786
888.767	4831
888.891	4729
889.015	4577
889.139	4664
889.263	4634
889.387	4767
889.511	4858
889.635	4793
889.759	4634
889.883	4679
890.006	4752
890.13	4839
890.254	4622
890.377	4679
890.501	4573
890.624	4531
890.748	4588
890.871	4516
890.995	4417
891.118	4409
891.241	4546
891.364	4519
891.488	4618
891.611	4523
891.734	4565
891.857	4584
891.98	4519
892.103	4683
892.226	4577
892.349	4538
892.471	4424
892.594	4561
892.717	4573
892.839	4561
892.962	4580
893.085	4611
893.207	4565
893.33	4500
893.452	4504
893.575	4694
893.697	4561
893.819	4831
893.941	4801
894.064	4740
894.186	4573
894.308	4542
894.43	4740
894.552	4847
894.674	4706
894.796	4615
894.918	4599
895.04	4611
895.161	4717
895.283	4675
895.405	4626
895.526	4588
895.648	4668
895.769	4656
895.891	4683
896.012	4729
896.134	4725
896.255	4691
896.376	4622
896.498	4611
896.619	4687
896.74	4615
896.861	4687
896.982	4892
897.103	5079
897.224	4847
897.345	4687
897.466	4725
897.587	4771
897.708	4885
897.828	4797
897.949	4656
898.07	4592
898.19	4679
898.311	4843
898.431	4672
898.552	4733
898.672	4812
898.792	4797
898.913	4771
899.033	4622
899.153	4489
899.273	4409
899.393	4485
899.513	4527
899.633	4508
899.753	4535
899.873	4497
899.993	4546
900.113	4531
900.232	4554
900.352	4542
900.472	4481
900.591	4383
900.711	4470
900.83	4413
900.95	4577
901.069	4645
901.189	4542
901.308	4360
901.427	4303
901.546	4367
901.665	4443
901.784	4512
901.904	4371
902.023	4299
902.141	4192
902.26	4169
902.379	4265
902.498	4246
902.617	4204
902.735	4360
902.854	4386
902.973	4379
903.091	4196
903.21	4215
903.328	4253
903.446	4295
903.565	4192
903.683	4348
903.801	4276
903.919	4379
904.038	4413
904.156	4360
904.274	4436
904.392	4341
904.51	4428
904.627	4489
904.745	4622
904.863	4626
904.981	4413
905.098	4299
905.216	4348
905.334	4432
905.451	4413
905.569	4428
905.686	4531
905.803	4588
905.921	4455
906.038	4554
906.155	4500
906.272	4383
906.389	4500
906.506	4390
906.623	4413
906.74	4386
906.857	4306
906.974	4325
907.091	4538
907.208	4660
907.324	4580
907.441	4455
907.557	4337
907.674	4341
907.79	4287
907.907	4386
908.023	4500
908.139	4443
908.256	4451
908.372	4451
908.488	4417
908.604	4341
908.72	4314
908.836	4352
908.952	4360
909.068	4417
909.184	4573
909.3	4493
909.415	4592
909.531	4577
909.647	4379
909.762	4356
909.878	4348
909.993	4394
910.108	4413
910.224	4398
910.339	4497
910.454	4383
910.57	4352
910.685	4318
910.8	4649
910.915	4603
911.03	4527
911.145	4276
911.259	4367
911.374	4356
911.489	4246
911.604	4272
911.718	4158
911.833	4154
911.947	4090
912.062	4002
912.176	4211
912.291	4215
912.405	4284
912.519	4432
912.633	4481
912.748	4360
912.862	4322
912.976	4196
913.09	4074
913.204	4147
913.318	4207
913.431	4383
913.545	4360
913.659	4462
913.772	4409
913.886	4234
914	4211
914.113	4379
914.226	4432
914.34	4398
914.453	4242
914.566	4455
914.68	4280
914.793	4325
914.906	4188
915.019	4124
915.132	4029
915.245	4204
915.358	4185
915.47	4230
915.583	4291
915.696	4318
915.809	4390
915.921	4459
916.034	4223
916.146	4249
916.259	4234
916.371	4409
916.483	4356
916.595	4215
916.708	4348
916.82	4276
916.932	4295
917.044	4322
917.156	4306
917.268	4223
917.38	4276
917.491	4299
917.603	4344
917.715	4493
917.826	4432
917.938	4379
918.049	4238
918.161	4409
918.272	4542
918.384	4512
918.495	4440
918.606	4257
918.717	4249
918.828	4371
918.939	4344
919.05	4272
919.161	4363
919.272	4147
919.383	4230
919.494	4440
919.604	4672
919.715	4424
919.826	4367
919.936	4428
920.047	4451
920.157	4500
920.267	4725
920.378	4493
920.488	4497
920.598	4710
920.708	4839
920.818	4812
920.928	4767
921.038	4968
921.148	4915
921.258	4653
921.368	4527
921.477	4466
921.587	4485
921.697	4409
921.806	4504
921.916	4417
922.025	4276
922.134	4314
922.244	4261
922.353	4303
922.462	4188
922.571	4173
922.68	4010
922.789	3968
922.898	4006
923.007	3968
923.116	4120
923.224	4048
923.333	4063
923.442	4002
923.55	3998
923.659	4010
923.767	4105
923.876	3979
923.984	4086
924.092	3926
924.201	4120
924.309	4067
924.417	4097
924.525	4093
924.633	4105
924.741	5098
924.849	3918
924.956	4128
925.064	4006
925.172	3899
925.279	3968
925.387	4071
925.494	4040
925.602	4223
925.709	4177
925.816	4036
925.924	4131
926.031	4207
926.138	4135
926.245	4238
926.352	4059
926.459	4268
926.566	4295
926.673	4177
926.779	4051
926.886	4063
926.993	3979
927.099	3960
927.206	3941
927.312	3956
927.419	4105
927.525	4036
927.631	4059
927.737	3960
927.843	3956
927.95	3876
928.056	3926
928.162	3979
928.267	4059
928.373	4596
928.479	4086
928.585	3915
928.69	4025
928.796	4021
928.901	3960
929.007	3838
929.112	4017
929.218	4006
929.323	3964
929.428	3945
929.533	4082
929.638	3953
929.743	3998
929.848	4059
929.953	3987
930.058	3930
930.163	3797
930.267	3857
930.372	3964
930.477	3819
930.581	4051
930.685	3960
930.79	3793
930.894	3896
930.998	3854
931.103	4044
931.207	3709
931.311	3705
931.415	3705
931.519	3519
931.623	3599
