Data from test_V78500241_1294.txt Node
Date: Fri Mar 25 16:57:59 CST 2022
User: usil
Spectrometer: V785-0024
Trigger mode: 0
Integration Time (sec): 4.000000E-1
Scans to average: 1
Nonlinearity correction enabled: false
Boxcar width: 0
Storing dark spectrum: false
XAxis mode: Wavelengths
Number of Pixels in Spectrum: 1024
>>>>>Begin Spectral Data<<<<<
801.071	7959
801.214	8027
801.356	7875
801.499	7788
801.641	7731
801.783	7822
801.926	7932
802.068	7978
802.211	7955
802.353	7898
802.496	7837
802.638	7852
802.78	7932
802.923	7951
803.065	7921
803.208	7852
803.35	7932
803.492	8103
803.635	8153
803.777	7963
803.919	8111
804.061	8434
804.204	8221
804.346	8046
804.488	7936
804.63	8123
804.773	7978
804.915	8134
805.057	8317
805.199	8164
805.341	8298
805.483	8259
805.626	8172
805.768	8138
805.91	8225
806.052	8183
806.194	8084
806.336	8313
806.478	8081
806.62	8008
806.762	8214
806.904	8282
807.046	8469
807.188	8343
807.33	8290
807.472	8267
807.614	8138
807.756	8145
807.898	8043
808.04	7883
808.182	7936
808.324	7830
808.465	7925
808.607	8065
808.749	8180
808.891	8199
809.033	8279
809.174	8100
809.316	8069
809.458	8027
809.6	8035
809.741	8016
809.883	7997
810.025	8107
810.166	8084
810.308	8043
810.45	7989
810.591	7864
810.733	7765
810.875	7685
811.016	7533
811.158	7556
811.299	7616
811.441	7734
811.582	7666
811.724	7590
811.865	7521
812.007	7571
812.148	7590
812.29	7681
812.431	7685
812.573	7845
812.714	7940
812.855	8092
812.997	8176
813.138	8282
813.279	8199
813.421	8134
813.562	8008
813.703	7887
813.845	7780
813.986	7464
814.127	7168
814.268	7202
814.41	7194
814.551	7183
814.692	7168
814.833	7069
814.974	7053
815.115	7099
815.256	6962
815.397	6920
815.539	6966
815.68	6867
815.821	6776
815.962	6806
816.103	6840
816.244	6757
816.385	6627
816.526	6589
816.666	6460
816.807	6296
816.948	6410
817.089	6483
817.23	6410
817.371	6380
817.512	6422
817.653	6384
817.793	6334
817.934	6418
818.075	6441
818.216	6414
818.356	6467
818.497	6239
818.638	6106
818.778	6144
818.919	6129
819.06	6114
819.2	6273
819.341	6331
819.481	6388
819.622	6547
819.762	6738
819.903	6696
820.043	6574
820.184	6559
820.324	6555
820.465	6707
820.605	6669
820.746	6627
820.886	6532
821.026	6585
821.167	6627
821.307	6783
821.447	6783
821.588	6646
821.728	6494
821.868	6494
822.008	6285
822.149	6384
822.289	6391
822.429	6197
822.569	6060
822.709	6114
822.849	5977
822.99	5851
823.13	5946
823.27	5908
823.41	5824
823.55	5790
823.69	5764
823.83	5783
823.97	5661
824.11	5577
824.25	5509
824.389	5532
824.529	5570
824.669	5528
824.809	5661
824.949	5630
825.089	5581
825.228	5581
825.368	5421
825.508	5353
825.648	5269
825.787	5410
825.927	5410
826.067	5250
826.206	5296
826.346	5368
826.485	5353
826.625	5353
826.765	5535
826.904	5417
827.044	5197
827.183	5197
827.323	5067
827.462	5201
827.601	5151
827.741	5189
827.88	5178
828.02	5151
828.159	5284
828.298	5258
828.437	5341
828.577	5288
828.716	5429
828.855	5288
828.994	5174
829.134	5128
829.273	5189
829.412	5117
829.551	5090
829.69	5197
829.829	5254
829.968	5334
830.107	5261
830.246	5273
830.385	5166
830.524	5143
830.663	5067
830.802	4949
830.941	4885
831.08	4866
831.219	4980
831.357	4965
831.496	5140
831.635	4961
831.774	4809
831.913	4790
832.051	4725
832.19	4748
832.329	4793
832.467	4687
832.606	4641
832.744	4679
832.883	4664
833.022	4687
833.16	4778
833.299	4854
833.437	4786
833.576	4801
833.714	4790
833.852	4831
833.991	4870
834.129	4908
834.267	4904
834.406	4843
834.544	4976
834.682	4946
834.821	4946
834.959	5136
835.097	4980
835.235	5132
835.373	5071
835.511	5083
835.65	5025
835.788	4965
835.926	4889
836.064	4870
836.202	4892
836.34	5136
836.478	5189
836.615	5117
836.753	5208
836.891	5303
837.029	5258
837.167	5201
837.305	5132
837.443	5166
837.58	5064
837.718	5239
837.856	5162
837.993	5166
838.131	5231
838.269	5193
838.406	5174
838.544	5201
838.681	5037
838.819	4980
838.956	4850
839.094	4892
839.231	4949
839.369	5064
839.506	5421
839.643	5197
839.781	4995
839.918	5022
840.055	5094
840.193	5067
840.33	5102
840.467	5128
840.604	5155
840.742	5448
840.879	5014
841.016	5098
841.153	5162
841.29	5368
841.427	5349
841.564	5360
841.701	5406
841.838	5258
841.975	5204
842.112	5269
842.249	5132
842.385	5067
842.522	5318
842.659	5140
842.796	5208
842.933	5216
843.069	5143
843.206	5143
843.343	5307
843.479	5201
843.616	5280
843.752	4991
843.889	4961
844.025	5208
844.162	5010
844.298	5189
844.435	5071
844.571	5067
844.708	5181
844.844	5246
844.98	5337
845.117	5261
845.253	5140
845.389	5056
845.525	5140
845.661	5155
845.798	5014
845.934	5117
846.07	5029
846.206	5162
846.342	5185
846.478	5181
846.614	4991
846.75	4972
846.886	4953
847.022	5121
847.158	4987
847.294	5041
847.429	5064
847.565	5071
847.701	5311
847.837	4847
847.972	4812
848.108	4961
848.244	4919
848.379	4752
848.515	4675
848.65	4721
848.786	4725
848.921	4763
849.057	4889
849.192	4946
849.328	4801
849.463	4786
849.598	4790
849.734	4733
849.869	4694
850.004	4607
850.14	4649
850.275	4637
850.41	4550
850.545	4592
850.68	4603
850.815	4599
850.95	4645
851.085	4801
851.22	4767
851.355	4641
851.49	4565
851.625	4637
851.76	4645
851.895	4535
852.03	4573
852.165	4630
852.299	4721
852.434	4771
852.569	4744
852.703	4748
852.838	4812
852.973	4889
853.107	4892
853.242	4706
853.376	4733
853.511	4523
853.645	4653
853.78	4809
853.914	4698
854.048	4668
854.183	4626
854.317	4675
854.451	4797
854.585	4653
854.72	4538
854.854	4717
854.988	4584
855.122	4603
855.256	4519
855.39	4649
855.524	4778
855.658	4721
855.792	4683
855.926	4702
856.06	4740
856.194	4774
856.327	4668
856.461	4615
856.595	4611
856.729	4622
856.862	4763
856.996	4710
857.13	4675
857.263	4744
857.397	4763
857.53	4664
857.664	4733
857.797	4755
857.931	4763
858.064	4675
858.197	4687
858.331	4641
858.464	4668
858.597	4508
858.731	4558
858.864	4622
858.997	4561
859.13	4611
859.263	4653
859.396	4702
859.529	4512
859.662	4634
859.795	4535
859.928	4611
860.061	4725
860.194	4710
860.327	4603
860.46	4516
860.592	4717
860.725	4683
860.858	4721
860.99	4584
861.123	4538
861.256	4500
861.388	4554
861.521	5166
861.653	4428
861.786	4485
861.918	4466
862.05	4546
862.183	4512
862.315	4569
862.447	4603
862.58	4554
862.712	4440
862.844	4390
862.976	4523
863.108	4409
863.24	4892
863.372	4371
863.504	4432
863.636	4417
863.768	4459
863.9	4440
864.032	4363
864.164	4371
864.296	4451
864.428	4546
864.559	4569
864.691	4489
864.823	4485
864.954	4500
865.086	4519
865.217	4424
865.349	4421
865.48	4424
865.612	4481
865.743	4580
865.875	4451
866.006	4413
866.137	4424
866.269	4436
866.4	4447
866.531	4398
866.662	4360
866.793	4405
866.924	4390
867.055	4508
867.186	4462
867.317	4436
867.448	4405
867.579	4363
867.71	4367
867.841	4375
867.972	4443
868.103	4390
868.233	4398
868.364	4413
868.495	4481
868.625	4634
868.756	4721
868.886	4531
869.017	4577
869.147	4778
869.278	4786
869.408	4615
869.539	4622
869.669	4717
869.799	4622
869.929	4759
870.06	4736
870.19	4927
870.32	4927
870.45	4949
870.58	5029
870.71	5121
870.84	5060
870.97	4900
871.1	4873
871.23	5136
871.36	5052
871.489	4995
871.619	5083
871.749	5064
871.879	5071
872.008	5151
872.138	5006
872.267	4953
872.397	4858
872.526	4801
872.656	4710
872.785	4786
872.915	4957
873.044	5022
873.173	4881
873.303	4911
873.432	4896
873.561	4976
873.69	4854
873.819	4828
873.948	4908
874.077	4805
874.206	4763
874.335	4771
874.464	4934
874.593	5052
874.722	4984
874.851	5117
874.979	4999
875.108	5048
875.237	4930
875.365	4870
875.494	4908
875.623	5018
875.751	4866
875.88	4835
876.008	4965
876.136	4999
876.265	5197
876.393	5349
876.521	5185
876.65	5231
876.778	5121
876.906	5064
877.034	5006
877.162	5010
877.29	4938
877.418	5037
877.546	5029
877.674	5041
877.802	5010
877.93	5003
878.058	4938
878.185	4835
878.313	4946
878.441	4949
878.568	4824
878.696	4843
878.824	4923
878.951	4999
879.079	5075
879.206	5292
879.333	5128
879.461	4961
879.588	5022
879.715	5083
879.842	5174
879.97	5006
880.097	4793
880.224	4721
880.351	4835
880.478	4793
880.605	4771
880.732	4748
880.859	5052
880.986	4892
881.112	4919
881.239	4774
881.366	4664
881.493	4565
881.619	4531
881.746	4683
881.872	4645
881.999	4630
882.125	4637
882.252	4744
882.378	4812
882.505	4961
882.631	4767
882.757	4618
882.883	4725
883.01	4763
883.136	4634
883.262	4626
883.388	4584
883.514	4774
883.64	4843
883.766	4748
883.892	4668
884.018	4706
884.143	4850
884.269	5010
884.395	4622
884.52	4603
884.646	4615
884.772	4554
884.897	4546
885.023	4611
885.148	4778
885.274	4854
885.399	4782
885.524	4672
885.65	4706
885.775	4759
885.9	4729
886.025	4828
886.15	4782
886.275	4729
886.4	4649
886.525	4725
886.65	4702
886.775	4592
886.9	4904
887.025	5025
887.149	4801
887.274	4672
887.399	4607
887.523	4550
887.648	4573
887.773	4599
887.897	4702
888.021	4771
888.146	4603
888.27	4774
888.395	4889
888.519	4774
888.643	4801
888.767	4763
888.891	4683
889.015	4607
889.139	4645
889.263	4660
889.387	4774
889.511	4824
889.635	4778
889.759	4622
889.883	4615
890.006	4717
890.13	4820
890.254	4611
890.377	4672
890.501	4478
890.624	4535
890.748	4656
890.871	4512
890.995	4443
891.118	4375
891.241	4523
891.364	4577
891.488	4596
891.611	4459
891.734	4584
891.857	4653
891.98	4569
892.103	4607
892.226	4611
892.349	4500
892.471	4421
892.594	4542
892.717	4599
892.839	4523
892.962	4580
893.085	4626
893.207	4558
893.33	4440
893.452	4527
893.575	4641
893.697	4538
893.819	4816
893.941	4824
894.064	4828
894.186	4599
894.308	4569
894.43	4698
894.552	4873
894.674	4729
894.796	4512
894.918	4512
895.04	4577
895.161	4645
895.283	4641
895.405	4607
895.526	4664
895.648	4641
895.769	4645
895.891	4729
896.012	4733
896.134	4748
896.255	4679
896.376	4645
896.498	4679
896.619	4660
896.74	4558
896.861	4660
896.982	4911
897.103	5041
897.224	4831
897.345	4774
897.466	4698
897.587	4687
897.708	4831
897.828	4771
897.949	4656
898.07	4550
898.19	4615
898.311	4839
898.431	4698
898.552	4763
898.672	4786
898.792	4805
898.913	4736
899.033	4626
899.153	4474
899.273	4417
899.393	4447
899.513	4493
899.633	4462
899.753	4592
899.873	4535
899.993	4603
900.113	4546
900.232	4611
900.352	4573
900.472	4436
900.591	4390
900.711	4451
900.83	4440
900.95	4645
901.069	4725
901.189	4519
901.308	4356
901.427	4337
901.546	4360
901.665	4436
901.784	4462
901.904	4398
902.023	4348
902.141	4131
902.26	4169
902.379	4284
902.498	4234
902.617	4215
902.735	4360
902.854	4409
902.973	4352
903.091	4192
903.21	4219
903.328	4276
903.446	4276
903.565	4238
903.683	4329
903.801	4249
903.919	4356
904.038	4375
904.156	4287
904.274	4443
904.392	4424
904.51	4421
904.627	4481
904.745	4558
904.863	4603
904.981	4409
905.098	4276
905.216	4363
905.334	4394
905.451	4402
905.569	4459
905.686	4546
905.803	4542
905.921	4394
906.038	4535
906.155	4451
906.272	4398
906.389	4421
906.506	4322
906.623	4398
906.74	4356
906.857	4295
906.974	4413
907.091	4542
907.208	4653
907.324	4641
907.441	4413
907.557	4371
907.674	4356
907.79	4299
907.907	4352
908.023	4451
908.139	4485
908.256	4447
908.372	4481
908.488	4436
908.604	4329
908.72	4310
908.836	4360
908.952	4337
909.068	4421
909.184	4558
909.3	4443
909.415	4558
909.531	4596
909.647	4363
909.762	4402
909.878	4280
909.993	4424
910.108	4383
910.224	4394
910.339	4474
910.454	4398
910.57	4329
910.685	4291
910.8	4611
910.915	4584
911.03	4493
911.145	4310
911.259	4310
911.374	4360
911.489	4268
911.604	4303
911.718	4158
911.833	4150
911.947	4124
912.062	4063
912.176	4166
912.291	4211
912.405	4287
912.519	4459
912.633	4497
912.748	4386
912.862	4287
912.976	4143
913.09	4071
913.204	4139
913.318	4238
913.431	4363
913.545	4352
913.659	4421
913.772	4360
913.886	4246
914	4242
914.113	4360
914.226	4371
914.34	4424
914.453	4192
914.566	4390
914.68	4276
914.793	4299
914.906	4177
915.019	4093
915.132	4105
915.245	4185
915.358	4242
915.47	4207
915.583	4257
915.696	4306
915.809	4443
915.921	4363
916.034	4188
916.146	4230
916.259	4173
916.371	4367
916.483	4337
916.595	4211
916.708	4299
916.82	4314
916.932	4314
917.044	4314
917.156	4333
917.268	4219
917.38	4265
917.491	4291
917.603	4322
917.715	4447
917.826	4424
917.938	4337
918.049	4234
918.161	4394
918.272	4519
918.384	4580
918.495	4470
918.606	4249
918.717	4211
918.828	4303
918.939	4398
919.05	4287
919.161	4333
919.272	4116
919.383	4219
919.494	4447
919.604	4554
919.715	4398
919.826	4310
919.936	4386
920.047	4519
920.157	4489
920.267	4714
920.378	4531
920.488	4519
920.598	4778
920.708	4843
920.818	4706
920.928	4752
921.038	4938
921.148	4892
921.258	4618
921.368	4535
921.477	4489
921.587	4440
921.697	4379
921.806	4558
921.916	4432
922.025	4249
922.134	4227
922.244	4227
922.353	4337
922.462	4166
922.571	4082
922.68	4013
922.789	3945
922.898	4051
923.007	3994
923.116	4051
923.224	4078
923.333	4059
923.442	3983
923.55	3956
923.659	4082
923.767	4120
923.876	4010
923.984	4105
924.092	3960
924.201	4078
924.309	4044
924.417	4101
924.525	4017
924.633	4097
924.741	5045
924.849	3922
924.956	4154
925.064	3968
925.172	3888
925.279	3968
925.387	4059
925.494	4021
925.602	4238
925.709	4207
925.816	4029
925.924	4116
926.031	4230
926.138	4147
926.245	4204
926.352	4040
926.459	4261
926.566	4325
926.673	4162
926.779	4063
926.886	4040
926.993	3975
927.099	3972
927.206	3956
927.312	3941
927.419	4044
927.525	4010
927.631	4101
927.737	3975
927.843	3949
927.95	3842
928.056	3983
928.162	4010
928.267	4082
928.373	4683
928.479	4128
928.585	3884
928.69	4025
928.796	4109
928.901	3945
929.007	3827
929.112	3964
929.218	3941
929.323	3918
929.428	3934
929.533	4071
929.638	3884
929.743	3937
929.848	4025
929.953	3968
930.058	3903
930.163	3797
930.267	3823
930.372	3979
930.477	3819
930.581	4109
930.685	3930
930.79	3880
930.894	3838
930.998	3846
931.103	4032
931.207	3686
931.311	3709
931.415	3709
931.519	3477
931.623	3553
