Data from test_V78500241_183.txt Node
Date: Fri Mar 25 16:50:16 CST 2022
User: usil
Spectrometer: V785-0024
Trigger mode: 0
Integration Time (sec): 4.000000E-1
Scans to average: 1
Nonlinearity correction enabled: false
Boxcar width: 0
Storing dark spectrum: false
XAxis mode: Wavelengths
Number of Pixels in Spectrum: 1024
>>>>>Begin Spectral Data<<<<<
801.071	8081
801.214	8027
801.356	7925
801.499	7925
801.641	7849
801.783	7879
801.926	7989
802.068	8001
802.211	8092
802.353	8043
802.496	7902
802.638	8008
802.78	7940
802.923	7879
803.065	7849
803.208	7818
803.35	8062
803.492	8130
803.635	8119
803.777	8035
803.919	8107
804.061	8450
804.204	8126
804.346	8043
804.488	7986
804.63	8084
804.773	8096
804.915	8062
805.057	8355
805.199	8065
805.341	8267
805.483	8290
805.626	8210
805.768	8069
805.91	8187
806.052	8214
806.194	8107
806.336	8313
806.478	8138
806.62	8054
806.762	8046
806.904	8195
807.046	8423
807.188	8328
807.33	8309
807.472	8309
807.614	8145
807.756	8183
807.898	7997
808.04	7860
808.182	7959
808.324	7921
808.465	7921
808.607	8065
808.749	8126
808.891	8225
809.033	8419
809.174	8229
809.316	8088
809.458	8084
809.6	8020
809.741	7982
809.883	8046
810.025	8069
810.166	8130
810.308	8069
810.45	8058
810.591	7909
810.733	7807
810.875	7731
811.016	7552
811.158	7487
811.299	7681
811.441	7849
811.582	7704
811.724	7597
811.865	7628
812.007	7647
812.148	7624
812.29	7658
812.431	7807
812.573	8001
812.714	8027
812.855	8259
812.997	8225
813.138	8400
813.279	8180
813.421	8176
813.562	8005
813.703	7868
813.845	7765
813.986	7518
814.127	7293
814.268	7244
814.41	7232
814.551	7152
814.692	7228
814.833	7152
814.974	7110
815.115	7168
815.256	7042
815.397	7008
815.539	6993
815.68	6837
815.821	6787
815.962	6928
816.103	6871
816.244	6719
816.385	6658
816.526	6662
816.666	6585
816.807	6388
816.948	6483
817.089	6509
817.23	6525
817.371	6460
817.512	6433
817.653	6422
817.793	6334
817.934	6418
818.075	6426
818.216	6456
818.356	6399
818.497	6258
818.638	6129
818.778	6091
818.919	6136
819.06	6178
819.2	6327
819.341	6361
819.481	6422
819.622	6528
819.762	6745
819.903	6719
820.043	6593
820.184	6559
820.324	6646
820.465	6707
820.605	6665
820.746	6703
820.886	6555
821.026	6681
821.167	6734
821.307	6779
821.447	6772
821.588	6722
821.728	6540
821.868	6513
822.008	6403
822.149	6452
822.289	6456
822.429	6209
822.569	6121
822.709	6144
822.849	5946
822.99	5916
823.13	5977
823.27	6015
823.41	5847
823.55	5847
823.69	5783
823.83	5832
823.97	5691
824.11	5577
824.25	5524
824.389	5581
824.529	5638
824.669	5543
824.809	5661
824.949	5729
825.089	5668
825.228	5611
825.368	5452
825.508	5383
825.648	5360
825.787	5330
825.927	5440
826.067	5296
826.206	5292
826.346	5368
826.485	5383
826.625	5429
826.765	5570
826.904	5512
827.044	5280
827.183	5261
827.323	5159
827.462	5265
827.601	5208
827.741	5235
827.88	5303
828.02	5185
828.159	5239
828.298	5330
828.437	5421
828.577	5318
828.716	5501
828.855	5357
828.994	5204
829.134	5143
829.273	5261
829.412	5174
829.551	5159
829.69	5201
829.829	5299
829.968	5395
830.107	5254
830.246	5311
830.385	5227
830.524	5204
830.663	5064
830.802	4942
830.941	4930
831.08	4972
831.219	5014
831.357	5037
831.496	5208
831.635	4949
831.774	4873
831.913	4858
832.051	4721
832.19	4748
832.329	4877
832.467	4717
832.606	4702
832.744	4755
832.883	4740
833.022	4679
833.16	4835
833.299	4797
833.437	4805
833.576	4862
833.714	4900
833.852	4923
833.991	4957
834.129	4972
834.267	4987
834.406	4949
834.544	4999
834.682	4984
834.821	4934
834.959	5170
835.097	5003
835.235	5151
835.373	5083
835.511	5041
835.65	5056
835.788	5033
835.926	4949
836.064	4908
836.202	4953
836.34	5201
836.478	5280
836.615	5155
836.753	5292
836.891	5292
837.029	5250
837.167	5239
837.305	5166
837.443	5132
837.58	5113
837.718	5299
837.856	5147
837.993	5170
838.131	5258
838.269	5223
838.406	5261
838.544	5178
838.681	5067
838.819	5041
838.956	4930
839.094	4934
839.231	4976
839.369	5136
839.506	5493
839.643	5292
839.781	5102
839.918	5022
840.055	5117
840.193	5132
840.33	5143
840.467	5151
840.604	5216
840.742	5414
840.879	5098
841.016	5113
841.153	5197
841.29	5410
841.427	5372
841.564	5353
841.701	5429
841.838	5318
841.975	5261
842.112	5376
842.249	5193
842.385	5109
842.522	5379
842.659	5178
842.796	5151
842.933	5181
843.069	5159
843.206	5220
843.343	5334
843.479	5246
843.616	5288
843.752	5086
843.889	5018
844.025	5231
844.162	5067
844.298	5239
844.435	5090
844.571	5113
844.708	5258
844.844	5280
844.98	5330
845.117	5261
845.253	5166
845.389	5048
845.525	5128
845.661	5143
845.798	5075
845.934	5102
846.07	5060
846.206	5201
846.342	5296
846.478	5223
846.614	5090
846.75	4995
846.886	4946
847.022	5185
847.158	5048
847.294	5014
847.429	5098
847.565	5037
847.701	5410
847.837	4934
847.972	4866
848.108	5003
848.244	4999
848.379	4843
848.515	4763
848.65	4683
848.786	4721
848.921	4755
849.057	4877
849.192	4946
849.328	4843
849.463	4820
849.598	4812
849.734	4774
849.869	4706
850.004	4649
850.14	4721
850.275	4607
850.41	4592
850.545	4596
850.68	4634
850.815	4641
850.95	4641
851.085	4831
851.22	4778
851.355	4683
851.49	4611
851.625	4656
851.76	4649
851.895	4535
852.03	4493
852.165	4653
852.299	4733
852.434	4858
852.569	4729
852.703	4767
852.838	4881
852.973	4972
853.107	4949
853.242	4759
853.376	4672
853.511	4588
853.645	4668
853.78	4793
853.914	4706
854.048	4679
854.183	4702
854.317	4694
854.451	4866
854.585	4748
854.72	4656
854.854	4778
854.988	4630
855.122	4656
855.256	4508
855.39	4679
855.524	4809
855.658	4755
855.792	4694
855.926	4778
856.06	4782
856.194	4797
856.327	4702
856.461	4675
856.595	4603
856.729	4637
856.862	4714
856.996	4717
857.13	4714
857.263	4782
857.397	4782
857.53	4672
857.664	4752
857.797	4801
857.931	4805
858.064	4702
858.197	4748
858.331	4656
858.464	4649
858.597	4580
858.731	4649
858.864	4668
858.997	4645
859.13	4683
859.263	4656
859.396	4763
859.529	4580
859.662	4558
859.795	4588
859.928	4668
860.061	4778
860.194	4774
860.327	4611
860.46	4596
860.592	4710
860.725	4706
860.858	4729
860.99	4580
861.123	4538
861.256	4531
861.388	4596
861.521	5391
861.653	4508
861.786	4432
861.918	4489
862.05	4535
862.183	4535
862.315	4656
862.447	4664
862.58	4561
862.712	4421
862.844	4405
862.976	4459
863.108	4485
863.24	4889
863.372	4310
863.504	4417
863.636	4459
863.768	4485
863.9	4440
864.032	4421
864.164	4413
864.296	4497
864.428	4565
864.559	4588
864.691	4504
864.823	4508
864.954	4531
865.086	4565
865.217	4451
865.349	4443
865.48	4455
865.612	4512
865.743	4675
865.875	4497
866.006	4440
866.137	4466
866.269	4421
866.4	4409
866.531	4485
866.662	4432
866.793	4432
866.924	4440
867.055	4474
867.186	4455
867.317	4466
867.448	4383
867.579	4360
867.71	4436
867.841	4363
867.972	4474
868.103	4478
868.233	4474
868.364	4512
868.495	4512
868.625	4691
868.756	4759
868.886	4584
869.017	4615
869.147	4767
869.278	4835
869.408	4714
869.539	4698
869.669	4721
869.799	4706
869.929	4717
870.06	4725
870.19	4980
870.32	4919
870.45	4930
870.58	5056
870.71	5086
870.84	5079
870.97	4957
871.1	4889
871.23	5162
871.36	5113
871.489	5022
871.619	5140
871.749	5102
871.879	5178
872.008	5208
872.138	5102
872.267	4965
872.397	4854
872.526	4797
872.656	4752
872.785	4809
872.915	4991
873.044	5037
873.173	4968
873.303	4980
873.432	4999
873.561	4968
873.69	4892
873.819	4870
873.948	4885
874.077	4805
874.206	4755
874.335	4831
874.464	4953
874.593	5064
874.722	4976
874.851	5117
874.979	5041
875.108	5003
875.237	4938
875.365	4881
875.494	4938
875.623	4976
875.751	4847
875.88	4881
876.008	5071
876.136	5064
876.265	5223
876.393	5345
876.521	5311
876.65	5235
876.778	5151
876.906	5109
877.034	5056
877.162	5025
877.29	5025
877.418	5071
877.546	5022
877.674	5056
877.802	5037
877.93	5071
878.058	4957
878.185	4957
878.313	4965
878.441	4965
878.568	4847
878.696	4934
878.824	4972
878.951	5006
879.079	5128
879.206	5273
879.333	5128
879.461	4972
879.588	5045
879.715	5185
879.842	5254
879.97	5018
880.097	4801
880.224	4771
880.351	4870
880.478	4805
880.605	4854
880.732	4797
880.859	5109
880.986	4908
881.112	4889
881.239	4736
881.366	4668
881.493	4580
881.619	4599
881.746	4653
881.872	4607
881.999	4660
882.125	4725
882.252	4858
882.378	4847
882.505	4949
882.631	4835
882.757	4660
882.883	4759
883.01	4694
883.136	4664
883.262	4618
883.388	4584
883.514	4858
883.64	4873
883.766	4786
883.892	4664
884.018	4763
884.143	4877
884.269	5052
884.395	4706
884.52	4679
884.646	4637
884.772	4607
884.897	4599
885.023	4672
885.148	4797
885.274	4870
885.399	4805
885.524	4691
885.65	4710
885.775	4721
885.9	4763
886.025	4847
886.15	4812
886.275	4805
886.4	4721
886.525	4759
886.65	4694
886.775	4706
886.9	4915
887.025	5079
887.149	4809
887.274	4683
887.399	4580
887.523	4546
887.648	4599
887.773	4577
887.897	4786
888.021	4824
888.146	4710
888.27	4816
888.395	4900
888.519	4801
888.643	4740
888.767	4782
888.891	4710
889.015	4580
889.139	4630
889.263	4611
889.387	4805
889.511	4877
889.635	4782
889.759	4664
889.883	4664
890.006	4725
890.13	4839
890.254	4634
890.377	4721
890.501	4596
890.624	4542
890.748	4611
890.871	4504
890.995	4466
891.118	4386
891.241	4466
891.364	4561
891.488	4637
891.611	4512
891.734	4599
891.857	4592
891.98	4550
892.103	4641
892.226	4588
892.349	4584
892.471	4470
892.594	4538
892.717	4584
892.839	4584
892.962	4611
893.085	4656
893.207	4618
893.33	4440
893.452	4508
893.575	4645
893.697	4596
893.819	4805
893.941	4786
894.064	4790
894.186	4588
894.308	4546
894.43	4767
894.552	4858
894.674	4736
894.796	4558
894.918	4634
895.04	4538
895.161	4755
895.283	4672
895.405	4573
895.526	4618
895.648	4710
895.769	4702
895.891	4736
896.012	4786
896.134	4721
896.255	4668
896.376	4702
896.498	4630
896.619	4675
896.74	4694
896.861	4668
896.982	4987
897.103	5041
897.224	4843
897.345	4763
897.466	4698
897.587	4748
897.708	4862
897.828	4805
897.949	4694
898.07	4592
898.19	4626
898.311	4820
898.431	4687
898.552	4755
898.672	4820
898.792	4824
898.913	4763
899.033	4622
899.153	4546
899.273	4451
899.393	4535
899.513	4569
899.633	4512
899.753	4478
899.873	4516
899.993	4615
900.113	4500
900.232	4569
900.352	4561
900.472	4459
900.591	4390
900.711	4462
900.83	4440
900.95	4607
901.069	4679
901.189	4523
901.308	4371
901.427	4360
901.546	4424
901.665	4508
901.784	4504
901.904	4405
902.023	4356
902.141	4185
902.26	4158
902.379	4272
902.498	4272
902.617	4257
902.735	4379
902.854	4390
902.973	4363
903.091	4238
903.21	4268
903.328	4329
903.446	4303
903.565	4280
903.683	4333
903.801	4272
903.919	4360
904.038	4474
904.156	4344
904.274	4402
904.392	4421
904.51	4436
904.627	4493
904.745	4569
904.863	4637
904.981	4375
905.098	4329
905.216	4409
905.334	4451
905.451	4466
905.569	4466
905.686	4588
905.803	4561
905.921	4398
906.038	4550
906.155	4466
906.272	4432
906.389	4440
906.506	4394
906.623	4371
906.74	4363
906.857	4341
906.974	4356
907.091	4611
907.208	4679
907.324	4592
907.441	4508
907.557	4360
907.674	4363
907.79	4299
907.907	4394
908.023	4474
908.139	4485
908.256	4447
908.372	4470
908.488	4455
908.604	4375
908.72	4363
908.836	4375
908.952	4306
909.068	4459
909.184	4615
909.3	4504
909.415	4588
909.531	4538
909.647	4390
909.762	4375
909.878	4375
909.993	4440
910.108	4455
910.224	4440
910.339	4485
910.454	4405
910.57	4405
910.685	4318
910.8	4687
910.915	4573
911.03	4538
911.145	4356
911.259	4352
911.374	4398
911.489	4272
911.604	4295
911.718	4162
911.833	4169
911.947	4063
912.062	4048
912.176	4207
912.291	4215
912.405	4280
912.519	4500
912.633	4565
912.748	4337
912.862	4344
912.976	4204
913.09	4105
913.204	4207
913.318	4284
913.431	4402
913.545	4325
913.659	4443
913.772	4405
913.886	4276
914	4276
914.113	4356
914.226	4447
914.34	4417
914.453	4280
914.566	4466
914.68	4360
914.793	4367
914.906	4162
915.019	4200
915.132	4105
915.245	4166
915.358	4246
915.47	4227
915.583	4253
915.696	4322
915.809	4413
915.921	4455
916.034	4234
916.146	4265
916.259	4272
916.371	4421
916.483	4371
916.595	4291
916.708	4344
916.82	4322
916.932	4280
917.044	4360
917.156	4375
917.268	4291
917.38	4272
917.491	4268
917.603	4310
917.715	4390
917.826	4470
917.938	4352
918.049	4284
918.161	4421
918.272	4497
918.384	4550
918.495	4474
918.606	4295
918.717	4238
918.828	4363
918.939	4329
919.05	4341
919.161	4322
919.272	4147
919.383	4230
919.494	4459
919.604	4634
919.715	4478
919.826	4413
919.936	4405
920.047	4580
920.157	4478
920.267	4714
920.378	4573
920.488	4500
920.598	4687
920.708	4889
920.818	4752
920.928	4755
921.038	4904
921.148	4892
921.258	4660
921.368	4584
921.477	4531
921.587	4466
921.697	4390
921.806	4542
921.916	4440
922.025	4272
922.134	4314
922.244	4242
922.353	4363
922.462	4188
922.571	4120
922.68	4017
922.789	3956
922.898	4067
923.007	4032
923.116	4109
923.224	4086
923.333	4078
923.442	4025
923.55	3975
923.659	4090
923.767	4124
923.876	3991
923.984	4101
924.092	3991
924.201	4029
924.309	4078
924.417	4097
924.525	4090
924.633	4086
924.741	4881
924.849	3884
924.956	4131
925.064	3968
925.172	3930
925.279	3968
925.387	4093
925.494	4082
925.602	4143
925.709	4204
925.816	4078
925.924	4135
926.031	4242
926.138	4185
926.245	4215
926.352	4093
926.459	4280
926.566	4280
926.673	4162
926.779	4086
926.886	4090
926.993	4002
927.099	3934
927.206	3926
927.312	3941
927.419	4055
927.525	4017
927.631	4090
927.737	3953
927.843	3979
927.95	3892
928.056	3968
928.162	3968
928.267	4101
928.373	4729
928.479	4120
928.585	3896
928.69	4048
928.796	4063
928.901	3975
929.007	3873
929.112	4013
929.218	3994
929.323	3968
929.428	3953
929.533	4139
929.638	3926
929.743	3979
929.848	4059
929.953	3979
930.058	3930
930.163	3755
930.267	3838
930.372	3964
930.477	3838
930.581	4116
930.685	3975
930.79	3823
930.894	3880
930.998	3884
931.103	4082
931.207	3686
931.311	3667
931.415	3660
931.519	3568
931.623	3584
