Data from test_V78500241_360.txt Node
Date: Fri Mar 25 16:51:30 CST 2022
User: usil
Spectrometer: V785-0024
Trigger mode: 0
Integration Time (sec): 4.000000E-1
Scans to average: 1
Nonlinearity correction enabled: false
Boxcar width: 0
Storing dark spectrum: false
XAxis mode: Wavelengths
Number of Pixels in Spectrum: 1024
>>>>>Begin Spectral Data<<<<<
801.071	8103
801.214	8069
801.356	7932
801.499	7936
801.641	7837
801.783	7913
801.926	7982
802.068	7936
802.211	8005
802.353	8005
802.496	7898
802.638	7951
802.78	7974
802.923	7944
803.065	7799
803.208	7871
803.35	7986
803.492	8039
803.635	8107
803.777	7974
803.919	8065
804.061	8492
804.204	8176
804.346	8005
804.488	7986
804.63	8039
804.773	7986
804.915	8103
805.057	8286
805.199	8263
805.341	8210
805.483	8301
805.626	8130
805.768	8096
805.91	8183
806.052	8161
806.194	8126
806.336	8332
806.478	8161
806.62	8206
806.762	8172
806.904	8377
807.046	8469
807.188	8358
807.33	8332
807.472	8301
807.614	8180
807.756	8107
807.898	8062
808.04	7849
808.182	7917
808.324	7928
808.465	7928
808.607	8096
808.749	8119
808.891	8195
809.033	8244
809.174	8199
809.316	8077
809.458	8100
809.6	7986
809.741	8111
809.883	8069
810.025	8088
810.166	8180
810.308	8100
810.45	7978
810.591	7890
810.733	7753
810.875	7681
811.016	7472
811.158	7525
811.299	7636
811.441	7769
811.582	7704
811.724	7586
811.865	7651
812.007	7620
812.148	7647
812.29	7632
812.431	7822
812.573	7887
812.714	8008
812.855	8142
812.997	8221
813.138	8252
813.279	8183
813.421	8107
813.562	8046
813.703	7830
813.845	7723
813.986	7468
814.127	7400
814.268	7236
814.41	7240
814.551	7171
814.692	7255
814.833	7114
814.974	7057
815.115	7126
815.256	6973
815.397	6882
815.539	6932
815.68	6779
815.821	6783
815.962	6856
816.103	6878
816.244	6707
816.385	6654
816.526	6589
816.666	6536
816.807	6308
816.948	6471
817.089	6494
817.23	6490
817.371	6414
817.512	6388
817.653	6407
817.793	6346
817.934	6407
818.075	6494
818.216	6448
818.356	6467
818.497	6251
818.638	6167
818.778	6239
818.919	6178
819.06	6224
819.2	6315
819.341	6353
819.481	6388
819.622	6547
819.762	6734
819.903	6753
820.043	6623
820.184	6559
820.324	6544
820.465	6730
820.605	6677
820.746	6707
820.886	6502
821.026	6726
821.167	6772
821.307	6810
821.447	6772
821.588	6696
821.728	6604
821.868	6525
822.008	6391
822.149	6361
822.289	6289
822.429	6171
822.569	6140
822.709	6121
822.849	5923
822.99	5973
823.13	5885
823.27	5973
823.41	5832
823.55	5802
823.69	5748
823.83	5752
823.97	5707
824.11	5547
824.25	5501
824.389	5566
824.529	5627
824.669	5535
824.809	5646
824.949	5615
825.089	5600
825.228	5547
825.368	5448
825.508	5303
825.648	5379
825.787	5429
825.927	5410
826.067	5254
826.206	5330
826.346	5383
826.485	5421
826.625	5391
826.765	5604
826.904	5478
827.044	5239
827.183	5239
827.323	5170
827.462	5204
827.601	5185
827.741	5170
827.88	5227
828.02	5147
828.159	5212
828.298	5269
828.437	5406
828.577	5292
828.716	5467
828.855	5330
828.994	5220
829.134	5178
829.273	5197
829.412	5143
829.551	5185
829.69	5216
829.829	5261
829.968	5391
830.107	5296
830.246	5246
830.385	5170
830.524	5140
830.663	5113
830.802	4999
830.941	4866
831.08	4911
831.219	5010
831.357	4995
831.496	5140
831.635	4930
831.774	4892
831.913	4850
832.051	4774
832.19	4748
832.329	4862
832.467	4733
832.606	4641
832.744	4752
832.883	4733
833.022	4714
833.16	4763
833.299	4850
833.437	4824
833.576	4900
833.714	4900
833.852	4843
833.991	4900
834.129	4938
834.267	4946
834.406	4942
834.544	5060
834.682	5010
834.821	5006
834.959	5170
835.097	5052
835.235	5159
835.373	5079
835.511	5121
835.65	5086
835.788	5064
835.926	4904
836.064	4862
836.202	4972
836.34	5189
836.478	5204
836.615	5128
836.753	5162
836.891	5261
837.029	5273
837.167	5181
837.305	5250
837.443	5117
837.58	5060
837.718	5220
837.856	5197
837.993	5159
838.131	5250
838.269	5242
838.406	5204
838.544	5258
838.681	5029
838.819	5006
838.956	4946
839.094	4889
839.231	4957
839.369	5071
839.506	5376
839.643	5242
839.781	5086
839.918	5018
840.055	5060
840.193	5109
840.33	5113
840.467	5174
840.604	5216
840.742	5425
840.879	5102
841.016	5075
841.153	5178
841.29	5402
841.427	5364
841.564	5383
841.701	5444
841.838	5258
841.975	5208
842.112	5269
842.249	5117
842.385	5117
842.522	5334
842.659	5204
842.796	5113
842.933	5181
843.069	5208
843.206	5193
843.343	5341
843.479	5220
843.616	5269
843.752	5029
843.889	5037
844.025	5212
844.162	5003
844.298	5204
844.435	5064
844.571	5052
844.708	5170
844.844	5280
844.98	5318
845.117	5273
845.253	5117
845.389	5094
845.525	5151
845.661	5185
845.798	5067
845.934	5143
846.07	5018
846.206	5189
846.342	5288
846.478	5170
846.614	5048
846.75	4980
846.886	4923
847.022	5086
847.158	5029
847.294	5079
847.429	5052
847.565	5067
847.701	5318
847.837	4870
847.972	4820
848.108	4919
848.244	4987
848.379	4740
848.515	4752
848.65	4740
848.786	4733
848.921	4828
849.057	4873
849.192	4911
849.328	4824
849.463	4831
849.598	4839
849.734	4744
849.869	4694
850.004	4626
850.14	4687
850.275	4611
850.41	4500
850.545	4603
850.68	4580
850.815	4622
850.95	4577
851.085	4881
851.22	4759
851.355	4668
851.49	4615
851.625	4653
851.76	4637
851.895	4565
852.03	4542
852.165	4603
852.299	4759
852.434	4763
852.569	4774
852.703	4782
852.838	4866
852.973	4900
853.107	4908
853.242	4767
853.376	4687
853.511	4508
853.645	4615
853.78	4790
853.914	4664
854.048	4668
854.183	4656
854.317	4645
854.451	4816
854.585	4637
854.72	4645
854.854	4748
854.988	4584
855.122	4618
855.256	4542
855.39	4634
855.524	4752
855.658	4672
855.792	4691
855.926	4717
856.06	4763
856.194	4828
856.327	4691
856.461	4630
856.595	4599
856.729	4668
856.862	4771
856.996	4679
857.13	4759
857.263	4755
857.397	4835
857.53	4691
857.664	4717
857.797	4793
857.931	4797
858.064	4694
858.197	4744
858.331	4634
858.464	4558
858.597	4497
858.731	4641
858.864	4618
858.997	4618
859.13	4618
859.263	4656
859.396	4717
859.529	4607
859.662	4546
859.795	4565
859.928	4679
860.061	4778
860.194	4767
860.327	4580
860.46	4573
860.592	4748
860.725	4740
860.858	4714
860.99	4577
861.123	4523
861.256	4504
861.388	4592
861.521	5273
861.653	4466
861.786	4421
861.918	4470
862.05	4523
862.183	4565
862.315	4611
862.447	4641
862.58	4584
862.712	4402
862.844	4341
862.976	4481
863.108	4489
863.24	4774
863.372	4348
863.504	4379
863.636	4432
863.768	4489
863.9	4432
864.032	4333
864.164	4405
864.296	4493
864.428	4588
864.559	4561
864.691	4538
864.823	4519
864.954	4497
865.086	4512
865.217	4459
865.349	4440
865.48	4432
865.612	4538
865.743	4607
865.875	4512
866.006	4443
866.137	4459
866.269	4478
866.4	4428
866.531	4443
866.662	4405
866.793	4428
866.924	4459
867.055	4508
867.186	4443
867.317	4398
867.448	4398
867.579	4417
867.71	4417
867.841	4341
867.972	4470
868.103	4462
868.233	4447
868.364	4474
868.495	4500
868.625	4679
868.756	4736
868.886	4577
869.017	4645
869.147	4812
869.278	4767
869.408	4698
869.539	4675
869.669	4714
869.799	4683
869.929	4752
870.06	4748
870.19	4938
870.32	4911
870.45	4938
870.58	5010
870.71	5155
870.84	5098
870.97	4976
871.1	4885
871.23	5147
871.36	5109
871.489	4991
871.619	5075
871.749	5132
871.879	5151
872.008	5170
872.138	5033
872.267	4991
872.397	4870
872.526	4801
872.656	4736
872.785	4854
872.915	5003
873.044	5041
873.173	4961
873.303	4946
873.432	4938
873.561	4930
873.69	4896
873.819	4911
873.948	4930
874.077	4843
874.206	4729
874.335	4831
874.464	4885
874.593	5083
874.722	5029
874.851	5064
874.979	5075
875.108	5071
875.237	4911
875.365	4881
875.494	4896
875.623	5010
875.751	4816
875.88	4847
876.008	4965
876.136	5025
876.265	5223
876.393	5368
876.521	5242
876.65	5250
876.778	5170
876.906	5094
877.034	5056
877.162	5086
877.29	5029
877.418	5064
877.546	5022
877.674	4972
877.802	5071
877.93	5071
878.058	4938
878.185	4927
878.313	4965
878.441	4976
878.568	4793
878.696	4820
878.824	4930
878.951	5052
879.079	5170
879.206	5235
879.333	5098
879.461	4991
879.588	4980
879.715	5105
879.842	5246
879.97	5006
880.097	4820
880.224	4748
880.351	4809
880.478	4839
880.605	4828
880.732	4752
880.859	5079
880.986	4866
881.112	4923
881.239	4805
881.366	4656
881.493	4630
881.619	4626
881.746	4611
881.872	4634
881.999	4672
882.125	4691
882.252	4805
882.378	4885
882.505	4965
882.631	4774
882.757	4679
882.883	4767
883.01	4740
883.136	4698
883.262	4653
883.388	4664
883.514	4839
883.64	4824
883.766	4828
883.892	4714
884.018	4721
884.143	4904
884.269	5048
884.395	4675
884.52	4618
884.646	4653
884.772	4561
884.897	4588
885.023	4641
885.148	4778
885.274	4862
885.399	4824
885.524	4679
885.65	4687
885.775	4736
885.9	4752
886.025	4828
886.15	4793
886.275	4714
886.4	4675
886.525	4710
886.65	4721
886.775	4706
886.9	4862
887.025	5045
887.149	4828
887.274	4691
887.399	4550
887.523	4615
887.648	4615
887.773	4596
887.897	4782
888.021	4774
888.146	4691
888.27	4801
888.395	4885
888.519	4831
888.643	4797
888.767	4831
888.891	4706
889.015	4611
889.139	4626
889.263	4592
889.387	4729
889.511	4919
889.635	4801
889.759	4615
889.883	4607
890.006	4733
890.13	4816
890.254	4641
890.377	4683
890.501	4577
890.624	4508
890.748	4653
890.871	4546
890.995	4432
891.118	4447
891.241	4508
891.364	4550
891.488	4645
891.611	4508
891.734	4535
891.857	4584
891.98	4588
892.103	4645
892.226	4603
892.349	4542
892.471	4440
892.594	4584
892.717	4603
892.839	4554
892.962	4588
893.085	4641
893.207	4641
893.33	4466
893.452	4550
893.575	4679
893.697	4580
893.819	4755
893.941	4843
894.064	4755
894.186	4565
894.308	4577
894.43	4736
894.552	4854
894.674	4786
894.796	4569
894.918	4573
895.04	4546
895.161	4691
895.283	4691
895.405	4558
895.526	4649
895.648	4672
895.769	4698
895.891	4740
896.012	4759
896.134	4771
896.255	4706
896.376	4672
896.498	4630
896.619	4630
896.74	4592
896.861	4691
896.982	4904
897.103	5060
897.224	4862
897.345	4755
897.466	4706
897.587	4778
897.708	4847
897.828	4797
897.949	4733
898.07	4554
898.19	4607
898.311	4873
898.431	4660
898.552	4687
898.672	4790
898.792	4801
898.913	4774
899.033	4618
899.153	4531
899.273	4424
899.393	4512
899.513	4554
899.633	4504
899.753	4542
899.873	4550
899.993	4577
900.113	4500
900.232	4596
900.352	4519
900.472	4481
900.591	4379
900.711	4519
900.83	4405
900.95	4653
901.069	4729
901.189	4573
901.308	4363
901.427	4329
901.546	4371
901.665	4538
901.784	4527
901.904	4310
902.023	4371
902.141	4188
902.26	4211
902.379	4314
902.498	4211
902.617	4211
902.735	4390
902.854	4443
902.973	4367
903.091	4242
903.21	4219
903.328	4325
903.446	4261
903.565	4268
903.683	4356
903.801	4287
903.919	4356
904.038	4474
904.156	4333
904.274	4485
904.392	4424
904.51	4436
904.627	4462
904.745	4573
904.863	4656
904.981	4356
905.098	4291
905.216	4383
905.334	4462
905.451	4424
905.569	4428
905.686	4550
905.803	4596
905.921	4421
906.038	4546
906.155	4481
906.272	4436
906.389	4474
906.506	4379
906.623	4375
906.74	4375
906.857	4325
906.974	4417
907.091	4573
907.208	4710
907.324	4577
907.441	4489
907.557	4310
907.674	4325
907.79	4352
907.907	4367
908.023	4493
908.139	4481
908.256	4413
908.372	4470
908.488	4485
908.604	4356
908.72	4322
908.836	4447
908.952	4360
909.068	4470
909.184	4512
909.3	4478
909.415	4618
909.531	4569
909.647	4383
909.762	4436
909.878	4295
909.993	4405
910.108	4424
910.224	4413
910.339	4459
910.454	4402
910.57	4322
910.685	4341
910.8	4672
910.915	4596
911.03	4516
911.145	4325
911.259	4379
911.374	4363
911.489	4295
911.604	4246
911.718	4185
911.833	4185
911.947	4124
912.062	4051
912.176	4219
912.291	4257
912.405	4249
912.519	4462
912.633	4516
912.748	4386
912.862	4314
912.976	4234
913.09	4071
913.204	4196
913.318	4215
913.431	4409
913.545	4402
913.659	4375
913.772	4413
913.886	4257
914	4230
914.113	4390
914.226	4405
914.34	4421
914.453	4268
914.566	4451
914.68	4299
914.793	4299
914.906	4181
915.019	4162
915.132	4082
915.245	4215
915.358	4215
915.47	4268
915.583	4268
915.696	4325
915.809	4428
915.921	4432
916.034	4230
916.146	4280
916.259	4223
916.371	4356
916.483	4318
916.595	4242
916.708	4341
916.82	4280
916.932	4333
917.044	4371
917.156	4360
917.268	4227
917.38	4268
917.491	4276
917.603	4352
917.715	4409
917.826	4443
917.938	4337
918.049	4280
918.161	4443
918.272	4538
918.384	4500
918.495	4481
918.606	4310
918.717	4246
918.828	4344
918.939	4367
919.05	4257
919.161	4337
919.272	4135
919.383	4215
919.494	4489
919.604	4618
919.715	4470
919.826	4341
919.936	4462
920.047	4497
920.157	4531
920.267	4698
920.378	4538
920.488	4531
920.598	4714
920.708	4911
920.818	4736
920.928	4767
921.038	4987
921.148	4930
921.258	4634
921.368	4554
921.477	4542
921.587	4462
921.697	4348
921.806	4580
921.916	4402
922.025	4257
922.134	4242
922.244	4207
922.353	4371
922.462	4139
922.571	4105
922.68	4044
922.789	3979
922.898	4010
923.007	3979
923.116	4097
923.224	4090
923.333	4074
923.442	4013
923.55	3941
923.659	4036
923.767	4158
923.876	4006
923.984	4131
924.092	4025
924.201	4074
924.309	4120
924.417	4135
924.525	4082
924.633	4135
924.741	4854
924.849	3945
924.956	4162
925.064	3998
925.172	3937
925.279	3972
925.387	4040
925.494	4051
925.602	4219
925.709	4177
925.816	4055
925.924	4109
926.031	4215
926.138	4185
926.245	4196
926.352	4090
926.459	4246
926.566	4306
926.673	4139
926.779	4048
926.886	4074
926.993	3956
927.099	3975
927.206	4006
927.312	3934
927.419	3991
927.525	4074
927.631	4086
927.737	3941
927.843	3956
927.95	3819
928.056	3960
928.162	3991
928.267	4093
928.373	4717
928.479	4101
928.585	3903
928.69	4044
928.796	4116
928.901	4025
929.007	3816
929.112	3915
929.218	4017
929.323	3953
929.428	3941
929.533	4124
929.638	3903
929.743	3945
929.848	4059
929.953	4002
930.058	3926
930.163	3789
930.267	3827
930.372	3964
930.477	3842
930.581	4101
930.685	3983
930.79	3823
930.894	3926
930.998	3835
931.103	4055
931.207	3732
931.311	3690
931.415	3652
931.519	3519
931.623	3549
