Data from test_V78500241_2491.txt Node
Date: Fri Mar 25 17:06:19 CST 2022
User: usil
Spectrometer: V785-0024
Trigger mode: 0
Integration Time (sec): 4.000000E-1
Scans to average: 1
Nonlinearity correction enabled: false
Boxcar width: 0
Storing dark spectrum: false
XAxis mode: Wavelengths
Number of Pixels in Spectrum: 1024
>>>>>Begin Spectral Data<<<<<
801.071	8012
801.214	8016
801.356	7837
801.499	7830
801.641	7837
801.783	7769
801.926	7955
802.068	7906
802.211	7967
802.353	8012
802.496	7814
802.638	7860
802.78	7940
802.923	7898
803.065	7864
803.208	7833
803.35	7963
803.492	8096
803.635	8218
803.777	8073
803.919	8119
804.061	8431
804.204	8134
804.346	8077
804.488	8001
804.63	8168
804.773	8062
804.915	8126
805.057	8279
805.199	8176
805.341	8229
805.483	8271
805.626	8237
805.768	8130
805.91	8115
806.052	8172
806.194	8107
806.336	8328
806.478	8111
806.62	8050
806.762	8092
806.904	8229
807.046	8419
807.188	8374
807.33	8290
807.472	8336
807.614	8149
807.756	8176
807.898	8020
808.04	7864
808.182	7833
808.324	7868
808.465	7925
808.607	8020
808.749	8107
808.891	8263
809.033	8358
809.174	8237
809.316	8058
809.458	8138
809.6	8035
809.741	8035
809.883	7986
810.025	8092
810.166	8027
810.308	8046
810.45	8031
810.591	7879
810.733	7757
810.875	7647
811.016	7476
811.158	7426
811.299	7556
811.441	7757
811.582	7647
811.724	7537
811.865	7521
812.007	7586
812.148	7586
812.29	7662
812.431	7769
812.573	7902
812.714	7970
812.855	8161
812.997	8214
813.138	8282
813.279	8126
813.421	8130
813.562	7989
813.703	7772
813.845	7696
813.986	7449
814.127	7312
814.268	7202
814.41	7198
814.551	7171
814.692	7209
814.833	7152
814.974	7080
815.115	7076
815.256	7019
815.397	6916
815.539	6905
815.68	6776
815.821	6734
815.962	6871
816.103	6844
816.244	6776
816.385	6620
816.526	6631
816.666	6506
816.807	6376
816.948	6456
817.089	6471
817.23	6464
817.371	6369
817.512	6384
817.653	6399
817.793	6365
817.934	6380
818.075	6486
818.216	6445
818.356	6429
818.497	6224
818.638	6152
818.778	6186
818.919	6152
819.06	6182
819.2	6300
819.341	6308
819.481	6433
819.622	6604
819.762	6734
819.903	6700
820.043	6616
820.184	6589
820.324	6597
820.465	6719
820.605	6688
820.746	6635
820.886	6494
821.026	6696
821.167	6757
821.307	6829
821.447	6821
821.588	6654
821.728	6612
821.868	6513
822.008	6331
822.149	6384
822.289	6327
822.429	6144
822.569	6098
822.709	6175
822.849	5939
822.99	5969
823.13	5958
823.27	5897
823.41	5824
823.55	5832
823.69	5813
823.83	5802
823.97	5646
824.11	5493
824.25	5524
824.389	5581
824.529	5585
824.669	5600
824.809	5585
824.949	5638
825.089	5623
825.228	5547
825.368	5414
825.508	5368
825.648	5277
825.787	5406
825.927	5395
826.067	5303
826.206	5292
826.346	5391
826.485	5402
826.625	5410
826.765	5581
826.904	5554
827.044	5235
827.183	5189
827.323	5113
827.462	5239
827.601	5174
827.741	5216
827.88	5239
828.02	5105
828.159	5261
828.298	5296
828.437	5345
828.577	5239
828.716	5520
828.855	5318
828.994	5181
829.134	5185
829.273	5170
829.412	5132
829.551	5181
829.69	5208
829.829	5235
829.968	5345
830.107	5269
830.246	5292
830.385	5166
830.524	5060
830.663	5060
830.802	4965
830.941	4877
831.08	4885
831.219	4949
831.357	4965
831.496	5181
831.635	4938
831.774	4816
831.913	4831
832.051	4752
832.19	4778
832.329	4892
832.467	4698
832.606	4649
832.744	4752
832.883	4706
833.022	4725
833.16	4801
833.299	4824
833.437	4896
833.576	4820
833.714	4873
833.852	4923
833.991	4889
834.129	4961
834.267	4927
834.406	4919
834.544	4965
834.682	4957
834.821	4930
834.959	5185
835.097	4976
835.235	5147
835.373	5064
835.511	5083
835.65	5025
835.788	4999
835.926	4892
836.064	4889
836.202	4919
836.34	5181
836.478	5280
836.615	5155
836.753	5185
836.891	5246
837.029	5307
837.167	5178
837.305	5208
837.443	5151
837.58	5086
837.718	5193
837.856	5136
837.993	5147
838.131	5235
838.269	5193
838.406	5216
838.544	5239
838.681	5045
838.819	5018
838.956	4930
839.094	4927
839.231	4999
839.369	5064
839.506	5410
839.643	5288
839.781	5025
839.918	4984
840.055	5113
840.193	5105
840.33	5113
840.467	5128
840.604	5201
840.742	5429
840.879	5136
841.016	5098
841.153	5174
841.29	5334
841.427	5299
841.564	5334
841.701	5345
841.838	5296
841.975	5258
842.112	5280
842.249	5128
842.385	5132
842.522	5307
842.659	5193
842.796	5216
842.933	5246
843.069	5185
843.206	5170
843.343	5315
843.479	5223
843.616	5307
843.752	5037
843.889	5079
844.025	5261
844.162	5025
844.298	5140
844.435	5052
844.571	5018
844.708	5193
844.844	5277
844.98	5360
845.117	5292
845.253	5132
845.389	5067
845.525	5132
845.661	5128
845.798	5014
845.934	5071
846.07	5090
846.206	5220
846.342	5277
846.478	5121
846.614	5003
846.75	4961
846.886	4930
847.022	5132
847.158	5064
847.294	5094
847.429	5071
847.565	5029
847.701	5330
847.837	4839
847.972	4801
848.108	4995
848.244	4908
848.379	4740
848.515	4782
848.65	4733
848.786	4721
848.921	4759
849.057	4835
849.192	4881
849.328	4831
849.463	4831
849.598	4790
849.734	4733
849.869	4721
850.004	4611
850.14	4656
850.275	4668
850.41	4523
850.545	4580
850.68	4577
850.815	4615
850.95	4626
851.085	4873
851.22	4717
851.355	4603
851.49	4656
851.625	4622
851.76	4615
851.895	4577
852.03	4573
852.165	4634
852.299	4725
852.434	4748
852.569	4702
852.703	4759
852.838	4877
852.973	4961
853.107	4896
853.242	4759
853.376	4672
853.511	4554
853.645	4596
853.78	4824
853.914	4683
854.048	4679
854.183	4626
854.317	4679
854.451	4835
854.585	4702
854.72	4691
854.854	4725
854.988	4599
855.122	4660
855.256	4596
855.39	4694
855.524	4797
855.658	4664
855.792	4714
855.926	4729
856.06	4721
856.194	4831
856.327	4672
856.461	4561
856.595	4615
856.729	4641
856.862	4786
856.996	4710
857.13	4736
857.263	4694
857.397	4797
857.53	4641
857.664	4717
857.797	4774
857.931	4744
858.064	4664
858.197	4729
858.331	4668
858.464	4622
858.597	4519
858.731	4626
858.864	4596
858.997	4645
859.13	4656
859.263	4672
859.396	4702
859.529	4599
859.662	4542
859.795	4558
859.928	4599
860.061	4797
860.194	4744
860.327	4615
860.46	4542
860.592	4717
860.725	4717
860.858	4687
860.99	4558
861.123	4523
861.256	4523
861.388	4592
861.521	5212
861.653	4485
861.786	4459
861.918	4493
862.05	4546
862.183	4573
862.315	4584
862.447	4637
862.58	4554
862.712	4398
862.844	4329
862.976	4500
863.108	4466
863.24	4820
863.372	4337
863.504	4417
863.636	4436
863.768	4478
863.9	4459
864.032	4333
864.164	4432
864.296	4531
864.428	4565
864.559	4592
864.691	4565
864.823	4546
864.954	4466
865.086	4485
865.217	4462
865.349	4459
865.48	4436
865.612	4504
865.743	4634
865.875	4474
866.006	4417
866.137	4455
866.269	4398
866.4	4421
866.531	4447
866.662	4405
866.793	4455
866.924	4424
867.055	4516
867.186	4493
867.317	4371
867.448	4356
867.579	4447
867.71	4440
867.841	4409
867.972	4459
868.103	4413
868.233	4424
868.364	4394
868.495	4455
868.625	4668
868.756	4759
868.886	4516
869.017	4622
869.147	4717
869.278	4763
869.408	4679
869.539	4687
869.669	4733
869.799	4645
869.929	4767
870.06	4698
870.19	4923
870.32	4885
870.45	4946
870.58	5006
870.71	5090
870.84	5098
870.97	4900
871.1	4904
871.23	5140
871.36	5117
871.489	5052
871.619	5052
871.749	5064
871.879	5174
872.008	5189
872.138	5079
872.267	5018
872.397	4843
872.526	4824
872.656	4702
872.785	4786
872.915	4930
873.044	5048
873.173	4927
873.303	4961
873.432	4934
873.561	4976
873.69	4843
873.819	4885
873.948	4930
874.077	4805
874.206	4740
874.335	4805
874.464	4923
874.593	5018
874.722	4984
874.851	5086
874.979	5075
875.108	5045
875.237	4877
875.365	4904
875.494	4873
875.623	4946
875.751	4862
875.88	4911
876.008	4984
876.136	5064
876.265	5223
876.393	5364
876.521	5216
876.65	5220
876.778	5185
876.906	5113
877.034	5045
877.162	5037
877.29	5010
877.418	5086
877.546	5079
877.674	5113
877.802	5041
877.93	5018
878.058	4885
878.185	4900
878.313	4984
878.441	4972
878.568	4790
878.696	4915
878.824	4961
878.951	5029
879.079	5094
879.206	5337
879.333	5067
879.461	5022
879.588	4999
879.715	5181
879.842	5208
879.97	5018
880.097	4824
880.224	4763
880.351	4771
880.478	4847
880.605	4850
880.732	4816
880.859	5105
880.986	4892
881.112	4957
881.239	4744
881.366	4721
881.493	4577
881.619	4626
881.746	4615
881.872	4656
881.999	4622
882.125	4645
882.252	4752
882.378	4866
882.505	4911
882.631	4774
882.757	4702
882.883	4774
883.01	4729
883.136	4672
883.262	4607
883.388	4622
883.514	4847
883.64	4847
883.766	4782
883.892	4645
884.018	4729
884.143	4927
884.269	4980
884.395	4710
884.52	4653
884.646	4615
884.772	4561
884.897	4569
885.023	4656
885.148	4786
885.274	4866
885.399	4786
885.524	4702
885.65	4683
885.775	4767
885.9	4691
886.025	4858
886.15	4809
886.275	4717
886.4	4694
886.525	4729
886.65	4714
886.775	4675
886.9	4919
887.025	4984
887.149	4824
887.274	4736
887.399	4603
887.523	4584
887.648	4577
887.773	4603
887.897	4714
888.021	4790
888.146	4668
888.27	4786
888.395	4870
888.519	4752
888.643	4759
888.767	4793
888.891	4653
889.015	4603
889.139	4615
889.263	4596
889.387	4748
889.511	4881
889.635	4755
889.759	4630
889.883	4679
890.006	4744
890.13	4843
890.254	4634
890.377	4744
890.501	4550
890.624	4550
890.748	4664
890.871	4500
890.995	4405
891.118	4413
891.241	4542
891.364	4493
891.488	4668
891.611	4512
891.734	4523
891.857	4626
891.98	4603
892.103	4637
892.226	4573
892.349	4516
892.471	4470
892.594	4493
892.717	4558
892.839	4603
892.962	4573
893.085	4656
893.207	4615
893.33	4455
893.452	4535
893.575	4653
893.697	4535
893.819	4839
893.941	4828
894.064	4759
894.186	4569
894.308	4558
894.43	4721
894.552	4782
894.674	4771
894.796	4527
894.918	4588
895.04	4565
895.161	4710
895.283	4649
895.405	4550
895.526	4630
895.648	4706
895.769	4645
895.891	4752
896.012	4820
896.134	4729
896.255	4630
896.376	4592
896.498	4649
896.619	4706
896.74	4611
896.861	4584
896.982	4877
897.103	5086
897.224	4858
897.345	4721
897.466	4702
897.587	4706
897.708	4809
897.828	4771
897.949	4683
898.07	4565
898.19	4653
898.311	4812
898.431	4603
898.552	4767
898.672	4801
898.792	4835
898.913	4717
899.033	4637
899.153	4519
899.273	4462
899.393	4500
899.513	4538
899.633	4531
899.753	4485
899.873	4485
899.993	4573
900.113	4516
900.232	4649
900.352	4519
900.472	4478
900.591	4402
900.711	4478
900.83	4478
900.95	4626
901.069	4653
901.189	4516
901.308	4398
901.427	4306
901.546	4325
901.665	4500
901.784	4500
901.904	4375
902.023	4341
902.141	4219
902.26	4181
902.379	4257
902.498	4234
902.617	4230
902.735	4379
902.854	4375
902.973	4322
903.091	4204
903.21	4207
903.328	4280
903.446	4268
903.565	4276
903.683	4383
903.801	4280
903.919	4417
904.038	4440
904.156	4310
904.274	4447
904.392	4352
904.51	4424
904.627	4478
904.745	4588
904.863	4637
904.981	4394
905.098	4329
905.216	4363
905.334	4432
905.451	4424
905.569	4451
905.686	4531
905.803	4565
905.921	4417
906.038	4527
906.155	4500
906.272	4390
906.389	4428
906.506	4333
906.623	4371
906.74	4436
906.857	4325
906.974	4352
907.091	4584
907.208	4649
907.324	4588
907.441	4508
907.557	4322
907.674	4337
907.79	4257
907.907	4367
908.023	4485
908.139	4470
908.256	4443
908.372	4466
908.488	4489
908.604	4310
908.72	4386
908.836	4405
908.952	4394
909.068	4485
909.184	4554
909.3	4497
909.415	4607
909.531	4546
909.647	4363
909.762	4390
909.878	4310
909.993	4405
910.108	4455
910.224	4432
910.339	4497
910.454	4424
910.57	4322
910.685	4268
910.8	4561
910.915	4596
911.03	4508
911.145	4306
911.259	4299
911.374	4341
911.489	4306
911.604	4284
911.718	4139
911.833	4207
911.947	4120
912.062	4021
912.176	4196
912.291	4246
912.405	4234
912.519	4462
912.633	4516
912.748	4386
912.862	4367
912.976	4188
913.09	4128
913.204	4185
913.318	4230
913.431	4360
913.545	4329
913.659	4459
913.772	4379
913.886	4249
914	4207
914.113	4337
914.226	4417
914.34	4402
914.453	4227
914.566	4421
914.68	4287
914.793	4299
914.906	4112
915.019	4112
915.132	4074
915.245	4166
915.358	4188
915.47	4169
915.583	4291
915.696	4306
915.809	4413
915.921	4375
916.034	4223
916.146	4257
916.259	4177
916.371	4386
916.483	4390
916.595	4257
916.708	4325
916.82	4303
916.932	4341
917.044	4310
917.156	4261
917.268	4257
917.38	4242
917.491	4322
917.603	4341
917.715	4402
917.826	4443
917.938	4352
918.049	4299
918.161	4337
918.272	4519
918.384	4523
918.495	4459
918.606	4287
918.717	4234
918.828	4341
918.939	4398
919.05	4230
919.161	4341
919.272	4162
919.383	4230
919.494	4443
919.604	4618
919.715	4390
919.826	4352
919.936	4413
920.047	4531
920.157	4485
920.267	4679
920.378	4573
920.488	4432
920.598	4752
920.708	4858
920.818	4733
920.928	4725
921.038	4889
921.148	4908
921.258	4584
921.368	4603
921.477	4535
921.587	4466
921.697	4348
921.806	4554
921.916	4447
922.025	4257
922.134	4253
922.244	4261
922.353	4322
922.462	4135
922.571	4143
922.68	3991
922.789	3922
922.898	3972
923.007	3964
923.116	4131
923.224	4074
923.333	4086
923.442	4025
923.55	3968
923.659	4013
923.767	4109
923.876	3979
923.984	4105
924.092	4002
924.201	4071
924.309	4109
924.417	4093
924.525	4063
924.633	4105
924.741	4873
924.849	3892
924.956	4109
925.064	3964
925.172	3918
925.279	3934
925.387	4048
925.494	4013
925.602	4204
925.709	4196
925.816	4051
925.924	4158
926.031	4223
926.138	4192
926.245	4158
926.352	4097
926.459	4211
926.566	4306
926.673	4158
926.779	4097
926.886	4112
926.993	3945
927.099	3941
927.206	3934
927.312	3960
927.419	4055
927.525	4036
927.631	4093
927.737	3979
927.843	3945
927.95	3880
928.056	3911
928.162	3975
928.267	4063
928.373	4622
928.479	4105
928.585	3918
928.69	4048
928.796	4071
928.901	3945
929.007	3861
929.112	3994
929.218	3975
929.323	3937
929.428	3892
929.533	4063
929.638	3888
929.743	3972
929.848	4044
929.953	3949
930.058	3907
930.163	3770
930.267	3831
930.372	3968
930.477	3812
930.581	4067
930.685	4017
930.79	3823
930.894	3896
930.998	3869
931.103	4029
931.207	3720
931.311	3713
931.415	3694
931.519	3545
931.623	3557
