Data from test_V78500241_2633.txt Node
Date: Fri Mar 25 17:07:18 CST 2022
User: usil
Spectrometer: V785-0024
Trigger mode: 0
Integration Time (sec): 4.000000E-1
Scans to average: 1
Nonlinearity correction enabled: false
Boxcar width: 0
Storing dark spectrum: false
XAxis mode: Wavelengths
Number of Pixels in Spectrum: 1024
>>>>>Begin Spectral Data<<<<<
801.071	8027
801.214	8012
801.356	7849
801.499	7868
801.641	7788
801.783	7833
801.926	7951
802.068	7906
802.211	7951
802.353	8008
802.496	7849
802.638	7890
802.78	7887
802.923	7963
803.065	7906
803.208	7906
803.35	7978
803.492	8100
803.635	8221
803.777	7993
803.919	8142
804.061	8469
804.204	8172
804.346	7993
804.488	7997
804.63	8043
804.773	8020
804.915	8161
805.057	8347
805.199	8157
805.341	8298
805.483	8320
805.626	8347
805.768	8191
805.91	8183
806.052	8187
806.194	8065
806.336	8256
806.478	8062
806.62	8046
806.762	8161
806.904	8240
807.046	8446
807.188	8355
807.33	8305
807.472	8339
807.614	8123
807.756	8126
807.898	8100
808.04	7845
808.182	7803
808.324	7944
808.465	7986
808.607	8088
808.749	8088
808.891	8195
809.033	8256
809.174	8176
809.316	8134
809.458	8081
809.6	8001
809.741	8039
809.883	8035
810.025	8092
810.166	8092
810.308	8043
810.45	7978
810.591	7883
810.733	7750
810.875	7651
811.016	7559
811.158	7449
811.299	7582
811.441	7734
811.582	7704
811.724	7521
811.865	7548
812.007	7525
812.148	7597
812.29	7655
812.431	7731
812.573	7841
812.714	7947
812.855	8092
812.997	8176
813.138	8313
813.279	8164
813.421	8142
813.562	7963
813.703	7940
813.845	7712
813.986	7460
814.127	7247
814.268	7266
814.41	7278
814.551	7171
814.692	7164
814.833	7080
814.974	7137
815.115	7175
815.256	6935
815.397	6951
815.539	6981
815.68	6867
815.821	6795
815.962	6863
816.103	6844
816.244	6730
816.385	6650
816.526	6623
816.666	6483
816.807	6308
816.948	6467
817.089	6483
817.23	6475
817.371	6456
817.512	6418
817.653	6391
817.793	6334
817.934	6433
818.075	6502
818.216	6437
818.356	6391
818.497	6311
818.638	6129
818.778	6190
818.919	6171
819.06	6167
819.2	6323
819.341	6334
819.481	6372
819.622	6563
819.762	6757
819.903	6753
820.043	6597
820.184	6631
820.324	6601
820.465	6741
820.605	6722
820.746	6673
820.886	6540
821.026	6681
821.167	6772
821.307	6844
821.447	6749
821.588	6669
821.728	6604
821.868	6464
822.008	6361
822.149	6395
822.289	6376
822.429	6140
822.569	6117
822.709	6209
822.849	5916
822.99	5893
823.13	5935
823.27	5927
823.41	5790
823.55	5805
823.69	5775
823.83	5798
823.97	5722
824.11	5562
824.25	5554
824.389	5577
824.529	5608
824.669	5512
824.809	5653
824.949	5661
825.089	5627
825.228	5573
825.368	5368
825.508	5383
825.648	5357
825.787	5391
825.927	5349
826.067	5334
826.206	5288
826.346	5364
826.485	5398
826.625	5395
826.765	5528
826.904	5505
827.044	5254
827.183	5208
827.323	5109
827.462	5258
827.601	5121
827.741	5170
827.88	5193
828.02	5075
828.159	5246
828.298	5337
828.437	5364
828.577	5273
828.716	5482
828.855	5345
828.994	5181
829.134	5159
829.273	5185
829.412	5121
829.551	5174
829.69	5159
829.829	5269
829.968	5368
830.107	5273
830.246	5311
830.385	5147
830.524	5121
830.663	5102
830.802	4999
830.941	4862
831.08	4889
831.219	5006
831.357	4942
831.496	5151
831.635	4896
831.774	4850
831.913	4881
832.051	4694
832.19	4740
832.329	4847
832.467	4710
832.606	4645
832.744	4694
832.883	4752
833.022	4763
833.16	4782
833.299	4782
833.437	4847
833.576	4847
833.714	4850
833.852	4877
833.991	4858
834.129	4972
834.267	5014
834.406	4942
834.544	5022
834.682	5025
834.821	4987
834.959	5124
835.097	4942
835.235	5151
835.373	5029
835.511	5060
835.65	5003
835.788	5067
835.926	4889
836.064	4870
836.202	4965
836.34	5162
836.478	5204
836.615	5109
836.753	5220
836.891	5250
837.029	5208
837.167	5212
837.305	5185
837.443	5124
837.58	5052
837.718	5254
837.856	5162
837.993	5159
838.131	5220
838.269	5204
838.406	5208
838.544	5124
838.681	4995
838.819	5010
838.956	4923
839.094	4877
839.231	4961
839.369	5041
839.506	5379
839.643	5246
839.781	5018
839.918	5086
840.055	5090
840.193	5037
840.33	5121
840.467	5147
840.604	5227
840.742	5429
840.879	5060
841.016	5124
841.153	5159
841.29	5414
841.427	5349
841.564	5353
841.701	5379
841.838	5315
841.975	5235
842.112	5277
842.249	5181
842.385	5094
842.522	5318
842.659	5143
842.796	5170
842.933	5197
843.069	5132
843.206	5117
843.343	5307
843.479	5250
843.616	5288
843.752	5045
843.889	5006
844.025	5220
844.162	5003
844.298	5189
844.435	5064
844.571	5056
844.708	5170
844.844	5296
844.98	5360
845.117	5326
845.253	5128
845.389	5124
845.525	5140
845.661	5174
845.798	5090
845.934	5075
846.07	5094
846.206	5239
846.342	5258
846.478	5208
846.614	5048
846.75	4961
846.886	4980
847.022	5166
847.158	5041
847.294	5060
847.429	5109
847.565	5033
847.701	5349
847.837	4889
847.972	4790
848.108	4911
848.244	4995
848.379	4801
848.515	4736
848.65	4687
848.786	4714
848.921	4763
849.057	4858
849.192	4892
849.328	4847
849.463	4885
849.598	4793
849.734	4740
849.869	4691
850.004	4618
850.14	4694
850.275	4626
850.41	4546
850.545	4573
850.68	4596
850.815	4596
850.95	4630
851.085	4862
851.22	4714
851.355	4653
851.49	4626
851.625	4626
851.76	4634
851.895	4615
852.03	4497
852.165	4687
852.299	4660
852.434	4786
852.569	4786
852.703	4752
852.838	4839
852.973	4938
853.107	4919
853.242	4675
853.376	4698
853.511	4596
853.645	4660
853.78	4812
853.914	4675
854.048	4664
854.183	4622
854.317	4672
854.451	4809
854.585	4656
854.72	4630
854.854	4733
854.988	4599
855.122	4588
855.256	4527
855.39	4653
855.524	4759
855.658	4710
855.792	4687
855.926	4706
856.06	4752
856.194	4824
856.327	4706
856.461	4641
856.595	4653
856.729	4645
856.862	4714
856.996	4691
857.13	4706
857.263	4740
857.397	4793
857.53	4687
857.664	4694
857.797	4721
857.931	4752
858.064	4725
858.197	4752
858.331	4679
858.464	4630
858.597	4538
858.731	4637
858.864	4615
858.997	4577
859.13	4672
859.263	4702
859.396	4702
859.529	4607
859.662	4573
859.795	4573
859.928	4645
860.061	4858
860.194	4774
860.327	4615
860.46	4569
860.592	4656
860.725	4721
860.858	4744
860.99	4558
861.123	4516
861.256	4474
861.388	4577
861.521	5433
861.653	4493
861.786	4440
861.918	4417
862.05	4538
862.183	4588
862.315	4664
862.447	4660
862.58	4535
862.712	4428
862.844	4329
862.976	4512
863.108	4455
863.24	4778
863.372	4318
863.504	4375
863.636	4383
863.768	4504
863.9	4424
864.032	4371
864.164	4421
864.296	4512
864.428	4569
864.559	4569
864.691	4538
864.823	4455
864.954	4466
865.086	4489
865.217	4443
865.349	4409
865.48	4462
865.612	4519
865.743	4675
865.875	4451
866.006	4497
866.137	4504
866.269	4405
866.4	4398
866.531	4428
866.662	4375
866.793	4421
866.924	4386
867.055	4481
867.186	4478
867.317	4402
867.448	4360
867.579	4402
867.71	4386
867.841	4341
867.972	4478
868.103	4466
868.233	4409
868.364	4428
868.495	4497
868.625	4683
868.756	4752
868.886	4569
869.017	4561
869.147	4763
869.278	4782
869.408	4668
869.539	4649
869.669	4729
869.799	4656
869.929	4755
870.06	4706
870.19	4980
870.32	4904
870.45	4915
870.58	4980
870.71	5090
870.84	5094
870.97	4991
871.1	4904
871.23	5151
871.36	5140
871.489	4995
871.619	5109
871.749	5124
871.879	5170
872.008	5151
872.138	5083
872.267	4930
872.397	4858
872.526	4820
872.656	4774
872.785	4816
872.915	4923
873.044	5025
873.173	4953
873.303	4972
873.432	4961
873.561	4999
873.69	4908
873.819	4873
873.948	4911
874.077	4793
874.206	4763
874.335	4748
874.464	4946
874.593	5045
874.722	5006
874.851	5124
874.979	5060
875.108	5045
875.237	4870
875.365	4908
875.494	4866
875.623	4976
875.751	4854
875.88	4850
876.008	5006
876.136	5064
876.265	5242
876.393	5330
876.521	5280
876.65	5223
876.778	5162
876.906	5052
877.034	5048
877.162	5033
877.29	4999
877.418	5075
877.546	5025
877.674	5060
877.802	4999
877.93	5018
878.058	4934
878.185	4866
878.313	4968
878.441	4972
878.568	4835
878.696	4896
878.824	4942
878.951	4987
879.079	5151
879.206	5318
879.333	5121
879.461	4949
879.588	5010
879.715	5121
879.842	5197
879.97	5033
880.097	4755
880.224	4740
880.351	4790
880.478	4816
880.605	4782
880.732	4786
880.859	5075
880.986	4915
881.112	4927
881.239	4797
881.366	4664
881.493	4565
881.619	4603
881.746	4656
881.872	4622
881.999	4622
882.125	4660
882.252	4797
882.378	4889
882.505	4995
882.631	4858
882.757	4691
882.883	4725
883.01	4774
883.136	4664
883.262	4596
883.388	4584
883.514	4774
883.64	4847
883.766	4767
883.892	4672
884.018	4744
884.143	4885
884.269	5056
884.395	4694
884.52	4653
884.646	4656
884.772	4569
884.897	4546
885.023	4607
885.148	4752
885.274	4858
885.399	4805
885.524	4736
885.65	4698
885.775	4702
885.9	4710
886.025	4908
886.15	4752
886.275	4675
886.4	4694
886.525	4687
886.65	4702
886.775	4691
886.9	4919
887.025	5064
887.149	4854
887.274	4649
887.399	4626
887.523	4546
887.648	4565
887.773	4569
887.897	4729
888.021	4767
888.146	4679
888.27	4790
888.395	4889
888.519	4805
888.643	4763
888.767	4824
888.891	4721
889.015	4641
889.139	4672
889.263	4558
889.387	4778
889.511	4896
889.635	4809
889.759	4649
889.883	4645
890.006	4706
890.13	4862
890.254	4618
890.377	4672
890.501	4523
890.624	4485
890.748	4679
890.871	4481
890.995	4470
891.118	4428
891.241	4497
891.364	4538
891.488	4603
891.611	4546
891.734	4561
891.857	4630
891.98	4538
892.103	4641
892.226	4550
892.349	4538
892.471	4462
892.594	4550
892.717	4618
892.839	4573
892.962	4558
893.085	4672
893.207	4546
893.33	4493
893.452	4531
893.575	4645
893.697	4577
893.819	4763
893.941	4778
894.064	4755
894.186	4516
894.308	4561
894.43	4748
894.552	4812
894.674	4725
894.796	4542
894.918	4573
895.04	4535
895.161	4683
895.283	4664
895.405	4611
895.526	4622
895.648	4698
895.769	4691
895.891	4717
896.012	4752
896.134	4759
896.255	4675
896.376	4615
896.498	4558
896.619	4675
896.74	4607
896.861	4641
896.982	4938
897.103	5083
897.224	4820
897.345	4736
897.466	4664
897.587	4733
897.708	4885
897.828	4767
897.949	4672
898.07	4565
898.19	4649
898.311	4831
898.431	4683
898.552	4767
898.672	4755
898.792	4835
898.913	4729
899.033	4660
899.153	4512
899.273	4497
899.393	4527
899.513	4516
899.633	4489
899.753	4550
899.873	4489
899.993	4554
900.113	4519
900.232	4577
900.352	4546
900.472	4497
900.591	4386
900.711	4462
900.83	4455
900.95	4653
901.069	4687
901.189	4538
901.308	4322
901.427	4348
901.546	4398
901.665	4512
901.784	4577
901.904	4402
902.023	4318
902.141	4200
902.26	4223
902.379	4306
902.498	4257
902.617	4265
902.735	4379
902.854	4386
902.973	4344
903.091	4207
903.21	4227
903.328	4291
903.446	4291
903.565	4291
903.683	4379
903.801	4227
903.919	4405
904.038	4440
904.156	4325
904.274	4474
904.392	4375
904.51	4466
904.627	4493
904.745	4527
904.863	4603
904.981	4409
905.098	4356
905.216	4383
905.334	4432
905.451	4421
905.569	4413
905.686	4588
905.803	4607
905.921	4394
906.038	4516
906.155	4466
906.272	4379
906.389	4474
906.506	4428
906.623	4367
906.74	4363
906.857	4337
906.974	4356
907.091	4535
907.208	4687
907.324	4637
907.441	4558
907.557	4356
907.674	4333
907.79	4325
907.907	4402
908.023	4497
908.139	4459
908.256	4421
908.372	4497
908.488	4462
908.604	4367
908.72	4341
908.836	4398
908.952	4348
909.068	4421
909.184	4550
909.3	4443
909.415	4580
909.531	4550
909.647	4360
909.762	4371
909.878	4363
909.993	4455
910.108	4398
910.224	4470
910.339	4466
910.454	4383
910.57	4367
910.685	4348
910.8	4679
910.915	4561
911.03	4554
911.145	4287
911.259	4299
911.374	4379
911.489	4253
911.604	4310
911.718	4173
911.833	4166
911.947	4101
912.062	4036
912.176	4200
912.291	4253
912.405	4238
912.519	4459
912.633	4516
912.748	4344
912.862	4276
912.976	4230
913.09	4086
913.204	4150
913.318	4265
913.431	4314
913.545	4375
913.659	4447
913.772	4341
913.886	4238
914	4223
914.113	4371
914.226	4428
914.34	4405
914.453	4234
914.566	4383
914.68	4280
914.793	4276
914.906	4120
915.019	4112
915.132	4071
915.245	4196
915.358	4238
915.47	4265
915.583	4238
915.696	4291
915.809	4440
915.921	4455
916.034	4238
916.146	4246
916.259	4196
916.371	4398
916.483	4417
916.595	4314
916.708	4314
916.82	4314
916.932	4325
917.044	4261
917.156	4348
917.268	4242
917.38	4306
917.491	4257
917.603	4299
917.715	4436
917.826	4447
917.938	4360
918.049	4265
918.161	4451
918.272	4538
918.384	4531
918.495	4474
918.606	4280
918.717	4265
918.828	4322
918.939	4424
919.05	4268
919.161	4344
919.272	4112
919.383	4257
919.494	4478
919.604	4603
919.715	4421
919.826	4329
919.936	4405
920.047	4478
920.157	4500
920.267	4675
920.378	4542
920.488	4493
920.598	4702
920.708	4908
920.818	4759
920.928	4725
921.038	4965
921.148	4946
921.258	4599
921.368	4538
921.477	4489
921.587	4478
921.697	4394
921.806	4542
921.916	4447
922.025	4265
922.134	4272
922.244	4215
922.353	4341
922.462	4169
922.571	4131
922.68	4002
922.789	3949
922.898	4067
923.007	3983
923.116	4071
923.224	4051
923.333	4067
923.442	4013
923.55	3979
923.659	4040
923.767	4086
923.876	4013
923.984	4093
924.092	3953
924.201	4078
924.309	4101
924.417	4143
924.525	4051
924.633	4101
924.741	5064
924.849	3892
924.956	4135
925.064	3972
925.172	3926
925.279	3987
925.387	4032
925.494	4051
925.602	4204
925.709	4154
925.816	4032
925.924	4135
926.031	4246
926.138	4192
926.245	4223
926.352	4044
926.459	4230
926.566	4299
926.673	4207
926.779	4086
926.886	4051
926.993	3972
927.099	3968
927.206	3930
927.312	3972
927.419	4048
927.525	4017
927.631	4082
927.737	3968
927.843	3960
927.95	3861
928.056	3922
928.162	3972
928.267	4086
928.373	4577
928.479	4112
928.585	3899
928.69	4025
928.796	4112
928.901	3975
929.007	3804
929.112	4063
929.218	3964
929.323	3975
929.428	3953
929.533	4093
929.638	3915
929.743	3979
929.848	3998
929.953	4029
930.058	3907
930.163	3751
930.267	3846
930.372	3994
930.477	3854
930.581	4067
930.685	3972
930.79	3812
930.894	3926
930.998	3876
931.103	4032
931.207	3720
931.311	3690
931.415	3675
931.519	3561
931.623	3595
