Data from test_V78500241_2244.txt Node
Date: Fri Mar 25 17:04:36 CST 2022
User: usil
Spectrometer: V785-0024
Trigger mode: 0
Integration Time (sec): 4.000000E-1
Scans to average: 1
Nonlinearity correction enabled: false
Boxcar width: 0
Storing dark spectrum: false
XAxis mode: Wavelengths
Number of Pixels in Spectrum: 1024
>>>>>Begin Spectral Data<<<<<
801.071	8096
801.214	7967
801.356	7837
801.499	7807
801.641	7795
801.783	7837
801.926	8005
802.068	7947
802.211	8001
802.353	7947
802.496	7921
802.638	7883
802.78	7852
802.923	7879
803.065	7951
803.208	7871
803.35	7947
803.492	8130
803.635	8138
803.777	8065
803.919	8134
804.061	8469
804.204	8199
804.346	8062
804.488	8046
804.63	8142
804.773	8001
804.915	8149
805.057	8271
805.199	8153
805.341	8161
805.483	8279
805.626	8233
805.768	8111
805.91	8142
806.052	8183
806.194	8092
806.336	8332
806.478	8088
806.62	8073
806.762	8183
806.904	8286
807.046	8461
807.188	8370
807.33	8320
807.472	8328
807.614	8157
807.756	8176
807.898	7959
808.04	7849
808.182	7921
808.324	7856
808.465	7967
808.607	8123
808.749	8111
808.891	8229
809.033	8320
809.174	8218
809.316	8119
809.458	8005
809.6	8096
809.741	8092
809.883	8016
810.025	8081
810.166	8065
810.308	8024
810.45	8001
810.591	7837
810.733	7769
810.875	7636
811.016	7529
811.158	7449
811.299	7616
811.441	7670
811.582	7647
811.724	7582
811.865	7483
812.007	7586
812.148	7571
812.29	7613
812.431	7731
812.573	7917
812.714	7997
812.855	8115
812.997	8161
813.138	8248
813.279	8153
813.421	8027
813.562	7955
813.703	7795
813.845	7708
813.986	7552
814.127	7244
814.268	7202
814.41	7213
814.551	7187
814.692	7221
814.833	7110
814.974	7027
815.115	7099
815.256	6924
815.397	6924
815.539	6882
815.68	6791
815.821	6757
815.962	6818
816.103	6818
816.244	6650
816.385	6620
816.526	6582
816.666	6547
816.807	6289
816.948	6426
817.089	6422
817.23	6460
817.371	6395
817.512	6334
817.653	6334
817.793	6346
817.934	6391
818.075	6456
818.216	6445
818.356	6429
818.497	6311
818.638	6140
818.778	6144
818.919	6136
819.06	6178
819.2	6346
819.341	6346
819.481	6414
819.622	6566
819.762	6719
819.903	6692
820.043	6639
820.184	6631
820.324	6646
820.465	6669
820.605	6616
820.746	6673
820.886	6555
821.026	6719
821.167	6764
821.307	6795
821.447	6772
821.588	6738
821.728	6627
821.868	6532
822.008	6327
822.149	6380
822.289	6342
822.429	6152
822.569	6140
822.709	6197
822.849	5897
822.99	5931
823.13	5961
823.27	5942
823.41	5809
823.55	5821
823.69	5760
823.83	5794
823.97	5695
824.11	5604
824.25	5570
824.389	5600
824.529	5611
824.669	5581
824.809	5680
824.949	5718
825.089	5638
825.228	5611
825.368	5425
825.508	5391
825.648	5372
825.787	5436
825.927	5406
826.067	5345
826.206	5341
826.346	5463
826.485	5455
826.625	5433
826.765	5558
826.904	5467
827.044	5315
827.183	5242
827.323	5185
827.462	5254
827.601	5201
827.741	5201
827.88	5288
828.02	5147
828.159	5299
828.298	5337
828.437	5398
828.577	5334
828.716	5482
828.855	5353
828.994	5242
829.134	5185
829.273	5220
829.412	5220
829.551	5201
829.69	5201
829.829	5292
829.968	5402
830.107	5296
830.246	5353
830.385	5223
830.524	5159
830.663	5136
830.802	5018
830.941	4915
831.08	4911
831.219	5018
831.357	5033
831.496	5140
831.635	4968
831.774	4850
831.913	4854
832.051	4721
832.19	4778
832.329	4873
832.467	4774
832.606	4721
832.744	4691
832.883	4744
833.022	4771
833.16	4835
833.299	4889
833.437	4873
833.576	4858
833.714	4900
833.852	4877
833.991	4896
834.129	4930
834.267	5003
834.406	4919
834.544	5014
834.682	4999
834.821	4976
834.959	5197
835.097	4976
835.235	5151
835.373	5155
835.511	5178
835.65	5090
835.788	5079
835.926	4896
836.064	4923
836.202	4957
836.34	5143
836.478	5204
836.615	5155
836.753	5220
836.891	5296
837.029	5311
837.167	5220
837.305	5189
837.443	5178
837.58	5083
837.718	5280
837.856	5220
837.993	5208
838.131	5303
838.269	5208
838.406	5227
838.544	5197
838.681	5079
838.819	5014
838.956	4911
839.094	4923
839.231	5018
839.369	5147
839.506	5421
839.643	5322
839.781	5071
839.918	5029
840.055	5132
840.193	5174
840.33	5140
840.467	5189
840.604	5159
840.742	5478
840.879	5128
841.016	5117
841.153	5155
841.29	5425
841.427	5391
841.564	5315
841.701	5410
841.838	5296
841.975	5315
842.112	5273
842.249	5185
842.385	5140
842.522	5334
842.659	5193
842.796	5170
842.933	5193
843.069	5155
843.206	5189
843.343	5318
843.479	5311
843.616	5318
843.752	5105
843.889	5048
844.025	5216
844.162	5048
844.298	5231
844.435	5178
844.571	5064
844.708	5201
844.844	5322
844.98	5353
845.117	5318
845.253	5174
845.389	5140
845.525	5204
845.661	5197
845.798	5018
845.934	5189
846.07	5067
846.206	5220
846.342	5345
846.478	5231
846.614	5041
846.75	5052
846.886	4927
847.022	5151
847.158	5071
847.294	5113
847.429	5071
847.565	5041
847.701	5337
847.837	4904
847.972	4843
848.108	5018
848.244	4953
848.379	4843
848.515	4744
848.65	4752
848.786	4767
848.921	4793
849.057	4831
849.192	4877
849.328	4854
849.463	4873
849.598	4828
849.734	4759
849.869	4733
850.004	4630
850.14	4694
850.275	4641
850.41	4538
850.545	4580
850.68	4637
850.815	4702
850.95	4634
851.085	4881
851.22	4797
851.355	4687
851.49	4664
851.625	4630
851.76	4664
851.895	4615
852.03	4523
852.165	4679
852.299	4736
852.434	4831
852.569	4790
852.703	4778
852.838	4866
852.973	4965
853.107	4934
853.242	4721
853.376	4710
853.511	4596
853.645	4683
853.78	4858
853.914	4687
854.048	4687
854.183	4637
854.317	4702
854.451	4858
854.585	4714
854.72	4611
854.854	4824
854.988	4630
855.122	4634
855.256	4542
855.39	4717
855.524	4816
855.658	4721
855.792	4691
855.926	4748
856.06	4809
856.194	4812
856.327	4679
856.461	4664
856.595	4626
856.729	4611
856.862	4748
856.996	4748
857.13	4771
857.263	4778
857.397	4839
857.53	4702
857.664	4736
857.797	4790
857.931	4805
858.064	4736
858.197	4786
858.331	4675
858.464	4649
858.597	4592
858.731	4683
858.864	4675
858.997	4622
859.13	4710
859.263	4664
859.396	4748
859.529	4622
859.662	4615
859.795	4542
859.928	4641
860.061	4797
860.194	4809
860.327	4641
860.46	4558
860.592	4736
860.725	4793
860.858	4782
860.99	4584
861.123	4535
861.256	4554
861.388	4660
861.521	5353
861.653	4519
861.786	4459
861.918	4489
862.05	4569
862.183	4584
862.315	4618
862.447	4656
862.58	4531
862.712	4390
862.844	4341
862.976	4390
863.108	4459
863.24	4915
863.372	4344
863.504	4451
863.636	4371
863.768	4516
863.9	4455
864.032	4348
864.164	4413
864.296	4489
864.428	4584
864.559	4577
864.691	4546
864.823	4508
864.954	4485
865.086	4558
865.217	4478
865.349	4443
865.48	4535
865.612	4542
865.743	4637
865.875	4470
866.006	4432
866.137	4516
866.269	4462
866.4	4459
866.531	4489
866.662	4424
866.793	4402
866.924	4474
867.055	4531
867.186	4493
867.317	4432
867.448	4352
867.579	4443
867.71	4432
867.841	4363
867.972	4500
868.103	4474
868.233	4451
868.364	4455
868.495	4538
868.625	4675
868.756	4786
868.886	4656
869.017	4634
869.147	4782
869.278	4790
869.408	4660
869.539	4736
869.669	4721
869.799	4660
869.929	4740
870.06	4767
870.19	4984
870.32	4904
870.45	4896
870.58	5033
870.71	5113
870.84	5083
870.97	4965
871.1	4976
871.23	5212
871.36	5189
871.489	5056
871.619	5109
871.749	5090
871.879	5136
872.008	5162
872.138	5086
872.267	5003
872.397	4923
872.526	4793
872.656	4748
872.785	4809
872.915	5003
873.044	4999
873.173	4923
873.303	4972
873.432	4980
873.561	4976
873.69	4877
873.819	4885
873.948	4927
874.077	4862
874.206	4782
874.335	4790
874.464	4927
874.593	5067
874.722	4972
874.851	5128
874.979	5037
875.108	5025
875.237	4938
875.365	4870
875.494	4904
875.623	5052
875.751	4927
875.88	4908
876.008	5033
876.136	5037
876.265	5212
876.393	5341
876.521	5227
876.65	5223
876.778	5201
876.906	5102
877.034	5025
877.162	5022
877.29	5041
877.418	5090
877.546	5083
877.674	5079
877.802	5048
877.93	5056
878.058	4930
878.185	4850
878.313	4999
878.441	4987
878.568	4835
878.696	4927
878.824	4991
878.951	5006
879.079	5136
879.206	5299
879.333	5102
879.461	4968
879.588	5048
879.715	5140
879.842	5250
879.97	5048
880.097	4763
880.224	4793
880.351	4820
880.478	4835
880.605	4801
880.732	4812
880.859	5102
880.986	4911
881.112	4908
881.239	4790
881.366	4691
881.493	4641
881.619	4584
881.746	4683
881.872	4603
881.999	4679
882.125	4672
882.252	4774
882.378	4831
882.505	4972
882.631	4850
882.757	4630
882.883	4744
883.01	4725
883.136	4611
883.262	4596
883.388	4615
883.514	4816
883.64	4812
883.766	4843
883.892	4653
884.018	4733
884.143	4900
884.269	5010
884.395	4672
884.52	4672
884.646	4698
884.772	4596
884.897	4554
885.023	4694
885.148	4767
885.274	4881
885.399	4790
885.524	4698
885.65	4687
885.775	4774
885.9	4702
886.025	4896
886.15	4778
886.275	4694
886.4	4691
886.525	4759
886.65	4683
886.775	4702
886.9	4896
887.025	4965
887.149	4816
887.274	4630
887.399	4561
887.523	4611
887.648	4611
887.773	4618
887.897	4774
888.021	4809
888.146	4687
888.27	4873
888.395	4927
888.519	4858
888.643	4812
888.767	4866
888.891	4641
889.015	4630
889.139	4656
889.263	4660
889.387	4778
889.511	4915
889.635	4797
889.759	4645
889.883	4656
890.006	4736
890.13	4843
890.254	4630
890.377	4729
890.501	4535
890.624	4500
890.748	4656
890.871	4500
890.995	4447
891.118	4413
891.241	4516
891.364	4558
891.488	4637
891.611	4504
891.734	4523
891.857	4554
891.98	4592
892.103	4679
892.226	4558
892.349	4519
892.471	4443
892.594	4504
892.717	4596
892.839	4618
892.962	4626
893.085	4641
893.207	4645
893.33	4432
893.452	4531
893.575	4660
893.697	4558
893.819	4763
893.941	4873
894.064	4752
894.186	4535
894.308	4542
894.43	4714
894.552	4839
894.674	4793
894.796	4569
894.918	4649
895.04	4516
895.161	4759
895.283	4630
895.405	4569
895.526	4634
895.648	4683
895.769	4694
895.891	4698
896.012	4755
896.134	4717
896.255	4641
896.376	4672
896.498	4588
896.619	4645
896.74	4634
896.861	4687
896.982	4953
897.103	5113
897.224	4812
897.345	4740
897.466	4656
897.587	4710
897.708	4820
897.828	4778
897.949	4675
898.07	4592
898.19	4645
898.311	4831
898.431	4698
898.552	4706
898.672	4816
898.792	4809
898.913	4748
899.033	4634
899.153	4497
899.273	4417
899.393	4470
899.513	4508
899.633	4516
899.753	4542
899.873	4504
899.993	4603
900.113	4508
900.232	4565
900.352	4569
900.472	4481
900.591	4390
900.711	4550
900.83	4497
900.95	4626
901.069	4702
901.189	4569
901.308	4390
901.427	4348
901.546	4363
901.665	4466
901.784	4542
901.904	4424
902.023	4306
902.141	4158
902.26	4150
902.379	4306
902.498	4261
902.617	4188
902.735	4375
902.854	4398
902.973	4344
903.091	4215
903.21	4207
903.328	4280
903.446	4276
903.565	4238
903.683	4341
903.801	4333
903.919	4390
904.038	4455
904.156	4284
904.274	4443
904.392	4379
904.51	4443
904.627	4478
904.745	4592
904.863	4664
904.981	4390
905.098	4348
905.216	4390
905.334	4428
905.451	4481
905.569	4466
905.686	4580
905.803	4580
905.921	4390
906.038	4588
906.155	4485
906.272	4409
906.389	4447
906.506	4367
906.623	4383
906.74	4413
906.857	4295
906.974	4375
907.091	4554
907.208	4649
907.324	4599
907.441	4481
907.557	4379
907.674	4329
907.79	4333
907.907	4424
908.023	4512
908.139	4428
908.256	4447
908.372	4512
908.488	4436
908.604	4367
908.72	4325
908.836	4329
908.952	4348
909.068	4424
909.184	4573
909.3	4489
909.415	4592
909.531	4542
909.647	4337
909.762	4383
909.878	4348
909.993	4455
910.108	4428
910.224	4394
910.339	4474
910.454	4375
910.57	4371
910.685	4295
910.8	4634
910.915	4596
911.03	4504
911.145	4325
911.259	4341
911.374	4379
911.489	4318
911.604	4284
911.718	4173
911.833	4200
911.947	4067
912.062	4036
912.176	4219
912.291	4242
912.405	4238
912.519	4481
912.633	4489
912.748	4371
912.862	4333
912.976	4139
913.09	4124
913.204	4135
913.318	4227
913.431	4348
913.545	4375
913.659	4478
913.772	4341
913.886	4204
914	4219
914.113	4367
914.226	4493
914.34	4394
914.453	4219
914.566	4466
914.68	4314
914.793	4314
914.906	4154
915.019	4131
915.132	4048
915.245	4219
915.358	4166
915.47	4196
915.583	4249
915.696	4280
915.809	4386
915.921	4447
916.034	4287
916.146	4249
916.259	4204
916.371	4390
916.483	4371
916.595	4234
916.708	4306
916.82	4333
916.932	4356
917.044	4329
917.156	4261
917.268	4185
917.38	4333
917.491	4230
917.603	4390
917.715	4421
917.826	4451
917.938	4310
918.049	4227
918.161	4367
918.272	4554
918.384	4519
918.495	4436
918.606	4299
918.717	4234
918.828	4295
918.939	4348
919.05	4242
919.161	4314
919.272	4124
919.383	4246
919.494	4428
919.604	4611
919.715	4462
919.826	4352
919.936	4405
920.047	4561
920.157	4512
920.267	4675
920.378	4504
920.488	4512
920.598	4729
920.708	4911
920.818	4774
920.928	4710
921.038	4911
921.148	4862
921.258	4569
921.368	4565
921.477	4443
921.587	4455
921.697	4390
921.806	4569
921.916	4447
922.025	4265
922.134	4238
922.244	4234
922.353	4284
922.462	4204
922.571	4131
922.68	4029
922.789	3953
922.898	4013
923.007	3983
923.116	4078
923.224	4090
923.333	4105
923.442	4029
923.55	3994
923.659	4032
923.767	4071
923.876	4032
923.984	4166
924.092	3956
924.201	4116
924.309	4093
924.417	4097
924.525	4063
924.633	4048
924.741	5102
924.849	3911
924.956	4101
925.064	3907
925.172	3922
925.279	3972
925.387	4040
925.494	4071
925.602	4181
925.709	4173
925.816	4021
925.924	4109
926.031	4223
926.138	4135
926.245	4173
926.352	4063
926.459	4238
926.566	4295
926.673	4169
926.779	4090
926.886	4097
926.993	3987
927.099	3987
927.206	3949
927.312	3926
927.419	4032
927.525	4021
927.631	4124
927.737	3964
927.843	3930
927.95	3827
928.056	3964
928.162	4017
928.267	4059
928.373	4725
928.479	4097
928.585	3876
928.69	3987
928.796	4013
928.901	3930
929.007	3865
929.112	4051
929.218	3960
929.323	3918
929.428	3945
929.533	4128
929.638	3865
929.743	3937
929.848	4029
929.953	3960
930.058	3979
930.163	3778
930.267	3842
930.372	4006
930.477	3774
930.581	4116
930.685	3934
930.79	3800
930.894	3869
930.998	3876
931.103	4040
931.207	3724
931.311	3701
931.415	3679
931.519	3496
931.623	3580
