Data from test_V78500241_2600.txt Node
Date: Fri Mar 25 17:07:04 CST 2022
User: usil
Spectrometer: V785-0024
Trigger mode: 0
Integration Time (sec): 4.000000E-1
Scans to average: 1
Nonlinearity correction enabled: false
Boxcar width: 0
Storing dark spectrum: false
XAxis mode: Wavelengths
Number of Pixels in Spectrum: 1024
>>>>>Begin Spectral Data<<<<<
801.071	8039
801.214	8069
801.356	7944
801.499	7833
801.641	7799
801.783	7765
801.926	7887
802.068	7982
802.211	7986
802.353	7997
802.496	7879
802.638	7864
802.78	7909
802.923	7959
803.065	7852
803.208	7803
803.35	7997
803.492	8054
803.635	8195
803.777	8008
803.919	8161
804.061	8419
804.204	8145
804.346	8016
804.488	7917
804.63	8069
804.773	8016
804.915	8039
805.057	8366
805.199	8172
805.341	8191
805.483	8279
805.626	8336
805.768	8145
805.91	8134
806.052	8206
806.194	8161
806.336	8240
806.478	8077
806.62	8062
806.762	8073
806.904	8267
807.046	8427
807.188	8347
807.33	8313
807.472	8279
807.614	8153
807.756	8149
807.898	8046
808.04	7936
808.182	7856
808.324	7837
808.465	7921
808.607	8153
808.749	8077
808.891	8252
809.033	8374
809.174	8210
809.316	8088
809.458	8100
809.6	8008
809.741	8024
809.883	8081
810.025	8119
810.166	8020
810.308	8024
810.45	7970
810.591	7871
810.733	7696
810.875	7655
811.016	7476
811.158	7533
811.299	7578
811.441	7696
811.582	7700
811.724	7613
811.865	7480
812.007	7636
812.148	7548
812.29	7662
812.431	7738
812.573	7871
812.714	8024
812.855	8111
812.997	8180
813.138	8282
813.279	8225
813.421	8008
813.562	8027
813.703	7932
813.845	7708
813.986	7422
814.127	7320
814.268	7255
814.41	7247
814.551	7133
814.692	7221
814.833	7103
814.974	7122
815.115	7160
815.256	6924
815.397	6894
815.539	6989
815.68	6821
815.821	6787
815.962	6783
816.103	6776
816.244	6783
816.385	6627
816.526	6547
816.666	6502
816.807	6273
816.948	6395
817.089	6483
817.23	6407
817.371	6369
817.512	6403
817.653	6403
817.793	6414
817.934	6403
818.075	6452
818.216	6395
818.356	6388
818.497	6289
818.638	6136
818.778	6155
818.919	6152
819.06	6106
819.2	6277
819.341	6319
819.481	6407
819.622	6544
819.762	6772
819.903	6757
820.043	6627
820.184	6627
820.324	6631
820.465	6749
820.605	6688
820.746	6646
820.886	6551
821.026	6719
821.167	6753
821.307	6798
821.447	6810
821.588	6719
821.728	6582
821.868	6540
822.008	6334
822.149	6372
822.289	6403
822.429	6186
822.569	6102
822.709	6102
822.849	5973
822.99	5946
823.13	5923
823.27	5942
823.41	5851
823.55	5821
823.69	5794
823.83	5748
823.97	5699
824.11	5524
824.25	5551
824.389	5558
824.529	5554
824.669	5573
824.809	5638
824.949	5661
825.089	5623
825.228	5543
825.368	5395
825.508	5398
825.648	5364
825.787	5357
825.927	5357
826.067	5349
826.206	5273
826.346	5364
826.485	5410
826.625	5429
826.765	5551
826.904	5455
827.044	5261
827.183	5204
827.323	5181
827.462	5273
827.601	5147
827.741	5170
827.88	5174
828.02	5117
828.159	5284
828.298	5303
828.437	5398
828.577	5265
828.716	5455
828.855	5376
828.994	5159
829.134	5124
829.273	5181
829.412	5143
829.551	5151
829.69	5147
829.829	5162
829.968	5341
830.107	5292
830.246	5315
830.385	5102
830.524	5143
830.663	5052
830.802	4968
830.941	4904
831.08	4824
831.219	4968
831.357	4999
831.496	5193
831.635	4915
831.774	4801
831.913	4866
832.051	4752
832.19	4740
832.329	4854
832.467	4691
832.606	4672
832.744	4725
832.883	4740
833.022	4706
833.16	4752
833.299	4835
833.437	4782
833.576	4847
833.714	4809
833.852	4862
833.991	4881
834.129	4942
834.267	4957
834.406	4896
834.544	4995
834.682	4984
834.821	4923
834.959	5155
835.097	4953
835.235	5124
835.373	5090
835.511	5090
835.65	5064
835.788	5041
835.926	4892
836.064	4877
836.202	4949
836.34	5155
836.478	5242
836.615	5056
836.753	5261
836.891	5292
837.029	5227
837.167	5185
837.305	5170
837.443	5124
837.58	5048
837.718	5208
837.856	5193
837.993	5140
838.131	5197
838.269	5223
838.406	5208
838.544	5140
838.681	5014
838.819	5029
838.956	4877
839.094	4942
839.231	4972
839.369	5067
839.506	5376
839.643	5284
839.781	5033
839.918	5033
840.055	5052
840.193	5113
840.33	5159
840.467	5124
840.604	5166
840.742	5410
840.879	5056
841.016	5086
841.153	5105
841.29	5379
841.427	5387
841.564	5280
841.701	5284
841.838	5250
841.975	5273
842.112	5201
842.249	5170
842.385	5079
842.522	5299
842.659	5242
842.796	5121
842.933	5242
843.069	5143
843.206	5132
843.343	5284
843.479	5201
843.616	5265
843.752	5060
843.889	5022
844.025	5212
844.162	4946
844.298	5151
844.435	5079
844.571	5071
844.708	5124
844.844	5311
844.98	5315
845.117	5330
845.253	5105
845.389	5060
845.525	5151
845.661	5151
845.798	5018
845.934	5075
846.07	5010
846.206	5216
846.342	5269
846.478	5216
846.614	5045
846.75	4953
846.886	4946
847.022	5124
847.158	4976
847.294	5075
847.429	5117
847.565	5045
847.701	5303
847.837	4877
847.972	4793
848.108	4957
848.244	4946
848.379	4752
848.515	4752
848.65	4744
848.786	4725
848.921	4740
849.057	4828
849.192	4908
849.328	4774
849.463	4885
849.598	4793
849.734	4748
849.869	4702
850.004	4653
850.14	4675
850.275	4577
850.41	4577
850.545	4561
850.68	4573
850.815	4645
850.95	4634
851.085	4885
851.22	4755
851.355	4710
851.49	4607
851.625	4687
851.76	4668
851.895	4565
852.03	4554
852.165	4683
852.299	4748
852.434	4797
852.569	4763
852.703	4801
852.838	4915
852.973	5006
853.107	4930
853.242	4767
853.376	4691
853.511	4641
853.645	4634
853.78	4858
853.914	4778
854.048	4691
854.183	4672
854.317	4767
854.451	4866
854.585	4702
854.72	4687
854.854	4812
854.988	4649
855.122	4649
855.256	4535
855.39	4725
855.524	4767
855.658	4763
855.792	4717
855.926	4782
856.06	4843
856.194	4866
856.327	4805
856.461	4599
856.595	4694
856.729	4698
856.862	4793
856.996	4744
857.13	4755
857.263	4809
857.397	4858
857.53	4691
857.664	4778
857.797	4774
857.931	4793
858.064	4725
858.197	4740
858.331	4691
858.464	4630
858.597	4599
858.731	4653
858.864	4649
858.997	4649
859.13	4656
859.263	4675
859.396	4672
859.529	4607
859.662	4573
859.795	4577
859.928	4675
860.061	4763
860.194	4793
860.327	4653
860.46	4626
860.592	4702
860.725	4740
860.858	4736
860.99	4615
861.123	4546
861.256	4577
861.388	4641
861.521	5463
861.653	4550
861.786	4436
861.918	4531
862.05	4558
862.183	4580
862.315	4603
862.447	4656
862.58	4592
862.712	4451
862.844	4383
862.976	4531
863.108	4443
863.24	4759
863.372	4386
863.504	4459
863.636	4459
863.768	4474
863.9	4481
864.032	4386
864.164	4466
864.296	4474
864.428	4592
864.559	4615
864.691	4618
864.823	4542
864.954	4535
865.086	4516
865.217	4470
865.349	4462
865.48	4504
865.612	4504
865.743	4641
865.875	4527
866.006	4428
866.137	4489
866.269	4500
866.4	4500
866.531	4478
866.662	4436
866.793	4451
866.924	4497
867.055	4565
867.186	4485
867.317	4455
867.448	4356
867.579	4421
867.71	4455
867.841	4394
867.972	4470
868.103	4489
868.233	4493
868.364	4508
868.495	4516
868.625	4653
868.756	4774
868.886	4603
869.017	4672
869.147	4774
869.278	4774
869.408	4752
869.539	4706
869.669	4771
869.799	4698
869.929	4797
870.06	4812
870.19	4991
870.32	4927
870.45	4976
870.58	5029
870.71	5109
870.84	5090
870.97	4927
871.1	4934
871.23	5170
871.36	5155
871.489	5060
871.619	5128
871.749	5162
871.879	5174
872.008	5204
872.138	5086
872.267	5010
872.397	4866
872.526	4839
872.656	4763
872.785	4889
872.915	4987
873.044	5037
873.173	4961
873.303	5003
873.432	5018
873.561	4942
873.69	4953
873.819	4915
873.948	5003
874.077	4862
874.206	4820
874.335	4835
874.464	4961
874.593	5071
874.722	4927
874.851	5147
874.979	5140
875.108	5113
875.237	4946
875.365	4896
875.494	4927
875.623	5014
875.751	4892
875.88	4911
876.008	4999
876.136	5071
876.265	5235
876.393	5349
876.521	5292
876.65	5250
876.778	5159
876.906	5094
877.034	5060
877.162	5067
877.29	5083
877.418	5090
877.546	5067
877.674	5113
877.802	5029
877.93	5071
878.058	5010
878.185	4946
878.313	4957
878.441	5033
878.568	4900
878.696	4896
878.824	4995
878.951	5029
879.079	5201
879.206	5280
879.333	5136
879.461	4987
879.588	5033
879.715	5151
879.842	5258
879.97	5041
880.097	4805
880.224	4812
880.351	4835
880.478	4820
880.605	4805
880.732	4729
880.859	5151
880.986	4927
881.112	4972
881.239	4809
881.366	4736
881.493	4645
881.619	4630
881.746	4706
881.872	4664
881.999	4672
882.125	4763
882.252	4797
882.378	4870
882.505	4949
882.631	4881
882.757	4725
882.883	4820
883.01	4706
883.136	4733
883.262	4607
883.388	4611
883.514	4831
883.64	4896
883.766	4839
883.892	4740
884.018	4759
884.143	4873
884.269	4991
884.395	4714
884.52	4653
884.646	4675
884.772	4637
884.897	4588
885.023	4744
885.148	4786
885.274	4915
885.399	4828
885.524	4778
885.65	4733
885.775	4752
885.9	4767
886.025	4881
886.15	4828
886.275	4801
886.4	4649
886.525	4759
886.65	4717
886.775	4744
886.9	4942
887.025	5060
887.149	4862
887.274	4729
887.399	4592
887.523	4664
887.648	4573
887.773	4626
887.897	4828
888.021	4862
888.146	4721
888.27	4866
888.395	4957
888.519	4854
888.643	4831
888.767	4866
888.891	4744
889.015	4656
889.139	4675
889.263	4611
889.387	4809
889.511	4885
889.635	4877
889.759	4698
889.883	4706
890.006	4759
890.13	4839
890.254	4592
890.377	4710
890.501	4607
890.624	4550
890.748	4622
890.871	4516
890.995	4443
891.118	4451
891.241	4550
891.364	4611
891.488	4679
891.611	4504
891.734	4550
891.857	4645
891.98	4573
892.103	4694
892.226	4634
892.349	4561
892.471	4432
892.594	4558
892.717	4634
892.839	4592
892.962	4611
893.085	4706
893.207	4645
893.33	4466
893.452	4500
893.575	4706
893.697	4626
893.819	4843
893.941	4850
894.064	4809
894.186	4615
894.308	4626
894.43	4755
894.552	4820
894.674	4767
894.796	4615
894.918	4611
895.04	4618
895.161	4748
895.283	4694
895.405	4596
895.526	4641
895.648	4706
895.769	4714
895.891	4687
896.012	4797
896.134	4752
896.255	4717
896.376	4706
896.498	4626
896.619	4691
896.74	4626
896.861	4668
896.982	4991
897.103	5098
897.224	4828
897.345	4748
897.466	4698
897.587	4744
897.708	4820
897.828	4854
897.949	4694
898.07	4618
898.19	4656
898.311	4835
898.431	4698
898.552	4771
898.672	4805
898.792	4847
898.913	4725
899.033	4675
899.153	4573
899.273	4462
899.393	4474
899.513	4531
899.633	4531
899.753	4569
899.873	4504
899.993	4599
900.113	4565
900.232	4599
900.352	4577
900.472	4470
900.591	4428
900.711	4485
900.83	4428
900.95	4637
901.069	4710
901.189	4550
901.308	4417
901.427	4322
901.546	4394
901.665	4466
901.784	4512
901.904	4516
902.023	4333
902.141	4234
902.26	4158
902.379	4306
902.498	4257
902.617	4227
902.735	4413
902.854	4447
902.973	4379
903.091	4246
903.21	4242
903.328	4337
903.446	4310
903.565	4280
903.683	4356
903.801	4291
903.919	4417
904.038	4394
904.156	4371
904.274	4466
904.392	4440
904.51	4462
904.627	4497
904.745	4596
904.863	4672
904.981	4436
905.098	4325
905.216	4375
905.334	4383
905.451	4497
905.569	4474
905.686	4584
905.803	4622
905.921	4443
906.038	4577
906.155	4519
906.272	4459
906.389	4485
906.506	4360
906.623	4409
906.74	4451
906.857	4299
906.974	4371
907.091	4573
907.208	4668
907.324	4611
907.441	4527
907.557	4367
907.674	4402
907.79	4295
907.907	4405
908.023	4523
908.139	4447
908.256	4432
908.372	4466
908.488	4478
908.604	4356
908.72	4337
908.836	4398
908.952	4344
909.068	4474
909.184	4577
909.3	4550
909.415	4603
909.531	4546
909.647	4352
909.762	4409
909.878	4291
909.993	4451
910.108	4424
910.224	4432
910.339	4523
910.454	4451
910.57	4447
910.685	4344
910.8	4634
910.915	4599
911.03	4500
911.145	4322
911.259	4379
911.374	4383
911.489	4306
911.604	4299
911.718	4192
911.833	4185
911.947	4116
912.062	4040
912.176	4219
912.291	4287
912.405	4230
912.519	4466
912.633	4481
912.748	4371
912.862	4337
912.976	4242
913.09	4128
913.204	4139
913.318	4299
913.431	4390
913.545	4383
913.659	4443
913.772	4367
913.886	4249
914	4234
914.113	4375
914.226	4421
914.34	4402
914.453	4246
914.566	4409
914.68	4341
914.793	4322
914.906	4173
915.019	4150
915.132	4097
915.245	4158
915.358	4219
915.47	4227
915.583	4287
915.696	4333
915.809	4421
915.921	4447
916.034	4295
916.146	4280
916.259	4242
916.371	4398
916.483	4325
916.595	4272
916.708	4333
916.82	4360
916.932	4386
917.044	4371
917.156	4363
917.268	4230
917.38	4322
917.491	4287
917.603	4337
917.715	4440
917.826	4493
917.938	4402
918.049	4261
918.161	4417
918.272	4554
918.384	4561
918.495	4459
918.606	4291
918.717	4287
918.828	4375
918.939	4409
919.05	4314
919.161	4371
919.272	4185
919.383	4257
919.494	4519
919.604	4672
919.715	4485
919.826	4379
919.936	4436
920.047	4596
920.157	4523
920.267	4744
920.378	4596
920.488	4519
920.598	4824
920.708	4930
920.818	4816
920.928	4828
921.038	4949
921.148	4946
921.258	4679
921.368	4626
921.477	4569
921.587	4542
921.697	4375
921.806	4622
921.916	4481
922.025	4284
922.134	4318
922.244	4284
922.353	4379
922.462	4268
922.571	4204
922.68	4048
922.789	4032
922.898	4063
923.007	4059
923.116	4173
923.224	4093
923.333	4063
923.442	4051
923.55	4051
923.659	4059
923.767	4150
923.876	4036
923.984	4196
924.092	4006
924.201	4109
924.309	4162
924.417	4185
924.525	4109
924.633	4135
924.741	5083
924.849	3994
924.956	4166
925.064	3991
925.172	3907
925.279	4044
925.387	4097
925.494	4120
925.602	4249
925.709	4207
925.816	4093
925.924	4143
926.031	4261
926.138	4207
926.245	4223
926.352	4135
926.459	4322
926.566	4314
926.673	4223
926.779	4154
926.886	4147
926.993	3987
927.099	3979
927.206	3979
927.312	3979
927.419	4093
927.525	4059
927.631	4128
927.737	4006
927.843	3994
927.95	3915
928.056	4013
928.162	4010
928.267	4090
928.373	4641
928.479	4082
928.585	3907
928.69	4040
928.796	4150
928.901	4010
929.007	3896
929.112	4044
929.218	3975
929.323	3983
929.428	3941
929.533	4097
929.638	3987
929.743	4021
929.848	4063
929.953	4048
930.058	3983
930.163	3781
930.267	3865
930.372	4059
930.477	3835
930.581	4105
930.685	3956
930.79	3850
930.894	3926
930.998	3896
931.103	4097
931.207	3720
931.311	3694
931.415	3724
931.519	3568
931.623	3580
