Data from test_V78500241_23.txt Node
Date: Fri Mar 25 16:49:09 CST 2022
User: usil
Spectrometer: V785-0024
Trigger mode: 0
Integration Time (sec): 4.000000E-1
Scans to average: 1
Nonlinearity correction enabled: false
Boxcar width: 0
Storing dark spectrum: false
XAxis mode: Wavelengths
Number of Pixels in Spectrum: 1024
>>>>>Begin Spectral Data<<<<<
801.071	8084
801.214	8126
801.356	8008
801.499	7932
801.641	7822
801.783	7902
801.926	8001
802.068	8073
802.211	8054
802.353	8103
802.496	7967
802.638	7940
802.78	8001
802.923	7989
803.065	7894
803.208	7925
803.35	7989
803.492	8161
803.635	8180
803.777	7997
803.919	8138
804.061	8476
804.204	8214
804.346	8161
804.488	7986
804.63	8172
804.773	8031
804.915	8100
805.057	8294
805.199	8202
805.341	8301
805.483	8275
805.626	8275
805.768	8153
805.91	8180
806.052	8195
806.194	8138
806.336	8263
806.478	8145
806.62	8069
806.762	8210
806.904	8412
807.046	8450
807.188	8374
807.33	8351
807.472	8370
807.614	8142
807.756	8168
807.898	8046
808.04	7944
808.182	7982
808.324	7974
808.465	7993
808.607	8115
808.749	8138
808.891	8168
809.033	8332
809.174	8153
809.316	8107
809.458	8088
809.6	8024
809.741	8084
809.883	8050
810.025	8161
810.166	8088
810.308	8103
810.45	8134
810.591	7970
810.733	7792
810.875	7723
811.016	7590
811.158	7529
811.299	7681
811.441	7833
811.582	7792
811.724	7605
811.865	7586
812.007	7666
812.148	7696
812.29	7696
812.431	7784
812.573	7959
812.714	8005
812.855	8237
812.997	8161
813.138	8412
813.279	8138
813.421	8149
813.562	8092
813.703	7947
813.845	7788
813.986	7533
814.127	7335
814.268	7251
814.41	7316
814.551	7244
814.692	7289
814.833	7194
814.974	7084
815.115	7156
815.256	7061
815.397	6951
815.539	7019
815.68	6909
815.821	6806
815.962	6935
816.103	6829
816.244	6760
816.385	6650
816.526	6654
816.666	6490
816.807	6361
816.948	6448
817.089	6456
817.23	6486
817.371	6433
817.512	6384
817.653	6456
817.793	6437
817.934	6490
818.075	6490
818.216	6513
818.356	6498
818.497	6342
818.638	6213
818.778	6201
818.919	6232
819.06	6228
819.2	6384
819.341	6410
819.481	6414
819.622	6700
819.762	6863
819.903	6829
820.043	6703
820.184	6646
820.324	6707
820.465	6741
820.605	6791
820.746	6684
820.886	6665
821.026	6741
821.167	6837
821.307	6837
821.447	6863
821.588	6730
821.728	6616
821.868	6578
822.008	6388
822.149	6407
822.289	6448
822.429	6285
822.569	6171
822.709	6220
822.849	5977
822.99	5939
823.13	6034
823.27	5954
823.41	5828
823.55	5863
823.69	5824
823.83	5863
823.97	5764
824.11	5604
824.25	5532
824.389	5577
824.529	5649
824.669	5554
824.809	5676
824.949	5771
825.089	5699
825.228	5646
825.368	5429
825.508	5452
825.648	5429
825.787	5509
825.927	5414
826.067	5406
826.206	5395
826.346	5410
826.485	5474
826.625	5444
826.765	5585
826.904	5516
827.044	5326
827.183	5216
827.323	5197
827.462	5288
827.601	5246
827.741	5242
827.88	5280
828.02	5162
828.159	5277
828.298	5376
828.437	5398
828.577	5303
828.716	5581
828.855	5398
828.994	5235
829.134	5185
829.273	5250
829.412	5239
829.551	5162
829.69	5239
829.829	5345
829.968	5471
830.107	5334
830.246	5307
830.385	5265
830.524	5208
830.663	5105
830.802	5041
830.941	4980
831.08	4930
831.219	5090
831.357	5022
831.496	5178
831.635	4984
831.774	4892
831.913	4942
832.051	4816
832.19	4759
832.329	4915
832.467	4793
832.606	4653
832.744	4752
832.883	4793
833.022	4809
833.16	4850
833.299	4927
833.437	4858
833.576	4866
833.714	4904
833.852	4881
833.991	4942
834.129	5033
834.267	4984
834.406	4923
834.544	5075
834.682	5029
834.821	5003
834.959	5193
835.097	5048
835.235	5261
835.373	5147
835.511	5231
835.65	5056
835.788	5029
835.926	4930
836.064	4953
836.202	4972
836.34	5212
836.478	5235
836.615	5193
836.753	5258
836.891	5379
837.029	5337
837.167	5254
837.305	5189
837.443	5178
837.58	5193
837.718	5330
837.856	5239
837.993	5197
838.131	5345
838.269	5246
838.406	5231
838.544	5235
838.681	5048
838.819	5052
838.956	4923
839.094	4976
839.231	5041
839.369	5105
839.506	5471
839.643	5326
839.781	5083
839.918	5105
840.055	5178
840.193	5166
840.33	5216
840.467	5208
840.604	5250
840.742	5501
840.879	5170
841.016	5204
841.153	5246
841.29	5436
841.427	5353
841.564	5376
841.701	5433
841.838	5349
841.975	5326
842.112	5303
842.249	5159
842.385	5189
842.522	5410
842.659	5242
842.796	5170
842.933	5254
843.069	5231
843.206	5166
843.343	5326
843.479	5303
843.616	5376
843.752	5060
843.889	5102
844.025	5277
844.162	5143
844.298	5269
844.435	5166
844.571	5090
844.708	5261
844.844	5349
844.98	5376
845.117	5341
845.253	5193
845.389	5124
845.525	5208
845.661	5162
845.798	5094
845.934	5174
846.07	5098
846.206	5265
846.342	5368
846.478	5204
846.614	5105
846.75	4999
846.886	4991
847.022	5261
847.158	5064
847.294	5102
847.429	5212
847.565	5162
847.701	5406
847.837	4946
847.972	4862
848.108	5018
848.244	4984
848.379	4839
848.515	4835
848.65	4725
848.786	4801
848.921	4866
849.057	4908
849.192	4942
849.328	4881
849.463	4919
849.598	4870
849.734	4801
849.869	4744
850.004	4679
850.14	4767
850.275	4660
850.41	4565
850.545	4580
850.68	4660
850.815	4710
850.95	4687
851.085	4797
851.22	4805
851.355	4694
851.49	4653
851.625	4679
851.76	4679
851.895	4615
852.03	4565
852.165	4675
852.299	4771
852.434	4847
852.569	4778
852.703	4786
852.838	4881
852.973	4953
853.107	4968
853.242	4790
853.376	4778
853.511	4637
853.645	4672
853.78	4885
853.914	4748
854.048	4748
854.183	4672
854.317	4748
854.451	4911
854.585	4714
854.72	4618
854.854	4759
854.988	4664
855.122	4706
855.256	4584
855.39	4714
855.524	4850
855.658	4850
855.792	4729
855.926	4801
856.06	4801
856.194	4847
856.327	4736
856.461	4698
856.595	4706
856.729	4721
856.862	4850
856.996	4847
857.13	4782
857.263	4809
857.397	4866
857.53	4683
857.664	4786
857.797	4828
857.931	4858
858.064	4793
858.197	4831
858.331	4797
858.464	4706
858.597	4622
858.731	4687
858.864	4717
858.997	4664
859.13	4774
859.263	4725
859.396	4812
859.529	4630
859.662	4660
859.795	4626
859.928	4786
860.061	4839
860.194	4885
860.327	4694
860.46	4649
860.592	4801
860.725	4793
860.858	4824
860.99	4645
861.123	4588
861.256	4660
861.388	4683
861.521	5448
861.653	4588
861.786	4573
861.918	4546
862.05	4535
862.183	4626
862.315	4698
862.447	4717
862.58	4679
862.712	4462
862.844	4440
862.976	4519
863.108	4508
863.24	4938
863.372	4402
863.504	4500
863.636	4508
863.768	4538
863.9	4546
864.032	4508
864.164	4481
864.296	4550
864.428	4664
864.559	4641
864.691	4649
864.823	4603
864.954	4569
865.086	4660
865.217	4569
865.349	4516
865.48	4558
865.612	4554
865.743	4721
865.875	4550
866.006	4569
866.137	4519
866.269	4558
866.4	4535
866.531	4493
866.662	4489
866.793	4470
866.924	4538
867.055	4592
867.186	4573
867.317	4523
867.448	4478
867.579	4459
867.71	4432
867.841	4474
867.972	4542
868.103	4558
868.233	4527
868.364	4504
868.495	4596
868.625	4786
868.756	4866
868.886	4702
869.017	4672
869.147	4885
869.278	4858
869.408	4706
869.539	4729
869.669	4812
869.799	4733
869.929	4843
870.06	4828
870.19	5045
870.32	4991
870.45	5029
870.58	5121
870.71	5162
870.84	5227
870.97	4991
871.1	4938
871.23	5193
871.36	5178
871.489	5113
871.619	5094
871.749	5231
871.879	5250
872.008	5254
872.138	5201
872.267	5105
872.397	4953
872.526	4862
872.656	4824
872.785	4896
872.915	5045
873.044	5113
873.173	5056
873.303	5071
873.432	5052
873.561	5056
873.69	4968
873.819	4946
873.948	4949
874.077	4896
874.206	4850
874.335	4866
874.464	5075
874.593	5181
874.722	5045
874.851	5204
874.979	5147
875.108	5128
875.237	5003
875.365	4934
875.494	4949
875.623	5064
875.751	4866
875.88	4984
876.008	5052
876.136	5159
876.265	5322
876.393	5455
876.521	5337
876.65	5311
876.778	5261
876.906	5143
877.034	5128
877.162	5128
877.29	5052
877.418	5170
877.546	5117
877.674	5098
877.802	5086
877.93	5124
878.058	5048
878.185	4942
878.313	5105
878.441	5010
878.568	4850
878.696	4972
878.824	5014
878.951	5071
879.079	5250
879.206	5345
879.333	5204
879.461	5090
879.588	5109
879.715	5197
879.842	5296
879.97	5098
880.097	4866
880.224	4881
880.351	4900
880.478	4934
880.605	4873
880.732	4885
880.859	5166
880.986	5018
881.112	4972
881.239	4889
881.366	4714
881.493	4668
881.619	4660
881.746	4702
881.872	4759
881.999	4786
882.125	4801
882.252	4858
882.378	4881
882.505	5029
882.631	4877
882.757	4801
882.883	4820
883.01	4820
883.136	4763
883.262	4641
883.388	4698
883.514	4904
883.64	4923
883.766	4866
883.892	4782
884.018	4831
884.143	4957
884.269	5113
884.395	4771
884.52	4717
884.646	4698
884.772	4664
884.897	4683
885.023	4797
885.148	4858
885.274	4946
885.399	4908
885.524	4759
885.65	4812
885.775	4812
885.9	4740
886.025	4946
886.15	4854
886.275	4797
886.4	4771
886.525	4854
886.65	4771
886.775	4740
886.9	4980
887.025	5151
887.149	4904
887.274	4740
887.399	4717
887.523	4714
887.648	4653
887.773	4691
887.897	4763
888.021	4862
888.146	4774
888.27	4896
888.395	4999
888.519	4919
888.643	4900
888.767	4904
888.891	4786
889.015	4675
889.139	4721
889.263	4691
889.387	4805
889.511	4942
889.635	4908
889.759	4714
889.883	4687
890.006	4793
890.13	4908
890.254	4694
890.377	4748
890.501	4596
890.624	4573
890.748	4698
890.871	4584
890.995	4462
891.118	4451
891.241	4599
891.364	4630
891.488	4702
891.611	4584
891.734	4618
891.857	4649
891.98	4611
892.103	4740
892.226	4668
892.349	4615
892.471	4485
892.594	4649
892.717	4645
892.839	4603
892.962	4714
893.085	4782
893.207	4656
893.33	4550
893.452	4554
893.575	4755
893.697	4660
893.819	4881
893.941	4866
894.064	4885
894.186	4687
894.308	4592
894.43	4801
894.552	4896
894.674	4843
894.796	4641
894.918	4717
895.04	4656
895.161	4767
895.283	4767
895.405	4710
895.526	4691
895.648	4725
895.769	4778
895.891	4778
896.012	4778
896.134	4790
896.255	4767
896.376	4706
896.498	4714
896.619	4733
896.74	4710
896.861	4679
896.982	4991
897.103	5166
897.224	4862
897.345	4771
897.466	4759
897.587	4828
897.708	4896
897.828	4873
897.949	4710
898.07	4653
898.19	4675
898.311	4904
898.431	4763
898.552	4820
898.672	4911
898.792	4904
898.913	4748
899.033	4668
899.153	4615
899.273	4535
899.393	4546
899.513	4561
899.633	4626
899.753	4618
899.873	4599
899.993	4691
900.113	4615
900.232	4630
900.352	4611
900.472	4561
900.591	4508
900.711	4561
900.83	4508
900.95	4637
901.069	4759
901.189	4588
901.308	4466
901.427	4371
901.546	4421
901.665	4577
901.784	4569
901.904	4478
902.023	4390
902.141	4257
902.26	4246
902.379	4367
902.498	4295
902.617	4299
902.735	4451
902.854	4493
902.973	4402
903.091	4295
903.21	4242
903.328	4409
903.446	4318
903.565	4287
903.683	4440
903.801	4341
903.919	4462
904.038	4554
904.156	4379
904.274	4527
904.392	4485
904.51	4542
904.627	4508
904.745	4630
904.863	4683
904.981	4523
905.098	4375
905.216	4451
905.334	4466
905.451	4485
905.569	4481
905.686	4626
905.803	4634
905.921	4527
906.038	4584
906.155	4535
906.272	4474
906.389	4546
906.506	4383
906.623	4459
906.74	4489
906.857	4375
906.974	4440
907.091	4626
907.208	4774
907.324	4634
907.441	4592
907.557	4436
907.674	4424
907.79	4405
907.907	4386
908.023	4577
908.139	4550
908.256	4519
908.372	4516
908.488	4523
908.604	4443
908.72	4379
908.836	4466
908.952	4417
909.068	4497
909.184	4641
909.3	4542
909.415	4656
909.531	4668
909.647	4402
909.762	4470
909.878	4413
909.993	4493
910.108	4516
910.224	4462
910.339	4550
910.454	4424
910.57	4405
910.685	4363
910.8	4778
910.915	4672
911.03	4538
911.145	4405
911.259	4367
911.374	4436
911.489	4322
911.604	4390
911.718	4238
911.833	4242
911.947	4154
912.062	4086
912.176	4268
912.291	4318
912.405	4333
912.519	4516
912.633	4573
912.748	4402
912.862	4310
912.976	4272
913.09	4158
913.204	4211
913.318	4341
913.431	4470
913.545	4436
913.659	4519
913.772	4424
913.886	4329
914	4310
914.113	4459
914.226	4523
914.34	4443
914.453	4280
914.566	4497
914.68	4337
914.793	4402
914.906	4257
915.019	4215
915.132	4128
915.245	4238
915.358	4249
915.47	4318
915.583	4291
915.696	4375
915.809	4485
915.921	4489
916.034	4356
916.146	4306
916.259	4310
916.371	4440
916.483	4394
916.595	4303
916.708	4405
916.82	4394
916.932	4383
917.044	4447
917.156	4394
917.268	4344
917.38	4367
917.491	4352
917.603	4394
917.715	4470
917.826	4538
917.938	4413
918.049	4348
918.161	4428
918.272	4618
918.384	4615
918.495	4512
918.606	4413
918.717	4272
918.828	4409
918.939	4500
919.05	4348
919.161	4329
919.272	4181
919.383	4280
919.494	4527
919.604	4687
919.715	4470
919.826	4436
919.936	4470
920.047	4577
920.157	4554
920.267	4763
920.378	4622
920.488	4546
920.598	4797
920.708	4938
920.818	4858
920.928	4786
921.038	5025
921.148	4934
921.258	4706
921.368	4630
921.477	4565
921.587	4611
921.697	4436
921.806	4603
921.916	4546
922.025	4394
922.134	4344
922.244	4322
922.353	4344
922.462	4242
922.571	4219
922.68	4101
922.789	4021
922.898	4051
923.007	4040
923.116	4135
923.224	4116
923.333	4166
923.442	4071
923.55	4040
923.659	4105
923.767	4200
923.876	4029
923.984	4196
924.092	4032
924.201	4139
924.309	4101
924.417	4219
924.525	4143
924.633	4185
924.741	5174
924.849	3975
924.956	4158
925.064	4036
925.172	3964
925.279	4025
925.387	4097
925.494	4090
925.602	4291
925.709	4295
925.816	4154
925.924	4162
926.031	4249
926.138	4204
926.245	4253
926.352	4166
926.459	4284
926.566	4367
926.673	4257
926.779	4150
926.886	4147
926.993	4032
927.099	4006
927.206	3983
927.312	4086
927.419	4101
927.525	4048
927.631	4101
927.737	3983
927.843	3968
927.95	3854
928.056	4002
928.162	4044
928.267	4131
928.373	4790
928.479	4181
928.585	3907
928.69	4101
928.796	4166
928.901	4013
929.007	3842
929.112	4074
929.218	4029
929.323	4021
929.428	3998
929.533	4128
929.638	3972
929.743	4017
929.848	4105
929.953	4025
930.058	3991
930.163	3835
930.267	3831
930.372	4025
930.477	3892
930.581	4128
930.685	3975
930.79	3857
930.894	3975
930.998	3865
931.103	4078
931.207	3781
931.311	3720
931.415	3728
931.519	3549
931.623	3603
