Data from test_V78500241_123.txt Node
Date: Fri Mar 25 16:49:51 CST 2022
User: usil
Spectrometer: V785-0024
Trigger mode: 0
Integration Time (sec): 4.000000E-1
Scans to average: 1
Nonlinearity correction enabled: false
Boxcar width: 0
Storing dark spectrum: false
XAxis mode: Wavelengths
Number of Pixels in Spectrum: 1024
>>>>>Begin Spectral Data<<<<<
801.071	7951
801.214	7982
801.356	7909
801.499	7898
801.641	7826
801.783	7883
801.926	7947
802.068	8031
802.211	8069
802.353	8031
802.496	7875
802.638	7887
802.78	7921
802.923	7913
803.065	7864
803.208	7799
803.35	8005
803.492	8050
803.635	8145
803.777	7921
803.919	8134
804.061	8415
804.204	8039
804.346	7974
804.488	7887
804.63	8027
804.773	8035
804.915	8123
805.057	8237
805.199	8100
805.341	8145
805.483	8358
805.626	8187
805.768	8103
805.91	8172
806.052	8183
806.194	8172
806.336	8259
806.478	8119
806.62	8153
806.762	8176
806.904	8240
807.046	8419
807.188	8339
807.33	8256
807.472	8332
807.614	8168
807.756	8142
807.898	8046
808.04	7932
808.182	7898
808.324	7936
808.465	7887
808.607	8043
808.749	8077
808.891	8214
809.033	8370
809.174	8187
809.316	8054
809.458	8073
809.6	8035
809.741	8096
809.883	8035
810.025	8092
810.166	8084
810.308	8107
810.45	7993
810.591	7906
810.733	7757
810.875	7742
811.016	7586
811.158	7548
811.299	7575
811.441	7807
811.582	7818
811.724	7666
811.865	7620
812.007	7685
812.148	7655
812.29	7700
812.431	7788
812.573	7951
812.714	8046
812.855	8271
812.997	8275
813.138	8442
813.279	8214
813.421	8138
813.562	8062
813.703	7959
813.845	7799
813.986	7449
814.127	7278
814.268	7247
814.41	7289
814.551	7217
814.692	7293
814.833	7110
814.974	7206
815.115	7168
815.256	7053
815.397	6970
815.539	6962
815.68	6894
815.821	6818
815.962	6848
816.103	6867
816.244	6779
816.385	6684
816.526	6722
816.666	6509
816.807	6372
816.948	6498
817.089	6502
817.23	6426
817.371	6422
817.512	6441
817.653	6418
817.793	6407
817.934	6414
818.075	6437
818.216	6448
818.356	6437
818.497	6243
818.638	6152
818.778	6175
818.919	6209
819.06	6197
819.2	6334
819.341	6346
819.481	6380
819.622	6616
819.762	6779
819.903	6722
820.043	6650
820.184	6662
820.324	6589
820.465	6722
820.605	6734
820.746	6703
820.886	6528
821.026	6669
821.167	6806
821.307	6776
821.447	6818
821.588	6700
821.728	6601
821.868	6551
822.008	6399
822.149	6418
822.289	6380
822.429	6186
822.569	6163
822.709	6133
822.849	5973
822.99	5916
823.13	5980
823.27	5893
823.41	5824
823.55	5844
823.69	5821
823.83	5832
823.97	5714
824.11	5608
824.25	5535
824.389	5638
824.529	5611
824.669	5581
824.809	5604
824.949	5699
825.089	5665
825.228	5604
825.368	5421
825.508	5364
825.648	5357
825.787	5376
825.927	5414
826.067	5334
826.206	5311
826.346	5406
826.485	5463
826.625	5387
826.765	5543
826.904	5493
827.044	5288
827.183	5227
827.323	5170
827.462	5227
827.601	5185
827.741	5204
827.88	5227
828.02	5121
828.159	5250
828.298	5341
828.437	5360
828.577	5242
828.716	5524
828.855	5334
828.994	5181
829.134	5174
829.273	5189
829.412	5197
829.551	5189
829.69	5193
829.829	5254
829.968	5322
830.107	5303
830.246	5311
830.385	5151
830.524	5117
830.663	5060
830.802	5025
830.941	4877
831.08	4870
831.219	4991
831.357	4980
831.496	5174
831.635	4938
831.774	4824
831.913	4873
832.051	4752
832.19	4767
832.329	4915
832.467	4725
832.606	4637
832.744	4733
832.883	4717
833.022	4744
833.16	4847
833.299	4850
833.437	4873
833.576	4877
833.714	4862
833.852	4915
833.991	4908
834.129	4980
834.267	4995
834.406	4919
834.544	5003
834.682	4987
834.821	4972
834.959	5159
835.097	4991
835.235	5197
835.373	5067
835.511	5102
835.65	5029
835.788	5048
835.926	4946
836.064	4881
836.202	4911
836.34	5197
836.478	5220
836.615	5185
836.753	5201
836.891	5296
837.029	5235
837.167	5212
837.305	5159
837.443	5201
837.58	5090
837.718	5258
837.856	5185
837.993	5155
838.131	5269
838.269	5239
838.406	5204
838.544	5193
838.681	5086
838.819	5018
838.956	4949
839.094	4957
839.231	5006
839.369	5090
839.506	5364
839.643	5326
839.781	5014
839.918	5064
840.055	5121
840.193	5086
840.33	5117
840.467	5178
840.604	5162
840.742	5452
840.879	5067
841.016	5124
841.153	5174
841.29	5353
841.427	5341
841.564	5391
841.701	5345
841.838	5280
841.975	5258
842.112	5254
842.249	5128
842.385	5105
842.522	5330
842.659	5159
842.796	5181
842.933	5227
843.069	5155
843.206	5162
843.343	5357
843.479	5231
843.616	5326
843.752	5071
843.889	5048
844.025	5231
844.162	5022
844.298	5246
844.435	5109
844.571	5045
844.708	5223
844.844	5318
844.98	5402
845.117	5360
845.253	5121
845.389	5155
845.525	5239
845.661	5147
845.798	5083
845.934	5121
846.07	5056
846.206	5223
846.342	5341
846.478	5216
846.614	5018
846.75	4995
846.886	4980
847.022	5185
847.158	5048
847.294	5037
847.429	5105
847.565	5086
847.701	5406
847.837	4854
847.972	4862
848.108	4976
848.244	4934
848.379	4782
848.515	4740
848.65	4740
848.786	4759
848.921	4752
849.057	4870
849.192	4934
849.328	4824
849.463	4839
849.598	4816
849.734	4786
849.869	4729
850.004	4580
850.14	4660
850.275	4634
850.41	4554
850.545	4634
850.68	4653
850.815	4656
850.95	4641
851.085	4858
851.22	4763
851.355	4740
851.49	4664
851.625	4603
851.76	4656
851.895	4580
852.03	4558
852.165	4649
852.299	4698
852.434	4805
852.569	4679
852.703	4812
852.838	4862
852.973	4999
853.107	4957
853.242	4752
853.376	4706
853.511	4546
853.645	4596
853.78	4812
853.914	4698
854.048	4702
854.183	4630
854.317	4763
854.451	4881
854.585	4653
854.72	4641
854.854	4774
854.988	4569
855.122	4664
855.256	4542
855.39	4706
855.524	4816
855.658	4759
855.792	4698
855.926	4759
856.06	4805
856.194	4847
856.327	4683
856.461	4668
856.595	4660
856.729	4603
856.862	4733
856.996	4668
857.13	4721
857.263	4778
857.397	4790
857.53	4717
857.664	4733
857.797	4805
857.931	4831
858.064	4675
858.197	4740
858.331	4691
858.464	4656
858.597	4500
858.731	4645
858.864	4679
858.997	4580
859.13	4691
859.263	4714
859.396	4702
859.529	4634
859.662	4603
859.795	4599
859.928	4656
860.061	4759
860.194	4763
860.327	4660
860.46	4542
860.592	4702
860.725	4717
860.858	4702
860.99	4584
861.123	4538
861.256	4489
861.388	4596
861.521	5379
861.653	4519
861.786	4432
861.918	4535
862.05	4565
862.183	4546
862.315	4611
862.447	4687
862.58	4588
862.712	4462
862.844	4314
862.976	4512
863.108	4462
863.24	4862
863.372	4344
863.504	4455
863.636	4455
863.768	4519
863.9	4474
864.032	4409
864.164	4424
864.296	4481
864.428	4569
864.559	4577
864.691	4565
864.823	4523
864.954	4443
865.086	4497
865.217	4493
865.349	4417
865.48	4493
865.612	4466
865.743	4649
865.875	4485
866.006	4443
866.137	4478
866.269	4455
866.4	4421
866.531	4516
866.662	4428
866.793	4402
866.924	4421
867.055	4546
867.186	4485
867.317	4470
867.448	4409
867.579	4405
867.71	4443
867.841	4386
867.972	4497
868.103	4474
868.233	4500
868.364	4451
868.495	4478
868.625	4653
868.756	4767
868.886	4592
869.017	4611
869.147	4782
869.278	4793
869.408	4653
869.539	4660
869.669	4733
869.799	4710
869.929	4774
870.06	4752
870.19	4976
870.32	4908
870.45	4949
870.58	5025
870.71	5102
870.84	5151
870.97	4942
871.1	4927
871.23	5159
871.36	5178
871.489	5018
871.619	5109
871.749	5132
871.879	5166
872.008	5174
872.138	5067
872.267	4999
872.397	4858
872.526	4835
872.656	4733
872.785	4835
872.915	4934
873.044	5048
873.173	4991
873.303	4961
873.432	4953
873.561	4999
873.69	4953
873.819	4908
873.948	4911
874.077	4858
874.206	4736
874.335	4778
874.464	4896
874.593	5098
874.722	4995
874.851	5155
874.979	5060
875.108	5048
875.237	4949
875.365	4870
875.494	4896
875.623	4923
875.751	4862
875.88	4866
876.008	4961
876.136	5037
876.265	5223
876.393	5326
876.521	5284
876.65	5235
876.778	5162
876.906	5105
877.034	5045
877.162	5060
877.29	5022
877.418	5083
877.546	5037
877.674	5102
877.802	5109
877.93	5022
878.058	4919
878.185	4904
878.313	4934
878.441	4995
878.568	4820
878.696	4873
878.824	4957
878.951	5071
879.079	5197
879.206	5353
879.333	5086
879.461	4965
879.588	5010
879.715	5147
879.842	5299
879.97	5067
880.097	4820
880.224	4759
880.351	4824
880.478	4763
880.605	4828
880.732	4854
880.859	5098
880.986	4934
881.112	4908
881.239	4790
881.366	4668
881.493	4656
881.619	4569
881.746	4656
881.872	4660
881.999	4645
882.125	4733
882.252	4793
882.378	4854
882.505	4968
882.631	4812
882.757	4717
882.883	4771
883.01	4820
883.136	4664
883.262	4580
883.388	4634
883.514	4812
883.64	4892
883.766	4801
883.892	4683
884.018	4771
884.143	4900
884.269	5033
884.395	4694
884.52	4653
884.646	4660
884.772	4599
884.897	4584
885.023	4725
885.148	4824
885.274	4896
885.399	4805
885.524	4748
885.65	4736
885.775	4801
885.9	4714
886.025	4877
886.15	4790
886.275	4805
886.4	4660
886.525	4801
886.65	4706
886.775	4691
886.9	4938
887.025	5037
887.149	4847
887.274	4683
887.399	4588
887.523	4653
887.648	4569
887.773	4573
887.897	4767
888.021	4786
888.146	4702
888.27	4862
888.395	4953
888.519	4839
888.643	4809
888.767	4927
888.891	4683
889.015	4622
889.139	4656
889.263	4592
889.387	4778
889.511	4877
889.635	4809
889.759	4649
889.883	4641
890.006	4778
890.13	4866
890.254	4664
890.377	4706
890.501	4569
890.624	4596
890.748	4668
890.871	4516
890.995	4466
891.118	4363
891.241	4573
891.364	4584
891.488	4668
891.611	4466
891.734	4516
891.857	4675
891.98	4599
892.103	4675
892.226	4584
892.349	4542
892.471	4451
892.594	4584
892.717	4607
892.839	4592
892.962	4561
893.085	4664
893.207	4641
893.33	4462
893.452	4538
893.575	4706
893.697	4630
893.819	4793
893.941	4866
894.064	4759
894.186	4630
894.308	4607
894.43	4736
894.552	4858
894.674	4767
894.796	4558
894.918	4607
895.04	4611
895.161	4752
895.283	4683
895.405	4561
895.526	4683
895.648	4672
895.769	4637
895.891	4759
896.012	4721
896.134	4771
896.255	4683
896.376	4660
896.498	4622
896.619	4706
896.74	4641
896.861	4672
896.982	4953
897.103	5079
897.224	4881
897.345	4782
897.466	4702
897.587	4698
897.708	4843
897.828	4790
897.949	4656
898.07	4569
898.19	4637
898.311	4850
898.431	4714
898.552	4793
898.672	4805
898.792	4862
898.913	4763
899.033	4634
899.153	4550
899.273	4432
899.393	4523
899.513	4535
899.633	4558
899.753	4519
899.873	4523
899.993	4607
900.113	4542
900.232	4592
900.352	4599
900.472	4523
900.591	4398
900.711	4504
900.83	4451
900.95	4618
901.069	4702
901.189	4561
901.308	4356
901.427	4341
901.546	4405
901.665	4478
901.784	4546
901.904	4398
902.023	4310
902.141	4242
902.26	4185
902.379	4348
902.498	4242
902.617	4196
902.735	4409
902.854	4405
902.973	4363
903.091	4276
903.21	4200
903.328	4314
903.446	4299
903.565	4272
903.683	4371
903.801	4284
903.919	4394
904.038	4455
904.156	4306
904.274	4466
904.392	4436
904.51	4440
904.627	4462
904.745	4565
904.863	4660
904.981	4409
905.098	4322
905.216	4367
905.334	4508
905.451	4424
905.569	4436
905.686	4622
905.803	4599
905.921	4421
906.038	4569
906.155	4451
906.272	4398
906.389	4519
906.506	4348
906.623	4402
906.74	4436
906.857	4325
906.974	4394
907.091	4588
907.208	4645
907.324	4622
907.441	4535
907.557	4352
907.674	4367
907.79	4348
907.907	4390
908.023	4500
908.139	4462
908.256	4440
908.372	4466
908.488	4432
908.604	4386
908.72	4360
908.836	4375
908.952	4383
909.068	4447
909.184	4596
909.3	4497
909.415	4565
909.531	4554
909.647	4344
909.762	4386
909.878	4363
909.993	4481
910.108	4394
910.224	4398
910.339	4478
910.454	4466
910.57	4337
910.685	4291
910.8	4634
910.915	4573
911.03	4538
911.145	4371
911.259	4367
911.374	4318
911.489	4383
911.604	4272
911.718	4204
911.833	4249
911.947	4093
912.062	4010
912.176	4246
912.291	4253
912.405	4242
912.519	4504
912.633	4569
912.748	4371
912.862	4329
912.976	4215
913.09	4116
913.204	4215
913.318	4215
913.431	4386
913.545	4413
913.659	4451
913.772	4360
913.886	4276
914	4207
914.113	4424
914.226	4440
914.34	4428
914.453	4257
914.566	4409
914.68	4348
914.793	4352
914.906	4150
915.019	4162
915.132	4090
915.245	4211
915.358	4253
915.47	4276
915.583	4272
915.696	4318
915.809	4466
915.921	4424
916.034	4284
916.146	4280
916.259	4200
916.371	4402
916.483	4405
916.595	4265
916.708	4318
916.82	4299
916.932	4314
917.044	4344
917.156	4344
917.268	4276
917.38	4295
917.491	4303
917.603	4341
917.715	4443
917.826	4474
917.938	4341
918.049	4303
918.161	4421
918.272	4599
918.384	4561
918.495	4497
918.606	4314
918.717	4272
918.828	4371
918.939	4367
919.05	4230
919.161	4375
919.272	4173
919.383	4238
919.494	4459
919.604	4634
919.715	4421
919.826	4375
919.936	4417
920.047	4580
920.157	4493
920.267	4698
920.378	4611
920.488	4569
920.598	4714
920.708	4892
920.818	4778
920.928	4790
921.038	4965
921.148	4923
921.258	4649
921.368	4596
921.477	4535
921.587	4451
921.697	4379
921.806	4538
921.916	4478
922.025	4246
922.134	4303
922.244	4238
922.353	4318
922.462	4196
922.571	4185
922.68	4059
922.789	3968
922.898	4067
923.007	3968
923.116	4143
923.224	4071
923.333	4128
923.442	4032
923.55	3987
923.659	4013
923.767	4158
923.876	4006
923.984	4150
924.092	4021
924.201	4101
924.309	4074
924.417	4150
924.525	4067
924.633	4147
924.741	4866
924.849	3953
924.956	4166
925.064	3987
925.172	3907
925.279	3960
925.387	4067
925.494	4112
925.602	4268
925.709	4188
925.816	4097
925.924	4158
926.031	4249
926.138	4185
926.245	4223
926.352	4135
926.459	4287
926.566	4318
926.673	4196
926.779	4082
926.886	4067
926.993	3994
927.099	3979
927.206	3975
927.312	3975
927.419	4093
927.525	4048
927.631	4143
927.737	3991
927.843	3972
927.95	3896
928.056	3968
928.162	4025
928.267	4048
928.373	4611
928.479	4143
928.585	3915
928.69	4002
928.796	4131
928.901	4002
929.007	3880
929.112	4063
929.218	3998
929.323	3960
929.428	4017
929.533	4101
929.638	3926
929.743	4013
929.848	4051
929.953	4021
930.058	3964
930.163	3781
930.267	3827
930.372	3994
930.477	3823
930.581	4097
930.685	4010
930.79	3846
930.894	3899
930.998	3876
931.103	4021
931.207	3728
931.311	3713
931.415	3694
931.519	3545
931.623	3557
