Data from test_V78500241_2007.txt Node
Date: Fri Mar 25 17:02:57 CST 2022
User: usil
Spectrometer: V785-0024
Trigger mode: 0
Integration Time (sec): 4.000000E-1
Scans to average: 1
Nonlinearity correction enabled: false
Boxcar width: 0
Storing dark spectrum: false
XAxis mode: Wavelengths
Number of Pixels in Spectrum: 1024
>>>>>Begin Spectral Data<<<<<
801.071	7970
801.214	7898
801.356	7776
801.499	7894
801.641	7769
801.783	7852
801.926	7963
802.068	7940
802.211	7963
802.353	8020
802.496	7833
802.638	7913
802.78	7864
802.923	7890
803.065	7856
803.208	7864
803.35	7875
803.492	8046
803.635	8069
803.777	7921
803.919	8115
804.061	8393
804.204	8187
804.346	8008
804.488	7997
804.63	8092
804.773	7970
804.915	8077
805.057	8298
805.199	8103
805.341	8153
805.483	8248
805.626	8183
805.768	8065
805.91	8214
806.052	8202
806.194	8054
806.336	8233
806.478	8172
806.62	8092
806.762	8115
806.904	8221
807.046	8419
807.188	8343
807.33	8259
807.472	8343
807.614	8195
807.756	8077
807.898	7963
808.04	7883
808.182	7795
808.324	7856
808.465	7940
808.607	7970
808.749	8084
808.891	8130
809.033	8339
809.174	8180
809.316	8077
809.458	8096
809.6	8050
809.741	8088
809.883	8058
810.025	8077
810.166	8046
810.308	7944
810.45	7902
810.591	7849
810.733	7696
810.875	7662
811.016	7544
811.158	7487
811.299	7544
811.441	7677
811.582	7658
811.724	7571
811.865	7552
812.007	7575
812.148	7563
812.29	7575
812.431	7658
812.573	7860
812.714	8016
812.855	8065
812.997	8183
813.138	8221
813.279	8149
813.421	8035
813.562	7902
813.703	7826
813.845	7715
813.986	7403
814.127	7244
814.268	7225
814.41	7160
814.551	7122
814.692	7213
814.833	7080
814.974	7023
815.115	7057
815.256	7023
815.397	6905
815.539	6909
815.68	6810
815.821	6711
815.962	6791
816.103	6802
816.244	6665
816.385	6616
816.526	6574
816.666	6448
816.807	6228
816.948	6331
817.089	6429
817.23	6426
817.371	6327
817.512	6350
817.653	6410
817.793	6331
817.934	6395
818.075	6391
818.216	6460
818.356	6369
818.497	6209
818.638	6110
818.778	6114
818.919	6125
819.06	6163
819.2	6308
819.341	6273
819.481	6277
819.622	6498
819.762	6707
819.903	6654
820.043	6570
820.184	6578
820.324	6528
820.465	6665
820.605	6684
820.746	6604
820.886	6551
821.026	6597
821.167	6665
821.307	6772
821.447	6738
821.588	6677
821.728	6551
821.868	6437
822.008	6311
822.149	6346
822.289	6380
822.429	6117
822.569	6064
822.709	6121
822.849	5923
822.99	5859
823.13	5927
823.27	5889
823.41	5775
823.55	5748
823.69	5767
823.83	5737
823.97	5680
824.11	5486
824.25	5486
824.389	5528
824.529	5581
824.669	5482
824.809	5714
824.949	5684
825.089	5589
825.228	5532
825.368	5425
825.508	5341
825.648	5360
825.787	5406
825.927	5414
826.067	5311
826.206	5288
826.346	5425
826.485	5357
826.625	5406
826.765	5592
826.904	5501
827.044	5265
827.183	5307
827.323	5181
827.462	5277
827.601	5235
827.741	5178
827.88	5284
828.02	5136
828.159	5261
828.298	5288
828.437	5379
828.577	5277
828.716	5570
828.855	5357
828.994	5185
829.134	5170
829.273	5223
829.412	5155
829.551	5151
829.69	5216
829.829	5231
829.968	5402
830.107	5288
830.246	5349
830.385	5277
830.524	5193
830.663	5132
830.802	5014
830.941	4957
831.08	4938
831.219	4984
831.357	4972
831.496	5246
831.635	4934
831.774	4843
831.913	4877
832.051	4778
832.19	4812
832.329	4900
832.467	4755
832.606	4694
832.744	4797
832.883	4774
833.022	4740
833.16	4850
833.299	4889
833.437	4870
833.576	4850
833.714	4923
833.852	4877
833.991	4938
834.129	5006
834.267	4980
834.406	4934
834.544	5037
834.682	4995
834.821	4987
834.959	5181
835.097	5018
835.235	5178
835.373	5155
835.511	5170
835.65	5033
835.788	5064
835.926	4919
836.064	4915
836.202	4919
836.34	5178
836.478	5242
836.615	5185
836.753	5254
836.891	5303
837.029	5269
837.167	5261
837.305	5193
837.443	5147
837.58	5121
837.718	5269
837.856	5208
837.993	5231
838.131	5269
838.269	5193
838.406	5258
838.544	5189
838.681	5010
838.819	5033
838.956	4866
839.094	4908
839.231	5029
839.369	5102
839.506	5440
839.643	5269
839.781	5048
839.918	5037
840.055	5094
840.193	5060
840.33	5064
840.467	5109
840.604	5189
840.742	5433
840.879	5136
841.016	5143
841.153	5132
841.29	5376
841.427	5357
841.564	5330
841.701	5383
841.838	5315
841.975	5242
842.112	5299
842.249	5132
842.385	5083
842.522	5391
842.659	5208
842.796	5201
842.933	5227
843.069	5140
843.206	5193
843.343	5311
843.479	5269
843.616	5296
843.752	5094
843.889	5006
844.025	5204
844.162	5029
844.298	5170
844.435	5117
844.571	5113
844.708	5273
844.844	5318
844.98	5357
845.117	5315
845.253	5178
845.389	5162
845.525	5181
845.661	5140
845.798	5090
845.934	5151
846.07	5064
846.206	5212
846.342	5357
846.478	5197
846.614	5045
846.75	5010
846.886	4949
847.022	5166
847.158	5029
847.294	5147
847.429	5166
847.565	5071
847.701	5360
847.837	4889
847.972	4793
848.108	5022
848.244	4957
848.379	4790
848.515	4782
848.65	4702
848.786	4782
848.921	4835
849.057	4896
849.192	4949
849.328	4824
849.463	4809
849.598	4812
849.734	4828
849.869	4729
850.004	4649
850.14	4694
850.275	4637
850.41	4561
850.545	4622
850.68	4626
850.815	4630
850.95	4706
851.085	4816
851.22	4782
851.355	4714
851.49	4649
851.625	4656
851.76	4630
851.895	4630
852.03	4592
852.165	4660
852.299	4759
852.434	4812
852.569	4733
852.703	4782
852.838	4908
852.973	4942
853.107	4904
853.242	4752
853.376	4721
853.511	4607
853.645	4656
853.78	4805
853.914	4721
854.048	4736
854.183	4706
854.317	4702
854.451	4828
854.585	4702
854.72	4641
854.854	4786
854.988	4630
855.122	4634
855.256	4500
855.39	4634
855.524	4801
855.658	4740
855.792	4729
855.926	4782
856.06	4752
856.194	4801
856.327	4687
856.461	4641
856.595	4615
856.729	4675
856.862	4759
856.996	4736
857.13	4736
857.263	4816
857.397	4816
857.53	4668
857.664	4725
857.797	4812
857.931	4774
858.064	4706
858.197	4748
858.331	4694
858.464	4649
858.597	4542
858.731	4599
858.864	4694
858.997	4668
859.13	4679
859.263	4702
859.396	4774
859.529	4596
859.662	4630
859.795	4577
859.928	4687
860.061	4778
860.194	4793
860.327	4653
860.46	4607
860.592	4740
860.725	4733
860.858	4752
860.99	4565
861.123	4561
861.256	4546
861.388	4649
861.521	5334
861.653	4561
861.786	4447
861.918	4481
862.05	4554
862.183	4599
862.315	4656
862.447	4660
862.58	4535
862.712	4451
862.844	4341
862.976	4500
863.108	4481
863.24	4831
863.372	4371
863.504	4432
863.636	4443
863.768	4481
863.9	4474
864.032	4398
864.164	4466
864.296	4443
864.428	4561
864.559	4577
864.691	4538
864.823	4531
864.954	4546
865.086	4516
865.217	4508
865.349	4447
865.48	4409
865.612	4558
865.743	4675
865.875	4478
866.006	4459
866.137	4500
866.269	4417
866.4	4451
866.531	4481
866.662	4394
866.793	4462
866.924	4474
867.055	4500
867.186	4474
867.317	4451
867.448	4447
867.579	4443
867.71	4413
867.841	4344
867.972	4451
868.103	4500
868.233	4508
868.364	4478
868.495	4523
868.625	4645
868.756	4763
868.886	4607
869.017	4653
869.147	4809
869.278	4828
869.408	4668
869.539	4672
869.669	4725
869.799	4706
869.929	4771
870.06	4729
870.19	4927
870.32	4908
870.45	4961
870.58	4999
870.71	5102
870.84	5117
870.97	4961
871.1	4904
871.23	5140
871.36	5174
871.489	5045
871.619	5132
871.749	5136
871.879	5143
872.008	5208
872.138	5048
872.267	5025
872.397	4831
872.526	4873
872.656	4736
872.785	4839
872.915	4976
873.044	5022
873.173	4949
873.303	4999
873.432	4984
873.561	4980
873.69	4881
873.819	4892
873.948	4934
874.077	4831
874.206	4797
874.335	4771
874.464	4987
874.593	5105
874.722	4972
874.851	5113
874.979	5079
875.108	5041
875.237	4942
875.365	4911
875.494	4889
875.623	4999
875.751	4809
875.88	4877
876.008	5014
876.136	5060
876.265	5231
876.393	5379
876.521	5273
876.65	5212
876.778	5166
876.906	5090
877.034	4991
877.162	5041
877.29	5022
877.418	5079
877.546	5079
877.674	5090
877.802	5052
877.93	5045
878.058	5006
878.185	4873
878.313	4995
878.441	4915
878.568	4820
878.696	4896
878.824	4968
878.951	5022
879.079	5143
879.206	5273
879.333	5067
879.461	5025
879.588	5048
879.715	5128
879.842	5231
879.97	5014
880.097	4801
880.224	4710
880.351	4835
880.478	4831
880.605	4858
880.732	4793
880.859	5102
880.986	4904
881.112	4968
881.239	4809
881.366	4691
881.493	4622
881.619	4592
881.746	4675
881.872	4630
881.999	4660
882.125	4755
882.252	4748
882.378	4850
882.505	4946
882.631	4774
882.757	4664
882.883	4740
883.01	4717
883.136	4687
883.262	4626
883.388	4622
883.514	4755
883.64	4862
883.766	4850
883.892	4660
884.018	4736
884.143	4904
884.269	4999
884.395	4683
884.52	4660
884.646	4691
884.772	4607
884.897	4599
885.023	4710
885.148	4843
885.274	4915
885.399	4797
885.524	4733
885.65	4710
885.775	4759
885.9	4763
886.025	4858
886.15	4816
886.275	4740
886.4	4649
886.525	4782
886.65	4736
886.775	4763
886.9	4870
887.025	5022
887.149	4843
887.274	4637
887.399	4626
887.523	4637
887.648	4542
887.773	4588
887.897	4744
888.021	4835
888.146	4637
888.27	4816
888.395	4904
888.519	4812
888.643	4862
888.767	4839
888.891	4672
889.015	4603
889.139	4645
889.263	4634
889.387	4767
889.511	4835
889.635	4797
889.759	4675
889.883	4683
890.006	4721
890.13	4843
890.254	4649
890.377	4672
890.501	4561
890.624	4538
890.748	4679
890.871	4508
890.995	4417
891.118	4356
891.241	4485
891.364	4546
891.488	4656
891.611	4497
891.734	4527
891.857	4577
891.98	4584
892.103	4683
892.226	4535
892.349	4527
892.471	4440
892.594	4561
892.717	4561
892.839	4527
892.962	4622
893.085	4672
893.207	4584
893.33	4462
893.452	4550
893.575	4698
893.697	4615
893.819	4801
893.941	4870
894.064	4790
894.186	4558
894.308	4535
894.43	4755
894.552	4805
894.674	4744
894.796	4588
894.918	4554
895.04	4558
895.161	4706
895.283	4679
895.405	4580
895.526	4622
895.648	4740
895.769	4706
895.891	4729
896.012	4767
896.134	4736
896.255	4664
896.376	4615
896.498	4637
896.619	4706
896.74	4607
896.861	4702
896.982	4915
897.103	5083
897.224	4831
897.345	4721
897.466	4645
897.587	4767
897.708	4908
897.828	4805
897.949	4698
898.07	4523
898.19	4630
898.311	4858
898.431	4679
898.552	4759
898.672	4809
898.792	4790
898.913	4767
899.033	4626
899.153	4455
899.273	4436
899.393	4485
899.513	4489
899.633	4489
899.753	4554
899.873	4523
899.993	4550
900.113	4493
900.232	4573
900.352	4523
900.472	4508
900.591	4421
900.711	4489
900.83	4440
900.95	4615
901.069	4679
901.189	4550
901.308	4379
901.427	4318
901.546	4367
901.665	4462
901.784	4504
901.904	4383
902.023	4356
902.141	4154
902.26	4200
902.379	4276
902.498	4246
902.617	4227
902.735	4417
902.854	4440
902.973	4325
903.091	4196
903.21	4272
903.328	4268
903.446	4249
903.565	4318
903.683	4424
903.801	4299
903.919	4402
904.038	4462
904.156	4333
904.274	4500
904.392	4421
904.51	4470
904.627	4493
904.745	4596
904.863	4687
904.981	4390
905.098	4356
905.216	4375
905.334	4485
905.451	4489
905.569	4470
905.686	4615
905.803	4584
905.921	4436
906.038	4588
906.155	4519
906.272	4417
906.389	4508
906.506	4379
906.623	4367
906.74	4459
906.857	4337
906.974	4379
907.091	4615
907.208	4748
907.324	4622
907.441	4561
907.557	4333
907.674	4390
907.79	4405
907.907	4417
908.023	4535
908.139	4508
908.256	4466
908.372	4481
908.488	4497
908.604	4390
908.72	4367
908.836	4440
908.952	4386
909.068	4455
909.184	4599
909.3	4508
909.415	4664
909.531	4584
909.647	4443
909.762	4474
909.878	4402
909.993	4474
910.108	4459
910.224	4413
910.339	4512
910.454	4413
910.57	4417
910.685	4367
910.8	4653
910.915	4584
911.03	4546
911.145	4379
911.259	4402
911.374	4394
911.489	4341
911.604	4299
911.718	4223
911.833	4215
911.947	4109
912.062	4059
912.176	4291
912.291	4314
912.405	4268
912.519	4500
912.633	4542
912.748	4440
912.862	4379
912.976	4238
913.09	4169
913.204	4249
913.318	4329
913.431	4379
913.545	4383
913.659	4516
913.772	4398
913.886	4257
914	4253
914.113	4428
914.226	4405
914.34	4428
914.453	4299
914.566	4493
914.68	4379
914.793	4371
914.906	4169
915.019	4124
915.132	4120
915.245	4219
915.358	4287
915.47	4227
915.583	4333
915.696	4341
915.809	4500
915.921	4500
916.034	4329
916.146	4272
916.259	4242
916.371	4402
916.483	4402
916.595	4291
916.708	4402
916.82	4402
916.932	4329
917.044	4390
917.156	4352
917.268	4268
917.38	4348
917.491	4261
917.603	4455
917.715	4489
917.826	4443
917.938	4337
918.049	4276
918.161	4451
918.272	4554
918.384	4588
918.495	4497
918.606	4303
918.717	4246
918.828	4363
918.939	4386
919.05	4242
919.161	4383
919.272	4219
919.383	4227
919.494	4459
919.604	4649
919.715	4527
919.826	4360
919.936	4447
920.047	4523
920.157	4493
920.267	4729
920.378	4538
920.488	4565
920.598	4702
920.708	4930
920.818	4809
920.928	4816
921.038	4987
921.148	4927
921.258	4630
921.368	4630
921.477	4546
921.587	4497
921.697	4421
921.806	4546
921.916	4440
922.025	4329
922.134	4329
922.244	4234
922.353	4348
922.462	4192
922.571	4185
922.68	4036
922.789	4002
922.898	4078
923.007	4040
923.116	4120
923.224	4071
923.333	4074
923.442	4063
923.55	4010
923.659	4051
923.767	4112
923.876	3998
923.984	4154
924.092	4044
924.201	4086
924.309	4143
924.417	4158
924.525	4090
924.633	4192
924.741	5083
924.849	4006
924.956	4181
925.064	3991
925.172	3968
925.279	4002
925.387	4101
925.494	4090
925.602	4234
925.709	4215
925.816	4048
925.924	4177
926.031	4238
926.138	4219
926.245	4249
926.352	4124
926.459	4246
926.566	4363
926.673	4215
926.779	4093
926.886	4147
926.993	3994
927.099	3975
927.206	3987
927.312	3953
927.419	4097
927.525	4040
927.631	4147
927.737	3972
927.843	3960
927.95	3880
928.056	3994
928.162	4029
928.267	4067
928.373	4649
928.479	4109
928.585	3934
928.69	4055
928.796	4051
928.901	4017
929.007	3918
929.112	4029
929.218	4025
929.323	3941
929.428	3972
929.533	4112
929.638	3968
929.743	3998
929.848	4059
929.953	4021
930.058	3949
930.163	3854
930.267	3793
930.372	4055
930.477	3850
930.581	4120
930.685	3983
930.79	3865
930.894	3930
930.998	3861
931.103	4093
931.207	3747
931.311	3694
931.415	3736
931.519	3561
931.623	3603
