Data from test_V78500241_2424.txt Node
Date: Fri Mar 25 17:05:51 CST 2022
User: usil
Spectrometer: V785-0024
Trigger mode: 0
Integration Time (sec): 4.000000E-1
Scans to average: 1
Nonlinearity correction enabled: false
Boxcar width: 0
Storing dark spectrum: false
XAxis mode: Wavelengths
Number of Pixels in Spectrum: 1024
>>>>>Begin Spectral Data<<<<<
801.071	8016
801.214	8012
801.356	7906
801.499	7909
801.641	7788
801.783	7875
801.926	7986
802.068	7928
802.211	7989
802.353	7982
802.496	7837
802.638	7883
802.78	7951
802.923	7890
803.065	7898
803.208	7906
803.35	7989
803.492	8069
803.635	8202
803.777	8054
803.919	8134
804.061	8526
804.204	8267
804.346	8142
804.488	7982
804.63	8126
804.773	8050
804.915	8172
805.057	8305
805.199	8195
805.341	8279
805.483	8309
805.626	8229
805.768	8187
805.91	8313
806.052	8168
806.194	8221
806.336	8358
806.478	8092
806.62	8107
806.762	8123
806.904	8381
807.046	8434
807.188	8423
807.33	8381
807.472	8279
807.614	8161
807.756	8206
807.898	7978
808.04	7936
808.182	7890
808.324	7890
808.465	7936
808.607	8062
808.749	8138
808.891	8313
809.033	8313
809.174	8252
809.316	8058
809.458	8096
809.6	8115
809.741	8111
809.883	8142
810.025	8111
810.166	8126
810.308	7986
810.45	8039
810.591	7875
810.733	7780
810.875	7708
811.016	7533
811.158	7502
811.299	7571
811.441	7723
811.582	7700
811.724	7567
811.865	7605
812.007	7662
812.148	7670
812.29	7620
812.431	7780
812.573	7940
812.714	7940
812.855	8164
812.997	8294
813.138	8286
813.279	8202
813.421	8092
813.562	7978
813.703	7871
813.845	7731
813.986	7510
814.127	7270
814.268	7285
814.41	7236
814.551	7225
814.692	7228
814.833	7171
814.974	7103
815.115	7122
815.256	6996
815.397	6996
815.539	6993
815.68	6818
815.821	6837
815.962	6947
816.103	6863
816.244	6738
816.385	6623
816.526	6616
816.666	6525
816.807	6353
816.948	6551
817.089	6494
817.23	6559
817.371	6422
817.512	6384
817.653	6460
817.793	6403
817.934	6448
818.075	6471
818.216	6486
818.356	6418
818.497	6315
818.638	6216
818.778	6182
818.919	6155
819.06	6178
819.2	6403
819.341	6399
819.481	6361
819.622	6551
819.762	6779
819.903	6757
820.043	6646
820.184	6578
820.324	6635
820.465	6715
820.605	6707
820.746	6677
820.886	6521
821.026	6707
821.167	6741
821.307	6825
821.447	6802
821.588	6677
821.728	6620
821.868	6509
822.008	6395
822.149	6399
822.289	6357
822.429	6224
822.569	6133
822.709	6152
822.849	5935
822.99	5942
823.13	5878
823.27	5927
823.41	5859
823.55	5821
823.69	5756
823.83	5764
823.97	5707
824.11	5600
824.25	5535
824.389	5630
824.529	5589
824.669	5573
824.809	5684
824.949	5672
825.089	5710
825.228	5566
825.368	5372
825.508	5387
825.648	5425
825.787	5398
825.927	5383
826.067	5322
826.206	5326
826.346	5455
826.485	5436
826.625	5436
826.765	5581
826.904	5478
827.044	5250
827.183	5239
827.323	5204
827.462	5261
827.601	5254
827.741	5246
827.88	5246
828.02	5166
828.159	5299
828.298	5330
828.437	5372
828.577	5265
828.716	5505
828.855	5322
828.994	5197
829.134	5212
829.273	5261
829.412	5197
829.551	5147
829.69	5231
829.829	5265
829.968	5376
830.107	5277
830.246	5292
830.385	5181
830.524	5147
830.663	5079
830.802	4991
830.941	4930
831.08	4923
831.219	4976
831.357	5018
831.496	5185
831.635	4957
831.774	4896
831.913	4866
832.051	4702
832.19	4736
832.329	4892
832.467	4748
832.606	4679
832.744	4721
832.883	4759
833.022	4702
833.16	4816
833.299	4862
833.437	4847
833.576	4877
833.714	4896
833.852	4881
833.991	4896
834.129	5010
834.267	4968
834.406	4908
834.544	5048
834.682	4987
834.821	5003
834.959	5162
835.097	4987
835.235	5140
835.373	5113
835.511	5086
835.65	5045
835.788	5083
835.926	4923
836.064	4915
836.202	4946
836.34	5185
836.478	5288
836.615	5170
836.753	5223
836.891	5345
837.029	5273
837.167	5231
837.305	5242
837.443	5223
837.58	5090
837.718	5299
837.856	5193
837.993	5132
838.131	5303
838.269	5235
838.406	5208
838.544	5193
838.681	5064
838.819	5052
838.956	4870
839.094	4927
839.231	5025
839.369	5143
839.506	5406
839.643	5318
839.781	5079
839.918	5003
840.055	5155
840.193	5121
840.33	5128
840.467	5181
840.604	5216
840.742	5436
840.879	5071
841.016	5094
841.153	5162
841.29	5455
841.427	5372
841.564	5292
841.701	5360
841.838	5299
841.975	5292
842.112	5296
842.249	5181
842.385	5071
842.522	5330
842.659	5185
842.796	5185
842.933	5223
843.069	5147
843.206	5197
843.343	5280
843.479	5250
843.616	5265
843.752	5052
843.889	5006
844.025	5166
844.162	5003
844.298	5193
844.435	5128
844.571	5037
844.708	5216
844.844	5364
844.98	5318
845.117	5299
845.253	5185
845.389	5121
845.525	5159
845.661	5159
845.798	5052
845.934	5162
846.07	5090
846.206	5269
846.342	5303
846.478	5220
846.614	5045
846.75	5003
846.886	4968
847.022	5155
847.158	5041
847.294	5056
847.429	5109
847.565	5098
847.701	5277
847.837	4873
847.972	4843
848.108	4972
848.244	4953
848.379	4767
848.515	4729
848.65	4725
848.786	4797
848.921	4809
849.057	4866
849.192	4961
849.328	4847
849.463	4873
849.598	4831
849.734	4782
849.869	4763
850.004	4660
850.14	4679
850.275	4641
850.41	4554
850.545	4561
850.68	4634
850.815	4649
850.95	4687
851.085	4858
851.22	4763
851.355	4683
851.49	4630
851.625	4637
851.76	4683
851.895	4569
852.03	4546
852.165	4653
852.299	4752
852.434	4714
852.569	4778
852.703	4767
852.838	4850
852.973	4934
853.107	4911
853.242	4721
853.376	4675
853.511	4558
853.645	4653
853.78	4812
853.914	4721
854.048	4641
854.183	4637
854.317	4717
854.451	4801
854.585	4691
854.72	4653
854.854	4820
854.988	4634
855.122	4668
855.256	4527
855.39	4694
855.524	4771
855.658	4752
855.792	4679
855.926	4752
856.06	4675
856.194	4801
856.327	4649
856.461	4664
856.595	4618
856.729	4672
856.862	4755
856.996	4736
857.13	4748
857.263	4759
857.397	4805
857.53	4702
857.664	4698
857.797	4782
857.931	4816
858.064	4702
858.197	4782
858.331	4645
858.464	4615
858.597	4546
858.731	4622
858.864	4641
858.997	4626
859.13	4637
859.263	4710
859.396	4691
859.529	4622
859.662	4618
859.795	4603
859.928	4596
860.061	4755
860.194	4736
860.327	4573
860.46	4596
860.592	4736
860.725	4744
860.858	4698
860.99	4607
861.123	4573
861.256	4516
861.388	4637
861.521	5326
861.653	4508
861.786	4432
861.918	4478
862.05	4500
862.183	4577
862.315	4584
862.447	4634
862.58	4588
862.712	4394
862.844	4367
862.976	4451
863.108	4447
863.24	4782
863.372	4360
863.504	4428
863.636	4409
863.768	4512
863.9	4481
864.032	4398
864.164	4451
864.296	4432
864.428	4577
864.559	4569
864.691	4546
864.823	4493
864.954	4474
865.086	4489
865.217	4493
865.349	4478
865.48	4493
865.612	4554
865.743	4660
865.875	4478
866.006	4432
866.137	4493
866.269	4516
866.4	4523
866.531	4497
866.662	4405
866.793	4413
866.924	4421
867.055	4474
867.186	4447
867.317	4383
867.448	4390
867.579	4417
867.71	4409
867.841	4398
867.972	4474
868.103	4470
868.233	4459
868.364	4455
868.495	4497
868.625	4691
868.756	4797
868.886	4580
869.017	4691
869.147	4778
869.278	4755
869.408	4664
869.539	4645
869.669	4733
869.799	4683
869.929	4752
870.06	4763
870.19	4934
870.32	4911
870.45	4915
870.58	5033
870.71	5109
870.84	5105
870.97	4923
871.1	4923
871.23	5159
871.36	5159
871.489	5060
871.619	5098
871.749	5151
871.879	5109
872.008	5208
872.138	5052
872.267	5010
872.397	4858
872.526	4843
872.656	4694
872.785	4831
872.915	4942
873.044	5022
873.173	4946
873.303	4999
873.432	4957
873.561	4987
873.69	4858
873.819	4919
873.948	4904
874.077	4877
874.206	4786
874.335	4831
874.464	4934
874.593	5060
874.722	4934
874.851	5090
874.979	5075
875.108	5037
875.237	4915
875.365	4870
875.494	4938
875.623	5006
875.751	4854
875.88	4835
876.008	5014
876.136	5052
876.265	5220
876.393	5330
876.521	5250
876.65	5261
876.778	5170
876.906	5067
877.034	4980
877.162	5086
877.29	4946
877.418	5025
877.546	5048
877.674	5105
877.802	5079
877.93	5006
878.058	4934
878.185	4892
878.313	4946
878.441	4927
878.568	4786
878.696	4911
878.824	5010
878.951	5045
879.079	5162
879.206	5334
879.333	5071
879.461	5003
879.588	5048
879.715	5147
879.842	5299
879.97	4995
880.097	4771
880.224	4797
880.351	4816
880.478	4843
880.605	4786
880.732	4809
880.859	5067
880.986	4889
881.112	4923
881.239	4767
881.366	4672
881.493	4672
881.619	4573
881.746	4645
881.872	4668
881.999	4698
882.125	4702
882.252	4736
882.378	4801
882.505	4972
882.631	4790
882.757	4637
882.883	4717
883.01	4752
883.136	4675
883.262	4607
883.388	4588
883.514	4816
883.64	4839
883.766	4763
883.892	4630
884.018	4721
884.143	4904
884.269	5018
884.395	4694
884.52	4641
884.646	4637
884.772	4565
884.897	4565
885.023	4653
885.148	4816
885.274	4873
885.399	4843
885.524	4721
885.65	4683
885.775	4809
885.9	4679
886.025	4793
886.15	4854
886.275	4736
886.4	4656
886.525	4706
886.65	4660
886.775	4736
886.9	4946
887.025	5048
887.149	4828
887.274	4656
887.399	4599
887.523	4611
887.648	4596
887.773	4558
887.897	4748
888.021	4782
888.146	4691
888.27	4793
888.395	4942
888.519	4816
888.643	4759
888.767	4831
888.891	4694
889.015	4626
889.139	4714
889.263	4607
889.387	4759
889.511	4870
889.635	4774
889.759	4637
889.883	4603
890.006	4717
890.13	4843
890.254	4637
890.377	4729
890.501	4584
890.624	4523
890.748	4630
890.871	4500
890.995	4424
891.118	4440
891.241	4523
891.364	4519
891.488	4698
891.611	4493
891.734	4550
891.857	4607
891.98	4558
892.103	4660
892.226	4577
892.349	4565
892.471	4409
892.594	4584
892.717	4588
892.839	4577
892.962	4580
893.085	4675
893.207	4596
893.33	4443
893.452	4531
893.575	4656
893.697	4538
893.819	4782
893.941	4847
894.064	4778
894.186	4577
894.308	4565
894.43	4752
894.552	4801
894.674	4748
894.796	4535
894.918	4596
895.04	4596
895.161	4656
895.283	4634
895.405	4535
895.526	4653
895.648	4714
895.769	4710
895.891	4660
896.012	4774
896.134	4710
896.255	4679
896.376	4714
896.498	4622
896.619	4714
896.74	4603
896.861	4649
896.982	4908
897.103	5079
897.224	4812
897.345	4767
897.466	4675
897.587	4740
897.708	4892
897.828	4759
897.949	4672
898.07	4611
898.19	4607
898.311	4873
898.431	4660
898.552	4744
898.672	4866
898.792	4797
898.913	4714
899.033	4580
899.153	4508
899.273	4466
899.393	4451
899.513	4493
899.633	4538
899.753	4542
899.873	4531
899.993	4592
900.113	4584
900.232	4550
900.352	4527
900.472	4497
900.591	4390
900.711	4481
900.83	4409
900.95	4569
901.069	4702
901.189	4531
901.308	4348
901.427	4322
901.546	4371
901.665	4474
901.784	4538
901.904	4371
902.023	4314
902.141	4169
902.26	4166
902.379	4299
902.498	4280
902.617	4196
902.735	4386
902.854	4360
902.973	4352
903.091	4242
903.21	4246
903.328	4303
903.446	4265
903.565	4295
903.683	4390
903.801	4291
903.919	4383
904.038	4478
904.156	4310
904.274	4440
904.392	4436
904.51	4440
904.627	4451
904.745	4550
904.863	4698
904.981	4386
905.098	4280
905.216	4386
905.334	4428
905.451	4455
905.569	4440
905.686	4577
905.803	4580
905.921	4379
906.038	4569
906.155	4493
906.272	4379
906.389	4405
906.506	4344
906.623	4367
906.74	4375
906.857	4268
906.974	4371
907.091	4577
907.208	4679
907.324	4565
907.441	4493
907.557	4341
907.674	4375
907.79	4303
907.907	4363
908.023	4455
908.139	4443
908.256	4421
908.372	4485
908.488	4432
908.604	4306
908.72	4268
908.836	4363
908.952	4375
909.068	4398
909.184	4558
909.3	4481
909.415	4592
909.531	4561
909.647	4375
909.762	4371
909.878	4386
909.993	4424
910.108	4417
910.224	4386
910.339	4485
910.454	4417
910.57	4398
910.685	4310
910.8	4645
910.915	4611
911.03	4478
911.145	4291
911.259	4341
911.374	4386
911.489	4314
911.604	4261
911.718	4185
911.833	4162
911.947	4097
912.062	4048
912.176	4169
912.291	4238
912.405	4238
912.519	4497
912.633	4421
912.748	4363
912.862	4318
912.976	4230
913.09	4093
913.204	4200
913.318	4261
913.431	4405
913.545	4310
913.659	4447
913.772	4363
913.886	4242
914	4219
914.113	4394
914.226	4466
914.34	4367
914.453	4227
914.566	4424
914.68	4318
914.793	4322
914.906	4185
915.019	4120
915.132	4101
915.245	4169
915.358	4192
915.47	4230
915.583	4291
915.696	4337
915.809	4405
915.921	4398
916.034	4238
916.146	4227
916.259	4204
916.371	4383
916.483	4371
916.595	4268
916.708	4310
916.82	4284
916.932	4333
917.044	4344
917.156	4329
917.268	4242
917.38	4314
917.491	4272
917.603	4329
917.715	4402
917.826	4432
917.938	4390
918.049	4265
918.161	4390
918.272	4550
918.384	4508
918.495	4478
918.606	4287
918.717	4242
918.828	4306
918.939	4383
919.05	4268
919.161	4303
919.272	4131
919.383	4200
919.494	4440
919.604	4641
919.715	4356
919.826	4383
919.936	4383
920.047	4523
920.157	4512
920.267	4660
920.378	4580
920.488	4478
920.598	4763
920.708	4862
920.818	4782
920.928	4733
921.038	4934
921.148	4919
921.258	4641
921.368	4542
921.477	4462
921.587	4470
921.697	4325
921.806	4504
921.916	4470
922.025	4253
922.134	4261
922.244	4192
922.353	4318
922.462	4158
922.571	4124
922.68	3975
922.789	3964
922.898	4044
923.007	3968
923.116	4071
923.224	4017
923.333	4120
923.442	3998
923.55	3953
923.659	4010
923.767	4078
923.876	3979
923.984	4120
924.092	4010
924.201	4097
924.309	4086
924.417	4105
924.525	4059
924.633	4086
924.741	5037
924.849	3892
924.956	4109
925.064	3934
925.172	3907
925.279	3972
925.387	4090
925.494	4063
925.602	4166
925.709	4196
925.816	3987
925.924	4120
926.031	4196
926.138	4169
926.245	4227
926.352	4063
926.459	4257
926.566	4276
926.673	4112
926.779	4082
926.886	4105
926.993	3953
927.099	3956
927.206	3934
927.312	3968
927.419	4067
927.525	4021
927.631	4109
927.737	3960
927.843	3937
927.95	3819
928.056	3926
928.162	3983
928.267	4063
928.373	4691
928.479	4131
928.585	3873
928.69	4021
928.796	4029
928.901	3926
929.007	3846
929.112	4010
929.218	3949
929.323	3975
929.428	3953
929.533	4128
929.638	3907
929.743	3926
929.848	4055
929.953	4010
930.058	3888
930.163	3808
930.267	3850
930.372	3968
930.477	3842
930.581	4074
930.685	3975
930.79	3835
930.894	3846
930.998	3876
931.103	4021
931.207	3671
931.311	3713
931.415	3656
931.519	3538
931.623	3530
