Data from test_V78500241_2729.txt Node
Date: Fri Mar 25 17:07:58 CST 2022
User: usil
Spectrometer: V785-0024
Trigger mode: 0
Integration Time (sec): 4.000000E-1
Scans to average: 1
Nonlinearity correction enabled: false
Boxcar width: 0
Storing dark spectrum: false
XAxis mode: Wavelengths
Number of Pixels in Spectrum: 1024
>>>>>Begin Spectral Data<<<<<
801.071	8092
801.214	7982
801.356	7928
801.499	7875
801.641	7822
801.783	7852
801.926	7986
802.068	7906
802.211	7932
802.353	8008
802.496	7913
802.638	7967
802.78	7890
802.923	7967
803.065	7871
803.208	7852
803.35	7978
803.492	8130
803.635	8206
803.777	8100
803.919	8214
804.061	8507
804.204	8214
804.346	8020
804.488	7967
804.63	8157
804.773	8024
804.915	8130
805.057	8279
805.199	8126
805.341	8237
805.483	8290
805.626	8252
805.768	8130
805.91	8259
806.052	8275
806.194	8088
806.336	8336
806.478	8069
806.62	8107
806.762	8111
806.904	8195
807.046	8473
807.188	8419
807.33	8358
807.472	8339
807.614	8183
807.756	8195
807.898	8065
808.04	7883
808.182	7917
808.324	7879
808.465	7959
808.607	8138
808.749	8157
808.891	8225
809.033	8317
809.174	8168
809.316	8065
809.458	8077
809.6	8073
809.741	8027
809.883	8096
810.025	8001
810.166	8058
810.308	8081
810.45	7978
810.591	7887
810.733	7795
810.875	7712
811.016	7533
811.158	7502
811.299	7639
811.441	7738
811.582	7658
811.724	7521
811.865	7556
812.007	7613
812.148	7636
812.29	7662
812.431	7734
812.573	7864
812.714	8016
812.855	8202
812.997	8210
813.138	8313
813.279	8126
813.421	8153
813.562	8043
813.703	7887
813.845	7799
813.986	7445
814.127	7247
814.268	7209
814.41	7209
814.551	7129
814.692	7198
814.833	7057
814.974	7034
815.115	7110
815.256	7012
815.397	6920
815.539	6977
815.68	6848
815.821	6741
815.962	6867
816.103	6821
816.244	6662
816.385	6585
816.526	6692
816.666	6551
816.807	6327
816.948	6464
817.089	6479
817.23	6403
817.371	6346
817.512	6384
817.653	6418
817.793	6391
817.934	6384
818.075	6395
818.216	6471
818.356	6407
818.497	6251
818.638	6076
818.778	6163
818.919	6159
819.06	6148
819.2	6338
819.341	6285
819.481	6418
819.622	6475
819.762	6700
819.903	6669
820.043	6578
820.184	6593
820.324	6578
820.465	6715
820.605	6703
820.746	6654
820.886	6555
821.026	6635
821.167	6730
821.307	6871
821.447	6730
821.588	6623
821.728	6509
821.868	6540
822.008	6243
822.149	6331
822.289	6399
822.429	6140
822.569	6136
822.709	6117
822.849	5958
822.99	5954
823.13	5977
823.27	5961
823.41	5809
823.55	5859
823.69	5809
823.83	5794
823.97	5649
824.11	5551
824.25	5520
824.389	5577
824.529	5615
824.669	5589
824.809	5684
824.949	5699
825.089	5665
825.228	5592
825.368	5459
825.508	5341
825.648	5455
825.787	5444
825.927	5410
826.067	5303
826.206	5383
826.346	5425
826.485	5455
826.625	5421
826.765	5623
826.904	5524
827.044	5277
827.183	5261
827.323	5220
827.462	5303
827.601	5216
827.741	5239
827.88	5315
828.02	5132
828.159	5284
828.298	5307
828.437	5429
828.577	5299
828.716	5532
828.855	5364
828.994	5254
829.134	5143
829.273	5258
829.412	5193
829.551	5223
829.69	5208
829.829	5239
829.968	5425
830.107	5326
830.246	5337
830.385	5269
830.524	5166
830.663	5147
830.802	5014
830.941	4923
831.08	4904
831.219	5041
831.357	5033
831.496	5159
831.635	4938
831.774	4900
831.913	4881
832.051	4797
832.19	4759
832.329	4862
832.467	4744
832.606	4691
832.744	4801
832.883	4782
833.022	4744
833.16	4847
833.299	4847
833.437	4908
833.576	4885
833.714	4908
833.852	4938
833.991	4938
834.129	5014
834.267	4957
834.406	4892
834.544	5056
834.682	5037
834.821	4991
834.959	5193
835.097	5003
835.235	5166
835.373	5083
835.511	5121
835.65	5029
835.788	5094
835.926	4961
836.064	4923
836.202	4934
836.34	5246
836.478	5284
836.615	5151
836.753	5273
836.891	5288
837.029	5277
837.167	5250
837.305	5170
837.443	5174
837.58	5117
837.718	5261
837.856	5250
837.993	5155
838.131	5284
838.269	5250
838.406	5261
838.544	5223
838.681	5033
838.819	5018
838.956	4946
839.094	4892
839.231	5045
839.369	5094
839.506	5417
839.643	5315
839.781	5071
839.918	5098
840.055	5105
840.193	5159
840.33	5109
840.467	5124
840.604	5216
840.742	5509
840.879	5109
841.016	5140
841.153	5280
841.29	5391
841.427	5353
841.564	5315
841.701	5337
841.838	5269
841.975	5216
842.112	5318
842.249	5128
842.385	5109
842.522	5357
842.659	5174
842.796	5185
842.933	5223
843.069	5143
843.206	5174
843.343	5387
843.479	5265
843.616	5284
843.752	5105
843.889	5045
844.025	5181
844.162	5094
844.298	5231
844.435	5105
844.571	5113
844.708	5239
844.844	5360
844.98	5337
845.117	5322
845.253	5121
845.389	5121
845.525	5174
845.661	5174
845.798	5094
845.934	5166
846.07	5128
846.206	5227
846.342	5311
846.478	5235
846.614	5086
846.75	5025
846.886	4995
847.022	5208
847.158	5083
847.294	5132
847.429	5128
847.565	5086
847.701	5372
847.837	4839
847.972	4831
848.108	4991
848.244	4980
848.379	4805
848.515	4755
848.65	4767
848.786	4790
848.921	4774
849.057	4885
849.192	4915
849.328	4839
849.463	4862
849.598	4786
849.734	4854
849.869	4702
850.004	4668
850.14	4653
850.275	4618
850.41	4630
850.545	4584
850.68	4607
850.815	4653
850.95	4656
851.085	4881
851.22	4801
851.355	4755
851.49	4660
851.625	4702
851.76	4706
851.895	4554
852.03	4561
852.165	4672
852.299	4733
852.434	4828
852.569	4767
852.703	4763
852.838	4866
852.973	4938
853.107	4942
853.242	4759
853.376	4691
853.511	4634
853.645	4634
853.78	4850
853.914	4721
854.048	4653
854.183	4660
854.317	4752
854.451	4835
854.585	4660
854.72	4641
854.854	4786
854.988	4584
855.122	4675
855.256	4565
855.39	4687
855.524	4835
855.658	4702
855.792	4786
855.926	4755
856.06	4820
856.194	4793
856.327	4736
856.461	4626
856.595	4649
856.729	4672
856.862	4759
856.996	4653
857.13	4744
857.263	4824
857.397	4847
857.53	4694
857.664	4717
857.797	4774
857.931	4778
858.064	4672
858.197	4812
858.331	4679
858.464	4630
858.597	4512
858.731	4630
858.864	4649
858.997	4615
859.13	4656
859.263	4679
859.396	4717
859.529	4664
859.662	4584
859.795	4569
859.928	4702
860.061	4744
860.194	4824
860.327	4618
860.46	4622
860.592	4717
860.725	4721
860.858	4767
860.99	4561
861.123	4573
861.256	4607
861.388	4599
861.521	5368
861.653	4538
861.786	4459
861.918	4512
862.05	4573
862.183	4569
862.315	4645
862.447	4675
862.58	4573
862.712	4447
862.844	4375
862.976	4500
863.108	4474
863.24	4797
863.372	4379
863.504	4421
863.636	4390
863.768	4474
863.9	4455
864.032	4413
864.164	4428
864.296	4535
864.428	4607
864.559	4573
864.691	4554
864.823	4527
864.954	4599
865.086	4546
865.217	4478
865.349	4459
865.48	4493
865.612	4519
865.743	4668
865.875	4466
866.006	4421
866.137	4481
866.269	4478
866.4	4478
866.531	4443
866.662	4436
866.793	4424
866.924	4462
867.055	4531
867.186	4478
867.317	4462
867.448	4386
867.579	4405
867.71	4390
867.841	4417
867.972	4459
868.103	4508
868.233	4451
868.364	4466
868.495	4535
868.625	4672
868.756	4786
868.886	4554
869.017	4622
869.147	4790
869.278	4767
869.408	4710
869.539	4660
869.669	4763
869.799	4649
869.929	4820
870.06	4744
870.19	4949
870.32	4980
870.45	4961
870.58	5067
870.71	5128
870.84	5075
870.97	4980
871.1	4862
871.23	5193
871.36	5155
871.489	5090
871.619	5105
871.749	5113
871.879	5128
872.008	5242
872.138	5090
872.267	4984
872.397	4862
872.526	4839
872.656	4717
872.785	4854
872.915	4972
873.044	5037
873.173	4972
873.303	5025
873.432	4968
873.561	4991
873.69	4934
873.819	4843
873.948	4919
874.077	4866
874.206	4816
874.335	4824
874.464	4942
874.593	5067
874.722	5018
874.851	5109
874.979	5079
875.108	5083
875.237	4934
875.365	4904
875.494	4900
875.623	5037
875.751	4824
875.88	4900
876.008	4968
876.136	5079
876.265	5242
876.393	5360
876.521	5254
876.65	5261
876.778	5155
876.906	5105
877.034	5006
877.162	5083
877.29	5018
877.418	5109
877.546	5075
877.674	5067
877.802	5052
877.93	5029
878.058	4961
878.185	4889
878.313	5006
878.441	5010
878.568	4820
878.696	4885
878.824	4965
878.951	5014
879.079	5159
879.206	5280
879.333	5159
879.461	5003
879.588	4984
879.715	5094
879.842	5204
879.97	5022
880.097	4805
880.224	4763
880.351	4793
880.478	4831
880.605	4824
880.732	4793
880.859	5113
880.986	4858
881.112	4942
881.239	4816
881.366	4706
881.493	4679
881.619	4588
881.746	4653
881.872	4660
881.999	4683
882.125	4698
882.252	4828
882.378	4805
882.505	4991
882.631	4850
882.757	4698
882.883	4752
883.01	4733
883.136	4672
883.262	4596
883.388	4626
883.514	4820
883.64	4892
883.766	4797
883.892	4645
884.018	4736
884.143	4911
884.269	5083
884.395	4691
884.52	4626
884.646	4649
884.772	4584
884.897	4611
885.023	4714
885.148	4831
885.274	4881
885.399	4843
885.524	4778
885.65	4702
885.775	4733
885.9	4733
886.025	4904
886.15	4809
886.275	4706
886.4	4679
886.525	4740
886.65	4755
886.775	4683
886.9	4900
887.025	5060
887.149	4790
887.274	4706
887.399	4618
887.523	4588
887.648	4588
887.773	4584
887.897	4801
888.021	4733
888.146	4698
888.27	4854
888.395	4957
888.519	4793
888.643	4831
888.767	4843
888.891	4675
889.015	4592
889.139	4653
889.263	4596
889.387	4752
889.511	4820
889.635	4820
889.759	4698
889.883	4630
890.006	4710
890.13	4801
890.254	4634
890.377	4672
890.501	4561
890.624	4535
890.748	4649
890.871	4512
890.995	4470
891.118	4424
891.241	4535
891.364	4573
891.488	4698
891.611	4459
891.734	4527
891.857	4649
891.98	4577
892.103	4679
892.226	4618
892.349	4584
892.471	4447
892.594	4607
892.717	4649
892.839	4603
892.962	4550
893.085	4630
893.207	4565
893.33	4493
893.452	4531
893.575	4645
893.697	4588
893.819	4790
893.941	4805
894.064	4786
894.186	4607
894.308	4588
894.43	4733
894.552	4820
894.674	4782
894.796	4546
894.918	4637
895.04	4561
895.161	4710
895.283	4683
895.405	4607
895.526	4592
895.648	4656
895.769	4714
895.891	4736
896.012	4721
896.134	4653
896.255	4664
896.376	4668
896.498	4634
896.619	4660
896.74	4630
896.861	4656
896.982	4934
897.103	5128
897.224	4820
897.345	4778
897.466	4668
897.587	4755
897.708	4831
897.828	4835
897.949	4675
898.07	4550
898.19	4596
898.311	4820
898.431	4748
898.552	4706
898.672	4786
898.792	4809
898.913	4740
899.033	4592
899.153	4508
899.273	4462
899.393	4531
899.513	4546
899.633	4535
899.753	4519
899.873	4527
899.993	4573
900.113	4535
900.232	4558
900.352	4523
900.472	4470
900.591	4379
900.711	4516
900.83	4421
900.95	4656
901.069	4710
901.189	4504
901.308	4375
901.427	4322
901.546	4424
901.665	4516
901.784	4531
901.904	4371
902.023	4329
902.141	4207
902.26	4204
902.379	4322
902.498	4219
902.617	4253
902.735	4371
902.854	4394
902.973	4318
903.091	4188
903.21	4246
903.328	4280
903.446	4265
903.565	4287
903.683	4352
903.801	4299
903.919	4413
904.038	4390
904.156	4337
904.274	4459
904.392	4379
904.51	4428
904.627	4481
904.745	4569
904.863	4626
904.981	4405
905.098	4265
905.216	4375
905.334	4436
905.451	4462
905.569	4424
905.686	4573
905.803	4580
905.921	4375
906.038	4580
906.155	4485
906.272	4424
906.389	4466
906.506	4360
906.623	4402
906.74	4398
906.857	4318
906.974	4390
907.091	4588
907.208	4698
907.324	4596
907.441	4519
907.557	4375
907.674	4352
907.79	4352
907.907	4432
908.023	4508
908.139	4493
908.256	4417
908.372	4459
908.488	4478
908.604	4348
908.72	4325
908.836	4428
908.952	4375
909.068	4447
909.184	4592
909.3	4527
909.415	4611
909.531	4569
909.647	4348
909.762	4386
909.878	4337
909.993	4493
910.108	4436
910.224	4402
910.339	4508
910.454	4363
910.57	4329
910.685	4291
910.8	4660
910.915	4592
911.03	4485
911.145	4314
911.259	4352
911.374	4394
911.489	4291
911.604	4280
911.718	4192
911.833	4188
911.947	4078
912.062	3998
912.176	4192
912.291	4230
912.405	4223
912.519	4481
912.633	4497
912.748	4386
912.862	4299
912.976	4207
913.09	4124
913.204	4219
913.318	4265
913.431	4375
913.545	4390
913.659	4466
913.772	4375
913.886	4227
914	4299
914.113	4405
914.226	4478
914.34	4371
914.453	4230
914.566	4451
914.68	4303
914.793	4295
914.906	4173
915.019	4105
915.132	4097
915.245	4131
915.358	4261
915.47	4280
915.583	4280
915.696	4344
915.809	4402
915.921	4455
916.034	4276
916.146	4253
916.259	4211
916.371	4443
916.483	4356
916.595	4280
916.708	4333
916.82	4341
916.932	4379
917.044	4352
917.156	4299
917.268	4246
917.38	4299
917.491	4265
917.603	4352
917.715	4417
917.826	4417
917.938	4322
918.049	4204
918.161	4428
918.272	4512
918.384	4497
918.495	4485
918.606	4352
918.717	4249
918.828	4333
918.939	4375
919.05	4257
919.161	4360
919.272	4112
919.383	4238
919.494	4432
919.604	4626
919.715	4451
919.826	4341
919.936	4409
920.047	4512
920.157	4424
920.267	4725
920.378	4519
920.488	4516
920.598	4706
920.708	4908
920.818	4748
920.928	4771
921.038	4938
921.148	4938
921.258	4618
921.368	4550
921.477	4474
921.587	4421
921.697	4360
921.806	4497
921.916	4386
922.025	4268
922.134	4246
922.244	4246
922.353	4306
922.462	4154
922.571	4109
922.68	3991
922.789	3945
922.898	4071
923.007	4025
923.116	4097
923.224	4029
923.333	4071
923.442	3956
923.55	3968
923.659	4013
923.767	4105
923.876	4006
923.984	4116
924.092	3975
924.201	4105
924.309	4063
924.417	4166
924.525	4063
924.633	4109
924.741	5094
924.849	3922
924.956	4090
925.064	3941
925.172	3892
925.279	3968
925.387	4067
925.494	4044
925.602	4207
925.709	4192
925.816	4025
925.924	4124
926.031	4246
926.138	4181
926.245	4268
926.352	4101
926.459	4287
926.566	4276
926.673	4143
926.779	4067
926.886	4116
926.993	4010
927.099	3968
927.206	3979
927.312	3926
927.419	4010
927.525	4032
927.631	4040
927.737	3968
927.843	3915
927.95	3808
928.056	3983
928.162	3994
928.267	4078
928.373	4615
928.479	4082
928.585	3861
928.69	4036
928.796	4086
928.901	3953
929.007	3816
929.112	4010
929.218	4002
929.323	3941
929.428	3960
929.533	4116
929.638	3934
929.743	4006
929.848	4071
929.953	3972
930.058	3945
930.163	3759
930.267	3778
930.372	3968
930.477	3819
930.581	4097
930.685	3998
930.79	3781
930.894	3842
930.998	3865
931.103	4032
931.207	3698
931.311	3694
931.415	3667
931.519	3504
931.623	3538
