Data from test_V78500241_1007.txt Node
Date: Fri Mar 25 16:56:00 CST 2022
User: usil
Spectrometer: V785-0024
Trigger mode: 0
Integration Time (sec): 4.000000E-1
Scans to average: 1
Nonlinearity correction enabled: false
Boxcar width: 0
Storing dark spectrum: false
XAxis mode: Wavelengths
Number of Pixels in Spectrum: 1024
>>>>>Begin Spectral Data<<<<<
801.071	8081
801.214	8012
801.356	7868
801.499	7818
801.641	7750
801.783	7864
801.926	7902
802.068	7818
802.211	7917
802.353	7898
802.496	7818
802.638	7780
802.78	7852
802.923	7871
803.065	7852
803.208	7780
803.35	8016
803.492	8058
803.635	8210
803.777	8073
803.919	8123
804.061	8415
804.204	8115
804.346	8084
804.488	7982
804.63	8084
804.773	8027
804.915	8027
805.057	8324
805.199	8119
805.341	8214
805.483	8244
805.626	8199
805.768	8096
805.91	8191
806.052	8225
806.194	8107
806.336	8256
806.478	8180
806.62	8103
806.762	8142
806.904	8218
807.046	8438
807.188	8343
807.33	8408
807.472	8332
807.614	8130
807.756	8145
807.898	8035
808.04	7963
808.182	7970
808.324	7894
808.465	7841
808.607	8111
808.749	8084
808.891	8202
809.033	8328
809.174	8172
809.316	8088
809.458	8035
809.6	7970
809.741	8050
809.883	8039
810.025	8039
810.166	8111
810.308	7989
810.45	8024
810.591	7917
810.733	7765
810.875	7613
811.016	7510
811.158	7552
811.299	7597
811.441	7704
811.582	7670
811.724	7601
811.865	7586
812.007	7605
812.148	7597
812.29	7647
812.431	7814
812.573	7917
812.714	8024
812.855	8161
812.997	8161
813.138	8275
813.279	8218
813.421	8069
813.562	8058
813.703	7845
813.845	7772
813.986	7480
814.127	7316
814.268	7278
814.41	7206
814.551	7160
814.692	7145
814.833	7110
814.974	7084
815.115	7114
815.256	6989
815.397	6954
815.539	6981
815.68	6867
815.821	6840
815.962	6852
816.103	6852
816.244	6749
816.385	6642
816.526	6642
816.666	6536
816.807	6266
816.948	6441
817.089	6433
817.23	6471
817.371	6410
817.512	6426
817.653	6433
817.793	6399
817.934	6422
818.075	6479
818.216	6437
818.356	6464
818.497	6254
818.638	6133
818.778	6152
818.919	6213
819.06	6232
819.2	6346
819.341	6311
819.481	6372
819.622	6566
819.762	6779
819.903	6703
820.043	6604
820.184	6578
820.324	6627
820.465	6662
820.605	6684
820.746	6631
820.886	6494
821.026	6730
821.167	6658
821.307	6802
821.447	6783
821.588	6681
821.728	6658
821.868	6502
822.008	6350
822.149	6361
822.289	6300
822.429	6106
822.569	6114
822.709	6175
822.849	5916
822.99	5908
823.13	5942
823.27	5908
823.41	5798
823.55	5802
823.69	5771
823.83	5786
823.97	5680
824.11	5532
824.25	5501
824.389	5585
824.529	5600
824.669	5543
824.809	5642
824.949	5630
825.089	5581
825.228	5592
825.368	5395
825.508	5391
825.648	5353
825.787	5387
825.927	5402
826.067	5322
826.206	5299
826.346	5391
826.485	5417
826.625	5425
826.765	5596
826.904	5467
827.044	5246
827.183	5189
827.323	5140
827.462	5246
827.601	5201
827.741	5239
827.88	5231
828.02	5128
828.159	5292
828.298	5337
828.437	5368
828.577	5292
828.716	5448
828.855	5318
828.994	5170
829.134	5212
829.273	5227
829.412	5109
829.551	5151
829.69	5204
829.829	5280
829.968	5414
830.107	5277
830.246	5307
830.385	5208
830.524	5132
830.663	5098
830.802	5018
830.941	4949
831.08	4885
831.219	4953
831.357	4930
831.496	5147
831.635	4953
831.774	4892
831.913	4904
832.051	4755
832.19	4801
832.329	4889
832.467	4706
832.606	4618
832.744	4740
832.883	4752
833.022	4790
833.16	4835
833.299	4831
833.437	4854
833.576	4854
833.714	4862
833.852	4843
833.991	4904
834.129	4984
834.267	4942
834.406	4896
834.544	5018
834.682	4972
834.821	4995
834.959	5197
835.097	5025
835.235	5170
835.373	5102
835.511	5098
835.65	5109
835.788	5018
835.926	4934
836.064	4889
836.202	4900
836.34	5212
836.478	5258
836.615	5166
836.753	5239
836.891	5322
837.029	5235
837.167	5242
837.305	5159
837.443	5117
837.58	5090
837.718	5303
837.856	5197
837.993	5220
838.131	5265
838.269	5258
838.406	5170
838.544	5216
838.681	5071
838.819	5052
838.956	4892
839.094	4911
839.231	5060
839.369	5117
839.506	5425
839.643	5227
839.781	5117
839.918	5060
840.055	5079
840.193	5086
840.33	5140
840.467	5178
840.604	5204
840.742	5509
840.879	5083
841.016	5083
841.153	5189
841.29	5357
841.427	5330
841.564	5376
841.701	5406
841.838	5330
841.975	5299
842.112	5269
842.249	5189
842.385	5105
842.522	5318
842.659	5185
842.796	5128
842.933	5235
843.069	5140
843.206	5147
843.343	5326
843.479	5254
843.616	5246
843.752	5037
843.889	5037
844.025	5223
844.162	4995
844.298	5280
844.435	5162
844.571	5037
844.708	5227
844.844	5364
844.98	5360
845.117	5288
845.253	5201
845.389	5105
845.525	5162
845.661	5170
845.798	5075
845.934	5151
846.07	5090
846.206	5208
846.342	5265
846.478	5201
846.614	5041
846.75	4949
846.886	4946
847.022	5155
847.158	5052
847.294	5090
847.429	5128
847.565	5052
847.701	5345
847.837	4885
847.972	4816
848.108	4919
848.244	4908
848.379	4744
848.515	4786
848.65	4710
848.786	4740
848.921	4755
849.057	4866
849.192	4896
849.328	4854
849.463	4801
849.598	4812
849.734	4805
849.869	4710
850.004	4645
850.14	4698
850.275	4660
850.41	4535
850.545	4611
850.68	4618
850.815	4672
850.95	4618
851.085	4892
851.22	4793
851.355	4721
851.49	4641
851.625	4645
851.76	4596
851.895	4538
852.03	4504
852.165	4698
852.299	4759
852.434	4763
852.569	4755
852.703	4797
852.838	4892
852.973	4919
853.107	4953
853.242	4744
853.376	4664
853.511	4550
853.645	4622
853.78	4809
853.914	4721
854.048	4736
854.183	4683
854.317	4691
854.451	4828
854.585	4664
854.72	4630
854.854	4790
854.988	4626
855.122	4618
855.256	4527
855.39	4630
855.524	4790
855.658	4706
855.792	4729
855.926	4763
856.06	4744
856.194	4797
856.327	4702
856.461	4611
856.595	4611
856.729	4630
856.862	4733
856.996	4641
857.13	4740
857.263	4835
857.397	4812
857.53	4679
857.664	4748
857.797	4782
857.931	4812
858.064	4702
858.197	4774
858.331	4668
858.464	4622
858.597	4596
858.731	4607
858.864	4698
858.997	4599
859.13	4645
859.263	4698
859.396	4668
859.529	4546
859.662	4573
859.795	4538
859.928	4641
860.061	4767
860.194	4839
860.327	4668
860.46	4580
860.592	4733
860.725	4721
860.858	4752
860.99	4584
861.123	4497
861.256	4504
861.388	4634
861.521	5246
861.653	4527
861.786	4455
861.918	4462
862.05	4523
862.183	4546
862.315	4618
862.447	4649
862.58	4554
862.712	4398
862.844	4325
862.976	4470
863.108	4462
863.24	4866
863.372	4356
863.504	4417
863.636	4390
863.768	4481
863.9	4440
864.032	4344
864.164	4390
864.296	4516
864.428	4527
864.559	4550
864.691	4535
864.823	4523
864.954	4573
865.086	4512
865.217	4451
865.349	4440
865.48	4531
865.612	4516
865.743	4656
865.875	4478
866.006	4443
866.137	4481
866.269	4409
866.4	4451
866.531	4428
866.662	4394
866.793	4386
866.924	4417
867.055	4493
867.186	4459
867.317	4424
867.448	4367
867.579	4455
867.71	4367
867.841	4371
867.972	4474
868.103	4440
868.233	4462
868.364	4466
868.495	4508
868.625	4687
868.756	4752
868.886	4542
869.017	4596
869.147	4809
869.278	4771
869.408	4637
869.539	4649
869.669	4683
869.799	4675
869.929	4763
870.06	4710
870.19	4942
870.32	4957
870.45	4923
870.58	4976
870.71	5105
870.84	5102
870.97	4930
871.1	4870
871.23	5121
871.36	5159
871.489	5022
871.619	5109
871.749	5094
871.879	5124
872.008	5166
872.138	5041
872.267	4995
872.397	4786
872.526	4839
872.656	4729
872.785	4763
872.915	4934
873.044	5052
873.173	4934
873.303	4972
873.432	4896
873.561	4938
873.69	4854
873.819	4858
873.948	4934
874.077	4828
874.206	4725
874.335	4744
874.464	4938
874.593	5006
874.722	4915
874.851	5079
874.979	5041
875.108	5041
875.237	4934
875.365	4896
875.494	4862
875.623	4942
875.751	4835
875.88	4854
876.008	4999
876.136	5090
876.265	5170
876.393	5364
876.521	5208
876.65	5136
876.778	5166
876.906	5079
877.034	5006
877.162	5056
877.29	5033
877.418	5025
877.546	5048
877.674	5014
877.802	5010
877.93	5075
878.058	4968
878.185	4843
878.313	4946
878.441	4991
878.568	4835
878.696	4885
878.824	4900
878.951	5014
879.079	5128
879.206	5307
879.333	5075
879.461	5003
879.588	5029
879.715	5162
879.842	5204
879.97	5018
880.097	4801
880.224	4778
880.351	4824
880.478	4866
880.605	4793
880.732	4847
880.859	5109
880.986	4965
881.112	4957
881.239	4786
881.366	4725
881.493	4618
881.619	4615
881.746	4706
881.872	4637
881.999	4706
882.125	4748
882.252	4820
882.378	4885
882.505	4968
882.631	4835
882.757	4729
882.883	4816
883.01	4755
883.136	4679
883.262	4672
883.388	4615
883.514	4828
883.64	4900
883.766	4831
883.892	4736
884.018	4797
884.143	4942
884.269	5010
884.395	4683
884.52	4698
884.646	4668
884.772	4630
884.897	4618
885.023	4679
885.148	4831
885.274	4858
885.399	4919
885.524	4721
885.65	4744
885.775	4782
885.9	4729
886.025	4862
886.15	4870
886.275	4714
886.4	4740
886.525	4729
886.65	4668
886.775	4714
886.9	4889
887.025	5022
887.149	4839
887.274	4691
887.399	4569
887.523	4634
887.648	4645
887.773	4596
887.897	4763
888.021	4812
888.146	4714
888.27	4850
888.395	4987
888.519	4843
888.643	4835
888.767	4919
888.891	4649
889.015	4607
889.139	4664
889.263	4660
889.387	4782
889.511	4900
889.635	4854
889.759	4702
889.883	4683
890.006	4752
890.13	4820
890.254	4649
890.377	4759
890.501	4599
890.624	4554
890.748	4706
890.871	4561
890.995	4440
891.118	4402
891.241	4523
891.364	4538
891.488	4615
891.611	4493
891.734	4630
891.857	4615
891.98	4615
892.103	4675
892.226	4675
892.349	4546
892.471	4516
892.594	4584
892.717	4615
892.839	4565
892.962	4611
893.085	4736
893.207	4618
893.33	4478
893.452	4546
893.575	4706
893.697	4637
893.819	4801
893.941	4850
894.064	4809
894.186	4618
894.308	4618
894.43	4744
894.552	4782
894.674	4763
894.796	4584
894.918	4611
895.04	4603
895.161	4786
895.283	4698
895.405	4588
895.526	4634
895.648	4710
895.769	4736
895.891	4744
896.012	4778
896.134	4763
896.255	4698
896.376	4645
896.498	4618
896.619	4710
896.74	4637
896.861	4710
896.982	4930
897.103	5075
897.224	4866
897.345	4767
897.466	4660
897.587	4759
897.708	4862
897.828	4782
897.949	4733
898.07	4653
898.19	4641
898.311	4858
898.431	4710
898.552	4820
898.672	4801
898.792	4797
898.913	4744
899.033	4664
899.153	4573
899.273	4440
899.393	4535
899.513	4516
899.633	4535
899.753	4565
899.873	4523
899.993	4569
900.113	4550
900.232	4603
900.352	4546
900.472	4527
900.591	4398
900.711	4508
900.83	4451
900.95	4641
901.069	4717
901.189	4592
901.308	4417
901.427	4348
901.546	4386
901.665	4474
901.784	4527
901.904	4398
902.023	4371
902.141	4204
902.26	4192
902.379	4325
902.498	4291
902.617	4272
902.735	4379
902.854	4455
902.973	4375
903.091	4211
903.21	4261
903.328	4356
903.446	4276
903.565	4303
903.683	4394
903.801	4333
903.919	4417
904.038	4424
904.156	4348
904.274	4447
904.392	4413
904.51	4451
904.627	4481
904.745	4592
904.863	4645
904.981	4402
905.098	4344
905.216	4344
905.334	4428
905.451	4443
905.569	4504
905.686	4569
905.803	4615
905.921	4443
906.038	4615
906.155	4542
906.272	4405
906.389	4500
906.506	4363
906.623	4409
906.74	4413
906.857	4325
906.974	4440
907.091	4561
907.208	4698
907.324	4615
907.441	4527
907.557	4424
907.674	4371
907.79	4363
907.907	4409
908.023	4527
908.139	4489
908.256	4421
908.372	4508
908.488	4485
908.604	4367
908.72	4348
908.836	4356
908.952	4379
909.068	4455
909.184	4550
909.3	4508
909.415	4588
909.531	4577
909.647	4413
909.762	4394
909.878	4390
909.993	4455
910.108	4436
910.224	4455
910.339	4546
910.454	4447
910.57	4379
910.685	4306
910.8	4691
910.915	4649
911.03	4519
911.145	4306
911.259	4363
911.374	4428
911.489	4325
911.604	4276
911.718	4173
911.833	4268
911.947	4135
912.062	4074
912.176	4207
912.291	4306
912.405	4280
912.519	4493
912.633	4489
912.748	4348
912.862	4333
912.976	4230
913.09	4162
913.204	4192
913.318	4291
913.431	4379
913.545	4383
913.659	4432
913.772	4371
913.886	4265
914	4230
914.113	4379
914.226	4481
914.34	4386
914.453	4257
914.566	4451
914.68	4337
914.793	4348
914.906	4162
915.019	4093
915.132	4116
915.245	4154
915.358	4238
915.47	4249
915.583	4299
915.696	4341
915.809	4462
915.921	4485
916.034	4299
916.146	4268
916.259	4249
916.371	4462
916.483	4379
916.595	4276
916.708	4329
916.82	4306
916.932	4348
917.044	4379
917.156	4356
917.268	4280
917.38	4295
917.491	4265
917.603	4367
917.715	4440
917.826	4417
917.938	4394
918.049	4272
918.161	4348
918.272	4538
918.384	4527
918.495	4470
918.606	4322
918.717	4284
918.828	4367
918.939	4405
919.05	4261
919.161	4329
919.272	4105
919.383	4227
919.494	4462
919.604	4607
919.715	4424
919.826	4322
919.936	4413
920.047	4535
920.157	4558
920.267	4698
920.378	4504
920.488	4512
920.598	4706
920.708	4923
920.818	4809
920.928	4759
921.038	4968
921.148	4927
921.258	4653
921.368	4527
921.477	4504
921.587	4478
921.697	4409
921.806	4489
921.916	4428
922.025	4257
922.134	4295
922.244	4238
922.353	4371
922.462	4143
922.571	4139
922.68	3998
922.789	3994
922.898	4063
923.007	3991
923.116	4120
923.224	4055
923.333	4124
923.442	4002
923.55	3975
923.659	4059
923.767	4105
923.876	3960
923.984	4128
924.092	4044
924.201	4059
924.309	4116
924.417	4116
924.525	4097
924.633	4116
924.741	5048
924.849	3953
924.956	4154
925.064	3945
925.172	3899
925.279	3972
925.387	4063
925.494	4040
925.602	4284
925.709	4162
925.816	4078
925.924	4154
926.031	4249
926.138	4234
926.245	4196
926.352	4097
926.459	4249
926.566	4272
926.673	4207
926.779	4067
926.886	4109
926.993	3987
927.099	3983
927.206	3994
927.312	3945
927.419	4032
927.525	4051
927.631	4135
927.737	3987
927.843	3960
927.95	3850
928.056	3983
928.162	4025
928.267	4101
928.373	4683
928.479	4120
928.585	3846
928.69	4013
928.796	4090
928.901	4006
929.007	3831
929.112	4025
929.218	4029
929.323	3949
929.428	3953
929.533	4116
929.638	3934
929.743	4025
929.848	4051
929.953	4013
930.058	3937
930.163	3747
930.267	3800
930.372	4032
930.477	3812
930.581	4101
930.685	3941
930.79	3823
930.894	3915
930.998	3888
931.103	4044
931.207	3736
931.311	3694
931.415	3682
931.519	3526
931.623	3599
