Data from test_V78500241_191.txt Node
Date: Fri Mar 25 16:50:19 CST 2022
User: usil
Spectrometer: V785-0024
Trigger mode: 0
Integration Time (sec): 4.000000E-1
Scans to average: 1
Nonlinearity correction enabled: false
Boxcar width: 0
Storing dark spectrum: false
XAxis mode: Wavelengths
Number of Pixels in Spectrum: 1024
>>>>>Begin Spectral Data<<<<<
801.071	8031
801.214	7997
801.356	7799
801.499	7860
801.641	7822
801.783	7913
801.926	7963
802.068	7982
802.211	7978
802.353	8039
802.496	7799
802.638	7974
802.78	7917
802.923	7909
803.065	7856
803.208	7856
803.35	7955
803.492	8046
803.635	8126
803.777	8062
803.919	8031
804.061	8434
804.204	8119
804.346	8077
804.488	8031
804.63	8088
804.773	8001
804.915	8065
805.057	8259
805.199	8107
805.341	8225
805.483	8218
805.626	8210
805.768	8138
805.91	8134
806.052	8210
806.194	8119
806.336	8328
806.478	8107
806.62	7978
806.762	8084
806.904	8176
807.046	8385
807.188	8343
807.33	8282
807.472	8271
807.614	8073
807.756	8126
807.898	7947
808.04	7864
808.182	7871
808.324	7947
808.465	7944
808.607	8081
808.749	8096
808.891	8187
809.033	8313
809.174	8187
809.316	8058
809.458	8058
809.6	7997
809.741	8031
809.883	8065
810.025	8096
810.166	8077
810.308	8024
810.45	7951
810.591	7898
810.733	7723
810.875	7681
811.016	7552
811.158	7495
811.299	7647
811.441	7780
811.582	7715
811.724	7548
811.865	7578
812.007	7639
812.148	7544
812.29	7658
812.431	7769
812.573	7928
812.714	7982
812.855	8225
812.997	8210
813.138	8240
813.279	8176
813.421	8077
813.562	7928
813.703	7841
813.845	7738
813.986	7457
814.127	7266
814.268	7190
814.41	7194
814.551	7160
814.692	7217
814.833	7118
814.974	7168
815.115	7122
815.256	6993
815.397	6928
815.539	6935
815.68	6901
815.821	6757
815.962	6840
816.103	6779
816.244	6692
816.385	6642
816.526	6623
816.666	6559
816.807	6327
816.948	6433
817.089	6448
817.23	6418
817.371	6369
817.512	6395
817.653	6369
817.793	6353
817.934	6410
818.075	6456
818.216	6418
818.356	6391
818.497	6232
818.638	6114
818.778	6136
818.919	6175
819.06	6133
819.2	6319
819.341	6270
819.481	6380
819.622	6521
819.762	6715
819.903	6662
820.043	6589
820.184	6551
820.324	6570
820.465	6711
820.605	6669
820.746	6582
820.886	6528
821.026	6688
821.167	6741
821.307	6806
821.447	6734
821.588	6688
821.728	6616
821.868	6486
822.008	6251
822.149	6372
822.289	6376
822.429	6186
822.569	6136
822.709	6155
822.849	5923
822.99	5882
823.13	5885
823.27	5961
823.41	5824
823.55	5779
823.69	5733
823.83	5805
823.97	5615
824.11	5528
824.25	5535
824.389	5539
824.529	5558
824.669	5535
824.809	5638
824.949	5653
825.089	5581
825.228	5539
825.368	5410
825.508	5360
825.648	5364
825.787	5414
825.927	5383
826.067	5315
826.206	5250
826.346	5410
826.485	5402
826.625	5444
826.765	5512
826.904	5459
827.044	5250
827.183	5231
827.323	5162
827.462	5280
827.601	5197
827.741	5239
827.88	5280
828.02	5132
828.159	5216
828.298	5265
828.437	5421
828.577	5204
828.716	5490
828.855	5277
828.994	5151
829.134	5185
829.273	5246
829.412	5109
829.551	5132
829.69	5136
829.829	5239
829.968	5379
830.107	5261
830.246	5280
830.385	5181
830.524	5128
830.663	5083
830.802	4991
830.941	4873
831.08	4915
831.219	4999
831.357	4953
831.496	5113
831.635	4946
831.774	4847
831.913	4858
832.051	4752
832.19	4771
832.329	4805
832.467	4733
832.606	4668
832.744	4736
832.883	4706
833.022	4740
833.16	4820
833.299	4870
833.437	4862
833.576	4866
833.714	4854
833.852	4854
833.991	4885
834.129	4976
834.267	4934
834.406	4915
834.544	4968
834.682	4968
834.821	4980
834.959	5166
835.097	4995
835.235	5193
835.373	5060
835.511	5102
835.65	5041
835.788	5010
835.926	4949
836.064	4900
836.202	4984
836.34	5109
836.478	5231
836.615	5128
836.753	5204
836.891	5326
837.029	5265
837.167	5197
837.305	5140
837.443	5105
837.58	5067
837.718	5273
837.856	5212
837.993	5151
838.131	5185
838.269	5231
838.406	5223
838.544	5204
838.681	5083
838.819	5041
838.956	4904
839.094	4889
839.231	4938
839.369	5086
839.506	5383
839.643	5212
839.781	5071
839.918	5022
840.055	5109
840.193	5147
840.33	5086
840.467	5166
840.604	5231
840.742	5459
840.879	5075
841.016	5079
841.153	5155
841.29	5360
841.427	5379
841.564	5277
841.701	5379
841.838	5242
841.975	5239
842.112	5227
842.249	5117
842.385	5067
842.522	5318
842.659	5170
842.796	5162
842.933	5174
843.069	5128
843.206	5220
843.343	5322
843.479	5227
843.616	5296
843.752	5075
843.889	4999
844.025	5208
844.162	4991
844.298	5197
844.435	5090
844.571	5018
844.708	5223
844.844	5280
844.98	5368
845.117	5315
845.253	5136
845.389	5071
845.525	5140
845.661	5181
845.798	5033
845.934	5113
846.07	5052
846.206	5166
846.342	5269
846.478	5181
846.614	5003
846.75	4942
846.886	4934
847.022	5181
847.158	5041
847.294	5048
847.429	5105
847.565	5083
847.701	5349
847.837	4850
847.972	4771
848.108	4980
848.244	4938
848.379	4797
848.515	4725
848.65	4721
848.786	4778
848.921	4782
849.057	4911
849.192	4881
849.328	4767
849.463	4862
849.598	4786
849.734	4778
849.869	4660
850.004	4672
850.14	4672
850.275	4622
850.41	4554
850.545	4558
850.68	4596
850.815	4607
850.95	4637
851.085	4850
851.22	4771
851.355	4637
851.49	4626
851.625	4603
851.76	4656
851.895	4580
852.03	4523
852.165	4637
852.299	4717
852.434	4805
852.569	4763
852.703	4824
852.838	4839
852.973	4896
853.107	4892
853.242	4786
853.376	4649
853.511	4618
853.645	4637
853.78	4847
853.914	4694
854.048	4668
854.183	4649
854.317	4725
854.451	4835
854.585	4660
854.72	4675
854.854	4736
854.988	4653
855.122	4607
855.256	4512
855.39	4691
855.524	4797
855.658	4801
855.792	4710
855.926	4714
856.06	4805
856.194	4801
856.327	4740
856.461	4618
856.595	4637
856.729	4664
856.862	4714
856.996	4660
857.13	4714
857.263	4736
857.397	4835
857.53	4706
857.664	4748
857.797	4778
857.931	4790
858.064	4675
858.197	4725
858.331	4618
858.464	4630
858.597	4542
858.731	4641
858.864	4565
858.997	4615
859.13	4664
859.263	4683
859.396	4748
859.529	4584
859.662	4565
859.795	4569
859.928	4649
860.061	4748
860.194	4809
860.327	4634
860.46	4561
860.592	4660
860.725	4691
860.858	4725
860.99	4565
861.123	4516
861.256	4478
861.388	4634
861.521	5402
861.653	4504
861.786	4466
861.918	4443
862.05	4542
862.183	4546
862.315	4599
862.447	4664
862.58	4550
862.712	4405
862.844	4306
862.976	4493
863.108	4478
863.24	4892
863.372	4341
863.504	4466
863.636	4413
863.768	4481
863.9	4432
864.032	4409
864.164	4383
864.296	4516
864.428	4558
864.559	4554
864.691	4565
864.823	4569
864.954	4531
865.086	4455
865.217	4466
865.349	4413
865.48	4500
865.612	4470
865.743	4641
865.875	4436
866.006	4428
866.137	4470
866.269	4451
866.4	4455
866.531	4424
866.662	4394
866.793	4424
866.924	4424
867.055	4519
867.186	4451
867.317	4417
867.448	4402
867.579	4352
867.71	4383
867.841	4367
867.972	4455
868.103	4474
868.233	4474
868.364	4424
868.495	4493
868.625	4733
868.756	4790
868.886	4546
869.017	4649
869.147	4820
869.278	4759
869.408	4698
869.539	4611
869.669	4729
869.799	4672
869.929	4759
870.06	4755
870.19	4877
870.32	4919
870.45	4927
870.58	5014
870.71	5056
870.84	5109
870.97	4961
871.1	4923
871.23	5147
871.36	5151
871.489	5048
871.619	5052
871.749	5113
871.879	5132
872.008	5189
872.138	5117
872.267	4995
872.397	4835
872.526	4805
872.656	4694
872.785	4820
872.915	4923
873.044	5045
873.173	4919
873.303	4987
873.432	4972
873.561	4972
873.69	4870
873.819	4889
873.948	4911
874.077	4870
874.206	4763
874.335	4778
874.464	4930
874.593	5052
874.722	4942
874.851	5090
874.979	5121
875.108	5033
875.237	4930
875.365	4889
875.494	4911
875.623	5003
875.751	4843
875.88	4862
876.008	4946
876.136	5060
876.265	5235
876.393	5379
876.521	5269
876.65	5250
876.778	5143
876.906	5060
877.034	5014
877.162	5048
877.29	4995
877.418	5064
877.546	5067
877.674	5056
877.802	5022
877.93	4991
878.058	4896
878.185	4877
878.313	4915
878.441	4946
878.568	4805
878.696	4858
878.824	4930
878.951	4949
879.079	5151
879.206	5318
879.333	5117
879.461	4938
879.588	5006
879.715	5174
879.842	5265
879.97	4987
880.097	4790
880.224	4763
880.351	4805
880.478	4843
880.605	4790
880.732	4801
880.859	5056
880.986	4923
881.112	4938
881.239	4835
881.366	4702
881.493	4630
881.619	4611
881.746	4611
881.872	4672
881.999	4687
882.125	4740
882.252	4763
882.378	4870
882.505	4968
882.631	4816
882.757	4668
882.883	4736
883.01	4755
883.136	4653
883.262	4584
883.388	4645
883.514	4847
883.64	4862
883.766	4763
883.892	4694
884.018	4736
884.143	4915
884.269	5029
884.395	4664
884.52	4679
884.646	4630
884.772	4603
884.897	4577
885.023	4611
885.148	4752
885.274	4839
885.399	4820
885.524	4725
885.65	4710
885.775	4778
885.9	4668
886.025	4873
886.15	4790
886.275	4736
886.4	4626
886.525	4717
886.65	4733
886.775	4683
886.9	4900
887.025	5022
887.149	4835
887.274	4615
887.399	4569
887.523	4626
887.648	4561
887.773	4577
887.897	4729
888.021	4793
888.146	4698
888.27	4801
888.395	4862
888.519	4835
888.643	4828
888.767	4854
888.891	4679
889.015	4596
889.139	4664
889.263	4565
889.387	4752
889.511	4870
889.635	4763
889.759	4683
889.883	4611
890.006	4717
890.13	4889
890.254	4630
890.377	4702
890.501	4554
890.624	4565
890.748	4607
890.871	4538
890.995	4413
891.118	4417
891.241	4504
891.364	4504
891.488	4660
891.611	4500
891.734	4561
891.857	4622
891.98	4592
892.103	4634
892.226	4550
892.349	4523
892.471	4474
892.594	4565
892.717	4630
892.839	4554
892.962	4653
893.085	4668
893.207	4626
893.33	4508
893.452	4519
893.575	4664
893.697	4596
893.819	4801
893.941	4820
894.064	4774
894.186	4611
894.308	4569
894.43	4717
894.552	4828
894.674	4782
894.796	4542
894.918	4599
895.04	4580
895.161	4694
895.283	4664
895.405	4653
895.526	4702
895.648	4687
895.769	4721
895.891	4714
896.012	4748
896.134	4698
896.255	4668
896.376	4634
896.498	4622
896.619	4702
896.74	4634
896.861	4656
896.982	4946
897.103	5060
897.224	4873
897.345	4752
897.466	4687
897.587	4725
897.708	4862
897.828	4805
897.949	4710
898.07	4592
898.19	4611
898.311	4850
898.431	4694
898.552	4694
898.672	4828
898.792	4850
898.913	4702
899.033	4660
899.153	4538
899.273	4455
899.393	4493
899.513	4535
899.633	4546
899.753	4527
899.873	4493
899.993	4615
900.113	4592
900.232	4592
900.352	4607
900.472	4466
900.591	4424
900.711	4443
900.83	4443
900.95	4626
901.069	4725
901.189	4538
901.308	4375
901.427	4325
901.546	4371
901.665	4459
901.784	4497
901.904	4394
902.023	4367
902.141	4219
902.26	4173
902.379	4318
902.498	4272
902.617	4204
902.735	4379
902.854	4386
902.973	4363
903.091	4230
903.21	4238
903.328	4284
903.446	4238
903.565	4280
903.683	4352
903.801	4284
903.919	4402
904.038	4428
904.156	4341
904.274	4493
904.392	4428
904.51	4508
904.627	4489
904.745	4603
904.863	4641
904.981	4398
905.098	4306
905.216	4371
905.334	4451
905.451	4470
905.569	4447
905.686	4584
905.803	4546
905.921	4424
906.038	4580
906.155	4493
906.272	4348
906.389	4489
906.506	4402
906.623	4413
906.74	4424
906.857	4310
906.974	4424
907.091	4603
907.208	4679
907.324	4607
907.441	4512
907.557	4352
907.674	4352
907.79	4375
907.907	4413
908.023	4500
908.139	4527
908.256	4451
908.372	4481
908.488	4455
908.604	4363
908.72	4394
908.836	4394
908.952	4383
909.068	4455
909.184	4558
909.3	4561
909.415	4637
909.531	4584
909.647	4325
909.762	4405
909.878	4306
909.993	4413
910.108	4409
910.224	4447
910.339	4500
910.454	4398
910.57	4390
910.685	4291
910.8	4653
910.915	4603
911.03	4504
911.145	4325
911.259	4306
911.374	4363
911.489	4284
911.604	4291
911.718	4166
911.833	4219
911.947	4112
912.062	4013
912.176	4219
912.291	4253
912.405	4287
912.519	4447
912.633	4508
912.748	4371
912.862	4352
912.976	4207
913.09	4105
913.204	4173
913.318	4291
913.431	4398
913.545	4341
913.659	4485
913.772	4363
913.886	4272
914	4185
914.113	4375
914.226	4447
914.34	4390
914.453	4276
914.566	4451
914.68	4299
914.793	4360
914.906	4177
915.019	4150
915.132	4109
915.245	4173
915.358	4200
915.47	4188
915.583	4272
915.696	4310
915.809	4371
915.921	4478
916.034	4268
916.146	4265
916.259	4242
916.371	4432
916.483	4356
916.595	4299
916.708	4360
916.82	4318
916.932	4356
917.044	4318
917.156	4363
917.268	4207
917.38	4265
917.491	4268
917.603	4303
917.715	4447
917.826	4478
917.938	4402
918.049	4246
918.161	4398
918.272	4599
918.384	4512
918.495	4466
918.606	4299
918.717	4257
918.828	4356
918.939	4386
919.05	4272
919.161	4310
919.272	4139
919.383	4234
919.494	4466
919.604	4645
919.715	4462
919.826	4325
919.936	4432
920.047	4546
920.157	4512
920.267	4714
920.378	4542
920.488	4550
920.598	4736
920.708	4889
920.818	4790
920.928	4733
921.038	4938
921.148	4896
921.258	4615
921.368	4588
921.477	4519
921.587	4474
921.697	4363
921.806	4588
921.916	4447
922.025	4276
922.134	4280
922.244	4257
922.353	4314
922.462	4143
922.571	4192
922.68	4044
922.789	3956
922.898	4063
923.007	4010
923.116	4093
923.224	4063
923.333	4067
923.442	4017
923.55	3964
923.659	4055
923.767	4135
923.876	4074
923.984	4124
924.092	4029
924.201	4131
924.309	4055
924.417	4139
924.525	4032
924.633	4086
924.741	4870
924.849	3922
924.956	4101
925.064	3945
925.172	3945
925.279	3975
925.387	4059
925.494	4067
925.602	4227
925.709	4192
925.816	4025
925.924	4162
926.031	4249
926.138	4169
926.245	4196
926.352	4090
926.459	4246
926.566	4310
926.673	4135
926.779	4090
926.886	4067
926.993	3987
927.099	3953
927.206	3945
927.312	3934
927.419	4071
927.525	4010
927.631	4071
927.737	3945
927.843	3991
927.95	3857
928.056	3941
928.162	3975
928.267	4044
928.373	4672
928.479	4112
928.585	3861
928.69	4048
928.796	4055
928.901	3968
929.007	3922
929.112	3983
929.218	3979
929.323	3937
929.428	3907
929.533	4120
929.638	3930
929.743	3918
929.848	4025
929.953	3994
930.058	3930
930.163	3774
930.267	3838
930.372	4010
930.477	3819
930.581	4036
930.685	3953
930.79	3865
930.894	3907
930.998	3869
931.103	4048
931.207	3747
931.311	3709
931.415	3648
931.519	3542
931.623	3572
