Data from test_V78500241_1373.txt Node
Date: Fri Mar 25 16:58:32 CST 2022
User: usil
Spectrometer: V785-0024
Trigger mode: 0
Integration Time (sec): 4.000000E-1
Scans to average: 1
Nonlinearity correction enabled: false
Boxcar width: 0
Storing dark spectrum: false
XAxis mode: Wavelengths
Number of Pixels in Spectrum: 1024
>>>>>Begin Spectral Data<<<<<
801.071	7997
801.214	8020
801.356	7875
801.499	7864
801.641	7811
801.783	7811
801.926	8012
802.068	7906
802.211	7936
802.353	7909
802.496	7883
802.638	7860
802.78	7928
802.923	7898
803.065	7913
803.208	7856
803.35	7947
803.492	8031
803.635	8176
803.777	7967
803.919	8088
804.061	8431
804.204	8202
804.346	8031
804.488	7913
804.63	8126
804.773	8058
804.915	8130
805.057	8279
805.199	8225
805.341	8202
805.483	8240
805.626	8191
805.768	8183
805.91	8199
806.052	8248
806.194	8081
806.336	8252
806.478	8153
806.62	8027
806.762	8077
806.904	8229
807.046	8480
807.188	8279
807.33	8240
807.472	8385
807.614	8183
807.756	8130
807.898	7993
808.04	7909
808.182	7925
808.324	7879
808.465	7925
808.607	8153
808.749	8130
808.891	8119
809.033	8214
809.174	8161
809.316	8084
809.458	8043
809.6	8039
809.741	7963
809.883	8077
810.025	8065
810.166	8054
810.308	8081
810.45	7944
810.591	7837
810.733	7704
810.875	7636
811.016	7510
811.158	7468
811.299	7594
811.441	7734
811.582	7708
811.724	7540
811.865	7533
812.007	7601
812.148	7636
812.29	7632
812.431	7712
812.573	7845
812.714	7955
812.855	8138
812.997	8206
813.138	8313
813.279	8210
813.421	8103
813.562	7974
813.703	7883
813.845	7712
813.986	7415
814.127	7236
814.268	7209
814.41	7244
814.551	7149
814.692	7145
814.833	7065
814.974	7061
815.115	7065
815.256	6916
815.397	6939
815.539	6871
815.68	6829
815.821	6741
815.962	6875
816.103	6783
816.244	6715
816.385	6635
816.526	6612
816.666	6471
816.807	6304
816.948	6403
817.089	6452
817.23	6418
817.371	6300
817.512	6388
817.653	6376
817.793	6384
817.934	6422
818.075	6509
818.216	6445
818.356	6441
818.497	6228
818.638	6098
818.778	6152
818.919	6095
819.06	6140
819.2	6300
819.341	6281
819.481	6395
819.622	6486
819.762	6776
819.903	6684
820.043	6559
820.184	6601
820.324	6544
820.465	6692
820.605	6658
820.746	6654
820.886	6532
821.026	6650
821.167	6719
821.307	6749
821.447	6764
821.588	6616
821.728	6589
821.868	6540
822.008	6300
822.149	6391
822.289	6304
822.429	6136
822.569	6110
822.709	6083
822.849	5958
822.99	5923
823.13	5977
823.27	5912
823.41	5771
823.55	5764
823.69	5726
823.83	5722
823.97	5676
824.11	5543
824.25	5509
824.389	5505
824.529	5547
824.669	5532
824.809	5627
824.949	5649
825.089	5596
825.228	5554
825.368	5395
825.508	5337
825.648	5353
825.787	5398
825.927	5360
826.067	5296
826.206	5292
826.346	5357
826.485	5391
826.625	5337
826.765	5577
826.904	5452
827.044	5239
827.183	5201
827.323	5071
827.462	5277
827.601	5159
827.741	5159
827.88	5201
828.02	5094
828.159	5223
828.298	5299
828.437	5372
828.577	5231
828.716	5482
828.855	5284
828.994	5143
829.134	5174
829.273	5178
829.412	5098
829.551	5140
829.69	5109
829.829	5193
829.968	5379
830.107	5246
830.246	5242
830.385	5178
830.524	5166
830.663	4995
830.802	4965
830.941	4949
831.08	4900
831.219	5033
831.357	4961
831.496	5128
831.635	4942
831.774	4843
831.913	4839
832.051	4691
832.19	4755
832.329	4850
832.467	4702
832.606	4622
832.744	4691
832.883	4702
833.022	4736
833.16	4771
833.299	4820
833.437	4793
833.576	4828
833.714	4763
833.852	4892
833.991	4900
834.129	4957
834.267	4923
834.406	4908
834.544	4976
834.682	4953
834.821	4984
834.959	5166
835.097	4949
835.235	5071
835.373	5029
835.511	5067
835.65	4995
835.788	5045
835.926	4843
836.064	4862
836.202	4908
836.34	5124
836.478	5174
836.615	5159
836.753	5189
836.891	5231
837.029	5170
837.167	5162
837.305	5124
837.443	5105
837.58	5064
837.718	5239
837.856	5181
837.993	5113
838.131	5220
838.269	5216
838.406	5201
838.544	5155
838.681	5075
838.819	4980
838.956	4877
839.094	4904
839.231	4949
839.369	5052
839.506	5429
839.643	5235
839.781	5048
839.918	5014
840.055	5083
840.193	5075
840.33	5105
840.467	5117
840.604	5193
840.742	5429
840.879	5067
841.016	5090
841.153	5132
841.29	5280
841.427	5273
841.564	5303
841.701	5383
841.838	5239
841.975	5181
842.112	5216
842.249	5143
842.385	5064
842.522	5269
842.659	5155
842.796	5132
842.933	5147
843.069	5132
843.206	5105
843.343	5284
843.479	5242
843.616	5261
843.752	5022
843.889	4976
844.025	5151
844.162	5045
844.298	5185
844.435	5075
844.571	5041
844.708	5220
844.844	5341
844.98	5326
845.117	5337
845.253	5174
845.389	5071
845.525	5174
845.661	5132
845.798	5037
845.934	5151
846.07	4980
846.206	5204
846.342	5288
846.478	5166
846.614	5003
846.75	4995
846.886	4908
847.022	5132
847.158	5045
847.294	5025
847.429	5083
847.565	5045
847.701	5337
847.837	4850
847.972	4816
848.108	4961
848.244	4927
848.379	4733
848.515	4721
848.65	4698
848.786	4710
848.921	4736
849.057	4908
849.192	4862
849.328	4790
849.463	4797
849.598	4744
849.734	4782
849.869	4710
850.004	4596
850.14	4618
850.275	4626
850.41	4538
850.545	4542
850.68	4580
850.815	4622
850.95	4622
851.085	4831
851.22	4729
851.355	4664
851.49	4634
851.625	4645
851.76	4656
851.895	4508
852.03	4489
852.165	4660
852.299	4729
852.434	4809
852.569	4748
852.703	4790
852.838	4809
852.973	4900
853.107	4919
853.242	4691
853.376	4672
853.511	4538
853.645	4569
853.78	4786
853.914	4702
854.048	4694
854.183	4603
854.317	4653
854.451	4816
854.585	4660
854.72	4592
854.854	4767
854.988	4607
855.122	4641
855.256	4504
855.39	4641
855.524	4793
855.658	4717
855.792	4710
855.926	4725
856.06	4733
856.194	4778
856.327	4668
856.461	4550
856.595	4592
856.729	4637
856.862	4710
856.996	4691
857.13	4752
857.263	4736
857.397	4793
857.53	4668
857.664	4679
857.797	4774
857.931	4790
858.064	4660
858.197	4748
858.331	4649
858.464	4569
858.597	4512
858.731	4649
858.864	4599
858.997	4554
859.13	4668
859.263	4691
859.396	4660
859.529	4558
859.662	4542
859.795	4550
859.928	4645
860.061	4725
860.194	4714
860.327	4622
860.46	4569
860.592	4691
860.725	4717
860.858	4679
860.99	4573
861.123	4519
861.256	4504
861.388	4641
861.521	5417
861.653	4459
861.786	4512
861.918	4398
862.05	4538
862.183	4546
862.315	4615
862.447	4634
862.58	4519
862.712	4386
862.844	4314
862.976	4459
863.108	4432
863.24	4904
863.372	4386
863.504	4379
863.636	4417
863.768	4481
863.9	4394
864.032	4306
864.164	4405
864.296	4493
864.428	4519
864.559	4523
864.691	4459
864.823	4493
864.954	4424
865.086	4481
865.217	4478
865.349	4394
865.48	4462
865.612	4485
865.743	4626
865.875	4474
866.006	4417
866.137	4428
866.269	4474
866.4	4413
866.531	4417
866.662	4413
866.793	4413
866.924	4398
867.055	4462
867.186	4440
867.317	4440
867.448	4375
867.579	4375
867.71	4390
867.841	4367
867.972	4386
868.103	4466
868.233	4436
868.364	4413
868.495	4436
868.625	4630
868.756	4740
868.886	4527
869.017	4580
869.147	4729
869.278	4744
869.408	4599
869.539	4641
869.669	4721
869.799	4675
869.929	4729
870.06	4717
870.19	4911
870.32	4862
870.45	4919
870.58	4999
870.71	5067
870.84	5071
870.97	4881
871.1	4885
871.23	5140
871.36	5094
871.489	5045
871.619	5083
871.749	5075
871.879	5102
872.008	5166
872.138	5018
872.267	4980
872.397	4835
872.526	4786
872.656	4748
872.785	4748
872.915	4923
873.044	4995
873.173	4961
873.303	4915
873.432	4946
873.561	4934
873.69	4889
873.819	4843
873.948	4942
874.077	4778
874.206	4790
874.335	4831
874.464	4949
874.593	5003
874.722	4976
874.851	5064
874.979	5006
875.108	5045
875.237	4858
875.365	4896
875.494	4847
875.623	5003
875.751	4866
875.88	4843
876.008	4968
876.136	5041
876.265	5159
876.393	5307
876.521	5250
876.65	5193
876.778	5075
876.906	5025
877.034	4987
877.162	5025
877.29	5029
877.418	5056
877.546	5037
877.674	5006
877.802	4999
877.93	4984
878.058	4908
878.185	4885
878.313	4919
878.441	4934
878.568	4786
878.696	4843
878.824	4942
878.951	4987
879.079	5109
879.206	5322
879.333	5052
879.461	4953
879.588	4972
879.715	5113
879.842	5212
879.97	5037
880.097	4778
880.224	4774
880.351	4816
880.478	4850
880.605	4717
880.732	4812
880.859	5117
880.986	4870
881.112	4927
881.239	4736
881.366	4691
881.493	4573
881.619	4546
881.746	4599
881.872	4611
881.999	4607
882.125	4710
882.252	4778
882.378	4850
882.505	4965
882.631	4786
882.757	4653
882.883	4710
883.01	4687
883.136	4634
883.262	4561
883.388	4573
883.514	4793
883.64	4892
883.766	4759
883.892	4683
884.018	4687
884.143	4847
884.269	4984
884.395	4645
884.52	4584
884.646	4660
884.772	4611
884.897	4538
885.023	4679
885.148	4763
885.274	4812
885.399	4778
885.524	4698
885.65	4694
885.775	4744
885.9	4641
886.025	4839
886.15	4812
886.275	4683
886.4	4660
886.525	4763
886.65	4679
886.775	4683
886.9	4858
887.025	5003
887.149	4774
887.274	4656
887.399	4565
887.523	4554
887.648	4599
887.773	4634
887.897	4763
888.021	4748
888.146	4641
888.27	4752
888.395	4911
888.519	4820
888.643	4824
888.767	4774
888.891	4679
889.015	4577
889.139	4672
889.263	4592
889.387	4721
889.511	4828
889.635	4797
889.759	4653
889.883	4569
890.006	4668
890.13	4782
890.254	4596
890.377	4675
890.501	4573
890.624	4481
890.748	4626
890.871	4485
890.995	4383
891.118	4383
891.241	4497
891.364	4519
891.488	4649
891.611	4535
891.734	4527
891.857	4573
891.98	4523
892.103	4645
892.226	4577
892.349	4558
892.471	4417
892.594	4558
892.717	4561
892.839	4577
892.962	4626
893.085	4626
893.207	4565
893.33	4432
893.452	4516
893.575	4626
893.697	4577
893.819	4763
893.941	4805
894.064	4755
894.186	4561
894.308	4569
894.43	4706
894.552	4824
894.674	4759
894.796	4523
894.918	4577
895.04	4527
895.161	4672
895.283	4618
895.405	4573
895.526	4603
895.648	4698
895.769	4607
895.891	4702
896.012	4733
896.134	4717
896.255	4679
896.376	4611
896.498	4588
896.619	4672
896.74	4584
896.861	4637
896.982	4889
897.103	5014
897.224	4820
897.345	4752
897.466	4637
897.587	4736
897.708	4850
897.828	4793
897.949	4740
898.07	4535
898.19	4622
898.311	4816
898.431	4645
898.552	4706
898.672	4812
898.792	4805
898.913	4698
899.033	4565
899.153	4443
899.273	4398
899.393	4466
899.513	4455
899.633	4546
899.753	4569
899.873	4516
899.993	4577
900.113	4538
900.232	4596
900.352	4500
900.472	4474
900.591	4390
900.711	4455
900.83	4462
900.95	4580
901.069	4618
901.189	4504
901.308	4341
901.427	4261
901.546	4356
901.665	4451
901.784	4504
901.904	4409
902.023	4287
902.141	4192
902.26	4181
902.379	4329
902.498	4215
902.617	4227
902.735	4383
902.854	4424
902.973	4337
903.091	4181
903.21	4173
903.328	4291
903.446	4257
903.565	4242
903.683	4329
903.801	4276
903.919	4417
904.038	4451
904.156	4325
904.274	4451
904.392	4390
904.51	4375
904.627	4478
904.745	4592
904.863	4607
904.981	4375
905.098	4284
905.216	4375
905.334	4413
905.451	4413
905.569	4405
905.686	4550
905.803	4592
905.921	4386
906.038	4527
906.155	4440
906.272	4421
906.389	4424
906.506	4344
906.623	4379
906.74	4402
906.857	4306
906.974	4371
907.091	4531
907.208	4656
907.324	4569
907.441	4478
907.557	4322
907.674	4314
907.79	4314
907.907	4363
908.023	4462
908.139	4447
908.256	4390
908.372	4478
908.488	4432
908.604	4367
908.72	4325
908.836	4363
908.952	4337
909.068	4405
909.184	4535
909.3	4459
909.415	4565
909.531	4542
909.647	4325
909.762	4386
909.878	4341
909.993	4436
910.108	4424
910.224	4402
910.339	4440
910.454	4424
910.57	4352
910.685	4310
910.8	4615
910.915	4535
911.03	4508
911.145	4329
911.259	4341
911.374	4356
911.489	4268
911.604	4295
911.718	4192
911.833	4188
911.947	4032
912.062	4017
912.176	4177
912.291	4261
912.405	4246
912.519	4462
912.633	4459
912.748	4394
912.862	4299
912.976	4181
913.09	4124
913.204	4173
913.318	4211
913.431	4394
913.545	4322
913.659	4440
913.772	4360
913.886	4253
914	4234
914.113	4394
914.226	4424
914.34	4375
914.453	4227
914.566	4421
914.68	4261
914.793	4303
914.906	4181
915.019	4120
915.132	4109
915.245	4173
915.358	4192
915.47	4223
915.583	4215
915.696	4314
915.809	4421
915.921	4398
916.034	4230
916.146	4223
916.259	4246
916.371	4375
916.483	4367
916.595	4265
916.708	4322
916.82	4310
916.932	4341
917.044	4318
917.156	4295
917.268	4215
917.38	4272
917.491	4253
917.603	4329
917.715	4428
917.826	4417
917.938	4318
918.049	4249
918.161	4447
918.272	4523
918.384	4508
918.495	4447
918.606	4318
918.717	4223
918.828	4363
918.939	4329
919.05	4230
919.161	4284
919.272	4124
919.383	4234
919.494	4432
919.604	4618
919.715	4421
919.826	4333
919.936	4413
920.047	4527
920.157	4504
920.267	4694
920.378	4554
920.488	4493
920.598	4717
920.708	4820
920.818	4698
920.928	4771
921.038	4934
921.148	4896
921.258	4592
921.368	4550
921.477	4508
921.587	4455
921.697	4360
921.806	4527
921.916	4432
922.025	4253
922.134	4242
922.244	4230
922.353	4303
922.462	4196
922.571	4139
922.68	4051
922.789	3983
922.898	4013
923.007	3975
923.116	4097
923.224	4090
923.333	4086
923.442	3991
923.55	3953
923.659	4051
923.767	4131
923.876	3968
923.984	4135
924.092	3983
924.201	4071
924.309	4086
924.417	4131
924.525	4036
924.633	4112
924.741	5048
924.849	3956
924.956	4112
925.064	3930
925.172	3903
925.279	3994
925.387	4048
925.494	4078
925.602	4204
925.709	4173
925.816	4059
925.924	4116
926.031	4207
926.138	4139
926.245	4177
926.352	4059
926.459	4253
926.566	4268
926.673	4177
926.779	4082
926.886	4051
926.993	3937
927.099	3941
927.206	3930
927.312	3934
927.419	4059
927.525	4036
927.631	4090
927.737	3975
927.843	3956
927.95	3869
928.056	3941
928.162	3975
928.267	4040
928.373	4679
928.479	4112
928.585	3854
928.69	4006
928.796	4097
928.901	3960
929.007	3876
929.112	3983
929.218	3975
929.323	3941
929.428	3964
929.533	4128
929.638	3918
929.743	3915
929.848	4044
929.953	4013
930.058	3903
930.163	3774
930.267	3850
930.372	3972
930.477	3812
930.581	4093
930.685	3983
930.79	3835
930.894	3888
930.998	3888
931.103	3956
931.207	3751
931.311	3701
931.415	3713
931.519	3534
931.623	3561
