Data from test_V78500241_2762.txt Node
Date: Fri Mar 25 17:08:12 CST 2022
User: usil
Spectrometer: V785-0024
Trigger mode: 0
Integration Time (sec): 4.000000E-1
Scans to average: 1
Nonlinearity correction enabled: false
Boxcar width: 0
Storing dark spectrum: false
XAxis mode: Wavelengths
Number of Pixels in Spectrum: 1024
>>>>>Begin Spectral Data<<<<<
801.071	8020
801.214	7894
801.356	7890
801.499	7830
801.641	7833
801.783	7792
801.926	8005
802.068	8050
802.211	8039
802.353	8069
802.496	7894
802.638	7871
802.78	7947
802.923	7902
803.065	7879
803.208	7837
803.35	8027
803.492	8077
803.635	8214
803.777	8103
803.919	8183
804.061	8438
804.204	8145
804.346	8062
804.488	7936
804.63	8069
804.773	7986
804.915	8164
805.057	8271
805.199	8168
805.341	8252
805.483	8286
805.626	8225
805.768	8172
805.91	8244
806.052	8195
806.194	8115
806.336	8320
806.478	8069
806.62	8012
806.762	8054
806.904	8225
807.046	8469
807.188	8450
807.33	8351
807.472	8279
807.614	8221
807.756	8183
807.898	8050
808.04	7875
808.182	7913
808.324	7875
808.465	7944
808.607	8084
808.749	8142
808.891	8294
809.033	8290
809.174	8282
809.316	8035
809.458	8115
809.6	8008
809.741	8043
809.883	8077
810.025	8145
810.166	8119
810.308	8008
810.45	8031
810.591	7852
810.733	7734
810.875	7708
811.016	7510
811.158	7567
811.299	7628
811.441	7769
811.582	7792
811.724	7582
811.865	7533
812.007	7632
812.148	7567
812.29	7620
812.431	7776
812.573	7936
812.714	7951
812.855	8123
812.997	8199
813.138	8290
813.279	8221
813.421	8145
813.562	8073
813.703	7860
813.845	7818
813.986	7476
814.127	7251
814.268	7343
814.41	7190
814.551	7168
814.692	7168
814.833	7149
814.974	7110
815.115	7038
815.256	6947
815.397	6901
815.539	6901
815.68	6833
815.821	6802
815.962	6863
816.103	6894
816.244	6703
816.385	6684
816.526	6612
816.666	6517
816.807	6296
816.948	6418
817.089	6498
817.23	6460
817.371	6403
817.512	6407
817.653	6361
817.793	6285
817.934	6418
818.075	6483
818.216	6391
818.356	6441
818.497	6235
818.638	6155
818.778	6152
818.919	6148
819.06	6171
819.2	6323
819.341	6331
819.481	6376
819.622	6532
819.762	6730
819.903	6779
820.043	6612
820.184	6570
820.324	6593
820.465	6749
820.605	6654
820.746	6658
820.886	6540
821.026	6707
821.167	6772
821.307	6837
821.447	6745
821.588	6631
821.728	6547
821.868	6513
822.008	6289
822.149	6308
822.289	6334
822.429	6213
822.569	6064
822.709	6136
822.849	5958
822.99	5923
823.13	5927
823.27	5958
823.41	5802
823.55	5817
823.69	5771
823.83	5794
823.97	5680
824.11	5592
824.25	5532
824.389	5558
824.529	5600
824.669	5512
824.809	5608
824.949	5596
825.089	5611
825.228	5573
825.368	5448
825.508	5277
825.648	5322
825.787	5326
825.927	5406
826.067	5280
826.206	5334
826.346	5398
826.485	5406
826.625	5436
826.765	5570
826.904	5474
827.044	5341
827.183	5204
827.323	5174
827.462	5235
827.601	5174
827.741	5208
827.88	5201
828.02	5117
828.159	5216
828.298	5318
828.437	5360
828.577	5269
828.716	5478
828.855	5349
828.994	5143
829.134	5151
829.273	5212
829.412	5136
829.551	5155
829.69	5170
829.829	5216
829.968	5368
830.107	5315
830.246	5322
830.385	5121
830.524	5147
830.663	5022
830.802	4980
830.941	4892
831.08	4873
831.219	4991
831.357	4965
831.496	5216
831.635	4923
831.774	4812
831.913	4809
832.051	4748
832.19	4748
832.329	4847
832.467	4691
832.606	4618
832.744	4752
832.883	4706
833.022	4736
833.16	4843
833.299	4835
833.437	4847
833.576	4831
833.714	4759
833.852	4881
833.991	4923
834.129	4957
834.267	4953
834.406	4866
834.544	4953
834.682	4919
834.821	4984
834.959	5166
835.097	4953
835.235	5166
835.373	5060
835.511	5113
835.65	4991
835.788	5033
835.926	4896
836.064	4892
836.202	4919
836.34	5170
836.478	5250
836.615	5117
836.753	5124
836.891	5242
837.029	5250
837.167	5166
837.305	5178
837.443	5159
837.58	5048
837.718	5307
837.856	5166
837.993	5170
838.131	5212
838.269	5201
838.406	5189
838.544	5204
838.681	5025
838.819	4987
838.956	4870
839.094	4915
839.231	4957
839.369	5056
839.506	5402
839.643	5227
839.781	5045
839.918	5018
840.055	5098
840.193	5090
840.33	5159
840.467	5128
840.604	5174
840.742	5395
840.879	5064
841.016	5098
841.153	5109
841.29	5383
841.427	5353
841.564	5330
841.701	5337
841.838	5284
841.975	5155
842.112	5292
842.249	5128
842.385	5083
842.522	5349
842.659	5178
842.796	5105
842.933	5197
843.069	5090
843.206	5140
843.343	5299
843.479	5201
843.616	5265
843.752	5105
843.889	4946
844.025	5208
844.162	4972
844.298	5242
844.435	5083
844.571	5037
844.708	5220
844.844	5231
844.98	5322
845.117	5337
845.253	5155
845.389	5090
845.525	5151
845.661	5159
845.798	5003
845.934	5147
846.07	5060
846.206	5212
846.342	5239
846.478	5178
846.614	5033
846.75	4972
846.886	4968
847.022	5128
847.158	5014
847.294	5041
847.429	5083
847.565	5056
847.701	5341
847.837	4873
847.972	4801
848.108	4984
848.244	4972
848.379	4778
848.515	4672
848.65	4698
848.786	4710
848.921	4755
849.057	4850
849.192	4847
849.328	4805
849.463	4862
849.598	4763
849.734	4740
849.869	4694
850.004	4668
850.14	4626
850.275	4599
850.41	4538
850.545	4596
850.68	4622
850.815	4653
850.95	4596
851.085	4858
851.22	4755
851.355	4694
851.49	4618
851.625	4656
851.76	4588
851.895	4516
852.03	4481
852.165	4653
852.299	4683
852.434	4733
852.569	4782
852.703	4774
852.838	4835
852.973	4934
853.107	4892
853.242	4778
853.376	4672
853.511	4519
853.645	4599
853.78	4820
853.914	4679
854.048	4691
854.183	4592
854.317	4649
854.451	4839
854.585	4698
854.72	4622
854.854	4744
854.988	4618
855.122	4645
855.256	4462
855.39	4660
855.524	4748
855.658	4706
855.792	4683
855.926	4698
856.06	4694
856.194	4748
856.327	4653
856.461	4550
856.595	4611
856.729	4634
856.862	4752
856.996	4668
857.13	4763
857.263	4740
857.397	4820
857.53	4687
857.664	4714
857.797	4774
857.931	4721
858.064	4679
858.197	4748
858.331	4691
858.464	4599
858.597	4558
858.731	4588
858.864	4577
858.997	4611
859.13	4691
859.263	4668
859.396	4702
859.529	4542
859.662	4550
859.795	4500
859.928	4618
860.061	4797
860.194	4725
860.327	4573
860.46	4542
860.592	4714
860.725	4736
860.858	4767
860.99	4550
861.123	4516
861.256	4489
861.388	4630
861.521	5334
861.653	4447
861.786	4455
861.918	4459
862.05	4561
862.183	4523
862.315	4630
862.447	4630
862.58	4561
862.712	4394
862.844	4284
862.976	4516
863.108	4478
863.24	4725
863.372	4325
863.504	4386
863.636	4379
863.768	4459
863.9	4417
864.032	4379
864.164	4386
864.296	4485
864.428	4550
864.559	4622
864.691	4584
864.823	4542
864.954	4500
865.086	4508
865.217	4371
865.349	4451
865.48	4451
865.612	4508
865.743	4649
865.875	4470
866.006	4440
866.137	4470
866.269	4478
866.4	4443
866.531	4451
866.662	4360
866.793	4432
866.924	4398
867.055	4455
867.186	4447
867.317	4413
867.448	4356
867.579	4363
867.71	4379
867.841	4398
867.972	4440
868.103	4421
868.233	4459
868.364	4459
868.495	4462
868.625	4645
868.756	4786
868.886	4577
869.017	4603
869.147	4797
869.278	4748
869.408	4649
869.539	4653
869.669	4694
869.799	4679
869.929	4744
870.06	4752
870.19	4892
870.32	4949
870.45	4968
870.58	5052
870.71	5075
870.84	5086
870.97	4915
871.1	4942
871.23	5147
871.36	5102
871.489	5098
871.619	5075
871.749	5079
871.879	5147
872.008	5162
872.138	5033
872.267	5003
872.397	4805
872.526	4767
872.656	4725
872.785	4786
872.915	4946
873.044	5052
873.173	4968
873.303	4976
873.432	4972
873.561	4953
873.69	4862
873.819	4896
873.948	4934
874.077	4843
874.206	4755
874.335	4793
874.464	4942
874.593	5075
874.722	4984
874.851	5105
874.979	5094
875.108	5029
875.237	4961
875.365	4904
875.494	4870
875.623	4976
875.751	4778
875.88	4877
876.008	5033
876.136	5025
876.265	5159
876.393	5292
876.521	5208
876.65	5223
876.778	5197
876.906	5022
877.034	5022
877.162	5018
877.29	4980
877.418	5067
877.546	5045
877.674	5071
877.802	5060
877.93	5045
878.058	4927
878.185	4923
878.313	4957
878.441	4938
878.568	4759
878.696	4847
878.824	4987
878.951	5010
879.079	5128
879.206	5337
879.333	5098
879.461	4999
879.588	5010
879.715	5086
879.842	5178
879.97	5018
880.097	4767
880.224	4740
880.351	4790
880.478	4847
880.605	4778
880.732	4812
880.859	5090
880.986	4889
881.112	4953
881.239	4774
881.366	4645
881.493	4603
881.619	4573
881.746	4618
881.872	4649
881.999	4653
882.125	4691
882.252	4786
882.378	4736
882.505	4942
882.631	4812
882.757	4641
882.883	4725
883.01	4740
883.136	4668
883.262	4615
883.388	4618
883.514	4847
883.64	4873
883.766	4793
883.892	4691
884.018	4721
884.143	4900
884.269	4980
884.395	4637
884.52	4611
884.646	4637
884.772	4626
884.897	4569
885.023	4717
885.148	4790
885.274	4870
885.399	4889
885.524	4717
885.65	4694
885.775	4755
885.9	4668
886.025	4854
886.15	4809
886.275	4725
886.4	4664
886.525	4698
886.65	4649
886.775	4698
886.9	4858
887.025	5060
887.149	4809
887.274	4649
887.399	4599
887.523	4615
887.648	4592
887.773	4523
887.897	4835
888.021	4797
888.146	4668
888.27	4831
888.395	4885
888.519	4820
888.643	4824
888.767	4835
888.891	4645
889.015	4611
889.139	4653
889.263	4641
889.387	4725
889.511	4892
889.635	4793
889.759	4641
889.883	4630
890.006	4717
890.13	4812
890.254	4622
890.377	4683
890.501	4531
890.624	4584
890.748	4634
890.871	4462
890.995	4402
891.118	4386
891.241	4519
891.364	4558
891.488	4592
891.611	4462
891.734	4516
891.857	4607
891.98	4554
892.103	4649
892.226	4603
892.349	4542
892.471	4466
892.594	4554
892.717	4584
892.839	4558
892.962	4618
893.085	4656
893.207	4596
893.33	4508
893.452	4554
893.575	4656
893.697	4565
893.819	4763
893.941	4828
894.064	4771
894.186	4584
894.308	4584
894.43	4721
894.552	4793
894.674	4740
894.796	4542
894.918	4580
895.04	4558
895.161	4721
895.283	4603
895.405	4584
895.526	4641
895.648	4641
895.769	4717
895.891	4706
896.012	4733
896.134	4725
896.255	4653
896.376	4622
896.498	4618
896.619	4691
896.74	4596
896.861	4626
896.982	4946
897.103	5098
897.224	4828
897.345	4763
897.466	4607
897.587	4755
897.708	4816
897.828	4782
897.949	4649
898.07	4599
898.19	4664
898.311	4812
898.431	4679
898.552	4763
898.672	4828
898.792	4793
898.913	4767
899.033	4634
899.153	4466
899.273	4379
899.393	4443
899.513	4508
899.633	4527
899.753	4523
899.873	4504
899.993	4580
900.113	4546
900.232	4569
900.352	4516
900.472	4535
900.591	4383
900.711	4485
900.83	4459
900.95	4607
901.069	4679
901.189	4512
901.308	4352
901.427	4363
901.546	4379
901.665	4500
901.784	4485
901.904	4413
902.023	4352
902.141	4219
902.26	4185
902.379	4341
902.498	4219
902.617	4230
902.735	4398
902.854	4402
902.973	4329
903.091	4135
903.21	4246
903.328	4265
903.446	4280
903.565	4287
903.683	4333
903.801	4253
903.919	4405
904.038	4451
904.156	4322
904.274	4428
904.392	4409
904.51	4455
904.627	4447
904.745	4558
904.863	4626
904.981	4398
905.098	4325
905.216	4379
905.334	4466
905.451	4432
905.569	4428
905.686	4588
905.803	4546
905.921	4440
906.038	4531
906.155	4500
906.272	4394
906.389	4375
906.506	4325
906.623	4360
906.74	4402
906.857	4284
906.974	4329
907.091	4546
907.208	4645
907.324	4573
907.441	4481
907.557	4325
907.674	4356
907.79	4284
907.907	4375
908.023	4443
908.139	4451
908.256	4443
908.372	4459
908.488	4440
908.604	4314
908.72	4360
908.836	4409
908.952	4379
909.068	4432
909.184	4523
909.3	4440
909.415	4550
909.531	4558
909.647	4325
909.762	4333
909.878	4360
909.993	4462
910.108	4459
910.224	4386
910.339	4500
910.454	4428
910.57	4371
910.685	4322
910.8	4592
910.915	4615
911.03	4485
911.145	4352
911.259	4329
911.374	4287
911.489	4265
911.604	4280
911.718	4139
911.833	4196
911.947	4109
912.062	3994
912.176	4192
912.291	4265
912.405	4227
912.519	4474
912.633	4508
912.748	4379
912.862	4314
912.976	4169
913.09	4101
913.204	4166
913.318	4261
913.431	4375
913.545	4363
913.659	4405
913.772	4390
913.886	4242
914	4188
914.113	4371
914.226	4409
914.34	4348
914.453	4238
914.566	4443
914.68	4333
914.793	4329
914.906	4112
915.019	4067
915.132	4082
915.245	4166
915.358	4227
915.47	4196
915.583	4246
915.696	4265
915.809	4390
915.921	4417
916.034	4223
916.146	4257
916.259	4242
916.371	4394
916.483	4299
916.595	4261
916.708	4310
916.82	4272
916.932	4303
917.044	4344
917.156	4325
917.268	4162
917.38	4238
917.491	4242
917.603	4356
917.715	4356
917.826	4390
917.938	4367
918.049	4246
918.161	4402
918.272	4550
918.384	4554
918.495	4466
918.606	4276
918.717	4242
918.828	4284
918.939	4367
919.05	4246
919.161	4337
919.272	4124
919.383	4253
919.494	4394
919.604	4603
919.715	4443
919.826	4329
919.936	4405
920.047	4466
920.157	4481
920.267	4698
920.378	4497
920.488	4493
920.598	4752
920.708	4862
920.818	4801
920.928	4721
921.038	4957
921.148	4900
921.258	4611
921.368	4527
921.477	4493
921.587	4451
921.697	4379
921.806	4527
921.916	4428
922.025	4242
922.134	4303
922.244	4242
922.353	4310
922.462	4139
922.571	4124
922.68	3975
922.789	3979
922.898	4029
923.007	4013
923.116	4109
923.224	4063
923.333	4036
923.442	3964
923.55	3956
923.659	4010
923.767	4067
923.876	3998
923.984	4082
924.092	3960
924.201	4044
924.309	4051
924.417	4135
924.525	4067
924.633	4097
924.741	5105
924.849	3960
924.956	4158
925.064	4025
925.172	3892
925.279	3972
925.387	4109
925.494	4071
925.602	4238
925.709	4196
925.816	4055
925.924	4204
926.031	4249
926.138	4219
926.245	4227
926.352	4162
926.459	4303
926.566	4287
926.673	4227
926.779	4097
926.886	4143
926.993	4006
927.099	3987
927.206	3998
927.312	3956
927.419	4063
927.525	4086
927.631	4124
927.737	4006
927.843	3991
927.95	3876
928.056	3983
928.162	4059
928.267	4074
928.373	4759
928.479	4154
928.585	3972
928.69	4036
928.796	4109
928.901	4010
929.007	3857
929.112	4059
929.218	4025
929.323	3945
929.428	3972
929.533	4158
929.638	3953
929.743	3975
929.848	4116
929.953	4021
930.058	3975
930.163	3804
930.267	3884
930.372	3979
930.477	3827
930.581	4154
930.685	3972
930.79	3854
930.894	3964
930.998	3876
931.103	4112
931.207	3785
931.311	3717
931.415	3713
931.519	3545
931.623	3587
