Data from test_V78500241_2124.txt Node
Date: Fri Mar 25 17:03:46 CST 2022
User: usil
Spectrometer: V785-0024
Trigger mode: 0
Integration Time (sec): 4.000000E-1
Scans to average: 1
Nonlinearity correction enabled: false
Boxcar width: 0
Storing dark spectrum: false
XAxis mode: Wavelengths
Number of Pixels in Spectrum: 1024
>>>>>Begin Spectral Data<<<<<
801.071	8027
801.214	8027
801.356	7772
801.499	7868
801.641	7822
801.783	7814
801.926	7906
802.068	7906
802.211	8005
802.353	7951
802.496	7856
802.638	7841
802.78	7932
802.923	7849
803.065	7814
803.208	7883
803.35	8001
803.492	8065
803.635	8168
803.777	7982
803.919	8176
804.061	8514
804.204	8115
804.346	8050
804.488	8005
804.63	8031
804.773	8027
804.915	8123
805.057	8240
805.199	8130
805.341	8187
805.483	8233
805.626	8259
805.768	8142
805.91	8180
806.052	8157
806.194	8199
806.336	8298
806.478	8134
806.62	8039
806.762	8187
806.904	8225
807.046	8461
807.188	8377
807.33	8324
807.472	8324
807.614	8195
807.756	8138
807.898	7997
808.04	7852
808.182	7902
808.324	7875
808.465	7883
808.607	8073
808.749	8077
808.891	8195
809.033	8237
809.174	8214
809.316	8069
809.458	8065
809.6	8039
809.741	8126
809.883	8065
810.025	8058
810.166	8031
810.308	7967
810.45	7970
810.591	7856
810.733	7742
810.875	7704
811.016	7476
811.158	7552
811.299	7537
811.441	7719
811.582	7639
811.724	7597
811.865	7563
812.007	7582
812.148	7544
812.29	7590
812.431	7753
812.573	7871
812.714	8039
812.855	8157
812.997	8157
813.138	8294
813.279	8183
813.421	8119
813.562	7894
813.703	7799
813.845	7772
813.986	7476
814.127	7206
814.268	7232
814.41	7213
814.551	7133
814.692	7206
814.833	7110
814.974	7042
815.115	7118
815.256	6962
815.397	6951
815.539	6958
815.68	6806
815.821	6818
815.962	6863
816.103	6867
816.244	6753
816.385	6623
816.526	6597
816.666	6467
816.807	6338
816.948	6532
817.089	6433
817.23	6490
817.371	6448
817.512	6361
817.653	6388
817.793	6346
817.934	6464
818.075	6433
818.216	6426
818.356	6445
818.497	6239
818.638	6129
818.778	6125
818.919	6129
819.06	6209
819.2	6300
819.341	6308
819.481	6388
819.622	6490
819.762	6688
819.903	6673
820.043	6620
820.184	6547
820.324	6604
820.465	6703
820.605	6658
820.746	6627
820.886	6460
821.026	6654
821.167	6722
821.307	6791
821.447	6757
821.588	6738
821.728	6585
821.868	6517
822.008	6300
822.149	6437
822.289	6399
822.429	6159
822.569	6098
822.709	6129
822.849	5954
822.99	5973
823.13	5939
823.27	5927
823.41	5802
823.55	5851
823.69	5741
823.83	5779
823.97	5615
824.11	5532
824.25	5482
824.389	5562
824.529	5581
824.669	5459
824.809	5600
824.949	5672
825.089	5570
825.228	5585
825.368	5364
825.508	5292
825.648	5326
825.787	5383
825.927	5364
826.067	5315
826.206	5311
826.346	5368
826.485	5398
826.625	5391
826.765	5520
826.904	5455
827.044	5265
827.183	5254
827.323	5113
827.462	5216
827.601	5204
827.741	5208
827.88	5189
828.02	5113
828.159	5231
828.298	5299
828.437	5322
828.577	5227
828.716	5497
828.855	5303
828.994	5159
829.134	5159
829.273	5220
829.412	5132
829.551	5140
829.69	5159
829.829	5265
829.968	5357
830.107	5250
830.246	5273
830.385	5181
830.524	5128
830.663	5060
830.802	4938
830.941	4870
831.08	4904
831.219	5025
831.357	4995
831.496	5166
831.635	4930
831.774	4885
831.913	4801
832.051	4702
832.19	4736
832.329	4847
832.467	4668
832.606	4611
832.744	4706
832.883	4691
833.022	4736
833.16	4778
833.299	4801
833.437	4778
833.576	4805
833.714	4862
833.852	4847
833.991	4900
834.129	4984
834.267	4934
834.406	4873
834.544	4957
834.682	5003
834.821	4961
834.959	5140
835.097	4946
835.235	5208
835.373	5117
835.511	5060
835.65	5025
835.788	5010
835.926	4904
836.064	4885
836.202	4892
836.34	5121
836.478	5212
836.615	5132
836.753	5227
836.891	5288
837.029	5239
837.167	5204
837.305	5147
837.443	5155
837.58	5102
837.718	5201
837.856	5201
837.993	5155
838.131	5204
838.269	5201
838.406	5155
838.544	5170
838.681	4980
838.819	5003
838.956	4847
839.094	4896
839.231	4991
839.369	5075
839.506	5376
839.643	5189
839.781	5075
839.918	5010
840.055	5079
840.193	5105
840.33	5094
840.467	5136
840.604	5140
840.742	5493
840.879	5041
841.016	5067
841.153	5098
841.29	5360
841.427	5326
841.564	5326
841.701	5341
841.838	5254
841.975	5189
842.112	5296
842.249	5113
842.385	5105
842.522	5360
842.659	5212
842.796	5136
842.933	5170
843.069	5124
843.206	5155
843.343	5311
843.479	5208
843.616	5242
843.752	5022
843.889	4999
844.025	5239
844.162	5010
844.298	5204
844.435	5064
844.571	5052
844.708	5185
844.844	5242
844.98	5364
845.117	5277
845.253	5143
845.389	5075
845.525	5128
845.661	5109
845.798	5045
845.934	5113
846.07	5033
846.206	5151
846.342	5239
846.478	5185
846.614	5022
846.75	4961
846.886	4896
847.022	5132
847.158	4991
847.294	5067
847.429	5060
847.565	5079
847.701	5330
847.837	4816
847.972	4805
848.108	4896
848.244	4942
848.379	4759
848.515	4748
848.65	4668
848.786	4755
848.921	4733
849.057	4854
849.192	4946
849.328	4786
849.463	4862
849.598	4774
849.734	4755
849.869	4645
850.004	4675
850.14	4645
850.275	4672
850.41	4550
850.545	4561
850.68	4580
850.815	4656
850.95	4660
851.085	4816
851.22	4759
851.355	4672
851.49	4615
851.625	4687
851.76	4660
851.895	4607
852.03	4538
852.165	4668
852.299	4717
852.434	4767
852.569	4740
852.703	4759
852.838	4850
852.973	4923
853.107	4881
853.242	4702
853.376	4660
853.511	4569
853.645	4592
853.78	4771
853.914	4668
854.048	4694
854.183	4656
854.317	4721
854.451	4877
854.585	4668
854.72	4626
854.854	4691
854.988	4573
855.122	4675
855.256	4577
855.39	4618
855.524	4763
855.658	4672
855.792	4717
855.926	4714
856.06	4702
856.194	4748
856.327	4649
856.461	4577
856.595	4588
856.729	4611
856.862	4729
856.996	4725
857.13	4809
857.263	4755
857.397	4812
857.53	4660
857.664	4706
857.797	4793
857.931	4752
858.064	4675
858.197	4721
858.331	4626
858.464	4599
858.597	4466
858.731	4641
858.864	4626
858.997	4554
859.13	4649
859.263	4660
859.396	4744
859.529	4592
859.662	4546
859.795	4538
859.928	4653
860.061	4763
860.194	4767
860.327	4637
860.46	4596
860.592	4672
860.725	4759
860.858	4721
860.99	4573
861.123	4508
861.256	4542
861.388	4577
861.521	5425
861.653	4497
861.786	4474
861.918	4485
862.05	4512
862.183	4561
862.315	4535
862.447	4641
862.58	4550
862.712	4424
862.844	4287
862.976	4451
863.108	4466
863.24	4778
863.372	4310
863.504	4440
863.636	4402
863.768	4466
863.9	4443
864.032	4398
864.164	4379
864.296	4500
864.428	4493
864.559	4561
864.691	4512
864.823	4519
864.954	4481
865.086	4474
865.217	4428
865.349	4447
865.48	4436
865.612	4470
865.743	4615
865.875	4470
866.006	4447
866.137	4489
866.269	4428
866.4	4424
866.531	4421
866.662	4375
866.793	4405
866.924	4424
867.055	4527
867.186	4474
867.317	4421
867.448	4363
867.579	4360
867.71	4379
867.841	4375
867.972	4417
868.103	4451
868.233	4470
868.364	4421
868.495	4504
868.625	4626
868.756	4786
868.886	4561
869.017	4588
869.147	4759
869.278	4778
869.408	4630
869.539	4607
869.669	4694
869.799	4683
869.929	4744
870.06	4721
870.19	4908
870.32	4934
870.45	4942
870.58	4953
870.71	5102
870.84	5033
870.97	4915
871.1	4858
871.23	5132
871.36	5102
871.489	5041
871.619	5067
871.749	5067
871.879	5140
872.008	5193
872.138	5067
872.267	4949
872.397	4816
872.526	4748
872.656	4733
872.785	4790
872.915	4961
873.044	5029
873.173	4911
873.303	4904
873.432	4927
873.561	4980
873.69	4850
873.819	4850
873.948	4862
874.077	4809
874.206	4687
874.335	4816
874.464	4919
874.593	5041
874.722	4968
874.851	5086
874.979	5064
875.108	5037
875.237	4919
875.365	4892
875.494	4896
875.623	5006
875.751	4812
875.88	4885
876.008	5006
876.136	5010
876.265	5216
876.393	5288
876.521	5261
876.65	5208
876.778	5174
876.906	5075
877.034	4972
877.162	4984
877.29	5033
877.418	5071
877.546	5029
877.674	5022
877.802	5045
877.93	4987
878.058	4946
878.185	4892
878.313	4949
878.441	4904
878.568	4820
878.696	4870
878.824	4946
878.951	5014
879.079	5132
879.206	5288
879.333	5140
879.461	4961
879.588	4965
879.715	5124
879.842	5235
879.97	4976
880.097	4759
880.224	4755
880.351	4828
880.478	4850
880.605	4782
880.732	4744
880.859	5060
880.986	4919
881.112	4850
881.239	4763
881.366	4675
881.493	4588
881.619	4607
881.746	4634
881.872	4618
881.999	4637
882.125	4683
882.252	4786
882.378	4839
882.505	4934
882.631	4790
882.757	4691
882.883	4725
883.01	4725
883.136	4641
883.262	4596
883.388	4653
883.514	4812
883.64	4866
883.766	4801
883.892	4641
884.018	4714
884.143	4839
884.269	4968
884.395	4687
884.52	4653
884.646	4664
884.772	4641
884.897	4546
885.023	4645
885.148	4786
885.274	4839
885.399	4801
885.524	4679
885.65	4691
885.775	4721
885.9	4691
886.025	4831
886.15	4805
886.275	4759
886.4	4672
886.525	4714
886.65	4675
886.775	4744
886.9	4892
887.025	5018
887.149	4873
887.274	4668
887.399	4592
887.523	4607
887.648	4558
887.773	4573
887.897	4748
888.021	4744
888.146	4679
888.27	4797
888.395	4877
888.519	4755
888.643	4850
888.767	4793
888.891	4641
889.015	4626
889.139	4618
889.263	4618
889.387	4759
889.511	4892
889.635	4786
889.759	4645
889.883	4618
890.006	4733
890.13	4828
890.254	4622
890.377	4698
890.501	4519
890.624	4512
890.748	4634
890.871	4462
890.995	4394
891.118	4417
891.241	4516
891.364	4558
891.488	4626
891.611	4542
891.734	4531
891.857	4569
891.98	4531
892.103	4603
892.226	4599
892.349	4497
892.471	4440
892.594	4573
892.717	4561
892.839	4596
892.962	4558
893.085	4634
893.207	4615
893.33	4481
893.452	4504
893.575	4649
893.697	4603
893.819	4771
893.941	4850
894.064	4778
894.186	4584
894.308	4531
894.43	4740
894.552	4843
894.674	4778
894.796	4550
894.918	4599
895.04	4580
895.161	4668
895.283	4630
895.405	4565
895.526	4611
895.648	4664
895.769	4717
895.891	4717
896.012	4710
896.134	4714
896.255	4653
896.376	4694
896.498	4615
896.619	4634
896.74	4569
896.861	4603
896.982	4946
897.103	5094
897.224	4816
897.345	4740
897.466	4683
897.587	4694
897.708	4862
897.828	4744
897.949	4679
898.07	4538
898.19	4607
898.311	4831
898.431	4706
898.552	4717
898.672	4786
898.792	4805
898.913	4782
899.033	4622
899.153	4459
899.273	4398
899.393	4497
899.513	4546
899.633	4474
899.753	4535
899.873	4519
899.993	4599
900.113	4500
900.232	4588
900.352	4558
900.472	4466
900.591	4371
900.711	4428
900.83	4413
900.95	4618
901.069	4694
901.189	4531
901.308	4383
901.427	4333
901.546	4390
901.665	4447
901.784	4519
901.904	4413
902.023	4325
902.141	4211
902.26	4162
902.379	4265
902.498	4196
902.617	4219
902.735	4367
902.854	4383
902.973	4344
903.091	4192
903.21	4227
903.328	4291
903.446	4272
903.565	4238
903.683	4405
903.801	4310
903.919	4402
904.038	4413
904.156	4268
904.274	4417
904.392	4390
904.51	4371
904.627	4451
904.745	4550
904.863	4630
904.981	4375
905.098	4280
905.216	4390
905.334	4424
905.451	4436
905.569	4455
905.686	4527
905.803	4596
905.921	4371
906.038	4573
906.155	4443
906.272	4409
906.389	4436
906.506	4352
906.623	4394
906.74	4356
906.857	4318
906.974	4390
907.091	4596
907.208	4656
907.324	4580
907.441	4466
907.557	4367
907.674	4325
907.79	4306
907.907	4402
908.023	4478
908.139	4466
908.256	4440
908.372	4440
908.488	4390
908.604	4329
908.72	4337
908.836	4356
908.952	4394
909.068	4440
909.184	4561
909.3	4489
909.415	4561
909.531	4599
909.647	4390
909.762	4367
909.878	4299
909.993	4443
910.108	4398
910.224	4383
910.339	4481
910.454	4363
910.57	4291
910.685	4291
910.8	4626
910.915	4588
911.03	4474
911.145	4367
911.259	4318
911.374	4413
911.489	4287
911.604	4337
911.718	4185
911.833	4227
911.947	4074
912.062	4029
912.176	4192
912.291	4257
912.405	4238
912.519	4443
912.633	4455
912.748	4371
912.862	4310
912.976	4246
913.09	4086
913.204	4238
913.318	4227
913.431	4329
913.545	4409
913.659	4428
913.772	4333
913.886	4234
914	4219
914.113	4386
914.226	4443
914.34	4371
914.453	4242
914.566	4405
914.68	4265
914.793	4310
914.906	4139
915.019	4147
915.132	4093
915.245	4181
915.358	4211
915.47	4238
915.583	4261
915.696	4261
915.809	4428
915.921	4383
916.034	4265
916.146	4265
916.259	4207
916.371	4352
916.483	4363
916.595	4230
916.708	4306
916.82	4314
916.932	4325
917.044	4375
917.156	4303
917.268	4192
917.38	4303
917.491	4223
917.603	4379
917.715	4432
917.826	4462
917.938	4322
918.049	4196
918.161	4409
918.272	4565
918.384	4527
918.495	4428
918.606	4314
918.717	4200
918.828	4265
918.939	4356
919.05	4242
919.161	4329
919.272	4131
919.383	4227
919.494	4394
919.604	4645
919.715	4462
919.826	4367
919.936	4417
920.047	4504
920.157	4493
920.267	4675
920.378	4569
920.488	4500
920.598	4694
920.708	4858
920.818	4736
920.928	4763
921.038	4930
921.148	4934
921.258	4664
921.368	4558
921.477	4485
921.587	4451
921.697	4379
921.806	4550
921.916	4424
922.025	4276
922.134	4230
922.244	4219
922.353	4337
922.462	4185
922.571	4154
922.68	3983
922.789	3994
922.898	4013
923.007	3987
923.116	4059
923.224	4067
923.333	4090
923.442	3968
923.55	3979
923.659	4051
923.767	4093
923.876	4025
923.984	4124
924.092	4010
924.201	4040
924.309	4097
924.417	4120
924.525	4055
924.633	4067
924.741	5094
924.849	3918
924.956	4105
925.064	3968
925.172	3911
925.279	3907
925.387	4071
925.494	4021
925.602	4223
925.709	4166
925.816	4032
925.924	4116
926.031	4200
926.138	4162
926.245	4204
926.352	4082
926.459	4265
926.566	4314
926.673	4162
926.779	4097
926.886	4109
926.993	3953
927.099	3960
927.206	3918
927.312	3956
927.419	4078
927.525	3956
927.631	4101
927.737	3934
927.843	3930
927.95	3827
928.056	3934
928.162	3956
928.267	4036
928.373	4580
928.479	4158
928.585	3876
928.69	3975
928.796	4078
928.901	3991
929.007	3819
929.112	4048
929.218	3964
929.323	3926
929.428	3915
929.533	4074
929.638	3899
929.743	4006
929.848	4029
929.953	3960
930.058	3941
930.163	3762
930.267	3838
930.372	3949
930.477	3743
930.581	4101
930.685	3934
930.79	3816
930.894	3876
930.998	3876
931.103	4055
931.207	3701
931.311	3679
931.415	3660
931.519	3542
931.623	3549
