Data from test_V78500241_67.txt Node
Date: Fri Mar 25 16:49:28 CST 2022
User: usil
Spectrometer: V785-0024
Trigger mode: 0
Integration Time (sec): 4.000000E-1
Scans to average: 1
Nonlinearity correction enabled: false
Boxcar width: 0
Storing dark spectrum: false
XAxis mode: Wavelengths
Number of Pixels in Spectrum: 1024
>>>>>Begin Spectral Data<<<<<
801.071	8062
801.214	8081
801.356	7944
801.499	7959
801.641	7890
801.783	7928
801.926	7993
802.068	7967
802.211	7963
802.353	7997
802.496	7913
802.638	7970
802.78	7974
802.923	7974
803.065	7921
803.208	7879
803.35	7978
803.492	8100
803.635	8164
803.777	7963
803.919	8096
804.061	8396
804.204	8168
804.346	8073
804.488	7993
804.63	8115
804.773	8100
804.915	8065
805.057	8275
805.199	8168
805.341	8210
805.483	8248
805.626	8221
805.768	8130
805.91	8176
806.052	8202
806.194	8092
806.336	8358
806.478	8218
806.62	8107
806.762	8191
806.904	8275
807.046	8514
807.188	8366
807.33	8358
807.472	8351
807.614	8271
807.756	8221
807.898	8062
808.04	7947
808.182	7917
808.324	7879
808.465	7955
808.607	8065
808.749	8081
808.891	8267
809.033	8256
809.174	8229
809.316	8088
809.458	8043
809.6	7982
809.741	8092
809.883	8073
810.025	8043
810.166	8069
810.308	8024
810.45	8103
810.591	7906
810.733	7738
810.875	7681
811.016	7571
811.158	7510
811.299	7677
811.441	7776
811.582	7689
811.724	7597
811.865	7636
812.007	7674
812.148	7601
812.29	7677
812.431	7757
812.573	7963
812.714	7993
812.855	8225
812.997	8233
813.138	8355
813.279	8244
813.421	8142
813.562	8107
813.703	7871
813.845	7757
813.986	7426
814.127	7316
814.268	7282
814.41	7209
814.551	7217
814.692	7244
814.833	7091
814.974	7118
815.115	7183
815.256	7061
815.397	6924
815.539	7046
815.68	6825
815.821	6757
815.962	6897
816.103	6814
816.244	6726
816.385	6677
816.526	6635
816.666	6563
816.807	6414
816.948	6544
817.089	6513
817.23	6490
817.371	6391
817.512	6429
817.653	6483
817.793	6388
817.934	6410
818.075	6456
818.216	6483
818.356	6460
818.497	6323
818.638	6178
818.778	6220
818.919	6152
819.06	6201
819.2	6300
819.341	6331
819.481	6429
819.622	6623
819.762	6814
819.903	6753
820.043	6597
820.184	6570
820.324	6608
820.465	6757
820.605	6738
820.746	6654
820.886	6486
821.026	6631
821.167	6692
821.307	6768
821.447	6772
821.588	6684
821.728	6684
821.868	6494
822.008	6380
822.149	6426
822.289	6361
822.429	6175
822.569	6144
822.709	6190
822.849	5946
822.99	5912
823.13	5961
823.27	5946
823.41	5756
823.55	5809
823.69	5752
823.83	5786
823.97	5752
824.11	5551
824.25	5570
824.389	5581
824.529	5615
824.669	5581
824.809	5661
824.949	5623
825.089	5703
825.228	5547
825.368	5406
825.508	5414
825.648	5353
825.787	5395
825.927	5330
826.067	5299
826.206	5341
826.346	5429
826.485	5474
826.625	5417
826.765	5611
826.904	5501
827.044	5330
827.183	5242
827.323	5166
827.462	5246
827.601	5155
827.741	5227
827.88	5288
828.02	5174
828.159	5288
828.298	5349
828.437	5379
828.577	5303
828.716	5535
828.855	5372
828.994	5201
829.134	5212
829.273	5212
829.412	5140
829.551	5204
829.69	5185
829.829	5303
829.968	5414
830.107	5269
830.246	5296
830.385	5189
830.524	5193
830.663	5117
830.802	4999
830.941	4919
831.08	4938
831.219	5071
831.357	4984
831.496	5162
831.635	4980
831.774	4870
831.913	4873
832.051	4763
832.19	4748
832.329	4850
832.467	4748
832.606	4664
832.744	4767
832.883	4729
833.022	4774
833.16	4820
833.299	4877
833.437	4858
833.576	4877
833.714	4908
833.852	4904
833.991	4881
834.129	5029
834.267	4991
834.406	4923
834.544	5010
834.682	5025
834.821	5006
834.959	5193
835.097	4984
835.235	5105
835.373	5102
835.511	5128
835.65	5067
835.788	5045
835.926	4911
836.064	4877
836.202	4934
836.34	5220
836.478	5261
836.615	5223
836.753	5296
836.891	5364
837.029	5258
837.167	5189
837.305	5265
837.443	5140
837.58	5140
837.718	5269
837.856	5193
837.993	5231
838.131	5261
838.269	5250
838.406	5223
838.544	5242
838.681	5022
838.819	5037
838.956	4938
839.094	4949
839.231	5003
839.369	5124
839.506	5429
839.643	5311
839.781	5128
839.918	5079
840.055	5090
840.193	5075
840.33	5140
840.467	5159
840.604	5231
840.742	5417
840.879	5132
841.016	5075
841.153	5239
841.29	5391
841.427	5372
841.564	5318
841.701	5349
841.838	5368
841.975	5280
842.112	5318
842.249	5166
842.385	5121
842.522	5349
842.659	5216
842.796	5227
842.933	5280
843.069	5136
843.206	5201
843.343	5379
843.479	5265
843.616	5273
843.752	5075
843.889	5029
844.025	5227
844.162	5025
844.298	5280
844.435	5067
844.571	5056
844.708	5223
844.844	5334
844.98	5425
845.117	5334
845.253	5197
845.389	5079
845.525	5170
845.661	5159
845.798	5090
845.934	5193
846.07	5041
846.206	5121
846.342	5307
846.478	5193
846.614	5060
846.75	4938
846.886	4991
847.022	5212
847.158	5033
847.294	5075
847.429	5124
847.565	5105
847.701	5360
847.837	4919
847.972	4843
848.108	5045
848.244	5003
848.379	4759
848.515	4759
848.65	4710
848.786	4786
848.921	4786
849.057	4877
849.192	4927
849.328	4858
849.463	4904
849.598	4793
849.734	4805
849.869	4733
850.004	4687
850.14	4672
850.275	4687
850.41	4577
850.545	4580
850.68	4596
850.815	4656
850.95	4714
851.085	4854
851.22	4805
851.355	4714
851.49	4679
851.625	4672
851.76	4675
851.895	4588
852.03	4603
852.165	4717
852.299	4725
852.434	4790
852.569	4793
852.703	4809
852.838	4900
852.973	4976
853.107	4934
853.242	4763
853.376	4694
853.511	4611
853.645	4687
853.78	4896
853.914	4706
854.048	4698
854.183	4702
854.317	4736
854.451	4847
854.585	4694
854.72	4622
854.854	4733
854.988	4641
855.122	4664
855.256	4569
855.39	4687
855.524	4767
855.658	4793
855.792	4736
855.926	4744
856.06	4752
856.194	4824
856.327	4717
856.461	4634
856.595	4630
856.729	4626
856.862	4820
856.996	4752
857.13	4771
857.263	4843
857.397	4835
857.53	4706
857.664	4755
857.797	4774
857.931	4805
858.064	4729
858.197	4752
858.331	4691
858.464	4611
858.597	4508
858.731	4691
858.864	4664
858.997	4649
859.13	4679
859.263	4698
859.396	4748
859.529	4611
859.662	4603
859.795	4535
859.928	4641
860.061	4870
860.194	4759
860.327	4603
860.46	4641
860.592	4771
860.725	4729
860.858	4740
860.99	4634
861.123	4531
861.256	4538
861.388	4634
861.521	5284
861.653	4512
861.786	4459
861.918	4504
862.05	4554
862.183	4596
862.315	4645
862.447	4698
862.58	4577
862.712	4447
862.844	4348
862.976	4538
863.108	4485
863.24	4896
863.372	4409
863.504	4436
863.636	4432
863.768	4504
863.9	4443
864.032	4367
864.164	4432
864.296	4519
864.428	4584
864.559	4584
864.691	4550
864.823	4546
864.954	4535
865.086	4565
865.217	4493
865.349	4455
865.48	4497
865.612	4508
865.743	4675
865.875	4497
866.006	4474
866.137	4489
866.269	4493
866.4	4462
866.531	4497
866.662	4432
866.793	4455
866.924	4489
867.055	4546
867.186	4504
867.317	4390
867.448	4413
867.579	4436
867.71	4383
867.841	4428
867.972	4459
868.103	4516
868.233	4478
868.364	4485
868.495	4527
868.625	4736
868.756	4793
868.886	4622
869.017	4622
869.147	4782
869.278	4774
869.408	4717
869.539	4622
869.669	4725
869.799	4702
869.929	4790
870.06	4793
870.19	5025
870.32	4904
870.45	4984
870.58	5003
870.71	5105
870.84	5155
870.97	4995
871.1	4930
871.23	5197
871.36	5162
871.489	5071
871.619	5086
871.749	5102
871.879	5151
872.008	5269
872.138	5105
872.267	5014
872.397	4908
872.526	4835
872.656	4759
872.785	4831
872.915	4987
873.044	4999
873.173	4995
873.303	5048
873.432	5029
873.561	4965
873.69	4919
873.819	4915
873.948	4938
874.077	4862
874.206	4820
874.335	4854
874.464	4965
874.593	5075
874.722	4972
874.851	5174
874.979	5079
875.108	5079
875.237	4923
875.365	4957
875.494	4908
875.623	4995
875.751	4881
875.88	4923
876.008	5003
876.136	5060
876.265	5269
876.393	5364
876.521	5239
876.65	5250
876.778	5181
876.906	5083
877.034	5033
877.162	5037
877.29	5037
877.418	5052
877.546	5083
877.674	4999
877.802	5048
877.93	5067
878.058	4968
878.185	4866
878.313	5006
878.441	4957
878.568	4831
878.696	4911
878.824	4984
878.951	5033
879.079	5170
879.206	5326
879.333	5159
879.461	4987
879.588	5025
879.715	5155
879.842	5296
879.97	5086
880.097	4839
880.224	4801
880.351	4809
880.478	4870
880.605	4805
880.732	4729
880.859	5159
880.986	4919
881.112	4980
881.239	4839
881.366	4698
881.493	4660
881.619	4630
881.746	4641
881.872	4672
881.999	4683
882.125	4748
882.252	4797
882.378	4850
882.505	4957
882.631	4820
882.757	4649
882.883	4763
883.01	4752
883.136	4656
883.262	4622
883.388	4637
883.514	4870
883.64	4900
883.766	4858
883.892	4706
884.018	4763
884.143	4927
884.269	5056
884.395	4740
884.52	4664
884.646	4721
884.772	4577
884.897	4565
885.023	4733
885.148	4850
885.274	4919
885.399	4793
885.524	4744
885.65	4683
885.775	4755
885.9	4805
886.025	4934
886.15	4858
886.275	4755
886.4	4698
886.525	4790
886.65	4710
886.775	4702
886.9	4965
887.025	5094
887.149	4862
887.274	4656
887.399	4641
887.523	4615
887.648	4649
887.773	4580
887.897	4824
888.021	4828
888.146	4721
888.27	4892
888.395	4942
888.519	4854
888.643	4870
888.767	4877
888.891	4687
889.015	4607
889.139	4649
889.263	4607
889.387	4812
889.511	4911
889.635	4828
889.759	4645
889.883	4694
890.006	4774
890.13	4839
890.254	4687
890.377	4740
890.501	4561
890.624	4546
890.748	4592
890.871	4569
890.995	4470
891.118	4402
891.241	4554
891.364	4558
891.488	4649
891.611	4523
891.734	4573
891.857	4649
891.98	4603
892.103	4679
892.226	4630
892.349	4508
892.471	4455
892.594	4558
892.717	4603
892.839	4611
892.962	4577
893.085	4687
893.207	4634
893.33	4485
893.452	4535
893.575	4645
893.697	4573
893.819	4786
893.941	4828
894.064	4763
894.186	4622
894.308	4584
894.43	4736
894.552	4850
894.674	4782
894.796	4561
894.918	4569
895.04	4554
895.161	4714
895.283	4668
895.405	4634
895.526	4683
895.648	4725
895.769	4729
895.891	4782
896.012	4763
896.134	4733
896.255	4710
896.376	4649
896.498	4687
896.619	4694
896.74	4592
896.861	4637
896.982	4896
897.103	5105
897.224	4839
897.345	4771
897.466	4694
897.587	4714
897.708	4915
897.828	4790
897.949	4733
898.07	4596
898.19	4649
898.311	4908
898.431	4679
898.552	4797
898.672	4873
898.792	4809
898.913	4767
899.033	4653
899.153	4527
899.273	4462
899.393	4535
899.513	4546
899.633	4523
899.753	4584
899.873	4542
899.993	4668
900.113	4599
900.232	4599
900.352	4622
900.472	4523
900.591	4493
900.711	4615
900.83	4531
900.95	4622
901.069	4763
901.189	4592
901.308	4432
901.427	4398
901.546	4459
901.665	4516
901.784	4626
901.904	4489
902.023	4356
902.141	4287
902.26	4284
902.379	4413
902.498	4295
902.617	4268
902.735	4409
902.854	4455
902.973	4424
903.091	4325
903.21	4356
903.328	4363
903.446	4360
903.565	4344
903.683	4409
903.801	4367
903.919	4440
904.038	4558
904.156	4417
904.274	4519
904.392	4470
904.51	4504
904.627	4577
904.745	4687
904.863	4691
904.981	4512
905.098	4379
905.216	4451
905.334	4535
905.451	4512
905.569	4516
905.686	4649
905.803	4641
905.921	4535
906.038	4622
906.155	4561
906.272	4447
906.389	4500
906.506	4451
906.623	4462
906.74	4459
906.857	4394
906.974	4379
907.091	4679
907.208	4714
907.324	4672
907.441	4558
907.557	4402
907.674	4383
907.79	4436
907.907	4424
908.023	4561
908.139	4527
908.256	4485
908.372	4523
908.488	4500
908.604	4409
908.72	4409
908.836	4440
908.952	4447
909.068	4542
909.184	4630
909.3	4538
909.415	4611
909.531	4637
909.647	4413
909.762	4478
909.878	4413
909.993	4493
910.108	4428
910.224	4485
910.339	4573
910.454	4436
910.57	4424
910.685	4383
910.8	4744
910.915	4653
911.03	4504
911.145	4432
911.259	4375
911.374	4424
911.489	4352
911.604	4363
911.718	4200
911.833	4291
911.947	4116
912.062	4116
912.176	4238
912.291	4295
912.405	4287
912.519	4519
912.633	4603
912.748	4489
912.862	4371
912.976	4246
913.09	4135
913.204	4261
913.318	4352
913.431	4447
913.545	4455
913.659	4497
913.772	4424
913.886	4325
914	4265
914.113	4405
914.226	4485
914.34	4462
914.453	4322
914.566	4447
914.68	4375
914.793	4383
914.906	4200
915.019	4169
915.132	4105
915.245	4265
915.358	4261
915.47	4299
915.583	4291
915.696	4325
915.809	4512
915.921	4466
916.034	4299
916.146	4325
916.259	4272
916.371	4417
916.483	4417
916.595	4337
916.708	4371
916.82	4375
916.932	4409
917.044	4409
917.156	4329
917.268	4386
917.38	4314
917.491	4310
917.603	4451
917.715	4538
917.826	4538
917.938	4405
918.049	4352
918.161	4470
918.272	4611
918.384	4630
918.495	4565
918.606	4386
918.717	4287
918.828	4371
918.939	4466
919.05	4375
919.161	4383
919.272	4230
919.383	4295
919.494	4443
919.604	4679
919.715	4535
919.826	4394
919.936	4516
920.047	4584
920.157	4504
920.267	4782
920.378	4618
920.488	4584
920.598	4778
920.708	4957
920.818	4889
920.928	4843
921.038	4976
921.148	5006
921.258	4698
921.368	4592
921.477	4565
921.587	4519
921.697	4459
921.806	4580
921.916	4481
922.025	4356
922.134	4280
922.244	4265
922.353	4371
922.462	4253
922.571	4166
922.68	4074
922.789	4067
922.898	4071
923.007	4029
923.116	4162
923.224	4147
923.333	4192
923.442	4025
923.55	4040
923.659	4109
923.767	4177
923.876	4078
923.984	4192
924.092	4040
924.201	4109
924.309	4135
924.417	4177
924.525	4112
924.633	4154
924.741	4938
924.849	3998
924.956	4204
925.064	4025
925.172	3945
925.279	4010
925.387	4131
925.494	4105
925.602	4280
925.709	4196
925.816	4067
925.924	4147
926.031	4291
926.138	4230
926.245	4287
926.352	4139
926.459	4303
926.566	4379
926.673	4265
926.779	4143
926.886	4154
926.993	4067
927.099	4040
927.206	4013
927.312	4021
927.419	4090
927.525	4112
927.631	4150
927.737	3998
927.843	4032
927.95	3907
928.056	4040
928.162	4093
928.267	4112
928.373	4706
928.479	4200
928.585	3960
928.69	4044
928.796	4147
928.901	4051
929.007	3922
929.112	4055
929.218	4002
929.323	4017
929.428	3979
929.533	4196
929.638	3941
929.743	4040
929.848	4154
929.953	4055
930.058	3975
930.163	3819
930.267	3873
930.372	4025
930.477	3876
930.581	4116
930.685	4032
930.79	3884
930.894	3960
930.998	3865
931.103	4097
931.207	3770
931.311	3762
931.415	3747
931.519	3572
931.623	3633
