Data from test_V78500241_1098.txt Node
Date: Fri Mar 25 16:56:38 CST 2022
User: usil
Spectrometer: V785-0024
Trigger mode: 0
Integration Time (sec): 4.000000E-1
Scans to average: 1
Nonlinearity correction enabled: false
Boxcar width: 0
Storing dark spectrum: false
XAxis mode: Wavelengths
Number of Pixels in Spectrum: 1024
>>>>>Begin Spectral Data<<<<<
801.071	8012
801.214	8062
801.356	7921
801.499	7833
801.641	7811
801.783	7833
801.926	7963
802.068	7902
802.211	7967
802.353	7909
802.496	7852
802.638	7845
802.78	7871
802.923	7932
803.065	7833
803.208	7814
803.35	7974
803.492	8069
803.635	8183
803.777	7978
803.919	8092
804.061	8431
804.204	8183
804.346	8088
804.488	7925
804.63	8043
804.773	8024
804.915	8088
805.057	8248
805.199	8157
805.341	8191
805.483	8229
805.626	8149
805.768	8096
805.91	8187
806.052	8161
806.194	8092
806.336	8339
806.478	8050
806.62	8069
806.762	8100
806.904	8229
807.046	8454
807.188	8320
807.33	8237
807.472	8282
807.614	8149
807.756	8092
807.898	8035
808.04	7902
808.182	7906
808.324	7921
808.465	7970
808.607	8077
808.749	8115
808.891	8134
809.033	8301
809.174	8259
809.316	8062
809.458	8062
809.6	8046
809.741	8020
809.883	8054
810.025	8046
810.166	8126
810.308	8065
810.45	8043
810.591	7894
810.733	7727
810.875	7719
811.016	7533
811.158	7483
811.299	7552
811.441	7715
811.582	7616
811.724	7590
811.865	7449
812.007	7563
812.148	7605
812.29	7613
812.431	7677
812.573	7772
812.714	7913
812.855	8157
812.997	8168
813.138	8347
813.279	8187
813.421	8153
813.562	8054
813.703	7921
813.845	7742
813.986	7422
814.127	7236
814.268	7247
814.41	7236
814.551	7057
814.692	7145
814.833	7057
814.974	7088
815.115	7099
815.256	6981
815.397	6875
815.539	6935
815.68	6840
815.821	6757
815.962	6905
816.103	6818
816.244	6707
816.385	6623
816.526	6692
816.666	6456
816.807	6315
816.948	6399
817.089	6540
817.23	6357
817.371	6380
817.512	6342
817.653	6384
817.793	6437
817.934	6407
818.075	6372
818.216	6464
818.356	6418
818.497	6220
818.638	6057
818.778	6144
818.919	6102
819.06	6163
819.2	6372
819.341	6311
819.481	6331
819.622	6502
819.762	6726
819.903	6700
820.043	6566
820.184	6578
820.324	6593
820.465	6696
820.605	6650
820.746	6620
820.886	6517
821.026	6582
821.167	6711
821.307	6753
821.447	6768
821.588	6673
821.728	6498
821.868	6486
822.008	6308
822.149	6323
822.289	6315
822.429	6106
822.569	6041
822.709	6095
822.849	5965
822.99	5882
823.13	5904
823.27	5912
823.41	5748
823.55	5771
823.69	5775
823.83	5783
823.97	5619
824.11	5547
824.25	5501
824.389	5535
824.529	5577
824.669	5474
824.809	5596
824.949	5619
825.089	5649
825.228	5570
825.368	5391
825.508	5311
825.648	5322
825.787	5353
825.927	5326
826.067	5261
826.206	5318
826.346	5410
826.485	5326
826.625	5406
826.765	5512
826.904	5436
827.044	5242
827.183	5193
827.323	5067
827.462	5250
827.601	5166
827.741	5159
827.88	5246
828.02	5143
828.159	5258
828.298	5292
828.437	5330
828.577	5250
828.716	5467
828.855	5326
828.994	5121
829.134	5102
829.273	5193
829.412	5140
829.551	5121
829.69	5109
829.829	5269
829.968	5341
830.107	5250
830.246	5318
830.385	5155
830.524	5159
830.663	5048
830.802	4927
830.941	4892
831.08	4896
831.219	4965
831.357	4976
831.496	5113
831.635	4881
831.774	4877
831.913	4805
832.051	4675
832.19	4774
832.329	4786
832.467	4706
832.606	4634
832.744	4683
832.883	4668
833.022	4729
833.16	4790
833.299	4809
833.437	4771
833.576	4797
833.714	4805
833.852	4835
833.991	4911
834.129	4911
834.267	4976
834.406	4904
834.544	4900
834.682	4999
834.821	4965
834.959	5143
835.097	4984
835.235	5109
835.373	5064
835.511	5060
835.65	5029
835.788	4995
835.926	4877
836.064	4831
836.202	4889
836.34	5117
836.478	5231
836.615	5071
836.753	5216
836.891	5284
837.029	5216
837.167	5159
837.305	5147
837.443	5124
837.58	5109
837.718	5250
837.856	5162
837.993	5132
838.131	5239
838.269	5174
838.406	5166
838.544	5147
838.681	5022
838.819	4995
838.956	4900
839.094	4915
839.231	5014
839.369	5064
839.506	5395
839.643	5239
839.781	5083
839.918	5018
840.055	5075
840.193	5086
840.33	5105
840.467	5060
840.604	5178
840.742	5421
840.879	5060
841.016	5029
841.153	5178
841.29	5326
841.427	5292
841.564	5299
841.701	5315
841.838	5212
841.975	5212
842.112	5307
842.249	5140
842.385	5113
842.522	5341
842.659	5140
842.796	5109
842.933	5140
843.069	5117
843.206	5128
843.343	5258
843.479	5212
843.616	5227
843.752	5045
843.889	4965
844.025	5216
844.162	5025
844.298	5193
844.435	5056
844.571	5014
844.708	5189
844.844	5265
844.98	5303
845.117	5280
845.253	5086
845.389	5083
845.525	5117
845.661	5098
845.798	5041
845.934	5075
846.07	5048
846.206	5151
846.342	5227
846.478	5178
846.614	4976
846.75	4919
846.886	4946
847.022	5170
847.158	4953
847.294	5033
847.429	5064
847.565	5048
847.701	5288
847.837	4843
847.972	4809
848.108	4942
848.244	4881
848.379	4774
848.515	4714
848.65	4744
848.786	4744
848.921	4786
849.057	4847
849.192	4877
849.328	4782
849.463	4816
849.598	4793
849.734	4740
849.869	4683
850.004	4630
850.14	4664
850.275	4641
850.41	4516
850.545	4535
850.68	4550
850.815	4573
850.95	4634
851.085	4877
851.22	4725
851.355	4634
851.49	4637
851.625	4622
851.76	4611
851.895	4580
852.03	4531
852.165	4618
852.299	4729
852.434	4778
852.569	4740
852.703	4733
852.838	4854
852.973	4930
853.107	4854
853.242	4774
853.376	4683
853.511	4550
853.645	4607
853.78	4755
853.914	4717
854.048	4649
854.183	4569
854.317	4691
854.451	4873
854.585	4637
854.72	4630
854.854	4717
854.988	4577
855.122	4645
855.256	4474
855.39	4599
855.524	4721
855.658	4736
855.792	4702
855.926	4725
856.06	4736
856.194	4740
856.327	4691
856.461	4649
856.595	4592
856.729	4603
856.862	4759
856.996	4687
857.13	4710
857.263	4736
857.397	4748
857.53	4641
857.664	4725
857.797	4752
857.931	4790
858.064	4714
858.197	4702
858.331	4603
858.464	4573
858.597	4470
858.731	4622
858.864	4634
858.997	4516
859.13	4611
859.263	4679
859.396	4691
859.529	4535
859.662	4599
859.795	4531
859.928	4561
860.061	4763
860.194	4736
860.327	4580
860.46	4599
860.592	4752
860.725	4721
860.858	4694
860.99	4580
861.123	4523
861.256	4516
861.388	4592
861.521	5341
861.653	4500
861.786	4432
861.918	4519
862.05	4497
862.183	4546
862.315	4577
862.447	4649
862.58	4531
862.712	4447
862.844	4310
862.976	4470
863.108	4417
863.24	4729
863.372	4325
863.504	4424
863.636	4383
863.768	4466
863.9	4459
864.032	4310
864.164	4405
864.296	4519
864.428	4588
864.559	4542
864.691	4481
864.823	4497
864.954	4497
865.086	4466
865.217	4462
865.349	4440
865.48	4474
865.612	4436
865.743	4588
865.875	4440
866.006	4447
866.137	4489
866.269	4428
866.4	4383
866.531	4394
866.662	4352
866.793	4356
866.924	4390
867.055	4508
867.186	4462
867.317	4417
867.448	4363
867.579	4398
867.71	4394
867.841	4333
867.972	4493
868.103	4428
868.233	4421
868.364	4428
868.495	4436
868.625	4630
868.756	4740
868.886	4542
869.017	4607
869.147	4744
869.278	4714
869.408	4649
869.539	4615
869.669	4694
869.799	4611
869.929	4725
870.06	4706
870.19	4892
870.32	4915
870.45	4866
870.58	4999
870.71	5033
870.84	5083
870.97	4942
871.1	4828
871.23	5064
871.36	5010
871.489	5037
871.619	4987
871.749	5067
871.879	5083
872.008	5140
872.138	5014
872.267	4949
872.397	4809
872.526	4786
872.656	4691
872.785	4816
872.915	4938
873.044	4961
873.173	4923
873.303	4991
873.432	4915
873.561	4930
873.69	4870
873.819	4812
873.948	4919
874.077	4809
874.206	4774
874.335	4755
874.464	4953
874.593	5071
874.722	4911
874.851	5052
874.979	5033
875.108	4999
875.237	4854
875.365	4908
875.494	4896
875.623	4915
875.751	4782
875.88	4839
876.008	4965
876.136	5025
876.265	5151
876.393	5349
876.521	5201
876.65	5170
876.778	5151
876.906	5041
877.034	4995
877.162	5003
877.29	4934
877.418	5048
877.546	4999
877.674	4968
877.802	4984
877.93	4987
878.058	4923
878.185	4790
878.313	4984
878.441	4934
878.568	4778
878.696	4824
878.824	4908
878.951	4976
879.079	5113
879.206	5246
879.333	5094
879.461	4946
879.588	4999
879.715	5124
879.842	5197
879.97	5018
880.097	4778
880.224	4710
880.351	4763
880.478	4835
880.605	4793
880.732	4771
880.859	5105
880.986	4889
881.112	4915
881.239	4790
881.366	4668
881.493	4603
881.619	4573
881.746	4558
881.872	4649
881.999	4649
882.125	4691
882.252	4759
882.378	4755
882.505	4908
882.631	4786
882.757	4641
882.883	4759
883.01	4733
883.136	4691
883.262	4554
883.388	4580
883.514	4801
883.64	4873
883.766	4759
883.892	4626
884.018	4717
884.143	4835
884.269	4995
884.395	4672
884.52	4618
884.646	4634
884.772	4527
884.897	4516
885.023	4649
885.148	4706
885.274	4820
885.399	4763
885.524	4694
885.65	4733
885.775	4729
885.9	4694
886.025	4797
886.15	4717
886.275	4721
886.4	4611
886.525	4748
886.65	4637
886.775	4660
886.9	4847
887.025	4991
887.149	4740
887.274	4664
887.399	4565
887.523	4588
887.648	4550
887.773	4588
887.897	4763
888.021	4744
888.146	4645
888.27	4740
888.395	4885
888.519	4740
888.643	4790
888.767	4767
888.891	4599
889.015	4603
889.139	4626
889.263	4649
889.387	4736
889.511	4862
889.635	4729
889.759	4637
889.883	4622
890.006	4710
890.13	4801
890.254	4618
890.377	4698
890.501	4508
890.624	4500
890.748	4588
890.871	4561
890.995	4417
891.118	4337
891.241	4451
891.364	4489
891.488	4592
891.611	4512
891.734	4542
891.857	4573
891.98	4470
892.103	4561
892.226	4573
892.349	4519
892.471	4459
892.594	4538
892.717	4618
892.839	4580
892.962	4599
893.085	4664
893.207	4618
893.33	4455
893.452	4535
893.575	4641
893.697	4546
893.819	4778
893.941	4820
894.064	4763
894.186	4569
894.308	4580
894.43	4755
894.552	4793
894.674	4786
894.796	4527
894.918	4577
895.04	4527
895.161	4702
895.283	4615
895.405	4641
895.526	4641
895.648	4634
895.769	4675
895.891	4729
896.012	4748
896.134	4733
896.255	4653
896.376	4653
896.498	4660
896.619	4668
896.74	4641
896.861	4679
896.982	4946
897.103	5083
897.224	4847
897.345	4774
897.466	4740
897.587	4771
897.708	4870
897.828	4816
897.949	4687
898.07	4596
898.19	4683
898.311	4843
898.431	4736
898.552	4729
898.672	4889
898.792	4850
898.913	4767
899.033	4634
899.153	4565
899.273	4500
899.393	4558
899.513	4584
899.633	4588
899.753	4588
899.873	4569
899.993	4660
900.113	4599
900.232	4584
900.352	4561
900.472	4531
900.591	4443
900.711	4535
900.83	4440
900.95	4630
901.069	4706
901.189	4580
901.308	4394
901.427	4371
901.546	4474
901.665	4481
901.784	4527
901.904	4436
902.023	4341
902.141	4219
902.26	4219
902.379	4337
902.498	4272
902.617	4265
902.735	4413
902.854	4462
902.973	4363
903.091	4207
903.21	4257
903.328	4306
903.446	4295
903.565	4257
903.683	4386
903.801	4333
903.919	4462
904.038	4512
904.156	4325
904.274	4436
904.392	4451
904.51	4459
904.627	4481
904.745	4637
904.863	4641
904.981	4428
905.098	4337
905.216	4352
905.334	4432
905.451	4470
905.569	4447
905.686	4580
905.803	4592
905.921	4436
906.038	4622
906.155	4459
906.272	4398
906.389	4512
906.506	4447
906.623	4363
906.74	4451
906.857	4375
906.974	4356
907.091	4641
907.208	4668
907.324	4637
907.441	4542
907.557	4402
907.674	4386
907.79	4367
907.907	4405
908.023	4474
908.139	4519
908.256	4474
908.372	4527
908.488	4447
908.604	4341
908.72	4390
908.836	4390
908.952	4398
909.068	4443
909.184	4599
909.3	4474
909.415	4630
909.531	4596
909.647	4352
909.762	4409
909.878	4341
909.993	4447
910.108	4413
910.224	4455
910.339	4527
910.454	4421
910.57	4405
910.685	4341
910.8	4729
910.915	4615
911.03	4485
911.145	4341
911.259	4325
911.374	4379
911.489	4272
911.604	4272
911.718	4169
911.833	4215
911.947	4093
912.062	4109
912.176	4207
912.291	4249
912.405	4230
912.519	4474
912.633	4531
912.748	4352
912.862	4356
912.976	4253
913.09	4150
913.204	4200
913.318	4299
913.431	4375
913.545	4375
913.659	4443
913.772	4409
913.886	4306
914	4268
914.113	4409
914.226	4440
914.34	4394
914.453	4223
914.566	4474
914.68	4386
914.793	4329
914.906	4204
915.019	4166
915.132	4124
915.245	4227
915.358	4242
915.47	4306
915.583	4322
915.696	4310
915.809	4413
915.921	4451
916.034	4268
916.146	4322
916.259	4261
916.371	4405
916.483	4383
916.595	4249
916.708	4424
916.82	4325
916.932	4371
917.044	4371
917.156	4333
917.268	4268
917.38	4348
917.491	4246
917.603	4371
917.715	4424
917.826	4497
917.938	4386
918.049	4276
918.161	4443
918.272	4596
918.384	4554
918.495	4478
918.606	4318
918.717	4268
918.828	4306
918.939	4394
919.05	4268
919.161	4367
919.272	4173
919.383	4291
919.494	4466
919.604	4668
919.715	4428
919.826	4390
919.936	4421
920.047	4523
920.157	4500
920.267	4694
920.378	4512
920.488	4554
920.598	4748
920.708	4881
920.818	4759
920.928	4763
921.038	4934
921.148	4949
921.258	4645
921.368	4580
921.477	4478
921.587	4478
921.697	4413
921.806	4527
921.916	4462
922.025	4299
922.134	4299
922.244	4257
922.353	4360
922.462	4204
922.571	4158
922.68	4025
922.789	3987
922.898	4036
923.007	4013
923.116	4135
923.224	4082
923.333	4090
923.442	4048
923.55	3979
923.659	4067
923.767	4097
923.876	3968
923.984	4166
924.092	4036
924.201	4048
924.309	4120
924.417	4131
924.525	4097
924.633	4105
924.741	4877
924.849	3941
924.956	4158
925.064	3975
925.172	3972
925.279	3987
925.387	4086
925.494	4093
925.602	4207
925.709	4200
925.816	4067
925.924	4188
926.031	4257
926.138	4177
926.245	4188
926.352	4112
926.459	4265
926.566	4325
926.673	4128
926.779	4120
926.886	4086
926.993	4017
927.099	3972
927.206	3960
927.312	3975
927.419	4109
927.525	4067
927.631	4082
927.737	4013
927.843	3937
927.95	3857
928.056	3941
928.162	4021
928.267	4051
928.373	4736
928.479	4139
928.585	3922
928.69	4013
928.796	4131
928.901	3975
929.007	3869
929.112	4036
929.218	3975
929.323	3907
929.428	4002
929.533	4116
929.638	3907
929.743	3983
929.848	4063
929.953	4071
930.058	3918
930.163	3835
930.267	3884
930.372	3975
930.477	3800
930.581	4105
930.685	3979
930.79	3827
930.894	3907
930.998	3869
931.103	4063
931.207	3732
931.311	3686
931.415	3732
931.519	3534
931.623	3580
