Data from test_V78500241_1511.txt Node
Date: Fri Mar 25 16:59:30 CST 2022
User: usil
Spectrometer: V785-0024
Trigger mode: 0
Integration Time (sec): 4.000000E-1
Scans to average: 1
Nonlinearity correction enabled: false
Boxcar width: 0
Storing dark spectrum: false
XAxis mode: Wavelengths
Number of Pixels in Spectrum: 1024
>>>>>Begin Spectral Data<<<<<
801.071	7986
801.214	7982
801.356	7841
801.499	7795
801.641	7769
801.783	7799
801.926	7974
802.068	7940
802.211	7989
802.353	7978
802.496	7887
802.638	7849
802.78	7925
802.923	7940
803.065	7845
803.208	7849
803.35	7890
803.492	8081
803.635	8119
803.777	7978
803.919	8096
804.061	8480
804.204	8107
804.346	7989
804.488	7932
804.63	8065
804.773	7978
804.915	8130
805.057	8221
805.199	8153
805.341	8206
805.483	8332
805.626	8214
805.768	8126
805.91	8157
806.052	8191
806.194	8058
806.336	8275
806.478	8092
806.62	8031
806.762	8088
806.904	8256
807.046	8499
807.188	8366
807.33	8244
807.472	8263
807.614	8119
807.756	8195
807.898	7978
808.04	7940
808.182	7860
808.324	7875
808.465	7978
808.607	8088
808.749	8035
808.891	8107
809.033	8275
809.174	8149
809.316	8092
809.458	8050
809.6	8024
809.741	7982
809.883	8016
810.025	8062
810.166	8031
810.308	8024
810.45	7986
810.591	7826
810.733	7696
810.875	7666
811.016	7552
811.158	7510
811.299	7540
811.441	7696
811.582	7674
811.724	7559
811.865	7544
812.007	7609
812.148	7533
812.29	7609
812.431	7731
812.573	7902
812.714	7951
812.855	8081
812.997	8183
813.138	8248
813.279	8176
813.421	8100
813.562	7928
813.703	7826
813.845	7746
813.986	7426
814.127	7225
814.268	7198
814.41	7160
814.551	7171
814.692	7209
814.833	7099
814.974	7088
815.115	7152
815.256	6996
815.397	6882
815.539	6943
815.68	6825
815.821	6833
815.962	6848
816.103	6783
816.244	6707
816.385	6665
816.526	6597
816.666	6456
816.807	6270
816.948	6418
817.089	6441
817.23	6448
817.371	6342
817.512	6460
817.653	6338
817.793	6346
817.934	6426
818.075	6452
818.216	6437
818.356	6384
818.497	6243
818.638	6114
818.778	6106
818.919	6133
819.06	6148
819.2	6342
819.341	6319
819.481	6331
819.622	6498
819.762	6703
819.903	6665
820.043	6684
820.184	6547
820.324	6593
820.465	6722
820.605	6730
820.746	6547
820.886	6547
821.026	6650
821.167	6658
821.307	6802
821.447	6791
821.588	6623
821.728	6623
821.868	6467
822.008	6270
822.149	6285
822.289	6361
822.429	6114
822.569	6144
822.709	6125
822.849	5939
822.99	5916
823.13	5923
823.27	5908
823.41	5767
823.55	5745
823.69	5779
823.83	5756
823.97	5638
824.11	5501
824.25	5501
824.389	5611
824.529	5573
824.669	5471
824.809	5615
824.949	5615
825.089	5661
825.228	5554
825.368	5383
825.508	5326
825.648	5303
825.787	5337
825.927	5337
826.067	5292
826.206	5269
826.346	5372
826.485	5395
826.625	5429
826.765	5532
826.904	5505
827.044	5258
827.183	5197
827.323	5075
827.462	5261
827.601	5166
827.741	5216
827.88	5208
828.02	5124
828.159	5166
828.298	5265
828.437	5383
828.577	5208
828.716	5452
828.855	5322
828.994	5174
829.134	5143
829.273	5159
829.412	5113
829.551	5159
829.69	5178
829.829	5235
829.968	5379
830.107	5296
830.246	5265
830.385	5140
830.524	5155
830.663	5010
830.802	4957
830.941	4889
831.08	4843
831.219	4991
831.357	4968
831.496	5185
831.635	4858
831.774	4847
831.913	4839
832.051	4736
832.19	4763
832.329	4809
832.467	4672
832.606	4626
832.744	4694
832.883	4687
833.022	4702
833.16	4774
833.299	4801
833.437	4797
833.576	4812
833.714	4835
833.852	4873
833.991	4870
834.129	4930
834.267	4919
834.406	4858
834.544	4961
834.682	4965
834.821	4930
834.959	5170
835.097	5014
835.235	5086
835.373	5109
835.511	5090
835.65	5048
835.788	4961
835.926	4873
836.064	4892
836.202	4885
836.34	5170
836.478	5208
836.615	5079
836.753	5239
836.891	5269
837.029	5181
837.167	5166
837.305	5181
837.443	5090
837.58	5094
837.718	5261
837.856	5174
837.993	5151
838.131	5185
838.269	5189
838.406	5227
838.544	5166
838.681	5037
838.819	4984
838.956	4854
839.094	4949
839.231	4934
839.369	5079
839.506	5425
839.643	5288
839.781	5079
839.918	5006
840.055	5098
840.193	5124
840.33	5128
840.467	5143
840.604	5166
840.742	5471
840.879	5098
841.016	5060
841.153	5170
841.29	5372
841.427	5326
841.564	5269
841.701	5311
841.838	5273
841.975	5212
842.112	5292
842.249	5071
842.385	5102
842.522	5288
842.659	5185
842.796	5105
842.933	5193
843.069	5151
843.206	5121
843.343	5292
843.479	5201
843.616	5250
843.752	5022
843.889	5010
844.025	5181
844.162	5010
844.298	5216
844.435	5041
844.571	5029
844.708	5189
844.844	5315
844.98	5337
845.117	5345
845.253	5121
845.389	5083
845.525	5170
845.661	5128
845.798	5045
845.934	5124
846.07	5071
846.206	5155
846.342	5296
846.478	5162
846.614	4976
846.75	4938
846.886	4927
847.022	5090
847.158	4999
847.294	5071
847.429	5045
847.565	5071
847.701	5284
847.837	4850
847.972	4774
848.108	4987
848.244	4938
848.379	4824
848.515	4710
848.65	4679
848.786	4733
848.921	4820
849.057	4828
849.192	4892
849.328	4729
849.463	4828
849.598	4805
849.734	4744
849.869	4626
850.004	4607
850.14	4653
850.275	4596
850.41	4504
850.545	4565
850.68	4599
850.815	4611
850.95	4656
851.085	4843
851.22	4748
851.355	4668
851.49	4596
851.625	4592
851.76	4611
851.895	4535
852.03	4580
852.165	4599
852.299	4725
852.434	4740
852.569	4714
852.703	4820
852.838	4835
852.973	4968
853.107	4915
853.242	4698
853.376	4706
853.511	4554
853.645	4554
853.78	4786
853.914	4702
854.048	4656
854.183	4618
854.317	4702
854.451	4809
854.585	4641
854.72	4645
854.854	4740
854.988	4565
855.122	4596
855.256	4558
855.39	4645
855.524	4774
855.658	4714
855.792	4691
855.926	4736
856.06	4725
856.194	4767
856.327	4675
856.461	4588
856.595	4603
856.729	4611
856.862	4763
856.996	4649
857.13	4706
857.263	4744
857.397	4736
857.53	4649
857.664	4660
857.797	4809
857.931	4767
858.064	4649
858.197	4740
858.331	4683
858.464	4618
858.597	4542
858.731	4634
858.864	4622
858.997	4588
859.13	4664
859.263	4603
859.396	4668
859.529	4565
859.662	4565
859.795	4531
859.928	4656
860.061	4763
860.194	4729
860.327	4618
860.46	4569
860.592	4653
860.725	4721
860.858	4656
860.99	4577
861.123	4519
861.256	4523
861.388	4611
861.521	5288
861.653	4519
861.786	4394
861.918	4443
862.05	4489
862.183	4489
862.315	4596
862.447	4664
862.58	4558
862.712	4325
862.844	4337
862.976	4462
863.108	4489
863.24	4748
863.372	4318
863.504	4409
863.636	4405
863.768	4497
863.9	4390
864.032	4348
864.164	4386
864.296	4485
864.428	4508
864.559	4546
864.691	4527
864.823	4519
864.954	4481
865.086	4474
865.217	4497
865.349	4432
865.48	4409
865.612	4493
865.743	4599
865.875	4481
866.006	4386
866.137	4421
866.269	4398
866.4	4417
866.531	4383
866.662	4432
866.793	4413
866.924	4367
867.055	4462
867.186	4462
867.317	4390
867.448	4329
867.579	4402
867.71	4394
867.841	4295
867.972	4497
868.103	4504
868.233	4478
868.364	4432
868.495	4436
868.625	4660
868.756	4653
868.886	4550
869.017	4634
869.147	4778
869.278	4748
869.408	4691
869.539	4649
869.669	4687
869.799	4641
869.929	4664
870.06	4755
870.19	4972
870.32	4968
870.45	4934
870.58	4984
870.71	5037
870.84	5109
870.97	4896
871.1	4889
871.23	5151
871.36	5098
871.489	4984
871.619	5025
871.749	5060
871.879	5109
872.008	5166
872.138	5045
872.267	4953
872.397	4862
872.526	4828
872.656	4691
872.785	4793
872.915	4949
873.044	5041
873.173	4892
873.303	4915
873.432	4961
873.561	4938
873.69	4889
873.819	4850
873.948	4927
874.077	4877
874.206	4797
874.335	4778
874.464	4870
874.593	5006
874.722	4972
874.851	5109
874.979	5121
875.108	5083
875.237	4885
875.365	4866
875.494	4858
875.623	4976
875.751	4862
875.88	4896
876.008	4961
876.136	4946
876.265	5204
876.393	5292
876.521	5288
876.65	5208
876.778	5105
876.906	5025
877.034	4987
877.162	5014
877.29	4987
877.418	5067
877.546	5037
877.674	5041
877.802	5064
877.93	5022
878.058	4873
878.185	4881
878.313	4930
878.441	4839
878.568	4801
878.696	4915
878.824	4972
878.951	4953
879.079	5067
879.206	5277
879.333	5094
879.461	4968
879.588	4961
879.715	5094
879.842	5204
879.97	4953
880.097	4767
880.224	4710
880.351	4801
880.478	4850
880.605	4809
880.732	4790
880.859	5105
880.986	4866
881.112	4870
881.239	4812
881.366	4721
881.493	4618
881.619	4584
881.746	4660
881.872	4637
881.999	4634
882.125	4675
882.252	4767
882.378	4881
882.505	4953
882.631	4812
882.757	4641
882.883	4729
883.01	4710
883.136	4641
883.262	4634
883.388	4615
883.514	4820
883.64	4828
883.766	4767
883.892	4675
884.018	4664
884.143	4870
884.269	4984
884.395	4653
884.52	4645
884.646	4630
884.772	4588
884.897	4554
885.023	4649
885.148	4714
885.274	4881
885.399	4820
885.524	4702
885.65	4649
885.775	4733
885.9	4702
886.025	4835
886.15	4786
886.275	4752
886.4	4649
886.525	4729
886.65	4645
886.775	4691
886.9	4953
887.025	5045
887.149	4790
887.274	4637
887.399	4573
887.523	4569
887.648	4611
887.773	4611
887.897	4721
888.021	4786
888.146	4687
888.27	4805
888.395	4873
888.519	4805
888.643	4801
888.767	4839
888.891	4668
889.015	4634
889.139	4679
889.263	4573
889.387	4797
889.511	4831
889.635	4778
889.759	4634
889.883	4656
890.006	4725
890.13	4828
890.254	4615
890.377	4641
890.501	4580
890.624	4485
890.748	4649
890.871	4554
890.995	4379
891.118	4356
891.241	4542
891.364	4542
891.488	4611
891.611	4485
891.734	4546
891.857	4535
891.98	4512
892.103	4599
892.226	4577
892.349	4546
892.471	4424
892.594	4516
892.717	4558
892.839	4584
892.962	4558
893.085	4630
893.207	4599
893.33	4459
893.452	4558
893.575	4618
893.697	4596
893.819	4820
893.941	4793
894.064	4767
894.186	4523
894.308	4615
894.43	4702
894.552	4744
894.674	4774
894.796	4558
894.918	4561
895.04	4580
895.161	4717
895.283	4672
895.405	4561
895.526	4603
895.648	4641
895.769	4683
895.891	4717
896.012	4706
896.134	4679
896.255	4664
896.376	4645
896.498	4596
896.619	4637
896.74	4577
896.861	4603
896.982	4877
897.103	5064
897.224	4854
897.345	4755
897.466	4622
897.587	4687
897.708	4889
897.828	4740
897.949	4622
898.07	4550
898.19	4611
898.311	4828
898.431	4664
898.552	4740
898.672	4778
898.792	4755
898.913	4725
899.033	4645
899.153	4493
899.273	4443
899.393	4474
899.513	4489
899.633	4538
899.753	4523
899.873	4546
899.993	4618
900.113	4527
900.232	4569
900.352	4554
900.472	4500
900.591	4398
900.711	4516
900.83	4470
900.95	4607
901.069	4675
901.189	4481
901.308	4337
901.427	4299
901.546	4325
901.665	4474
901.784	4550
901.904	4325
902.023	4325
902.141	4192
902.26	4192
902.379	4291
902.498	4280
902.617	4192
902.735	4352
902.854	4432
902.973	4360
903.091	4192
903.21	4230
903.328	4310
903.446	4242
903.565	4272
903.683	4337
903.801	4234
903.919	4383
904.038	4379
904.156	4303
904.274	4440
904.392	4360
904.51	4428
904.627	4443
904.745	4550
904.863	4683
904.981	4383
905.098	4272
905.216	4344
905.334	4451
905.451	4390
905.569	4436
905.686	4523
905.803	4599
905.921	4421
906.038	4527
906.155	4504
906.272	4394
906.389	4436
906.506	4329
906.623	4367
906.74	4333
906.857	4280
906.974	4375
907.091	4569
907.208	4702
907.324	4611
907.441	4481
907.557	4325
907.674	4352
907.79	4318
907.907	4390
908.023	4493
908.139	4500
908.256	4432
908.372	4440
908.488	4436
908.604	4341
908.72	4333
908.836	4390
908.952	4390
909.068	4424
909.184	4554
909.3	4447
909.415	4656
909.531	4542
909.647	4363
909.762	4390
909.878	4348
909.993	4421
910.108	4402
910.224	4402
910.339	4493
910.454	4371
910.57	4375
910.685	4314
910.8	4634
910.915	4580
911.03	4440
911.145	4333
911.259	4333
911.374	4337
911.489	4272
911.604	4242
911.718	4128
911.833	4188
911.947	4063
912.062	4029
912.176	4188
912.291	4173
912.405	4234
912.519	4497
912.633	4481
912.748	4360
912.862	4310
912.976	4219
913.09	4055
913.204	4162
913.318	4257
913.431	4356
913.545	4348
913.659	4481
913.772	4333
913.886	4246
914	4219
914.113	4398
914.226	4432
914.34	4390
914.453	4261
914.566	4413
914.68	4227
914.793	4261
914.906	4211
915.019	4097
915.132	4067
915.245	4188
915.358	4192
915.47	4257
915.583	4265
915.696	4265
915.809	4413
915.921	4402
916.034	4261
916.146	4242
916.259	4253
916.371	4360
916.483	4341
916.595	4257
916.708	4291
916.82	4261
916.932	4379
917.044	4322
917.156	4295
917.268	4242
917.38	4242
917.491	4280
917.603	4310
917.715	4371
917.826	4436
917.938	4379
918.049	4261
918.161	4337
918.272	4497
918.384	4512
918.495	4421
918.606	4314
918.717	4211
918.828	4360
918.939	4352
919.05	4246
919.161	4268
919.272	4124
919.383	4211
919.494	4462
919.604	4599
919.715	4398
919.826	4341
919.936	4436
920.047	4535
920.157	4459
920.267	4740
920.378	4558
920.488	4508
920.598	4771
920.708	4889
920.818	4755
920.928	4736
921.038	4930
921.148	4889
921.258	4637
921.368	4500
921.477	4485
921.587	4500
921.697	4402
921.806	4588
921.916	4440
922.025	4261
922.134	4242
922.244	4230
922.353	4310
922.462	4162
922.571	4135
922.68	4032
922.789	3941
922.898	4013
923.007	4002
923.116	4101
923.224	4086
923.333	4059
923.442	4002
923.55	3975
923.659	4029
923.767	4090
923.876	3956
923.984	4116
924.092	3998
924.201	4055
924.309	4131
924.417	4112
924.525	4101
924.633	4128
924.741	4873
924.849	3903
924.956	4120
925.064	3991
925.172	3911
925.279	3964
925.387	4025
925.494	4040
925.602	4238
925.709	4162
925.816	4002
925.924	4143
926.031	4234
926.138	4143
926.245	4188
926.352	4074
926.459	4207
926.566	4306
926.673	4185
926.779	4059
926.886	4097
926.993	3953
927.099	3983
927.206	3903
927.312	3884
927.419	4051
927.525	4006
927.631	4086
927.737	3960
927.843	3930
927.95	3838
928.056	3964
928.162	4006
928.267	4036
928.373	4561
928.479	4128
928.585	3857
928.69	3998
928.796	4097
928.901	3953
929.007	3823
929.112	4013
929.218	3991
929.323	3922
929.428	3953
929.533	4116
929.638	3869
929.743	3934
929.848	4025
929.953	3998
930.058	3899
930.163	3793
930.267	3804
930.372	3956
930.477	3800
930.581	4093
930.685	3941
930.79	3823
930.894	3850
930.998	3857
931.103	3953
931.207	3720
931.311	3682
931.415	3690
931.519	3526
931.623	3564
