Data from test_V78500241_2494.txt Node
Date: Fri Mar 25 17:06:20 CST 2022
User: usil
Spectrometer: V785-0024
Trigger mode: 0
Integration Time (sec): 4.000000E-1
Scans to average: 1
Nonlinearity correction enabled: false
Boxcar width: 0
Storing dark spectrum: false
XAxis mode: Wavelengths
Number of Pixels in Spectrum: 1024
>>>>>Begin Spectral Data<<<<<
801.071	8001
801.214	7982
801.356	7868
801.499	7811
801.641	7807
801.783	7826
801.926	7955
802.068	7936
802.211	7974
802.353	7944
802.496	7826
802.638	7871
802.78	7856
802.923	7902
803.065	7860
803.208	7845
803.35	8005
803.492	8084
803.635	8172
803.777	8012
803.919	8145
804.061	8473
804.204	8138
804.346	8001
804.488	7967
804.63	8069
804.773	8039
804.915	8119
805.057	8259
805.199	8214
805.341	8183
805.483	8229
805.626	8221
805.768	8218
805.91	8256
806.052	8252
806.194	8123
806.336	8286
806.478	8065
806.62	8088
806.762	8084
806.904	8279
807.046	8461
807.188	8427
807.33	8244
807.472	8313
807.614	8199
807.756	8130
807.898	8001
808.04	7944
808.182	7947
808.324	7932
808.465	7871
808.607	8058
808.749	8073
808.891	8233
809.033	8328
809.174	8237
809.316	8084
809.458	8142
809.6	7982
809.741	8016
809.883	8027
810.025	8100
810.166	8046
810.308	8107
810.45	8012
810.591	7833
810.733	7670
810.875	7662
811.016	7472
811.158	7495
811.299	7594
811.441	7738
811.582	7704
811.724	7597
811.865	7563
812.007	7578
812.148	7578
812.29	7616
812.431	7788
812.573	7830
812.714	8031
812.855	8115
812.997	8153
813.138	8309
813.279	8195
813.421	8111
813.562	7951
813.703	7856
813.845	7776
813.986	7480
814.127	7259
814.268	7232
814.41	7187
814.551	7156
814.692	7240
814.833	7084
814.974	7103
815.115	7160
815.256	6958
815.397	6913
815.539	6935
815.68	6798
815.821	6833
815.962	6916
816.103	6840
816.244	6749
816.385	6642
816.526	6620
816.666	6517
816.807	6342
816.948	6399
817.089	6475
817.23	6445
817.371	6380
817.512	6464
817.653	6452
817.793	6369
817.934	6372
818.075	6502
818.216	6433
818.356	6369
818.497	6266
818.638	6144
818.778	6201
818.919	6171
819.06	6175
819.2	6304
819.341	6327
819.481	6391
819.622	6517
819.762	6688
819.903	6673
820.043	6608
820.184	6631
820.324	6608
820.465	6696
820.605	6738
820.746	6741
820.886	6536
821.026	6662
821.167	6703
821.307	6840
821.447	6779
821.588	6642
821.728	6559
821.868	6460
822.008	6350
822.149	6384
822.289	6372
822.429	6152
822.569	6095
822.709	6129
822.849	5935
822.99	5946
823.13	5901
823.27	5946
823.41	5771
823.55	5840
823.69	5821
823.83	5779
823.97	5646
824.11	5490
824.25	5528
824.389	5558
824.529	5623
824.669	5551
824.809	5684
824.949	5657
825.089	5661
825.228	5554
825.368	5391
825.508	5311
825.648	5368
825.787	5368
825.927	5353
826.067	5269
826.206	5292
826.346	5337
826.485	5452
826.625	5383
826.765	5532
826.904	5448
827.044	5318
827.183	5239
827.323	5151
827.462	5239
827.601	5185
827.741	5159
827.88	5239
828.02	5121
828.159	5242
828.298	5258
828.437	5379
828.577	5212
828.716	5486
828.855	5318
828.994	5189
829.134	5189
829.273	5258
829.412	5117
829.551	5132
829.69	5117
829.829	5265
829.968	5364
830.107	5250
830.246	5296
830.385	5166
830.524	5132
830.663	5083
830.802	4999
830.941	4919
831.08	4862
831.219	4942
831.357	5018
831.496	5105
831.635	4904
831.774	4812
831.913	4866
832.051	4786
832.19	4755
832.329	4877
832.467	4706
832.606	4645
832.744	4736
832.883	4771
833.022	4717
833.16	4790
833.299	4797
833.437	4812
833.576	4767
833.714	4866
833.852	4877
833.991	4862
834.129	4984
834.267	4908
834.406	4934
834.544	4987
834.682	5029
834.821	4919
834.959	5124
835.097	4946
835.235	5162
835.373	5075
835.511	5117
835.65	5033
835.788	5048
835.926	4881
836.064	4911
836.202	4908
836.34	5124
836.478	5216
836.615	5117
836.753	5265
836.891	5299
837.029	5227
837.167	5193
837.305	5143
837.443	5143
837.58	5075
837.718	5212
837.856	5201
837.993	5124
838.131	5261
838.269	5201
838.406	5155
838.544	5189
838.681	5045
838.819	5018
838.956	4877
839.094	4885
839.231	4957
839.369	5117
839.506	5387
839.643	5288
839.781	5098
839.918	5037
840.055	5079
840.193	5067
840.33	5117
840.467	5159
840.604	5170
840.742	5414
840.879	5083
841.016	5041
841.153	5140
841.29	5372
841.427	5311
841.564	5326
841.701	5364
841.838	5258
841.975	5197
842.112	5280
842.249	5189
842.385	5143
842.522	5330
842.659	5197
842.796	5151
842.933	5159
843.069	5151
843.206	5178
843.343	5337
843.479	5231
843.616	5265
843.752	5090
843.889	5033
844.025	5220
844.162	4987
844.298	5151
844.435	5067
844.571	5056
844.708	5170
844.844	5311
844.98	5330
845.117	5311
845.253	5136
845.389	5098
845.525	5143
845.661	5102
845.798	5083
845.934	5132
846.07	5037
846.206	5254
846.342	5273
846.478	5181
846.614	4995
846.75	5006
846.886	4991
847.022	5109
847.158	4987
847.294	5064
847.429	5090
847.565	5022
847.701	5326
847.837	4850
847.972	4790
848.108	4965
848.244	5006
848.379	4790
848.515	4801
848.65	4725
848.786	4733
848.921	4767
849.057	4854
849.192	4877
849.328	4812
849.463	4824
849.598	4816
849.734	4733
849.869	4694
850.004	4641
850.14	4637
850.275	4664
850.41	4493
850.545	4611
850.68	4634
850.815	4656
850.95	4615
851.085	4824
851.22	4759
851.355	4634
851.49	4607
851.625	4618
851.76	4603
851.895	4577
852.03	4561
852.165	4660
852.299	4721
852.434	4744
852.569	4752
852.703	4767
852.838	4854
852.973	4953
853.107	4927
853.242	4714
853.376	4664
853.511	4523
853.645	4637
853.78	4812
853.914	4721
854.048	4710
854.183	4645
854.317	4706
854.451	4877
854.585	4694
854.72	4626
854.854	4820
854.988	4607
855.122	4687
855.256	4558
855.39	4691
855.524	4816
855.658	4733
855.792	4710
855.926	4717
856.06	4763
856.194	4748
856.327	4645
856.461	4618
856.595	4607
856.729	4599
856.862	4733
856.996	4710
857.13	4771
857.263	4717
857.397	4790
857.53	4615
857.664	4733
857.797	4721
857.931	4816
858.064	4634
858.197	4740
858.331	4660
858.464	4584
858.597	4542
858.731	4622
858.864	4630
858.997	4622
859.13	4641
859.263	4698
859.396	4679
859.529	4599
859.662	4634
859.795	4508
859.928	4573
860.061	4748
860.194	4786
860.327	4565
860.46	4573
860.592	4649
860.725	4748
860.858	4691
860.99	4542
861.123	4542
861.256	4565
861.388	4588
861.521	5223
861.653	4459
861.786	4474
861.918	4470
862.05	4542
862.183	4519
862.315	4558
862.447	4626
862.58	4527
862.712	4383
862.844	4333
862.976	4455
863.108	4478
863.24	4816
863.372	4337
863.504	4405
863.636	4390
863.768	4489
863.9	4489
864.032	4356
864.164	4424
864.296	4470
864.428	4554
864.559	4527
864.691	4546
864.823	4519
864.954	4481
865.086	4504
865.217	4447
865.349	4428
865.48	4493
865.612	4478
865.743	4626
865.875	4531
866.006	4405
866.137	4447
866.269	4451
866.4	4398
866.531	4409
866.662	4402
866.793	4402
866.924	4413
867.055	4481
867.186	4443
867.317	4375
867.448	4398
867.579	4386
867.71	4413
867.841	4363
867.972	4485
868.103	4478
868.233	4436
868.364	4390
868.495	4478
868.625	4622
868.756	4778
868.886	4596
869.017	4615
869.147	4752
869.278	4752
869.408	4679
869.539	4599
869.669	4668
869.799	4634
869.929	4744
870.06	4759
870.19	4999
870.32	4927
870.45	4999
870.58	5025
870.71	5109
870.84	5025
870.97	4930
871.1	4885
871.23	5143
871.36	5090
871.489	5018
871.619	5083
871.749	5121
871.879	5071
872.008	5143
872.138	5102
872.267	5022
872.397	4816
872.526	4793
872.656	4725
872.785	4771
872.915	4968
873.044	5056
873.173	4904
873.303	4968
873.432	4999
873.561	4949
873.69	4831
873.819	4854
873.948	4908
874.077	4812
874.206	4774
874.335	4790
874.464	4919
874.593	5056
874.722	4965
874.851	5094
874.979	5022
875.108	5071
875.237	4881
875.365	4900
875.494	4873
875.623	4968
875.751	4843
875.88	4870
876.008	5022
876.136	5022
876.265	5189
876.393	5383
876.521	5265
876.65	5185
876.778	5143
876.906	5109
877.034	5018
877.162	4999
877.29	5037
877.418	5083
877.546	5052
877.674	5022
877.802	5022
877.93	4987
878.058	4889
878.185	4839
878.313	4980
878.441	4949
878.568	4801
878.696	4927
878.824	4972
878.951	4995
879.079	5105
879.206	5326
879.333	5140
879.461	4946
879.588	5029
879.715	5132
879.842	5242
879.97	5029
880.097	4793
880.224	4767
880.351	4725
880.478	4854
880.605	4828
880.732	4809
880.859	5071
880.986	4900
881.112	4896
881.239	4740
881.366	4653
881.493	4584
881.619	4558
881.746	4596
881.872	4679
881.999	4649
882.125	4706
882.252	4812
882.378	4835
882.505	4930
882.631	4805
882.757	4675
882.883	4736
883.01	4710
883.136	4679
883.262	4596
883.388	4634
883.514	4812
883.64	4854
883.766	4774
883.892	4721
884.018	4691
884.143	4885
884.269	5029
884.395	4714
884.52	4599
884.646	4653
884.772	4596
884.897	4527
885.023	4675
885.148	4793
885.274	4843
885.399	4828
885.524	4675
885.65	4675
885.775	4733
885.9	4706
886.025	4870
886.15	4778
886.275	4668
886.4	4656
886.525	4748
886.65	4660
886.775	4702
886.9	4881
887.025	5018
887.149	4752
887.274	4645
887.399	4573
887.523	4626
887.648	4561
887.773	4558
887.897	4805
888.021	4820
888.146	4672
888.27	4782
888.395	4854
888.519	4850
888.643	4782
888.767	4831
888.891	4687
889.015	4599
889.139	4679
889.263	4611
889.387	4740
889.511	4843
889.635	4759
889.759	4702
889.883	4626
890.006	4763
890.13	4828
890.254	4622
890.377	4694
890.501	4584
890.624	4512
890.748	4622
890.871	4523
890.995	4447
891.118	4398
891.241	4546
891.364	4554
891.488	4611
891.611	4527
891.734	4527
891.857	4618
891.98	4489
892.103	4675
892.226	4599
892.349	4489
892.471	4432
892.594	4584
892.717	4596
892.839	4546
892.962	4626
893.085	4653
893.207	4588
893.33	4470
893.452	4531
893.575	4675
893.697	4573
893.819	4744
893.941	4805
894.064	4763
894.186	4542
894.308	4546
894.43	4752
894.552	4801
894.674	4736
894.796	4558
894.918	4607
895.04	4584
895.161	4729
895.283	4637
895.405	4596
895.526	4668
895.648	4694
895.769	4675
895.891	4672
896.012	4687
896.134	4694
896.255	4637
896.376	4660
896.498	4603
896.619	4679
896.74	4561
896.861	4637
896.982	4904
897.103	5075
897.224	4820
897.345	4710
897.466	4622
897.587	4740
897.708	4858
897.828	4850
897.949	4637
898.07	4573
898.19	4603
898.311	4816
898.431	4660
898.552	4767
898.672	4843
898.792	4809
898.913	4694
899.033	4641
899.153	4493
899.273	4390
899.393	4462
899.513	4546
899.633	4447
899.753	4531
899.873	4535
899.993	4584
900.113	4542
900.232	4630
900.352	4493
900.472	4474
900.591	4443
900.711	4519
900.83	4470
900.95	4596
901.069	4767
901.189	4550
901.308	4398
901.427	4299
901.546	4344
901.665	4481
901.784	4516
901.904	4390
902.023	4325
902.141	4207
902.26	4185
902.379	4303
902.498	4261
902.617	4242
902.735	4352
902.854	4367
902.973	4344
903.091	4192
903.21	4207
903.328	4295
903.446	4299
903.565	4276
903.683	4333
903.801	4284
903.919	4402
904.038	4432
904.156	4344
904.274	4424
904.392	4371
904.51	4383
904.627	4512
904.745	4577
904.863	4630
904.981	4394
905.098	4318
905.216	4383
905.334	4440
905.451	4386
905.569	4440
905.686	4554
905.803	4573
905.921	4398
906.038	4523
906.155	4478
906.272	4417
906.389	4455
906.506	4360
906.623	4390
906.74	4455
906.857	4280
906.974	4402
907.091	4573
907.208	4611
907.324	4523
907.441	4512
907.557	4310
907.674	4360
907.79	4356
907.907	4409
908.023	4478
908.139	4455
908.256	4421
908.372	4481
908.488	4451
908.604	4352
908.72	4322
908.836	4383
908.952	4383
909.068	4405
909.184	4584
909.3	4497
909.415	4603
909.531	4554
909.647	4341
909.762	4371
909.878	4337
909.993	4455
910.108	4398
910.224	4447
910.339	4470
910.454	4409
910.57	4329
910.685	4303
910.8	4611
910.915	4626
911.03	4455
911.145	4299
911.259	4291
911.374	4348
911.489	4333
911.604	4299
911.718	4158
911.833	4196
911.947	4071
912.062	4002
912.176	4215
912.291	4280
912.405	4268
912.519	4432
912.633	4535
912.748	4394
912.862	4299
912.976	4207
913.09	4101
913.204	4219
913.318	4257
913.431	4352
913.545	4360
913.659	4424
913.772	4356
913.886	4246
914	4223
914.113	4405
914.226	4428
914.34	4379
914.453	4230
914.566	4402
914.68	4310
914.793	4383
914.906	4147
915.019	4131
915.132	4097
915.245	4211
915.358	4188
915.47	4219
915.583	4181
915.696	4284
915.809	4443
915.921	4478
916.034	4249
916.146	4253
916.259	4257
916.371	4383
916.483	4409
916.595	4280
916.708	4287
916.82	4314
916.932	4306
917.044	4371
917.156	4344
917.268	4192
917.38	4284
917.491	4272
917.603	4363
917.715	4424
917.826	4424
917.938	4329
918.049	4303
918.161	4428
918.272	4558
918.384	4527
918.495	4451
918.606	4306
918.717	4246
918.828	4303
918.939	4375
919.05	4257
919.161	4314
919.272	4143
919.383	4219
919.494	4485
919.604	4634
919.715	4436
919.826	4367
919.936	4424
920.047	4535
920.157	4462
920.267	4710
920.378	4527
920.488	4489
920.598	4706
920.708	4908
920.818	4736
920.928	4748
921.038	4915
921.148	4930
921.258	4649
921.368	4565
921.477	4493
921.587	4481
921.697	4379
921.806	4504
921.916	4424
922.025	4204
922.134	4268
922.244	4223
922.353	4322
922.462	4158
922.571	4158
922.68	4006
922.789	3949
922.898	4101
923.007	3949
923.116	4074
923.224	4090
923.333	4040
923.442	3964
923.55	3949
923.659	4013
923.767	4120
923.876	3987
923.984	4120
924.092	3987
924.201	4101
924.309	4082
924.417	4082
924.525	4055
924.633	4135
924.741	4824
924.849	3899
924.956	4150
925.064	3949
925.172	3934
925.279	3911
925.387	4067
925.494	4086
925.602	4215
925.709	4166
925.816	4017
925.924	4158
926.031	4227
926.138	4147
926.245	4181
926.352	4150
926.459	4257
926.566	4268
926.673	4173
926.779	4090
926.886	4040
926.993	3975
927.099	3960
927.206	3956
927.312	3949
927.419	4074
927.525	4013
927.631	4112
927.737	3964
927.843	3956
927.95	3842
928.056	3926
928.162	3983
928.267	4063
928.373	4584
928.479	4101
928.585	3861
928.69	3991
928.796	4051
928.901	3926
929.007	3880
929.112	3979
929.218	4002
929.323	3956
929.428	3972
929.533	4105
929.638	3922
929.743	3987
929.848	4025
929.953	3956
930.058	3915
930.163	3793
930.267	3827
930.372	3937
930.477	3774
930.581	4044
930.685	3899
930.79	3823
930.894	3926
930.998	3804
931.103	4021
931.207	3732
931.311	3705
931.415	3622
931.519	3530
931.623	3576
