Data from test_V78500241_1311.txt Node
Date: Fri Mar 25 16:58:07 CST 2022
User: usil
Spectrometer: V785-0024
Trigger mode: 0
Integration Time (sec): 4.000000E-1
Scans to average: 1
Nonlinearity correction enabled: false
Boxcar width: 0
Storing dark spectrum: false
XAxis mode: Wavelengths
Number of Pixels in Spectrum: 1024
>>>>>Begin Spectral Data<<<<<
801.071	7997
801.214	8046
801.356	7849
801.499	7875
801.641	7807
801.783	7769
801.926	7974
802.068	7921
802.211	7928
802.353	7913
802.496	7792
802.638	7871
802.78	7879
802.923	7871
803.065	7940
803.208	7837
803.35	8008
803.492	8065
803.635	8142
803.777	8024
803.919	8145
804.061	8454
804.204	8157
804.346	8043
804.488	7974
804.63	8103
804.773	8050
804.915	8130
805.057	8355
805.199	8187
805.341	8229
805.483	8229
805.626	8176
805.768	8123
805.91	8237
806.052	8157
806.194	8065
806.336	8259
806.478	8088
806.62	7993
806.762	8138
806.904	8309
807.046	8381
807.188	8320
807.33	8343
807.472	8290
807.614	8180
807.756	8077
807.898	7993
808.04	7898
808.182	7925
808.324	7845
808.465	7925
808.607	8077
808.749	8081
808.891	8100
809.033	8233
809.174	8153
809.316	8012
809.458	8012
809.6	7993
809.741	7997
809.883	8050
810.025	8077
810.166	8039
810.308	8016
810.45	8035
810.591	7868
810.733	7803
810.875	7693
811.016	7594
811.158	7453
811.299	7578
811.441	7757
811.582	7784
811.724	7597
811.865	7529
812.007	7571
812.148	7571
812.29	7639
812.431	7715
812.573	7913
812.714	7974
812.855	8115
812.997	8168
813.138	8305
813.279	8180
813.421	8069
813.562	7989
813.703	7841
813.845	7689
813.986	7411
814.127	7179
814.268	7198
814.41	7206
814.551	7084
814.692	7171
814.833	7091
814.974	7118
815.115	7050
815.256	6996
815.397	6970
815.539	6924
815.68	6844
815.821	6681
815.962	6821
816.103	6745
816.244	6696
816.385	6528
816.526	6665
816.666	6536
816.807	6342
816.948	6395
817.089	6479
817.23	6441
817.371	6296
817.512	6357
817.653	6350
817.793	6323
817.934	6433
818.075	6464
818.216	6418
818.356	6369
818.497	6232
818.638	6190
818.778	6129
818.919	6083
819.06	6171
819.2	6273
819.341	6311
819.481	6395
819.622	6536
819.762	6768
819.903	6677
820.043	6616
820.184	6608
820.324	6551
820.465	6673
820.605	6585
820.746	6608
820.886	6494
821.026	6677
821.167	6677
821.307	6783
821.447	6684
821.588	6703
821.728	6532
821.868	6479
822.008	6289
822.149	6422
822.289	6292
822.429	6117
822.569	6117
822.709	6087
822.849	5916
822.99	5863
823.13	5882
823.27	5878
823.41	5786
823.55	5760
823.69	5775
823.83	5756
823.97	5630
824.11	5543
824.25	5547
824.389	5547
824.529	5505
824.669	5497
824.809	5630
824.949	5714
825.089	5604
825.228	5493
825.368	5372
825.508	5307
825.648	5311
825.787	5383
825.927	5383
826.067	5299
826.206	5223
826.346	5410
826.485	5406
826.625	5357
826.765	5528
826.904	5410
827.044	5315
827.183	5208
827.323	5056
827.462	5307
827.601	5159
827.741	5189
827.88	5235
828.02	5140
828.159	5185
828.298	5315
828.437	5311
828.577	5246
828.716	5410
828.855	5254
828.994	5159
829.134	5124
829.273	5227
829.412	5105
829.551	5121
829.69	5178
829.829	5181
829.968	5368
830.107	5273
830.246	5269
830.385	5216
830.524	5117
830.663	5079
830.802	4987
830.941	4881
831.08	4877
831.219	4927
831.357	4942
831.496	5197
831.635	4915
831.774	4858
831.913	4881
832.051	4683
832.19	4729
832.329	4816
832.467	4683
832.606	4626
832.744	4721
832.883	4714
833.022	4710
833.16	4786
833.299	4805
833.437	4824
833.576	4805
833.714	4824
833.852	4885
833.991	4919
834.129	4904
834.267	4930
834.406	4858
834.544	4949
834.682	4965
834.821	4949
834.959	5147
835.097	4965
835.235	5143
835.373	4995
835.511	5048
835.65	5060
835.788	5018
835.926	4885
836.064	4809
836.202	4900
836.34	5140
836.478	5254
836.615	5098
836.753	5166
836.891	5220
837.029	5231
837.167	5239
837.305	5136
837.443	5075
837.58	5075
837.718	5265
837.856	5185
837.993	5124
838.131	5204
838.269	5235
838.406	5174
838.544	5128
838.681	5010
838.819	5041
838.956	4896
839.094	4904
839.231	5045
839.369	5086
839.506	5376
839.643	5246
839.781	5018
839.918	5037
840.055	5060
840.193	5102
840.33	5102
840.467	5128
840.604	5189
840.742	5429
840.879	5014
841.016	5075
841.153	5128
841.29	5349
841.427	5284
841.564	5292
841.701	5349
841.838	5258
841.975	5246
842.112	5246
842.249	5174
842.385	5132
842.522	5269
842.659	5189
842.796	5128
842.933	5178
843.069	5121
843.206	5147
843.343	5292
843.479	5235
843.616	5261
843.752	5006
843.889	5033
844.025	5181
844.162	5014
844.298	5220
844.435	5117
844.571	5018
844.708	5162
844.844	5269
844.98	5296
845.117	5288
845.253	5105
845.389	5075
845.525	5166
845.661	5105
845.798	4995
845.934	5132
846.07	5079
846.206	5185
846.342	5284
846.478	5170
846.614	5010
846.75	4980
846.886	4946
847.022	5140
847.158	5006
847.294	5048
847.429	5064
847.565	5067
847.701	5273
847.837	4873
847.972	4744
848.108	4961
848.244	4919
848.379	4736
848.515	4675
848.65	4714
848.786	4706
848.921	4763
849.057	4797
849.192	4828
849.328	4797
849.463	4873
849.598	4725
849.734	4714
849.869	4675
850.004	4607
850.14	4626
850.275	4580
850.41	4508
850.545	4527
850.68	4584
850.815	4596
850.95	4611
851.085	4835
851.22	4721
851.355	4672
851.49	4618
851.625	4687
851.76	4580
851.895	4550
852.03	4527
852.165	4634
852.299	4698
852.434	4793
852.569	4721
852.703	4778
852.838	4797
852.973	4900
853.107	4892
853.242	4748
853.376	4672
853.511	4527
853.645	4588
853.78	4816
853.914	4649
854.048	4668
854.183	4618
854.317	4653
854.451	4828
854.585	4675
854.72	4634
854.854	4725
854.988	4592
855.122	4599
855.256	4523
855.39	4660
855.524	4752
855.658	4717
855.792	4706
855.926	4679
856.06	4778
856.194	4759
856.327	4679
856.461	4584
856.595	4588
856.729	4607
856.862	4694
856.996	4691
857.13	4725
857.263	4733
857.397	4847
857.53	4641
857.664	4675
857.797	4744
857.931	4763
858.064	4653
858.197	4729
858.331	4615
858.464	4626
858.597	4527
858.731	4603
858.864	4630
858.997	4542
859.13	4637
859.263	4656
859.396	4641
859.529	4588
859.662	4538
859.795	4546
859.928	4615
860.061	4786
860.194	4771
860.327	4569
860.46	4489
860.592	4698
860.725	4694
860.858	4698
860.99	4542
861.123	4546
861.256	4504
861.388	4622
861.521	5121
861.653	4489
861.786	4470
861.918	4443
862.05	4535
862.183	4531
862.315	4550
862.447	4596
862.58	4588
862.712	4383
862.844	4360
862.976	4447
863.108	4424
863.24	4866
863.372	4253
863.504	4409
863.636	4386
863.768	4485
863.9	4451
864.032	4371
864.164	4375
864.296	4466
864.428	4538
864.559	4569
864.691	4481
864.823	4508
864.954	4500
865.086	4512
865.217	4436
865.349	4379
865.48	4455
865.612	4500
865.743	4607
865.875	4459
866.006	4440
866.137	4417
866.269	4459
866.4	4436
866.531	4394
866.662	4379
866.793	4375
866.924	4421
867.055	4470
867.186	4413
867.317	4428
867.448	4360
867.579	4386
867.71	4367
867.841	4356
867.972	4451
868.103	4451
868.233	4462
868.364	4409
868.495	4409
868.625	4672
868.756	4763
868.886	4542
869.017	4599
869.147	4744
869.278	4790
869.408	4611
869.539	4630
869.669	4710
869.799	4641
869.929	4729
870.06	4729
870.19	4919
870.32	4873
870.45	4949
870.58	4991
870.71	5045
870.84	5067
870.97	4949
871.1	4885
871.23	5132
871.36	5132
871.489	5010
871.619	5014
871.749	5113
871.879	5121
872.008	5170
872.138	5048
872.267	4976
872.397	4828
872.526	4774
872.656	4668
872.785	4774
872.915	4919
873.044	4999
873.173	4911
873.303	4961
873.432	4980
873.561	4976
873.69	4866
873.819	4816
873.948	4866
874.077	4835
874.206	4721
874.335	4774
874.464	4930
874.593	5029
874.722	4919
874.851	5117
874.979	5048
875.108	5045
875.237	4915
875.365	4866
875.494	4877
875.623	4938
875.751	4790
875.88	4904
876.008	4991
876.136	5014
876.265	5140
876.393	5368
876.521	5261
876.65	5208
876.778	5185
876.906	5041
877.034	4995
877.162	4953
877.29	5003
877.418	5010
877.546	5075
877.674	4991
877.802	4961
877.93	4984
878.058	4957
878.185	4850
878.313	4927
878.441	4927
878.568	4771
878.696	4850
878.824	4980
878.951	4999
879.079	5094
879.206	5269
879.333	5090
879.461	4949
879.588	5014
879.715	5121
879.842	5166
879.97	5045
880.097	4763
880.224	4717
880.351	4812
880.478	4816
880.605	4778
880.732	4763
880.859	5071
880.986	4862
881.112	4892
881.239	4782
881.366	4630
881.493	4599
881.619	4542
881.746	4622
881.872	4649
881.999	4653
882.125	4637
882.252	4824
882.378	4774
882.505	4900
882.631	4748
882.757	4645
882.883	4725
883.01	4714
883.136	4649
883.262	4607
883.388	4592
883.514	4809
883.64	4824
883.766	4812
883.892	4664
884.018	4691
884.143	4885
884.269	4976
884.395	4615
884.52	4603
884.646	4588
884.772	4558
884.897	4596
885.023	4706
885.148	4755
885.274	4816
885.399	4801
885.524	4702
885.65	4675
885.775	4755
885.9	4725
886.025	4835
886.15	4790
886.275	4672
886.4	4637
886.525	4702
886.65	4771
886.775	4634
886.9	4877
887.025	5029
887.149	4801
887.274	4664
887.399	4584
887.523	4611
887.648	4558
887.773	4599
887.897	4790
888.021	4748
888.146	4622
888.27	4771
888.395	4923
888.519	4797
888.643	4809
888.767	4866
888.891	4634
889.015	4550
889.139	4653
889.263	4565
889.387	4725
889.511	4885
889.635	4797
889.759	4641
889.883	4592
890.006	4698
890.13	4809
890.254	4584
890.377	4649
890.501	4531
890.624	4485
890.748	4630
890.871	4432
890.995	4386
891.118	4352
891.241	4478
891.364	4538
891.488	4653
891.611	4440
891.734	4538
891.857	4561
891.98	4535
892.103	4622
892.226	4580
892.349	4527
892.471	4352
892.594	4497
892.717	4554
892.839	4531
892.962	4618
893.085	4618
893.207	4512
893.33	4451
893.452	4546
893.575	4691
893.697	4542
893.819	4786
893.941	4828
894.064	4733
894.186	4535
894.308	4558
894.43	4683
894.552	4786
894.674	4752
894.796	4535
894.918	4561
895.04	4516
895.161	4672
895.283	4656
895.405	4550
895.526	4584
895.648	4691
895.769	4634
895.891	4672
896.012	4774
896.134	4714
896.255	4607
896.376	4611
896.498	4584
896.619	4675
896.74	4626
896.861	4641
896.982	4877
897.103	5022
897.224	4862
897.345	4714
897.466	4687
897.587	4733
897.708	4831
897.828	4752
897.949	4626
898.07	4580
898.19	4653
898.311	4816
898.431	4683
898.552	4721
898.672	4805
898.792	4755
898.913	4763
899.033	4729
899.153	4542
899.273	4436
899.393	4489
899.513	4523
899.633	4573
899.753	4603
899.873	4542
899.993	4565
900.113	4554
900.232	4615
900.352	4573
900.472	4516
900.591	4462
900.711	4523
900.83	4451
900.95	4637
901.069	4683
901.189	4538
901.308	4394
901.427	4337
901.546	4379
901.665	4497
901.784	4535
901.904	4356
902.023	4352
902.141	4257
902.26	4230
902.379	4341
902.498	4276
902.617	4265
902.735	4390
902.854	4455
902.973	4462
903.091	4234
903.21	4268
903.328	4341
903.446	4303
903.565	4276
903.683	4402
903.801	4352
903.919	4455
904.038	4440
904.156	4337
904.274	4470
904.392	4428
904.51	4459
904.627	4500
904.745	4580
904.863	4694
904.981	4440
905.098	4352
905.216	4402
905.334	4459
905.451	4440
905.569	4428
905.686	4615
905.803	4588
905.921	4447
906.038	4569
906.155	4546
906.272	4462
906.389	4455
906.506	4344
906.623	4394
906.74	4398
906.857	4295
906.974	4417
907.091	4577
907.208	4736
907.324	4626
907.441	4519
907.557	4379
907.674	4363
907.79	4367
907.907	4421
908.023	4470
908.139	4493
908.256	4413
908.372	4523
908.488	4474
908.604	4413
908.72	4367
908.836	4409
908.952	4432
909.068	4485
909.184	4637
909.3	4485
909.415	4603
909.531	4607
909.647	4337
909.762	4394
909.878	4367
909.993	4489
910.108	4432
910.224	4428
910.339	4516
910.454	4413
910.57	4367
910.685	4356
910.8	4710
910.915	4656
911.03	4519
911.145	4379
911.259	4394
911.374	4405
911.489	4356
911.604	4261
911.718	4215
911.833	4230
911.947	4093
912.062	4036
912.176	4234
912.291	4306
912.405	4295
912.519	4466
912.633	4504
912.748	4398
912.862	4322
912.976	4238
913.09	4116
913.204	4177
913.318	4242
913.431	4394
913.545	4402
913.659	4421
913.772	4360
913.886	4284
914	4261
914.113	4402
914.226	4493
914.34	4424
914.453	4280
914.566	4459
914.68	4375
914.793	4356
914.906	4139
915.019	4162
915.132	4128
915.245	4177
915.358	4268
915.47	4329
915.583	4303
915.696	4322
915.809	4451
915.921	4421
916.034	4306
916.146	4291
916.259	4234
916.371	4367
916.483	4318
916.595	4287
916.708	4303
916.82	4344
916.932	4341
917.044	4341
917.156	4333
917.268	4303
917.38	4306
917.491	4287
917.603	4367
917.715	4440
917.826	4516
917.938	4390
918.049	4287
918.161	4421
918.272	4550
918.384	4550
918.495	4462
918.606	4337
918.717	4234
918.828	4348
918.939	4417
919.05	4318
919.161	4291
919.272	4200
919.383	4287
919.494	4459
919.604	4675
919.715	4459
919.826	4417
919.936	4413
920.047	4519
920.157	4523
920.267	4717
920.378	4599
920.488	4542
920.598	4721
920.708	4923
920.818	4778
920.928	4778
921.038	4968
921.148	4934
921.258	4698
921.368	4569
921.477	4523
921.587	4519
921.697	4409
921.806	4573
921.916	4424
922.025	4318
922.134	4253
922.244	4249
922.353	4360
922.462	4223
922.571	4139
922.68	4017
922.789	3953
922.898	4086
923.007	4055
923.116	4097
923.224	4044
923.333	4093
923.442	3991
923.55	3987
923.659	4048
923.767	4135
923.876	4029
923.984	4131
924.092	4021
924.201	4112
924.309	4112
924.417	4150
924.525	4055
924.633	4131
924.741	4953
924.849	3941
924.956	4166
925.064	3960
925.172	3926
925.279	3975
925.387	4101
925.494	4051
925.602	4223
925.709	4215
925.816	4071
925.924	4135
926.031	4249
926.138	4192
926.245	4238
926.352	4086
926.459	4261
926.566	4405
926.673	4196
926.779	4093
926.886	4086
926.993	4029
927.099	4002
927.206	3941
927.312	3994
927.419	4071
927.525	4074
927.631	4109
927.737	3964
927.843	3998
927.95	3831
928.056	3983
928.162	4017
928.267	4109
928.373	4702
928.479	4135
928.585	3926
928.69	4048
928.796	4120
928.901	4017
929.007	3907
929.112	4002
929.218	4006
929.323	3953
929.428	3972
929.533	4120
929.638	3941
929.743	3972
929.848	4029
929.953	3975
930.058	3975
930.163	3812
930.267	3888
930.372	3991
930.477	3846
930.581	4120
930.685	4025
930.79	3865
930.894	3926
930.998	3865
931.103	4006
931.207	3724
931.311	3686
931.415	3720
931.519	3561
931.623	3561
