Data from test_V78500241_1387.txt Node
Date: Fri Mar 25 16:58:38 CST 2022
User: usil
Spectrometer: V785-0024
Trigger mode: 0
Integration Time (sec): 4.000000E-1
Scans to average: 1
Nonlinearity correction enabled: false
Boxcar width: 0
Storing dark spectrum: false
XAxis mode: Wavelengths
Number of Pixels in Spectrum: 1024
>>>>>Begin Spectral Data<<<<<
801.071	7989
801.214	7967
801.356	7887
801.499	7868
801.641	7795
801.783	7780
801.926	7917
802.068	7890
802.211	7906
802.353	7940
802.496	7803
802.638	7833
802.78	7906
802.923	7868
803.065	7803
803.208	7879
803.35	7925
803.492	8016
803.635	8081
803.777	8020
803.919	8138
804.061	8454
804.204	8221
804.346	8142
804.488	7947
804.63	8126
804.773	8031
804.915	8062
805.057	8229
805.199	8145
805.341	8279
805.483	8237
805.626	8237
805.768	8084
805.91	8218
806.052	8244
806.194	8081
806.336	8256
806.478	8039
806.62	8081
806.762	8134
806.904	8279
807.046	8427
807.188	8339
807.33	8218
807.472	8286
807.614	8176
807.756	8149
807.898	7940
808.04	7879
808.182	7951
808.324	7864
808.465	7913
808.607	8088
808.749	8096
808.891	8168
809.033	8221
809.174	8153
809.316	8073
809.458	8046
809.6	8001
809.741	8008
809.883	8035
810.025	8069
810.166	8027
810.308	7955
810.45	7967
810.591	7826
810.733	7769
810.875	7601
811.016	7571
811.158	7419
811.299	7582
811.441	7696
811.582	7639
811.724	7605
811.865	7525
812.007	7605
812.148	7586
812.29	7636
812.431	7761
812.573	7906
812.714	8016
812.855	8077
812.997	8115
813.138	8370
813.279	8199
813.421	8123
813.562	8035
813.703	7909
813.845	7811
813.986	7457
814.127	7259
814.268	7179
814.41	7175
814.551	7126
814.692	7183
814.833	7118
814.974	7141
815.115	7088
815.256	6935
815.397	6844
815.539	6939
815.68	6848
815.821	6814
815.962	6859
816.103	6844
816.244	6681
816.385	6631
816.526	6631
816.666	6498
816.807	6285
816.948	6410
817.089	6456
817.23	6433
817.371	6433
817.512	6418
817.653	6418
817.793	6407
817.934	6384
818.075	6475
818.216	6445
818.356	6395
818.497	6194
818.638	6064
818.778	6083
818.919	6106
819.06	6136
819.2	6342
819.341	6334
819.481	6376
819.622	6582
819.762	6726
819.903	6669
820.043	6620
820.184	6627
820.324	6570
820.465	6734
820.605	6650
820.746	6582
820.886	6494
821.026	6601
821.167	6684
821.307	6825
821.447	6738
821.588	6635
821.728	6513
821.868	6479
822.008	6277
822.149	6331
822.289	6388
822.429	6102
822.569	6053
822.709	6091
822.849	5916
822.99	5866
823.13	5969
823.27	5874
823.41	5783
823.55	5786
823.69	5710
823.83	5798
823.97	5615
824.11	5532
824.25	5501
824.389	5520
824.529	5634
824.669	5566
824.809	5615
824.949	5676
825.089	5638
825.228	5543
825.368	5410
825.508	5337
825.648	5284
825.787	5330
825.927	5334
826.067	5288
826.206	5273
826.346	5368
826.485	5372
826.625	5410
826.765	5520
826.904	5497
827.044	5258
827.183	5220
827.323	5155
827.462	5216
827.601	5193
827.741	5208
827.88	5197
828.02	5113
828.159	5227
828.298	5315
828.437	5337
828.577	5227
828.716	5463
828.855	5341
828.994	5113
829.134	5147
829.273	5159
829.412	5113
829.551	5113
829.69	5159
829.829	5227
829.968	5368
830.107	5258
830.246	5246
830.385	5201
830.524	5098
830.663	5022
830.802	4938
830.941	4904
831.08	4854
831.219	4968
831.357	4957
831.496	5121
831.635	4900
831.774	4831
831.913	4793
832.051	4687
832.19	4714
832.329	4885
832.467	4744
832.606	4649
832.744	4725
832.883	4675
833.022	4710
833.16	4767
833.299	4801
833.437	4790
833.576	4801
833.714	4797
833.852	4862
833.991	4850
834.129	4946
834.267	4942
834.406	4965
834.544	4934
834.682	4999
834.821	4911
834.959	5166
835.097	4984
835.235	5117
835.373	5064
835.511	5064
835.65	5060
835.788	5014
835.926	4900
836.064	4847
836.202	4980
836.34	5094
836.478	5227
836.615	5147
836.753	5201
836.891	5299
837.029	5261
837.167	5181
837.305	5162
837.443	5178
837.58	5102
837.718	5239
837.856	5151
837.993	5132
838.131	5189
838.269	5220
838.406	5159
838.544	5159
838.681	4991
838.819	4976
838.956	4870
839.094	4885
839.231	4968
839.369	5056
839.506	5402
839.643	5277
839.781	5052
839.918	5033
840.055	5071
840.193	5025
840.33	5105
840.467	5155
840.604	5178
840.742	5433
840.879	5086
841.016	5041
841.153	5159
841.29	5364
841.427	5315
841.564	5330
841.701	5379
841.838	5299
841.975	5212
842.112	5277
842.249	5143
842.385	5098
842.522	5269
842.659	5166
842.796	5124
842.933	5185
843.069	5155
843.206	5159
843.343	5284
843.479	5193
843.616	5246
843.752	5018
843.889	4995
844.025	5216
844.162	5025
844.298	5201
844.435	5079
844.571	5003
844.708	5166
844.844	5307
844.98	5360
845.117	5315
845.253	5155
845.389	5102
845.525	5124
845.661	5113
845.798	5033
845.934	5159
846.07	5048
846.206	5178
846.342	5231
846.478	5151
846.614	4976
846.75	4953
846.886	4942
847.022	5140
847.158	4987
847.294	5071
847.429	5071
847.565	5018
847.701	5265
847.837	4866
847.972	4790
848.108	4946
848.244	4949
848.379	4725
848.515	4714
848.65	4729
848.786	4725
848.921	4774
849.057	4847
849.192	4900
849.328	4809
849.463	4843
849.598	4850
849.734	4736
849.869	4660
850.004	4565
850.14	4622
850.275	4603
850.41	4447
850.545	4561
850.68	4615
850.815	4592
850.95	4607
851.085	4866
851.22	4729
851.355	4717
851.49	4622
851.625	4634
851.76	4599
851.895	4527
852.03	4523
852.165	4641
852.299	4721
852.434	4744
852.569	4714
852.703	4763
852.838	4805
852.973	4885
853.107	4866
853.242	4706
853.376	4660
853.511	4561
853.645	4618
853.78	4831
853.914	4675
854.048	4603
854.183	4664
854.317	4649
854.451	4873
854.585	4683
854.72	4660
854.854	4767
854.988	4584
855.122	4714
855.256	4493
855.39	4653
855.524	4748
855.658	4698
855.792	4660
855.926	4694
856.06	4736
856.194	4778
856.327	4664
856.461	4615
856.595	4573
856.729	4645
856.862	4702
856.996	4694
857.13	4729
857.263	4752
857.397	4816
857.53	4618
857.664	4721
857.797	4752
857.931	4763
858.064	4717
858.197	4736
858.331	4626
858.464	4596
858.597	4497
858.731	4630
858.864	4641
858.997	4592
859.13	4634
859.263	4672
859.396	4755
859.529	4596
859.662	4599
859.795	4615
859.928	4603
860.061	4824
860.194	4767
860.327	4596
860.46	4584
860.592	4656
860.725	4683
860.858	4717
860.99	4500
861.123	4535
861.256	4485
861.388	4607
861.521	5364
861.653	4500
861.786	4440
861.918	4459
862.05	4580
862.183	4573
862.315	4656
862.447	4618
862.58	4504
862.712	4360
862.844	4314
862.976	4535
863.108	4436
863.24	4831
863.372	4303
863.504	4405
863.636	4394
863.768	4459
863.9	4428
864.032	4322
864.164	4390
864.296	4447
864.428	4535
864.559	4516
864.691	4523
864.823	4550
864.954	4516
865.086	4508
865.217	4451
865.349	4424
865.48	4428
865.612	4447
865.743	4588
865.875	4474
866.006	4436
866.137	4436
866.269	4428
866.4	4421
866.531	4402
866.662	4402
866.793	4402
866.924	4386
867.055	4519
867.186	4432
867.317	4436
867.448	4405
867.579	4363
867.71	4413
867.841	4329
867.972	4470
868.103	4474
868.233	4428
868.364	4424
868.495	4493
868.625	4645
868.756	4729
868.886	4527
869.017	4653
869.147	4714
869.278	4733
869.408	4679
869.539	4615
869.669	4725
869.799	4668
869.929	4710
870.06	4744
870.19	4942
870.32	4892
870.45	4946
870.58	4972
870.71	5121
870.84	5003
870.97	4927
871.1	4862
871.23	5155
871.36	5083
871.489	4995
871.619	5075
871.749	5090
871.879	5083
872.008	5193
872.138	5037
872.267	4999
872.397	4850
872.526	4790
872.656	4687
872.785	4824
872.915	4938
873.044	5022
873.173	4946
873.303	4957
873.432	4927
873.561	4938
873.69	4904
873.819	4858
873.948	4858
874.077	4824
874.206	4668
874.335	4763
874.464	4911
874.593	5033
874.722	4980
874.851	5121
874.979	5029
875.108	5010
875.237	4877
875.365	4881
875.494	4896
875.623	4934
875.751	4824
875.88	4828
876.008	4953
876.136	4999
876.265	5181
876.393	5337
876.521	5246
876.65	5250
876.778	5181
876.906	5098
877.034	5025
877.162	4999
877.29	4968
877.418	5121
877.546	4995
877.674	5048
877.802	5014
877.93	4995
878.058	4904
878.185	4854
878.313	4908
878.441	4911
878.568	4790
878.696	4805
878.824	4949
878.951	4987
879.079	5147
879.206	5265
879.333	5090
879.461	4953
879.588	4972
879.715	5117
879.842	5193
879.97	5018
880.097	4839
880.224	4694
880.351	4824
880.478	4801
880.605	4816
880.732	4771
880.859	5045
880.986	4870
881.112	4911
881.239	4805
881.366	4679
881.493	4588
881.619	4603
881.746	4656
881.872	4637
881.999	4641
882.125	4675
882.252	4767
882.378	4778
882.505	4953
882.631	4771
882.757	4645
882.883	4675
883.01	4698
883.136	4653
883.262	4592
883.388	4592
883.514	4847
883.64	4877
883.766	4767
883.892	4592
884.018	4679
884.143	4866
884.269	4991
884.395	4637
884.52	4675
884.646	4618
884.772	4584
884.897	4573
885.023	4672
885.148	4774
885.274	4862
885.399	4797
885.524	4744
885.65	4660
885.775	4748
885.9	4744
886.025	4812
886.15	4778
886.275	4694
886.4	4607
886.525	4721
886.65	4691
886.775	4740
886.9	4915
887.025	5029
887.149	4847
887.274	4634
887.399	4596
887.523	4630
887.648	4565
887.773	4550
887.897	4702
888.021	4774
888.146	4645
888.27	4809
888.395	4892
888.519	4786
888.643	4847
888.767	4828
888.891	4672
889.015	4599
889.139	4641
889.263	4546
889.387	4755
889.511	4786
889.635	4786
889.759	4668
889.883	4641
890.006	4687
890.13	4847
890.254	4580
890.377	4660
890.501	4489
890.624	4542
890.748	4645
890.871	4451
890.995	4432
891.118	4375
891.241	4489
891.364	4554
891.488	4626
891.611	4497
891.734	4565
891.857	4611
891.98	4596
892.103	4653
892.226	4580
892.349	4523
892.471	4405
892.594	4538
892.717	4592
892.839	4546
892.962	4607
893.085	4672
893.207	4603
893.33	4440
893.452	4561
893.575	4691
893.697	4607
893.819	4797
893.941	4820
894.064	4774
894.186	4584
894.308	4542
894.43	4729
894.552	4801
894.674	4721
894.796	4531
894.918	4584
895.04	4558
895.161	4752
895.283	4603
895.405	4603
895.526	4649
895.648	4725
895.769	4698
895.891	4725
896.012	4725
896.134	4702
896.255	4660
896.376	4694
896.498	4615
896.619	4725
896.74	4584
896.861	4645
896.982	4885
897.103	5071
897.224	4858
897.345	4710
897.466	4683
897.587	4729
897.708	4881
897.828	4763
897.949	4653
898.07	4546
898.19	4626
898.311	4786
898.431	4672
898.552	4714
898.672	4774
898.792	4771
898.913	4752
899.033	4592
899.153	4512
899.273	4462
899.393	4474
899.513	4523
899.633	4565
899.753	4554
899.873	4508
899.993	4596
900.113	4527
900.232	4611
900.352	4504
900.472	4485
900.591	4436
900.711	4447
900.83	4459
900.95	4588
901.069	4645
901.189	4546
901.308	4390
901.427	4325
901.546	4341
901.665	4493
901.784	4523
901.904	4367
902.023	4367
902.141	4192
902.26	4196
902.379	4280
902.498	4246
902.617	4204
902.735	4329
902.854	4394
902.973	4341
903.091	4185
903.21	4276
903.328	4333
903.446	4265
903.565	4211
903.683	4367
903.801	4276
903.919	4409
904.038	4402
904.156	4299
904.274	4443
904.392	4394
904.51	4390
904.627	4462
904.745	4577
904.863	4653
904.981	4383
905.098	4280
905.216	4405
905.334	4390
905.451	4409
905.569	4447
905.686	4535
905.803	4531
905.921	4394
906.038	4577
906.155	4466
906.272	4371
906.389	4413
906.506	4367
906.623	4360
906.74	4333
906.857	4325
906.974	4367
907.091	4466
907.208	4634
907.324	4645
907.441	4512
907.557	4337
907.674	4341
907.79	4295
907.907	4409
908.023	4466
908.139	4451
908.256	4417
908.372	4459
908.488	4451
908.604	4356
908.72	4314
908.836	4375
908.952	4318
909.068	4432
909.184	4596
909.3	4447
909.415	4542
909.531	4497
909.647	4360
909.762	4371
909.878	4348
909.993	4459
910.108	4398
910.224	4405
910.339	4512
910.454	4398
910.57	4329
910.685	4310
910.8	4653
910.915	4584
911.03	4478
911.145	4352
911.259	4268
911.374	4318
911.489	4284
911.604	4295
911.718	4173
911.833	4177
911.947	4063
912.062	4002
912.176	4181
912.291	4257
912.405	4219
912.519	4470
912.633	4519
912.748	4363
912.862	4268
912.976	4207
913.09	4067
913.204	4147
913.318	4268
913.431	4371
913.545	4356
913.659	4428
913.772	4360
913.886	4265
914	4204
914.113	4386
914.226	4428
914.34	4333
914.453	4249
914.566	4421
914.68	4299
914.793	4329
914.906	4120
915.019	4086
915.132	4078
915.245	4173
915.358	4173
915.47	4227
915.583	4291
915.696	4318
915.809	4466
915.921	4402
916.034	4249
916.146	4230
916.259	4299
916.371	4348
916.483	4344
916.595	4276
916.708	4337
916.82	4344
916.932	4375
917.044	4306
917.156	4329
917.268	4242
917.38	4272
917.491	4287
917.603	4306
917.715	4432
917.826	4421
917.938	4356
918.049	4242
918.161	4390
918.272	4554
918.384	4546
918.495	4428
918.606	4291
918.717	4219
918.828	4310
918.939	4363
919.05	4261
919.161	4303
919.272	4105
919.383	4257
919.494	4459
919.604	4634
919.715	4428
919.826	4318
919.936	4375
920.047	4516
920.157	4470
920.267	4672
920.378	4535
920.488	4508
920.598	4733
920.708	4850
920.818	4729
920.928	4786
921.038	4965
921.148	4923
921.258	4660
921.368	4546
921.477	4489
921.587	4451
921.697	4360
921.806	4527
921.916	4432
922.025	4303
922.134	4246
922.244	4253
922.353	4371
922.462	4181
922.571	4112
922.68	3960
922.789	3960
922.898	4036
923.007	3956
923.116	4044
923.224	4036
923.333	4044
923.442	4021
923.55	3953
923.659	4002
923.767	4097
923.876	3987
923.984	4105
924.092	3975
924.201	4093
924.309	4078
924.417	4105
924.525	4044
924.633	4086
924.741	5018
924.849	3949
924.956	4139
925.064	3956
925.172	3892
925.279	3934
925.387	4036
925.494	4082
925.602	4204
925.709	4150
925.816	4021
925.924	4105
926.031	4177
926.138	4150
926.245	4200
926.352	4082
926.459	4253
926.566	4337
926.673	4181
926.779	4112
926.886	4055
926.993	3960
927.099	3964
927.206	3960
927.312	3899
927.419	4051
927.525	4025
927.631	4074
927.737	3956
927.843	3941
927.95	3819
928.056	3991
928.162	4017
928.267	4029
928.373	4683
928.479	4120
928.585	3861
928.69	4055
928.796	4082
928.901	3953
929.007	3873
929.112	3949
929.218	3987
929.323	3911
929.428	3964
929.533	4067
929.638	3911
929.743	3983
929.848	4048
929.953	4013
930.058	3896
930.163	3770
930.267	3823
930.372	3956
930.477	3838
930.581	4120
930.685	3960
930.79	3850
930.894	3846
930.998	3892
931.103	4051
931.207	3709
931.311	3682
931.415	3660
931.519	3488
931.623	3530
