Data from test_V78500241_1051.txt Node
Date: Fri Mar 25 16:56:18 CST 2022
User: usil
Spectrometer: V785-0024
Trigger mode: 0
Integration Time (sec): 4.000000E-1
Scans to average: 1
Nonlinearity correction enabled: false
Boxcar width: 0
Storing dark spectrum: false
XAxis mode: Wavelengths
Number of Pixels in Spectrum: 1024
>>>>>Begin Spectral Data<<<<<
801.071	8027
801.214	8035
801.356	7871
801.499	7864
801.641	7712
801.783	7822
801.926	7902
802.068	7963
802.211	7909
802.353	7951
802.496	7837
802.638	7818
802.78	7890
802.923	7921
803.065	7989
803.208	7898
803.35	7959
803.492	8157
803.635	8039
803.777	8008
803.919	8142
804.061	8480
804.204	8111
804.346	8005
804.488	7989
804.63	8081
804.773	8012
804.915	8107
805.057	8320
805.199	8142
805.341	8214
805.483	8267
805.626	8191
805.768	8138
805.91	8183
806.052	8172
806.194	8081
806.336	8309
806.478	8065
806.62	8031
806.762	8115
806.904	8259
807.046	8423
807.188	8317
807.33	8206
807.472	8298
807.614	8123
807.756	8058
807.898	8027
808.04	7909
808.182	7932
808.324	7909
808.465	7849
808.607	7978
808.749	8138
808.891	8282
809.033	8256
809.174	8161
809.316	8130
809.458	8020
809.6	7906
809.741	8054
809.883	7997
810.025	8069
810.166	8035
810.308	7963
810.45	7936
810.591	7894
810.733	7738
810.875	7647
811.016	7502
811.158	7464
811.299	7582
811.441	7670
811.582	7662
811.724	7552
811.865	7540
812.007	7628
812.148	7571
812.29	7624
812.431	7753
812.573	7856
812.714	7951
812.855	8119
812.997	8153
813.138	8267
813.279	8164
813.421	8088
813.562	7982
813.703	7890
813.845	7746
813.986	7407
814.127	7251
814.268	7213
814.41	7202
814.551	7122
814.692	7088
814.833	7053
814.974	7110
815.115	7046
815.256	6996
815.397	6954
815.539	6928
815.68	6787
815.821	6757
815.962	6810
816.103	6806
816.244	6753
816.385	6650
816.526	6650
816.666	6471
816.807	6327
816.948	6410
817.089	6475
817.23	6452
817.371	6327
817.512	6372
817.653	6464
817.793	6388
817.934	6338
818.075	6464
818.216	6403
818.356	6403
818.497	6243
818.638	6159
818.778	6117
818.919	6095
819.06	6136
819.2	6331
819.341	6331
819.481	6338
819.622	6513
819.762	6703
819.903	6669
820.043	6597
820.184	6589
820.324	6559
820.465	6608
820.605	6738
820.746	6578
820.886	6464
821.026	6642
821.167	6745
821.307	6768
821.447	6768
821.588	6646
821.728	6593
821.868	6483
822.008	6281
822.149	6422
822.289	6315
822.429	6190
822.569	6121
822.709	6110
822.849	5927
822.99	5920
823.13	5942
823.27	5920
823.41	5760
823.55	5752
823.69	5775
823.83	5771
823.97	5729
824.11	5516
824.25	5501
824.389	5520
824.529	5592
824.669	5524
824.809	5596
824.949	5615
825.089	5600
825.228	5589
825.368	5368
825.508	5315
825.648	5296
825.787	5307
825.927	5364
826.067	5296
826.206	5277
826.346	5391
826.485	5345
826.625	5395
826.765	5551
826.904	5467
827.044	5197
827.183	5231
827.323	5083
827.462	5296
827.601	5155
827.741	5185
827.88	5212
828.02	5067
828.159	5258
828.298	5250
828.437	5410
828.577	5189
828.716	5490
828.855	5299
828.994	5117
829.134	5117
829.273	5162
829.412	5178
829.551	5098
829.69	5143
829.829	5254
829.968	5383
830.107	5269
830.246	5254
830.385	5204
830.524	5159
830.663	5075
830.802	4957
830.941	4911
831.08	4892
831.219	4953
831.357	4968
831.496	5151
831.635	4919
831.774	4835
831.913	4889
832.051	4702
832.19	4733
832.329	4809
832.467	4637
832.606	4637
832.744	4717
832.883	4706
833.022	4717
833.16	4797
833.299	4767
833.437	4828
833.576	4850
833.714	4854
833.852	4850
833.991	4866
834.129	5006
834.267	4946
834.406	4904
834.544	4984
834.682	4995
834.821	4942
834.959	5075
835.097	4965
835.235	5159
835.373	5022
835.511	5178
835.65	5045
835.788	4995
835.926	4892
836.064	4896
836.202	4896
836.34	5170
836.478	5181
836.615	5121
836.753	5280
836.891	5242
837.029	5185
837.167	5178
837.305	5155
837.443	5121
837.58	5052
837.718	5197
837.856	5181
837.993	5113
838.131	5242
838.269	5162
838.406	5220
838.544	5201
838.681	5018
838.819	4972
838.956	4911
839.094	4904
839.231	5003
839.369	5083
839.506	5452
839.643	5284
839.781	5079
839.918	5037
840.055	5086
840.193	5098
840.33	5090
840.467	5132
840.604	5178
840.742	5410
840.879	5090
841.016	5113
841.153	5201
841.29	5364
841.427	5353
841.564	5288
841.701	5379
841.838	5239
841.975	5227
842.112	5258
842.249	5136
842.385	5086
842.522	5265
842.659	5132
842.796	5075
842.933	5151
843.069	5105
843.206	5178
843.343	5273
843.479	5162
843.616	5204
843.752	4995
843.889	4995
844.025	5204
844.162	4961
844.298	5254
844.435	5048
844.571	5018
844.708	5212
844.844	5258
844.98	5311
845.117	5273
845.253	5075
845.389	5117
845.525	5166
845.661	5098
845.798	4976
845.934	5128
846.07	5010
846.206	5220
846.342	5227
846.478	5204
846.614	4995
846.75	4946
846.886	4934
847.022	5090
847.158	5006
847.294	5064
847.429	5064
847.565	5003
847.701	5284
847.837	4828
847.972	4824
848.108	4938
848.244	4927
848.379	4733
848.515	4694
848.65	4649
848.786	4748
848.921	4824
849.057	4850
849.192	4900
849.328	4782
849.463	4812
849.598	4797
849.734	4748
849.869	4634
850.004	4561
850.14	4687
850.275	4580
850.41	4493
850.545	4577
850.68	4573
850.815	4577
850.95	4615
851.085	4881
851.22	4744
851.355	4637
851.49	4641
851.625	4672
851.76	4626
851.895	4546
852.03	4550
852.165	4641
852.299	4698
852.434	4763
852.569	4694
852.703	4740
852.838	4870
852.973	4934
853.107	4968
853.242	4736
853.376	4656
853.511	4535
853.645	4622
853.78	4786
853.914	4687
854.048	4683
854.183	4611
854.317	4630
854.451	4854
854.585	4664
854.72	4599
854.854	4714
854.988	4611
855.122	4630
855.256	4519
855.39	4691
855.524	4740
855.658	4683
855.792	4717
855.926	4729
856.06	4721
856.194	4778
856.327	4672
856.461	4603
856.595	4577
856.729	4630
856.862	4744
856.996	4698
857.13	4675
857.263	4729
857.397	4771
857.53	4656
857.664	4645
857.797	4736
857.931	4755
858.064	4672
858.197	4717
858.331	4664
858.464	4584
858.597	4497
858.731	4637
858.864	4603
858.997	4577
859.13	4672
859.263	4691
859.396	4683
859.529	4596
859.662	4554
859.795	4527
859.928	4656
860.061	4721
860.194	4778
860.327	4611
860.46	4569
860.592	4714
860.725	4660
860.858	4706
860.99	4580
861.123	4519
861.256	4538
861.388	4607
861.521	5303
861.653	4481
861.786	4428
861.918	4470
862.05	4512
862.183	4550
862.315	4554
862.447	4630
862.58	4538
862.712	4383
862.844	4299
862.976	4440
863.108	4428
863.24	4870
863.372	4295
863.504	4367
863.636	4398
863.768	4462
863.9	4443
864.032	4348
864.164	4402
864.296	4447
864.428	4527
864.559	4519
864.691	4508
864.823	4523
864.954	4489
865.086	4466
865.217	4455
865.349	4443
865.48	4424
865.612	4459
865.743	4615
865.875	4516
866.006	4413
866.137	4462
866.269	4440
866.4	4455
866.531	4424
866.662	4344
866.793	4409
866.924	4440
867.055	4466
867.186	4440
867.317	4447
867.448	4383
867.579	4402
867.71	4379
867.841	4356
867.972	4447
868.103	4428
868.233	4447
868.364	4417
868.495	4421
868.625	4615
868.756	4752
868.886	4592
869.017	4527
869.147	4786
869.278	4790
869.408	4618
869.539	4607
869.669	4645
869.799	4668
869.929	4706
870.06	4698
870.19	4900
870.32	4896
870.45	4881
870.58	5006
870.71	5048
870.84	5113
870.97	4927
871.1	4892
871.23	5083
871.36	5094
871.489	4991
871.619	5083
871.749	5162
871.879	5136
872.008	5121
872.138	5071
872.267	5010
872.397	4854
872.526	4782
872.656	4691
872.785	4809
872.915	4972
873.044	4987
873.173	4965
873.303	4965
873.432	4972
873.561	4915
873.69	4839
873.819	4850
873.948	4908
874.077	4812
874.206	4721
874.335	4763
874.464	4885
874.593	5045
874.722	4927
874.851	5102
874.979	5037
875.108	5060
875.237	4908
875.365	4854
875.494	4927
875.623	4976
875.751	4831
875.88	4862
876.008	4968
876.136	4999
876.265	5155
876.393	5318
876.521	5223
876.65	5239
876.778	5124
876.906	5052
877.034	5029
877.162	5056
877.29	4972
877.418	5060
877.546	4984
877.674	5075
877.802	5033
877.93	4991
878.058	4915
878.185	4843
878.313	4968
878.441	4972
878.568	4816
878.696	4904
878.824	4919
878.951	4995
879.079	5117
879.206	5280
879.333	5102
879.461	4961
879.588	4949
879.715	5140
879.842	5220
879.97	4995
880.097	4782
880.224	4736
880.351	4774
880.478	4790
880.605	4782
880.732	4740
880.859	5090
880.986	4881
881.112	4911
881.239	4771
881.366	4687
881.493	4580
881.619	4599
881.746	4622
881.872	4573
881.999	4660
882.125	4691
882.252	4828
882.378	4816
882.505	4927
882.631	4763
882.757	4637
882.883	4725
883.01	4664
883.136	4683
883.262	4615
883.388	4656
883.514	4805
883.64	4873
883.766	4744
883.892	4637
884.018	4672
884.143	4831
884.269	4987
884.395	4653
884.52	4626
884.646	4641
884.772	4603
884.897	4569
885.023	4622
885.148	4786
885.274	4911
885.399	4782
885.524	4672
885.65	4679
885.775	4774
885.9	4721
886.025	4877
886.15	4740
886.275	4725
886.4	4649
886.525	4706
886.65	4702
886.775	4714
886.9	4896
887.025	5006
887.149	4763
887.274	4645
887.399	4580
887.523	4569
887.648	4565
887.773	4588
887.897	4721
888.021	4755
888.146	4679
888.27	4805
888.395	4854
888.519	4839
888.643	4801
888.767	4812
888.891	4649
889.015	4565
889.139	4634
889.263	4558
889.387	4755
889.511	4828
889.635	4782
889.759	4656
889.883	4645
890.006	4710
890.13	4816
890.254	4538
890.377	4683
890.501	4561
890.624	4516
890.748	4603
890.871	4527
890.995	4371
891.118	4379
891.241	4481
891.364	4546
891.488	4668
891.611	4508
891.734	4508
891.857	4569
891.98	4546
892.103	4668
892.226	4592
892.349	4531
892.471	4375
892.594	4531
892.717	4577
892.839	4577
892.962	4649
893.085	4641
893.207	4626
893.33	4466
893.452	4535
893.575	4672
893.697	4565
893.819	4801
893.941	4771
894.064	4805
894.186	4542
894.308	4565
894.43	4733
894.552	4786
894.674	4725
894.796	4538
894.918	4569
895.04	4565
895.161	4714
895.283	4645
895.405	4577
895.526	4656
895.648	4698
895.769	4668
895.891	4740
896.012	4729
896.134	4683
896.255	4641
896.376	4637
896.498	4580
896.619	4649
896.74	4641
896.861	4653
896.982	4877
897.103	5056
897.224	4809
897.345	4763
897.466	4611
897.587	4744
897.708	4809
897.828	4698
897.949	4679
898.07	4546
898.19	4649
898.311	4839
898.431	4706
898.552	4664
898.672	4797
898.792	4767
898.913	4706
899.033	4618
899.153	4500
899.273	4386
899.393	4474
899.513	4550
899.633	4478
899.753	4531
899.873	4508
899.993	4531
900.113	4523
900.232	4550
900.352	4584
900.472	4516
900.591	4398
900.711	4489
900.83	4379
900.95	4615
901.069	4626
901.189	4538
901.308	4394
901.427	4318
901.546	4363
901.665	4474
901.784	4508
901.904	4421
902.023	4314
902.141	4177
902.26	4131
902.379	4310
902.498	4211
902.617	4204
902.735	4344
902.854	4386
902.973	4314
903.091	4192
903.21	4223
903.328	4265
903.446	4238
903.565	4230
903.683	4375
903.801	4249
903.919	4386
904.038	4474
904.156	4303
904.274	4440
904.392	4398
904.51	4424
904.627	4451
904.745	4565
904.863	4618
904.981	4333
905.098	4348
905.216	4341
905.334	4409
905.451	4455
905.569	4402
905.686	4569
905.803	4561
905.921	4417
906.038	4573
906.155	4455
906.272	4440
906.389	4455
906.506	4352
906.623	4344
906.74	4409
906.857	4261
906.974	4390
907.091	4512
907.208	4645
907.324	4573
907.441	4470
907.557	4356
907.674	4379
907.79	4310
907.907	4402
908.023	4504
908.139	4436
908.256	4390
908.372	4466
908.488	4432
908.604	4329
908.72	4265
908.836	4352
908.952	4356
909.068	4443
909.184	4500
909.3	4459
909.415	4588
909.531	4535
909.647	4325
909.762	4352
909.878	4341
909.993	4409
910.108	4413
910.224	4424
910.339	4489
910.454	4402
910.57	4344
910.685	4306
910.8	4626
910.915	4565
911.03	4493
911.145	4329
911.259	4360
911.374	4402
911.489	4337
911.604	4265
911.718	4196
911.833	4158
911.947	4040
912.062	4036
912.176	4227
912.291	4223
912.405	4234
912.519	4470
912.633	4459
912.748	4383
912.862	4344
912.976	4196
913.09	4067
913.204	4192
913.318	4249
913.431	4352
913.545	4299
913.659	4421
913.772	4375
913.886	4249
914	4215
914.113	4371
914.226	4451
914.34	4386
914.453	4211
914.566	4466
914.68	4322
914.793	4356
914.906	4207
915.019	4131
915.132	4067
915.245	4154
915.358	4238
915.47	4185
915.583	4234
915.696	4291
915.809	4424
915.921	4405
916.034	4242
916.146	4249
916.259	4200
916.371	4356
916.483	4337
916.595	4272
916.708	4291
916.82	4310
916.932	4295
917.044	4303
917.156	4386
917.268	4257
917.38	4249
917.491	4276
917.603	4348
917.715	4413
917.826	4417
917.938	4291
918.049	4223
918.161	4367
918.272	4542
918.384	4538
918.495	4424
918.606	4261
918.717	4188
918.828	4299
918.939	4348
919.05	4291
919.161	4310
919.272	4128
919.383	4230
919.494	4375
919.604	4622
919.715	4421
919.826	4390
919.936	4409
920.047	4497
920.157	4493
920.267	4687
920.378	4542
920.488	4481
920.598	4672
920.708	4881
920.818	4752
920.928	4752
921.038	4953
921.148	4900
921.258	4626
921.368	4550
921.477	4508
921.587	4436
921.697	4363
921.806	4497
921.916	4470
922.025	4299
922.134	4291
922.244	4238
922.353	4318
922.462	4169
922.571	4112
922.68	4044
922.789	3926
922.898	4017
923.007	3979
923.116	4109
923.224	4036
923.333	4063
923.442	3960
923.55	3979
923.659	4048
923.767	4086
923.876	3998
923.984	4082
924.092	3987
924.201	4074
924.309	4048
924.417	4101
924.525	4013
924.633	4082
924.741	5045
924.849	3907
924.956	4120
925.064	3949
925.172	3896
925.279	3937
925.387	4063
925.494	4029
925.602	4223
925.709	4128
925.816	4010
925.924	4109
926.031	4219
926.138	4196
926.245	4204
926.352	4071
926.459	4234
926.566	4306
926.673	4116
926.779	4112
926.886	4044
926.993	3953
927.099	3991
927.206	3960
927.312	3934
927.419	4082
927.525	4051
927.631	4093
927.737	3972
927.843	3926
927.95	3846
928.056	3956
928.162	3994
928.267	4059
928.373	4622
928.479	4090
928.585	3865
928.69	3998
928.796	4067
928.901	3964
929.007	3873
929.112	4017
929.218	3979
929.323	3892
929.428	3960
929.533	4135
929.638	3899
929.743	3926
929.848	4059
929.953	3960
930.058	3903
930.163	3793
930.267	3838
930.372	4002
930.477	3793
930.581	4067
930.685	3922
930.79	3804
930.894	3892
930.998	3823
931.103	4006
931.207	3705
931.311	3671
931.415	3637
931.519	3511
931.623	3526
