Data from test_V78500241_2034.txt Node
Date: Fri Mar 25 17:03:08 CST 2022
User: usil
Spectrometer: V785-0024
Trigger mode: 0
Integration Time (sec): 4.000000E-1
Scans to average: 1
Nonlinearity correction enabled: false
Boxcar width: 0
Storing dark spectrum: false
XAxis mode: Wavelengths
Number of Pixels in Spectrum: 1024
>>>>>Begin Spectral Data<<<<<
801.071	7951
801.214	7997
801.356	7868
801.499	7803
801.641	7811
801.783	7833
801.926	7978
802.068	7925
802.211	8005
802.353	7959
802.496	7871
802.638	7833
802.78	7951
802.923	7849
803.065	7757
803.208	7784
803.35	7959
803.492	8103
803.635	8172
803.777	8001
803.919	8107
804.061	8457
804.204	8126
804.346	8039
804.488	7959
804.63	8092
804.773	7951
804.915	8119
805.057	8320
805.199	8103
805.341	8237
805.483	8259
805.626	8199
805.768	8168
805.91	8210
806.052	8199
806.194	8168
806.336	8271
806.478	8115
806.62	8058
806.762	8138
806.904	8313
807.046	8484
807.188	8317
807.33	8377
807.472	8324
807.614	8218
807.756	8123
807.898	8031
808.04	7944
808.182	7921
808.324	7951
808.465	7879
808.607	8088
808.749	8062
808.891	8172
809.033	8320
809.174	8240
809.316	8077
809.458	8065
809.6	7993
809.741	8073
809.883	8027
810.025	8050
810.166	8039
810.308	8035
810.45	8027
810.591	7898
810.733	7788
810.875	7616
811.016	7544
811.158	7460
811.299	7556
811.441	7674
811.582	7693
811.724	7514
811.865	7540
812.007	7594
812.148	7514
812.29	7620
812.431	7769
812.573	7879
812.714	7944
812.855	8073
812.997	8168
813.138	8298
813.279	8134
813.421	7955
813.562	7936
813.703	7795
813.845	7731
813.986	7445
814.127	7282
814.268	7297
814.41	7236
814.551	7183
814.692	7179
814.833	7084
814.974	7084
815.115	7152
815.256	7023
815.397	6920
815.539	6954
815.68	6802
815.821	6684
815.962	6863
816.103	6821
816.244	6669
816.385	6601
816.526	6559
816.666	6445
816.807	6342
816.948	6384
817.089	6429
817.23	6384
817.371	6350
817.512	6346
817.653	6357
817.793	6361
817.934	6418
818.075	6441
818.216	6441
818.356	6441
818.497	6232
818.638	6171
818.778	6235
818.919	6144
819.06	6194
819.2	6285
819.341	6315
819.481	6327
819.622	6536
819.762	6730
819.903	6696
820.043	6578
820.184	6601
820.324	6555
820.465	6692
820.605	6669
820.746	6616
820.886	6502
821.026	6635
821.167	6700
821.307	6719
821.447	6757
821.588	6684
821.728	6601
821.868	6494
822.008	6342
822.149	6357
822.289	6319
822.429	6140
822.569	6083
822.709	6163
822.849	5912
822.99	5908
823.13	5885
823.27	5935
823.41	5767
823.55	5809
823.69	5726
823.83	5764
823.97	5691
824.11	5528
824.25	5509
824.389	5528
824.529	5585
824.669	5516
824.809	5592
824.949	5646
825.089	5638
825.228	5551
825.368	5387
825.508	5334
825.648	5311
825.787	5387
825.927	5288
826.067	5311
826.206	5307
826.346	5368
826.485	5417
826.625	5376
826.765	5562
826.904	5452
827.044	5261
827.183	5197
827.323	5124
827.462	5254
827.601	5151
827.741	5178
827.88	5208
828.02	5071
828.159	5181
828.298	5277
828.437	5330
828.577	5299
828.716	5398
828.855	5330
828.994	5174
829.134	5140
829.273	5239
829.412	5140
829.551	5109
829.69	5147
829.829	5220
829.968	5353
830.107	5273
830.246	5311
830.385	5128
830.524	5132
830.663	5128
830.802	4987
830.941	4892
831.08	4858
831.219	4976
831.357	4972
831.496	5140
831.635	4930
831.774	4820
831.913	4809
832.051	4721
832.19	4710
832.329	4858
832.467	4683
832.606	4630
832.744	4706
832.883	4725
833.022	4740
833.16	4786
833.299	4847
833.437	4831
833.576	4828
833.714	4881
833.852	4885
833.991	4908
834.129	4919
834.267	4953
834.406	4847
834.544	4972
834.682	4984
834.821	4987
834.959	5189
835.097	4991
835.235	5181
835.373	5071
835.511	5094
835.65	5003
835.788	5041
835.926	4828
836.064	4900
836.202	4927
836.34	5159
836.478	5174
836.615	5098
836.753	5155
836.891	5334
837.029	5204
837.167	5220
837.305	5147
837.443	5086
837.58	5090
837.718	5246
837.856	5201
837.993	5113
838.131	5242
838.269	5170
838.406	5208
838.544	5151
838.681	5045
838.819	5018
838.956	4828
839.094	4877
839.231	4965
839.369	5090
839.506	5318
839.643	5258
839.781	5060
839.918	5056
840.055	5102
840.193	5071
840.33	5086
840.467	5075
840.604	5174
840.742	5493
840.879	5079
841.016	5067
841.153	5121
841.29	5318
841.427	5269
841.564	5280
841.701	5383
841.838	5258
841.975	5208
842.112	5220
842.249	5170
842.385	5124
842.522	5326
842.659	5151
842.796	5121
842.933	5208
843.069	5132
843.206	5136
843.343	5303
843.479	5216
843.616	5280
843.752	5010
843.889	4999
844.025	5242
844.162	5056
844.298	5204
844.435	5090
844.571	5006
844.708	5216
844.844	5311
844.98	5315
845.117	5246
845.253	5105
845.389	5045
845.525	5185
845.661	5136
845.798	5029
845.934	5128
846.07	5094
846.206	5204
846.342	5296
846.478	5159
846.614	5037
846.75	4968
846.886	4927
847.022	5105
847.158	4999
847.294	5033
847.429	5079
847.565	5006
847.701	5311
847.837	4885
847.972	4797
848.108	4984
848.244	4911
848.379	4782
848.515	4721
848.65	4683
848.786	4744
848.921	4717
849.057	4839
849.192	4915
849.328	4824
849.463	4885
849.598	4797
849.734	4744
849.869	4702
850.004	4645
850.14	4710
850.275	4588
850.41	4550
850.545	4569
850.68	4622
850.815	4588
850.95	4607
851.085	4885
851.22	4714
851.355	4672
851.49	4596
851.625	4592
851.76	4618
851.895	4569
852.03	4523
852.165	4653
852.299	4679
852.434	4759
852.569	4744
852.703	4809
852.838	4828
852.973	4896
853.107	4866
853.242	4717
853.376	4679
853.511	4516
853.645	4645
853.78	4744
853.914	4679
854.048	4668
854.183	4664
854.317	4691
854.451	4835
854.585	4675
854.72	4645
854.854	4752
854.988	4599
855.122	4622
855.256	4546
855.39	4637
855.524	4733
855.658	4725
855.792	4717
855.926	4767
856.06	4717
856.194	4797
856.327	4672
856.461	4607
856.595	4596
856.729	4618
856.862	4767
856.996	4698
857.13	4740
857.263	4763
857.397	4774
857.53	4634
857.664	4698
857.797	4774
857.931	4744
858.064	4694
858.197	4748
858.331	4653
858.464	4615
858.597	4489
858.731	4653
858.864	4580
858.997	4554
859.13	4656
859.263	4660
859.396	4660
859.529	4618
859.662	4550
859.795	4508
859.928	4645
860.061	4733
860.194	4793
860.327	4565
860.46	4558
860.592	4702
860.725	4733
860.858	4698
860.99	4531
861.123	4459
861.256	4531
861.388	4592
861.521	5280
861.653	4504
861.786	4447
861.918	4436
862.05	4516
862.183	4569
862.315	4592
862.447	4645
862.58	4550
862.712	4443
862.844	4356
862.976	4447
863.108	4436
863.24	4774
863.372	4333
863.504	4451
863.636	4417
863.768	4455
863.9	4417
864.032	4360
864.164	4436
864.296	4466
864.428	4558
864.559	4569
864.691	4523
864.823	4508
864.954	4481
865.086	4481
865.217	4443
865.349	4371
865.48	4478
865.612	4470
865.743	4630
865.875	4447
866.006	4421
866.137	4432
866.269	4440
866.4	4413
866.531	4443
866.662	4405
866.793	4394
866.924	4440
867.055	4424
867.186	4455
867.317	4432
867.448	4363
867.579	4386
867.71	4348
867.841	4363
867.972	4478
868.103	4470
868.233	4413
868.364	4466
868.495	4519
868.625	4656
868.756	4752
868.886	4599
869.017	4615
869.147	4752
869.278	4763
869.408	4675
869.539	4641
869.669	4725
869.799	4694
869.929	4786
870.06	4744
870.19	4946
870.32	4904
870.45	4896
870.58	4980
870.71	5083
870.84	5094
870.97	4953
871.1	4938
871.23	5128
871.36	5060
871.489	4991
871.619	5083
871.749	5083
871.879	5117
872.008	5151
872.138	5018
872.267	4980
872.397	4892
872.526	4896
872.656	4710
872.785	4793
872.915	4900
873.044	5045
873.173	4942
873.303	4923
873.432	4942
873.561	4976
873.69	4881
873.819	4847
873.948	4885
874.077	4767
874.206	4809
874.335	4801
874.464	4923
874.593	5025
874.722	4930
874.851	5083
874.979	5041
875.108	5025
875.237	4911
875.365	4889
875.494	4900
875.623	4938
875.751	4889
875.88	4866
876.008	4980
876.136	5025
876.265	5155
876.393	5277
876.521	5223
876.65	5208
876.778	5162
876.906	5090
877.034	5056
877.162	5018
877.29	4999
877.418	5045
877.546	4987
877.674	5033
877.802	5045
877.93	4984
878.058	4946
878.185	4889
878.313	4953
878.441	4927
878.568	4733
878.696	4854
878.824	4957
878.951	5048
879.079	5098
879.206	5254
879.333	5147
879.461	4987
879.588	4980
879.715	5143
879.842	5227
879.97	5022
880.097	4755
880.224	4774
880.351	4793
880.478	4847
880.605	4748
880.732	4782
880.859	5109
880.986	4873
881.112	4911
881.239	4790
881.366	4702
881.493	4592
881.619	4546
881.746	4584
881.872	4668
881.999	4596
882.125	4679
882.252	4809
882.378	4824
882.505	4927
882.631	4763
882.757	4641
882.883	4744
883.01	4736
883.136	4656
883.262	4637
883.388	4554
883.514	4828
883.64	4816
883.766	4782
883.892	4653
884.018	4774
884.143	4927
884.269	4987
884.395	4622
884.52	4675
884.646	4649
884.772	4584
884.897	4519
885.023	4649
885.148	4759
885.274	4881
885.399	4809
885.524	4729
885.65	4729
885.775	4691
885.9	4664
886.025	4809
886.15	4809
886.275	4721
886.4	4691
886.525	4660
886.65	4725
886.775	4679
886.9	4889
887.025	4987
887.149	4812
887.274	4660
887.399	4580
887.523	4580
887.648	4607
887.773	4618
887.897	4786
888.021	4763
888.146	4637
888.27	4824
888.395	4896
888.519	4850
888.643	4790
888.767	4873
888.891	4672
889.015	4630
889.139	4649
889.263	4573
889.387	4740
889.511	4839
889.635	4778
889.759	4630
889.883	4630
890.006	4748
890.13	4782
890.254	4649
890.377	4706
890.501	4535
890.624	4558
890.748	4588
890.871	4519
890.995	4474
891.118	4329
891.241	4558
891.364	4538
891.488	4664
891.611	4500
891.734	4504
891.857	4596
891.98	4531
892.103	4672
892.226	4569
892.349	4497
892.471	4402
892.594	4542
892.717	4569
892.839	4599
892.962	4588
893.085	4675
893.207	4565
893.33	4451
893.452	4538
893.575	4683
893.697	4546
893.819	4752
893.941	4831
894.064	4755
894.186	4542
894.308	4573
894.43	4725
894.552	4843
894.674	4767
894.796	4508
894.918	4573
895.04	4535
895.161	4672
895.283	4694
895.405	4599
895.526	4645
895.648	4683
895.769	4653
895.891	4710
896.012	4687
896.134	4748
896.255	4660
896.376	4653
896.498	4580
896.619	4660
896.74	4584
896.861	4645
896.982	4908
897.103	5064
897.224	4854
897.345	4752
897.466	4649
897.587	4717
897.708	4835
897.828	4786
897.949	4672
898.07	4573
898.19	4675
898.311	4782
898.431	4649
898.552	4759
898.672	4793
898.792	4828
898.913	4717
899.033	4573
899.153	4519
899.273	4455
899.393	4531
899.513	4478
899.633	4538
899.753	4504
899.873	4497
899.993	4546
900.113	4569
900.232	4546
900.352	4535
900.472	4504
900.591	4447
900.711	4481
900.83	4405
900.95	4630
901.069	4668
901.189	4565
901.308	4413
901.427	4318
901.546	4398
901.665	4432
901.784	4542
901.904	4367
902.023	4337
902.141	4227
902.26	4143
902.379	4337
902.498	4246
902.617	4207
902.735	4375
902.854	4379
902.973	4337
903.091	4238
903.21	4253
903.328	4284
903.446	4306
903.565	4253
903.683	4318
903.801	4253
903.919	4379
904.038	4443
904.156	4276
904.274	4421
904.392	4394
904.51	4440
904.627	4447
904.745	4580
904.863	4615
904.981	4394
905.098	4341
905.216	4333
905.334	4398
905.451	4455
905.569	4428
905.686	4516
905.803	4558
905.921	4440
906.038	4558
906.155	4485
906.272	4398
906.389	4500
906.506	4318
906.623	4363
906.74	4417
906.857	4360
906.974	4409
907.091	4519
907.208	4664
907.324	4554
907.441	4489
907.557	4344
907.674	4352
907.79	4329
907.907	4356
908.023	4478
908.139	4516
908.256	4455
908.372	4443
908.488	4428
908.604	4333
908.72	4322
908.836	4367
908.952	4348
909.068	4421
909.184	4580
909.3	4481
909.415	4588
909.531	4542
909.647	4352
909.762	4348
909.878	4310
909.993	4424
910.108	4451
910.224	4417
910.339	4512
910.454	4390
910.57	4371
910.685	4261
910.8	4683
910.915	4607
911.03	4497
911.145	4314
911.259	4348
911.374	4314
911.489	4337
911.604	4257
911.718	4200
911.833	4177
911.947	4051
912.062	4036
912.176	4204
912.291	4223
912.405	4261
912.519	4447
912.633	4428
912.748	4352
912.862	4310
912.976	4192
913.09	4063
913.204	4169
913.318	4227
913.431	4363
913.545	4413
913.659	4394
913.772	4344
913.886	4238
914	4211
914.113	4344
914.226	4428
914.34	4394
914.453	4242
914.566	4447
914.68	4303
914.793	4280
914.906	4128
915.019	4143
915.132	4067
915.245	4177
915.358	4150
915.47	4287
915.583	4265
915.696	4314
915.809	4356
915.921	4417
916.034	4257
916.146	4272
916.259	4215
916.371	4413
916.483	4337
916.595	4261
916.708	4310
916.82	4367
916.932	4337
917.044	4314
917.156	4306
917.268	4227
917.38	4261
917.491	4192
917.603	4341
917.715	4409
917.826	4424
917.938	4329
918.049	4261
918.161	4367
918.272	4527
918.384	4554
918.495	4440
918.606	4348
918.717	4242
918.828	4325
918.939	4299
919.05	4280
919.161	4272
919.272	4147
919.383	4238
919.494	4462
919.604	4672
919.715	4383
919.826	4318
919.936	4447
920.047	4538
920.157	4478
920.267	4736
920.378	4554
920.488	4500
920.598	4694
920.708	4885
920.818	4729
920.928	4717
921.038	4942
921.148	4927
921.258	4603
921.368	4516
921.477	4512
921.587	4428
921.697	4363
921.806	4519
921.916	4383
922.025	4261
922.134	4284
922.244	4188
922.353	4310
922.462	4230
922.571	4112
922.68	3968
922.789	3975
922.898	4086
923.007	3991
923.116	4131
923.224	4067
923.333	4101
923.442	3987
923.55	3975
923.659	4017
923.767	4067
923.876	3998
923.984	4128
924.092	4025
924.201	4063
924.309	4120
924.417	4101
924.525	4025
924.633	4086
924.741	5075
924.849	3960
924.956	4093
925.064	3960
925.172	3896
925.279	3918
925.387	4044
925.494	4017
925.602	4230
925.709	4177
925.816	4032
925.924	4135
926.031	4230
926.138	4177
926.245	4169
926.352	4093
926.459	4249
926.566	4333
926.673	4105
926.779	4078
926.886	4071
926.993	3975
927.099	3979
927.206	3956
927.312	3934
927.419	4063
927.525	4025
927.631	4093
927.737	3987
927.843	3964
927.95	3827
928.056	3907
928.162	3979
928.267	4032
928.373	4580
928.479	4131
928.585	3857
928.69	3994
928.796	4082
928.901	3994
929.007	3831
929.112	4013
929.218	3979
929.323	3930
929.428	3945
929.533	4067
929.638	3892
929.743	3964
929.848	4040
929.953	3975
930.058	3941
930.163	3755
930.267	3819
930.372	3949
930.477	3812
930.581	4097
930.685	3934
930.79	3857
930.894	3888
930.998	3857
931.103	4006
931.207	3698
931.311	3671
931.415	3644
931.519	3488
931.623	3534
