Data from test_V78500241_2377.txt Node
Date: Fri Mar 25 17:05:31 CST 2022
User: usil
Spectrometer: V785-0024
Trigger mode: 0
Integration Time (sec): 4.000000E-1
Scans to average: 1
Nonlinearity correction enabled: false
Boxcar width: 0
Storing dark spectrum: false
XAxis mode: Wavelengths
Number of Pixels in Spectrum: 1024
>>>>>Begin Spectral Data<<<<<
801.071	7989
801.214	7963
801.356	7883
801.499	7841
801.641	7826
801.783	7875
801.926	7909
802.068	7909
802.211	8027
802.353	8065
802.496	7845
802.638	7856
802.78	7887
802.923	7852
803.065	7913
803.208	7883
803.35	7997
803.492	8073
803.635	8225
803.777	8058
803.919	8088
804.061	8404
804.204	8176
804.346	8084
804.488	7967
804.63	8103
804.773	8081
804.915	8164
805.057	8351
805.199	8168
805.341	8225
805.483	8279
805.626	8195
805.768	8115
805.91	8202
806.052	8153
806.194	8088
806.336	8320
806.478	8081
806.62	8046
806.762	8164
806.904	8259
807.046	8427
807.188	8290
807.33	8263
807.472	8351
807.614	8142
807.756	8134
807.898	7982
808.04	7871
808.182	7940
808.324	7860
808.465	7951
808.607	8115
808.749	8096
808.891	8221
809.033	8263
809.174	8225
809.316	8092
809.458	8100
809.6	8012
809.741	8134
809.883	8046
810.025	8153
810.166	8058
810.308	8073
810.45	7989
810.591	7818
810.733	7780
810.875	7689
811.016	7510
811.158	7441
811.299	7521
811.441	7734
811.582	7700
811.724	7624
811.865	7601
812.007	7647
812.148	7544
812.29	7594
812.431	7807
812.573	7936
812.714	7967
812.855	8180
812.997	8172
813.138	8362
813.279	8149
813.421	8069
813.562	7967
813.703	7849
813.845	7772
813.986	7449
814.127	7244
814.268	7171
814.41	7247
814.551	7187
814.692	7202
814.833	7114
814.974	7084
815.115	7122
815.256	7008
815.397	7038
815.539	6981
815.68	6814
815.821	6779
815.962	6905
816.103	6791
816.244	6703
816.385	6559
816.526	6570
816.666	6509
816.807	6350
816.948	6445
817.089	6391
817.23	6410
817.371	6350
817.512	6388
817.653	6452
817.793	6426
817.934	6464
818.075	6437
818.216	6460
818.356	6395
818.497	6224
818.638	6152
818.778	6136
818.919	6163
819.06	6167
819.2	6334
819.341	6323
819.481	6380
819.622	6589
819.762	6738
819.903	6650
820.043	6623
820.184	6616
820.324	6635
820.465	6711
820.605	6681
820.746	6601
820.886	6525
821.026	6684
821.167	6703
821.307	6833
821.447	6741
821.588	6688
821.728	6608
821.868	6517
822.008	6331
822.149	6391
822.289	6376
822.429	6209
822.569	6083
822.709	6114
822.849	5935
822.99	5954
823.13	5946
823.27	5923
823.41	5794
823.55	5855
823.69	5771
823.83	5760
823.97	5691
824.11	5554
824.25	5482
824.389	5543
824.529	5589
824.669	5539
824.809	5623
824.949	5657
825.089	5608
825.228	5539
825.368	5436
825.508	5372
825.648	5357
825.787	5387
825.927	5417
826.067	5326
826.206	5254
826.346	5436
826.485	5372
826.625	5372
826.765	5573
826.904	5486
827.044	5280
827.183	5197
827.323	5117
827.462	5265
827.601	5140
827.741	5197
827.88	5170
828.02	5124
828.159	5212
828.298	5349
828.437	5322
828.577	5250
828.716	5421
828.855	5337
828.994	5155
829.134	5136
829.273	5170
829.412	5048
829.551	5124
829.69	5166
829.829	5269
829.968	5368
830.107	5261
830.246	5284
830.385	5197
830.524	5132
830.663	5094
830.802	4930
830.941	4873
831.08	4881
831.219	5010
831.357	4995
831.496	5151
831.635	4938
831.774	4858
831.913	4908
832.051	4740
832.19	4748
832.329	4862
832.467	4725
832.606	4584
832.744	4706
832.883	4740
833.022	4664
833.16	4778
833.299	4812
833.437	4873
833.576	4862
833.714	4873
833.852	4870
833.991	4915
834.129	4961
834.267	4999
834.406	4889
834.544	4976
834.682	4965
834.821	4946
834.959	5159
835.097	4942
835.235	5124
835.373	5064
835.511	5105
835.65	5048
835.788	5048
835.926	4908
836.064	4892
836.202	4911
836.34	5170
836.478	5185
836.615	5113
836.753	5216
836.891	5254
837.029	5216
837.167	5189
837.305	5189
837.443	5143
837.58	5067
837.718	5258
837.856	5223
837.993	5166
838.131	5277
838.269	5220
838.406	5227
838.544	5178
838.681	4987
838.819	5014
838.956	4908
839.094	4870
839.231	5006
839.369	5071
839.506	5395
839.643	5280
839.781	5086
839.918	5014
840.055	5121
840.193	5090
840.33	5105
840.467	5102
840.604	5174
840.742	5410
840.879	5075
841.016	5094
841.153	5159
841.29	5334
841.427	5349
841.564	5292
841.701	5318
841.838	5231
841.975	5250
842.112	5288
842.249	5105
842.385	5090
842.522	5330
842.659	5140
842.796	5155
842.933	5159
843.069	5166
843.206	5136
843.343	5303
843.479	5269
843.616	5239
843.752	5003
843.889	5006
844.025	5288
844.162	5014
844.298	5227
844.435	5113
844.571	5064
844.708	5189
844.844	5292
844.98	5357
845.117	5280
845.253	5151
845.389	5071
845.525	5147
845.661	5098
845.798	5045
845.934	5117
846.07	5029
846.206	5189
846.342	5254
846.478	5121
846.614	4972
846.75	4995
846.886	4965
847.022	5105
847.158	5014
847.294	5064
847.429	5143
847.565	5098
847.701	5322
847.837	4896
847.972	4812
848.108	5018
848.244	5018
848.379	4763
848.515	4641
848.65	4740
848.786	4725
848.921	4740
849.057	4843
849.192	4885
849.328	4831
849.463	4873
849.598	4790
849.734	4771
849.869	4683
850.004	4649
850.14	4691
850.275	4584
850.41	4489
850.545	4538
850.68	4558
850.815	4649
850.95	4637
851.085	4854
851.22	4767
851.355	4691
851.49	4603
851.625	4668
851.76	4637
851.895	4561
852.03	4550
852.165	4607
852.299	4725
852.434	4797
852.569	4714
852.703	4778
852.838	4904
852.973	4892
853.107	4885
853.242	4698
853.376	4664
853.511	4577
853.645	4653
853.78	4809
853.914	4721
854.048	4656
854.183	4637
854.317	4725
854.451	4850
854.585	4694
854.72	4710
854.854	4771
854.988	4637
855.122	4607
855.256	4519
855.39	4691
855.524	4733
855.658	4702
855.792	4683
855.926	4687
856.06	4805
856.194	4801
856.327	4687
856.461	4599
856.595	4615
856.729	4569
856.862	4771
856.996	4672
857.13	4767
857.263	4820
857.397	4843
857.53	4641
857.664	4683
857.797	4744
857.931	4839
858.064	4664
858.197	4717
858.331	4618
858.464	4637
858.597	4508
858.731	4592
858.864	4672
858.997	4592
859.13	4664
859.263	4691
859.396	4710
859.529	4603
859.662	4573
859.795	4554
859.928	4615
860.061	4736
860.194	4774
860.327	4641
860.46	4573
860.592	4698
860.725	4717
860.858	4740
860.99	4588
861.123	4538
861.256	4519
861.388	4538
861.521	5250
861.653	4527
861.786	4455
861.918	4424
862.05	4500
862.183	4580
862.315	4603
862.447	4668
862.58	4565
862.712	4398
862.844	4356
862.976	4462
863.108	4455
863.24	4752
863.372	4348
863.504	4386
863.636	4383
863.768	4493
863.9	4409
864.032	4398
864.164	4371
864.296	4440
864.428	4569
864.559	4558
864.691	4504
864.823	4531
864.954	4523
865.086	4474
865.217	4485
865.349	4409
865.48	4478
865.612	4516
865.743	4618
865.875	4451
866.006	4455
866.137	4447
866.269	4447
866.4	4394
866.531	4432
866.662	4375
866.793	4386
866.924	4386
867.055	4424
867.186	4440
867.317	4409
867.448	4379
867.579	4398
867.71	4375
867.841	4352
867.972	4478
868.103	4462
868.233	4424
868.364	4504
868.495	4497
868.625	4668
868.756	4721
868.886	4546
869.017	4607
869.147	4782
869.278	4752
869.408	4656
869.539	4626
869.669	4729
869.799	4615
869.929	4778
870.06	4763
870.19	4915
870.32	4873
870.45	4919
870.58	5003
870.71	5067
870.84	5079
870.97	4961
871.1	4896
871.23	5155
871.36	5143
871.489	5003
871.619	5060
871.749	5143
871.879	5109
872.008	5166
872.138	5064
872.267	5014
872.397	4828
872.526	4816
872.656	4748
872.785	4797
872.915	4953
873.044	5048
873.173	4919
873.303	5003
873.432	4938
873.561	4896
873.69	4854
873.819	4797
873.948	4972
874.077	4862
874.206	4694
874.335	4771
874.464	4930
874.593	5071
874.722	4968
874.851	5086
874.979	5064
875.108	5056
875.237	4923
875.365	4911
875.494	4885
875.623	5006
875.751	4831
875.88	4930
876.008	4995
876.136	5029
876.265	5242
876.393	5406
876.521	5220
876.65	5239
876.778	5140
876.906	5113
877.034	5037
877.162	5079
877.29	5003
877.418	5075
877.546	5052
877.674	5033
877.802	5064
877.93	5022
878.058	4923
878.185	4930
878.313	4938
878.441	4968
878.568	4812
878.696	4866
878.824	4961
878.951	4980
879.079	5147
879.206	5261
879.333	5075
879.461	5018
879.588	5041
879.715	5113
879.842	5220
879.97	5010
880.097	4744
880.224	4733
880.351	4835
880.478	4828
880.605	4759
880.732	4820
880.859	5064
880.986	4900
881.112	4915
881.239	4839
881.366	4664
881.493	4588
881.619	4603
881.746	4660
881.872	4618
881.999	4611
882.125	4714
882.252	4812
882.378	4839
882.505	4953
882.631	4790
882.757	4702
882.883	4755
883.01	4698
883.136	4675
883.262	4588
883.388	4580
883.514	4801
883.64	4843
883.766	4790
883.892	4618
884.018	4691
884.143	4877
884.269	5014
884.395	4698
884.52	4653
884.646	4683
884.772	4573
884.897	4565
885.023	4645
885.148	4812
885.274	4839
885.399	4854
885.524	4725
885.65	4736
885.775	4755
885.9	4656
886.025	4881
886.15	4793
886.275	4694
886.4	4691
886.525	4698
886.65	4664
886.775	4694
886.9	4927
887.025	5048
887.149	4797
887.274	4660
887.399	4588
887.523	4596
887.648	4573
887.773	4550
887.897	4725
888.021	4782
888.146	4668
888.27	4801
888.395	4896
888.519	4828
888.643	4816
888.767	4812
888.891	4679
889.015	4607
889.139	4683
889.263	4618
889.387	4714
889.511	4923
889.635	4771
889.759	4645
889.883	4603
890.006	4706
890.13	4850
890.254	4588
890.377	4668
890.501	4558
890.624	4508
890.748	4637
890.871	4493
890.995	4421
891.118	4352
891.241	4497
891.364	4523
891.488	4580
891.611	4489
891.734	4558
891.857	4592
891.98	4538
892.103	4675
892.226	4584
892.349	4504
892.471	4447
892.594	4554
892.717	4634
892.839	4554
892.962	4588
893.085	4706
893.207	4607
893.33	4432
893.452	4519
893.575	4653
893.697	4577
893.819	4786
893.941	4839
894.064	4759
894.186	4561
894.308	4565
894.43	4748
894.552	4793
894.674	4729
894.796	4565
894.918	4626
895.04	4538
895.161	4691
895.283	4656
895.405	4588
895.526	4660
895.648	4683
895.769	4691
895.891	4721
896.012	4725
896.134	4656
896.255	4664
896.376	4668
896.498	4615
896.619	4645
896.74	4603
896.861	4694
896.982	4930
897.103	5086
897.224	4812
897.345	4733
897.466	4679
897.587	4736
897.708	4915
897.828	4771
897.949	4679
898.07	4611
898.19	4622
898.311	4767
898.431	4672
898.552	4736
898.672	4805
898.792	4778
898.913	4767
899.033	4584
899.153	4485
899.273	4424
899.393	4478
899.513	4519
899.633	4497
899.753	4611
899.873	4535
899.993	4592
900.113	4538
900.232	4561
900.352	4531
900.472	4485
900.591	4360
900.711	4481
900.83	4493
900.95	4615
901.069	4706
901.189	4504
901.308	4352
901.427	4280
901.546	4409
901.665	4474
901.784	4519
901.904	4386
902.023	4295
902.141	4234
902.26	4162
902.379	4272
902.498	4223
902.617	4166
902.735	4383
902.854	4337
902.973	4383
903.091	4192
903.21	4246
903.328	4284
903.446	4246
903.565	4284
903.683	4352
903.801	4306
903.919	4363
904.038	4451
904.156	4322
904.274	4417
904.392	4417
904.51	4428
904.627	4440
904.745	4592
904.863	4611
904.981	4409
905.098	4287
905.216	4379
905.334	4421
905.451	4470
905.569	4405
905.686	4538
905.803	4584
905.921	4363
906.038	4531
906.155	4455
906.272	4440
906.389	4443
906.506	4363
906.623	4394
906.74	4375
906.857	4310
906.974	4344
907.091	4527
907.208	4584
907.324	4531
907.441	4493
907.557	4363
907.674	4306
907.79	4348
907.907	4405
908.023	4436
908.139	4462
908.256	4443
908.372	4512
908.488	4417
908.604	4333
908.72	4341
908.836	4390
908.952	4379
909.068	4443
909.184	4569
909.3	4451
909.415	4611
909.531	4622
909.647	4394
909.762	4405
909.878	4337
909.993	4447
910.108	4436
910.224	4424
910.339	4447
910.454	4398
910.57	4341
910.685	4329
910.8	4675
910.915	4584
911.03	4489
911.145	4322
911.259	4314
911.374	4337
911.489	4318
911.604	4287
911.718	4192
911.833	4211
911.947	4074
912.062	4048
912.176	4242
912.291	4249
912.405	4268
912.519	4459
912.633	4485
912.748	4402
912.862	4306
912.976	4249
913.09	4116
913.204	4192
913.318	4249
913.431	4360
913.545	4371
913.659	4440
913.772	4371
913.886	4246
914	4238
914.113	4394
914.226	4447
914.34	4360
914.453	4215
914.566	4440
914.68	4261
914.793	4360
914.906	4185
915.019	4147
915.132	4101
915.245	4173
915.358	4223
915.47	4257
915.583	4261
915.696	4268
915.809	4394
915.921	4440
916.034	4257
916.146	4227
916.259	4219
916.371	4367
916.483	4341
916.595	4242
916.708	4314
916.82	4348
916.932	4333
917.044	4337
917.156	4337
917.268	4204
917.38	4314
917.491	4268
917.603	4325
917.715	4405
917.826	4402
917.938	4337
918.049	4246
918.161	4394
918.272	4546
918.384	4542
918.495	4455
918.606	4352
918.717	4280
918.828	4322
918.939	4371
919.05	4238
919.161	4329
919.272	4124
919.383	4249
919.494	4440
919.604	4577
919.715	4440
919.826	4325
919.936	4402
920.047	4527
920.157	4478
920.267	4694
920.378	4508
920.488	4519
920.598	4679
920.708	4896
920.818	4706
920.928	4763
921.038	4892
921.148	4877
921.258	4664
921.368	4554
921.477	4527
921.587	4478
921.697	4398
921.806	4550
921.916	4383
922.025	4257
922.134	4227
922.244	4230
922.353	4329
922.462	4166
922.571	4166
922.68	3987
922.789	4017
922.898	4036
923.007	4006
923.116	4109
923.224	4040
923.333	4074
923.442	3949
923.55	4006
923.659	4010
923.767	4097
923.876	3972
923.984	4112
924.092	3964
924.201	4078
924.309	4135
924.417	4101
924.525	4051
924.633	4086
924.741	5006
924.849	3888
924.956	4063
925.064	4006
925.172	3896
925.279	3934
925.387	4032
925.494	4010
925.602	4230
925.709	4154
925.816	4051
925.924	4131
926.031	4242
926.138	4143
926.245	4192
926.352	4090
926.459	4219
926.566	4314
926.673	4147
926.779	4097
926.886	4097
926.993	3979
927.099	3960
927.206	3953
927.312	3926
927.419	4032
927.525	4059
927.631	4051
927.737	3964
927.843	3926
927.95	3842
928.056	3937
928.162	4002
928.267	4063
928.373	4607
928.479	4082
928.585	3880
928.69	4025
928.796	4048
928.901	3972
929.007	3838
929.112	4017
929.218	3979
929.323	3964
929.428	3934
929.533	4143
929.638	3907
929.743	3968
929.848	4021
929.953	3953
930.058	3915
930.163	3793
930.267	3819
930.372	3979
930.477	3827
930.581	4109
930.685	3918
930.79	3797
930.894	3899
930.998	3854
931.103	4017
931.207	3709
931.311	3736
931.415	3656
931.519	3504
931.623	3564
