Data from test_V78500241_2723.txt Node
Date: Fri Mar 25 17:07:56 CST 2022
User: usil
Spectrometer: V785-0024
Trigger mode: 0
Integration Time (sec): 4.000000E-1
Scans to average: 1
Nonlinearity correction enabled: false
Boxcar width: 0
Storing dark spectrum: false
XAxis mode: Wavelengths
Number of Pixels in Spectrum: 1024
>>>>>Begin Spectral Data<<<<<
801.071	7986
801.214	8031
801.356	7875
801.499	7894
801.641	7883
801.783	7849
801.926	7925
802.068	7959
802.211	7936
802.353	8008
802.496	7894
802.638	7856
802.78	7928
802.923	7902
803.065	7845
803.208	7837
803.35	7936
803.492	8168
803.635	8172
803.777	8123
803.919	8138
804.061	8476
804.204	8130
804.346	7986
804.488	7936
804.63	8046
804.773	7986
804.915	8096
805.057	8275
805.199	8221
805.341	8180
805.483	8320
805.626	8221
805.768	8119
805.91	8259
806.052	8240
806.194	8145
806.336	8351
806.478	8092
806.62	8084
806.762	8202
806.904	8259
807.046	8518
807.188	8393
807.33	8427
807.472	8305
807.614	8180
807.756	8126
807.898	8039
808.04	7856
808.182	7871
808.324	7932
808.465	7963
808.607	8142
808.749	8107
808.891	8202
809.033	8313
809.174	8259
809.316	8145
809.458	8100
809.6	8043
809.741	8031
809.883	7989
810.025	8100
810.166	8130
810.308	7947
810.45	8012
810.591	7833
810.733	7807
810.875	7655
811.016	7529
811.158	7480
811.299	7590
811.441	7776
811.582	7674
811.724	7647
811.865	7567
812.007	7628
812.148	7605
812.29	7624
812.431	7719
812.573	7890
812.714	7989
812.855	8195
812.997	8237
813.138	8271
813.279	8202
813.421	8107
813.562	8062
813.703	7902
813.845	7772
813.986	7487
814.127	7320
814.268	7293
814.41	7232
814.551	7206
814.692	7217
814.833	7118
814.974	7099
815.115	7080
815.256	6947
815.397	6981
815.539	6947
815.68	6848
815.821	6791
815.962	6825
816.103	6802
816.244	6707
816.385	6665
816.526	6658
816.666	6509
816.807	6426
816.948	6448
817.089	6509
817.23	6471
817.371	6437
817.512	6395
817.653	6426
817.793	6391
817.934	6399
818.075	6494
818.216	6357
818.356	6380
818.497	6254
818.638	6102
818.778	6205
818.919	6152
819.06	6148
819.2	6296
819.341	6327
819.481	6350
819.622	6563
819.762	6764
819.903	6692
820.043	6650
820.184	6555
820.324	6631
820.465	6738
820.605	6700
820.746	6623
820.886	6555
821.026	6597
821.167	6757
821.307	6837
821.447	6787
821.588	6639
821.728	6574
821.868	6521
822.008	6300
822.149	6334
822.289	6342
822.429	6114
822.569	6076
822.709	6076
822.849	5965
822.99	5897
823.13	5988
823.27	5874
823.41	5798
823.55	5859
823.69	5741
823.83	5722
823.97	5649
824.11	5539
824.25	5467
824.389	5554
824.529	5630
824.669	5520
824.809	5619
824.949	5672
825.089	5649
825.228	5535
825.368	5444
825.508	5341
825.648	5376
825.787	5311
825.927	5379
826.067	5315
826.206	5288
826.346	5391
826.485	5387
826.625	5436
826.765	5509
826.904	5501
827.044	5223
827.183	5178
827.323	5136
827.462	5208
827.601	5174
827.741	5220
827.88	5223
828.02	5109
828.159	5201
828.298	5326
828.437	5345
828.577	5239
828.716	5471
828.855	5299
828.994	5113
829.134	5185
829.273	5197
829.412	5128
829.551	5128
829.69	5155
829.829	5239
829.968	5337
830.107	5284
830.246	5303
830.385	5143
830.524	5121
830.663	5022
830.802	4999
830.941	4847
831.08	4847
831.219	5006
831.357	4995
831.496	5136
831.635	4965
831.774	4828
831.913	4850
832.051	4698
832.19	4786
832.329	4858
832.467	4687
832.606	4691
832.744	4733
832.883	4759
833.022	4733
833.16	4790
833.299	4835
833.437	4793
833.576	4812
833.714	4801
833.852	4889
833.991	4889
834.129	4908
834.267	4965
834.406	4831
834.544	4987
834.682	4957
834.821	4987
834.959	5117
835.097	5014
835.235	5155
835.373	5075
835.511	5102
835.65	5067
835.788	5006
835.926	4896
836.064	4930
836.202	4885
836.34	5181
836.478	5235
836.615	5136
836.753	5242
836.891	5311
837.029	5277
837.167	5242
837.305	5143
837.443	5124
837.58	5064
837.718	5258
837.856	5216
837.993	5155
838.131	5216
838.269	5151
838.406	5159
838.544	5147
838.681	4991
838.819	5022
838.956	4900
839.094	4900
839.231	4976
839.369	5086
839.506	5448
839.643	5242
839.781	5052
839.918	4987
840.055	5090
840.193	5136
840.33	5098
840.467	5178
840.604	5185
840.742	5452
840.879	5109
841.016	5060
841.153	5105
841.29	5345
841.427	5341
841.564	5311
841.701	5349
841.838	5284
841.975	5223
842.112	5277
842.249	5143
842.385	5083
842.522	5311
842.659	5197
842.796	5136
842.933	5235
843.069	5124
843.206	5155
843.343	5292
843.479	5250
843.616	5307
843.752	5037
843.889	5018
844.025	5212
844.162	5033
844.298	5231
844.435	5098
844.571	5045
844.708	5231
844.844	5345
844.98	5364
845.117	5288
845.253	5075
845.389	5075
845.525	5197
845.661	5193
845.798	5075
845.934	5109
846.07	5018
846.206	5246
846.342	5254
846.478	5185
846.614	4999
846.75	4953
846.886	4968
847.022	5151
847.158	5052
847.294	5090
847.429	5075
847.565	4995
847.701	5322
847.837	4889
847.972	4809
848.108	4965
848.244	4927
848.379	4767
848.515	4710
848.65	4729
848.786	4755
848.921	4752
849.057	4847
849.192	4930
849.328	4786
849.463	4877
849.598	4774
849.734	4767
849.869	4702
850.004	4618
850.14	4649
850.275	4626
850.41	4535
850.545	4558
850.68	4588
850.815	4626
850.95	4573
851.085	4828
851.22	4755
851.355	4656
851.49	4596
851.625	4641
851.76	4649
851.895	4516
852.03	4500
852.165	4653
852.299	4736
852.434	4805
852.569	4744
852.703	4755
852.838	4809
852.973	4961
853.107	4904
853.242	4721
853.376	4645
853.511	4523
853.645	4656
853.78	4820
853.914	4702
854.048	4672
854.183	4653
854.317	4691
854.451	4847
854.585	4672
854.72	4618
854.854	4752
854.988	4615
855.122	4622
855.256	4478
855.39	4645
855.524	4774
855.658	4729
855.792	4698
855.926	4698
856.06	4744
856.194	4755
856.327	4687
856.461	4645
856.595	4645
856.729	4592
856.862	4755
856.996	4691
857.13	4725
857.263	4752
857.397	4824
857.53	4664
857.664	4721
857.797	4778
857.931	4797
858.064	4694
858.197	4721
858.331	4622
858.464	4611
858.597	4592
858.731	4634
858.864	4637
858.997	4558
859.13	4702
859.263	4702
859.396	4714
859.529	4569
859.662	4542
859.795	4527
859.928	4660
860.061	4767
860.194	4786
860.327	4584
860.46	4569
860.592	4694
860.725	4679
860.858	4694
860.99	4580
861.123	4527
861.256	4481
861.388	4580
861.521	5337
861.653	4500
861.786	4432
861.918	4481
862.05	4497
862.183	4512
862.315	4592
862.447	4664
862.58	4516
862.712	4421
862.844	4295
862.976	4504
863.108	4451
863.24	4752
863.372	4352
863.504	4398
863.636	4383
863.768	4493
863.9	4481
864.032	4352
864.164	4421
864.296	4466
864.428	4554
864.559	4561
864.691	4580
864.823	4527
864.954	4485
865.086	4485
865.217	4481
865.349	4394
865.48	4413
865.612	4500
865.743	4679
865.875	4478
866.006	4436
866.137	4451
866.269	4432
866.4	4443
866.531	4462
866.662	4424
866.793	4417
866.924	4432
867.055	4474
867.186	4462
867.317	4436
867.448	4375
867.579	4379
867.71	4333
867.841	4352
867.972	4459
868.103	4470
868.233	4447
868.364	4474
868.495	4512
868.625	4641
868.756	4740
868.886	4550
869.017	4611
869.147	4744
869.278	4748
869.408	4653
869.539	4634
869.669	4812
869.799	4675
869.929	4774
870.06	4717
870.19	4930
870.32	4949
870.45	4980
870.58	5022
870.71	5121
870.84	5094
870.97	4927
871.1	4908
871.23	5132
871.36	5102
871.489	4999
871.619	5102
871.749	5098
871.879	5083
872.008	5193
872.138	5075
872.267	4968
872.397	4774
872.526	4778
872.656	4755
872.785	4778
872.915	4942
873.044	4987
873.173	4919
873.303	4938
873.432	4927
873.561	4965
873.69	4892
873.819	4873
873.948	4911
874.077	4847
874.206	4801
874.335	4812
874.464	4934
874.593	5075
874.722	4968
874.851	5083
874.979	4984
875.108	5037
875.237	4873
875.365	4896
875.494	4896
875.623	4953
875.751	4843
875.88	4839
876.008	4957
876.136	5067
876.265	5212
876.393	5379
876.521	5231
876.65	5223
876.778	5143
876.906	5102
877.034	4995
877.162	5075
877.29	4991
877.418	5083
877.546	5045
877.674	5025
877.802	5060
877.93	4999
878.058	4911
878.185	4938
878.313	4968
878.441	4930
878.568	4786
878.696	4831
878.824	4927
878.951	4965
879.079	5128
879.206	5258
879.333	5048
879.461	5010
879.588	4972
879.715	5170
879.842	5216
879.97	4984
880.097	4790
880.224	4771
880.351	4797
880.478	4835
880.605	4763
880.732	4778
880.859	5079
880.986	4953
881.112	4915
881.239	4763
881.366	4687
881.493	4656
881.619	4622
881.746	4668
881.872	4675
881.999	4698
882.125	4702
882.252	4801
882.378	4816
882.505	4915
882.631	4790
882.757	4706
882.883	4733
883.01	4675
883.136	4668
883.262	4618
883.388	4649
883.514	4801
883.64	4870
883.766	4786
883.892	4702
884.018	4725
884.143	4900
884.269	4980
884.395	4626
884.52	4569
884.646	4656
884.772	4653
884.897	4565
885.023	4668
885.148	4778
885.274	4854
885.399	4778
885.524	4691
885.65	4683
885.775	4782
885.9	4687
886.025	4904
886.15	4812
886.275	4683
886.4	4599
886.525	4733
886.65	4675
886.775	4645
886.9	4904
887.025	5014
887.149	4782
887.274	4615
887.399	4641
887.523	4577
887.648	4565
887.773	4584
887.897	4759
888.021	4786
888.146	4683
888.27	4805
888.395	4908
888.519	4790
888.643	4790
888.767	4820
888.891	4660
889.015	4603
889.139	4672
889.263	4615
889.387	4778
889.511	4843
889.635	4782
889.759	4637
889.883	4664
890.006	4729
890.13	4835
890.254	4615
890.377	4679
890.501	4599
890.624	4565
890.748	4599
890.871	4459
890.995	4436
891.118	4394
891.241	4512
891.364	4519
891.488	4656
891.611	4489
891.734	4516
891.857	4607
891.98	4516
892.103	4660
892.226	4527
892.349	4527
892.471	4440
892.594	4561
892.717	4622
892.839	4577
892.962	4588
893.085	4694
893.207	4679
893.33	4497
893.452	4512
893.575	4691
893.697	4542
893.819	4793
893.941	4847
894.064	4721
894.186	4634
894.308	4550
894.43	4725
894.552	4828
894.674	4710
894.796	4554
894.918	4550
895.04	4542
895.161	4733
895.283	4641
895.405	4569
895.526	4660
895.648	4683
895.769	4687
895.891	4717
896.012	4710
896.134	4744
896.255	4660
896.376	4615
896.498	4599
896.619	4672
896.74	4584
896.861	4668
896.982	4927
897.103	5041
897.224	4900
897.345	4725
897.466	4672
897.587	4691
897.708	4831
897.828	4763
897.949	4683
898.07	4577
898.19	4611
898.311	4831
898.431	4714
898.552	4714
898.672	4850
898.792	4809
898.913	4694
899.033	4626
899.153	4531
899.273	4367
899.393	4538
899.513	4531
899.633	4573
899.753	4573
899.873	4455
899.993	4607
900.113	4535
900.232	4603
900.352	4508
900.472	4447
900.591	4432
900.711	4493
900.83	4443
900.95	4580
901.069	4687
901.189	4596
901.308	4371
901.427	4295
901.546	4322
901.665	4466
901.784	4497
901.904	4390
902.023	4322
902.141	4234
902.26	4169
902.379	4329
902.498	4253
902.617	4169
902.735	4421
902.854	4379
902.973	4341
903.091	4207
903.21	4242
903.328	4280
903.446	4299
903.565	4261
903.683	4371
903.801	4284
903.919	4394
904.038	4413
904.156	4295
904.274	4432
904.392	4394
904.51	4424
904.627	4478
904.745	4561
904.863	4637
904.981	4386
905.098	4299
905.216	4371
905.334	4459
905.451	4451
905.569	4455
905.686	4554
905.803	4550
905.921	4409
906.038	4580
906.155	4489
906.272	4436
906.389	4459
906.506	4356
906.623	4394
906.74	4356
906.857	4341
906.974	4379
907.091	4577
907.208	4698
907.324	4584
907.441	4466
907.557	4318
907.674	4356
907.79	4299
907.907	4348
908.023	4485
908.139	4504
908.256	4413
908.372	4474
908.488	4424
908.604	4306
908.72	4344
908.836	4462
908.952	4409
909.068	4405
909.184	4573
909.3	4466
909.415	4554
909.531	4611
909.647	4344
909.762	4363
909.878	4318
909.993	4424
910.108	4413
910.224	4402
910.339	4478
910.454	4379
910.57	4360
910.685	4337
910.8	4645
910.915	4573
911.03	4497
911.145	4303
911.259	4318
911.374	4352
911.489	4325
911.604	4261
911.718	4166
911.833	4196
911.947	4074
912.062	4055
912.176	4200
912.291	4238
912.405	4265
912.519	4447
912.633	4516
912.748	4394
912.862	4257
912.976	4219
913.09	4071
913.204	4204
913.318	4249
913.431	4360
913.545	4367
913.659	4462
913.772	4344
913.886	4211
914	4219
914.113	4367
914.226	4436
914.34	4398
914.453	4268
914.566	4462
914.68	4265
914.793	4352
914.906	4135
915.019	4082
915.132	4059
915.245	4158
915.358	4227
915.47	4192
915.583	4268
915.696	4341
915.809	4432
915.921	4417
916.034	4265
916.146	4242
916.259	4215
916.371	4348
916.483	4360
916.595	4242
916.708	4352
916.82	4325
916.932	4295
917.044	4268
917.156	4322
917.268	4242
917.38	4318
917.491	4261
917.603	4337
917.715	4390
917.826	4436
917.938	4360
918.049	4242
918.161	4432
918.272	4554
918.384	4538
918.495	4398
918.606	4329
918.717	4185
918.828	4287
918.939	4379
919.05	4230
919.161	4341
919.272	4124
919.383	4253
919.494	4428
919.604	4607
919.715	4417
919.826	4344
919.936	4394
920.047	4542
920.157	4508
920.267	4721
920.378	4527
920.488	4523
920.598	4694
920.708	4927
920.818	4778
920.928	4740
921.038	4927
921.148	4919
921.258	4607
921.368	4558
921.477	4508
921.587	4451
921.697	4390
921.806	4584
921.916	4424
922.025	4242
922.134	4276
922.244	4238
922.353	4310
922.462	4188
922.571	4177
922.68	3991
922.789	3953
922.898	4040
923.007	4010
923.116	4071
923.224	4051
923.333	4032
923.442	4017
923.55	4002
923.659	3994
923.767	4112
923.876	3983
923.984	4147
924.092	3972
924.201	4090
924.309	4086
924.417	4139
924.525	4055
924.633	4112
924.741	5014
924.849	3968
924.956	4150
925.064	3975
925.172	3892
925.279	3960
925.387	4032
925.494	4078
925.602	4207
925.709	4177
925.816	4036
925.924	4158
926.031	4185
926.138	4150
926.245	4177
926.352	4093
926.459	4211
926.566	4272
926.673	4147
926.779	4074
926.886	4162
926.993	4013
927.099	3930
927.206	3941
927.312	3937
927.419	4032
927.525	4051
927.631	4124
927.737	3953
927.843	3956
927.95	3857
928.056	3975
928.162	3998
928.267	4078
928.373	4588
928.479	4147
928.585	3873
928.69	4044
928.796	4025
928.901	3972
929.007	3857
929.112	3975
929.218	3953
929.323	3934
929.428	3953
929.533	4086
929.638	3903
929.743	3941
929.848	4097
929.953	3994
930.058	3903
930.163	3793
930.267	3823
930.372	3968
930.477	3816
930.581	4120
930.685	3979
930.79	3831
930.894	3896
930.998	3819
931.103	4002
931.207	3701
931.311	3724
931.415	3637
931.519	3545
931.623	3591
