Data from test_V78500241_961.txt Node
Date: Fri Mar 25 16:55:41 CST 2022
User: usil
Spectrometer: V785-0024
Trigger mode: 0
Integration Time (sec): 4.000000E-1
Scans to average: 1
Nonlinearity correction enabled: false
Boxcar width: 0
Storing dark spectrum: false
XAxis mode: Wavelengths
Number of Pixels in Spectrum: 1024
>>>>>Begin Spectral Data<<<<<
801.071	8024
801.214	8020
801.356	7890
801.499	7845
801.641	7750
801.783	7875
801.926	7959
802.068	7989
802.211	7936
802.353	7909
802.496	7868
802.638	7879
802.78	7936
802.923	7879
803.065	7871
803.208	7932
803.35	7951
803.492	8081
803.635	8088
803.777	7997
803.919	8161
804.061	8423
804.204	8126
804.346	7997
804.488	7951
804.63	8100
804.773	8027
804.915	8069
805.057	8221
805.199	8168
805.341	8153
805.483	8145
805.626	8123
805.768	8180
805.91	8195
806.052	8183
806.194	8024
806.336	8271
806.478	8043
806.62	8046
806.762	8183
806.904	8240
807.046	8427
807.188	8355
807.33	8225
807.472	8343
807.614	8123
807.756	8138
807.898	8062
808.04	7898
808.182	7894
808.324	7932
808.465	7913
808.607	7974
808.749	8046
808.891	8195
809.033	8282
809.174	8202
809.316	8035
809.458	8077
809.6	7925
809.741	8012
809.883	8008
810.025	8043
810.166	8100
810.308	7951
810.45	7959
810.591	7875
810.733	7753
810.875	7620
811.016	7514
811.158	7518
811.299	7594
811.441	7753
811.582	7658
811.724	7537
811.865	7540
812.007	7518
812.148	7605
812.29	7594
812.431	7708
812.573	7852
812.714	7951
812.855	8073
812.997	8176
813.138	8309
813.279	8164
813.421	8119
813.562	8050
813.703	7826
813.845	7765
813.986	7449
814.127	7274
814.268	7240
814.41	7217
814.551	7118
814.692	7149
814.833	7004
814.974	6996
815.115	7076
815.256	6951
815.397	6928
815.539	6913
815.68	6798
815.821	6753
815.962	6795
816.103	6768
816.244	6665
816.385	6620
816.526	6620
816.666	6471
816.807	6262
816.948	6399
817.089	6467
817.23	6407
817.371	6350
817.512	6384
817.653	6380
817.793	6380
817.934	6433
818.075	6437
818.216	6376
818.356	6448
818.497	6304
818.638	6072
818.778	6110
818.919	6110
819.06	6125
819.2	6209
819.341	6296
819.481	6289
819.622	6525
819.762	6677
819.903	6730
820.043	6551
820.184	6525
820.324	6551
820.465	6673
820.605	6662
820.746	6642
820.886	6486
821.026	6627
821.167	6654
821.307	6726
821.447	6703
821.588	6662
821.728	6566
821.868	6483
822.008	6338
822.149	6327
822.289	6365
822.429	6136
822.569	6076
822.709	6049
822.849	5885
822.99	5859
823.13	5935
823.27	5908
823.41	5798
823.55	5745
823.69	5737
823.83	5771
823.97	5672
824.11	5543
824.25	5528
824.389	5573
824.529	5589
824.669	5543
824.809	5566
824.949	5611
825.089	5554
825.228	5547
825.368	5337
825.508	5330
825.648	5322
825.787	5395
825.927	5318
826.067	5307
826.206	5299
826.346	5410
826.485	5357
826.625	5345
826.765	5630
826.904	5509
827.044	5273
827.183	5197
827.323	5170
827.462	5208
827.601	5128
827.741	5159
827.88	5189
828.02	5162
828.159	5231
828.298	5288
828.437	5326
828.577	5299
828.716	5501
828.855	5273
828.994	5174
829.134	5193
829.273	5162
829.412	5143
829.551	5155
829.69	5178
829.829	5250
829.968	5357
830.107	5235
830.246	5334
830.385	5231
830.524	5181
830.663	5132
830.802	4987
830.941	4843
831.08	4980
831.219	5022
831.357	5025
831.496	5178
831.635	4961
831.774	4873
831.913	4858
832.051	4759
832.19	4793
832.329	4927
832.467	4706
832.606	4694
832.744	4782
832.883	4755
833.022	4778
833.16	4793
833.299	4847
833.437	4850
833.576	4892
833.714	4896
833.852	4938
833.991	4942
834.129	4991
834.267	4984
834.406	4934
834.544	4991
834.682	5010
834.821	4961
834.959	5155
835.097	4961
835.235	5174
835.373	5090
835.511	5155
835.65	5105
835.788	5079
835.926	4949
836.064	4915
836.202	4946
836.34	5162
836.478	5239
836.615	5185
836.753	5178
836.891	5299
837.029	5307
837.167	5178
837.305	5143
837.443	5185
837.58	5079
837.718	5299
837.856	5231
837.993	5155
838.131	5273
838.269	5170
838.406	5250
838.544	5223
838.681	5037
838.819	5052
838.956	4889
839.094	4965
839.231	4984
839.369	5048
839.506	5402
839.643	5296
839.781	5045
839.918	5071
840.055	5159
840.193	5102
840.33	5155
840.467	5178
840.604	5235
840.742	5467
840.879	5086
841.016	5143
841.153	5170
841.29	5387
841.427	5345
841.564	5292
841.701	5368
841.838	5299
841.975	5235
842.112	5227
842.249	5170
842.385	5147
842.522	5417
842.659	5174
842.796	5136
842.933	5212
843.069	5181
843.206	5166
843.343	5318
843.479	5280
843.616	5326
843.752	5045
843.889	5022
844.025	5193
844.162	5029
844.298	5254
844.435	5060
844.571	5064
844.708	5197
844.844	5296
844.98	5349
845.117	5292
845.253	5151
845.389	5128
845.525	5174
845.661	5147
845.798	5033
845.934	5170
846.07	5064
846.206	5174
846.342	5303
846.478	5185
846.614	5029
846.75	4995
846.886	4927
847.022	5162
847.158	5010
847.294	5064
847.429	5071
847.565	5067
847.701	5368
847.837	4870
847.972	4831
848.108	4953
848.244	4968
848.379	4820
848.515	4706
848.65	4755
848.786	4771
848.921	4778
849.057	4908
849.192	4915
849.328	4854
849.463	4812
849.598	4805
849.734	4824
849.869	4748
850.004	4668
850.14	4721
850.275	4637
850.41	4523
850.545	4558
850.68	4637
850.815	4672
850.95	4649
851.085	4854
851.22	4790
851.355	4675
851.49	4630
851.625	4641
851.76	4637
851.895	4626
852.03	4542
852.165	4702
852.299	4740
852.434	4812
852.569	4714
852.703	4771
852.838	4797
852.973	4957
853.107	4915
853.242	4752
853.376	4710
853.511	4584
853.645	4630
853.78	4847
853.914	4683
854.048	4694
854.183	4706
854.317	4771
854.451	4866
854.585	4733
854.72	4668
854.854	4774
854.988	4672
855.122	4656
855.256	4569
855.39	4675
855.524	4797
855.658	4755
855.792	4683
855.926	4782
856.06	4778
856.194	4843
856.327	4694
856.461	4615
856.595	4637
856.729	4691
856.862	4786
856.996	4694
857.13	4698
857.263	4805
857.397	4767
857.53	4622
857.664	4733
857.797	4771
857.931	4809
858.064	4710
858.197	4778
858.331	4660
858.464	4622
858.597	4546
858.731	4653
858.864	4668
858.997	4641
859.13	4656
859.263	4660
859.396	4691
859.529	4569
859.662	4550
859.795	4580
859.928	4649
860.061	4797
860.194	4797
860.327	4607
860.46	4607
860.592	4744
860.725	4759
860.858	4717
860.99	4573
861.123	4565
861.256	4550
861.388	4607
861.521	5299
861.653	4481
861.786	4440
861.918	4451
862.05	4558
862.183	4535
862.315	4641
862.447	4626
862.58	4565
862.712	4432
862.844	4306
862.976	4493
863.108	4432
863.24	4900
863.372	4363
863.504	4493
863.636	4371
863.768	4497
863.9	4459
864.032	4375
864.164	4424
864.296	4512
864.428	4588
864.559	4573
864.691	4573
864.823	4546
864.954	4481
865.086	4516
865.217	4497
865.349	4386
865.48	4466
865.612	4535
865.743	4656
865.875	4523
866.006	4436
866.137	4466
866.269	4451
866.4	4466
866.531	4455
866.662	4421
866.793	4413
866.924	4466
867.055	4500
867.186	4497
867.317	4459
867.448	4405
867.579	4421
867.71	4405
867.841	4386
867.972	4466
868.103	4459
868.233	4443
868.364	4466
868.495	4470
868.625	4748
868.756	4812
868.886	4561
869.017	4599
869.147	4763
869.278	4797
869.408	4672
869.539	4656
869.669	4736
869.799	4687
869.929	4725
870.06	4729
870.19	4995
870.32	4927
870.45	4953
870.58	5029
870.71	5083
870.84	5147
870.97	4991
871.1	4919
871.23	5178
871.36	5178
871.489	5041
871.619	5094
871.749	5117
871.879	5136
872.008	5193
872.138	5052
872.267	4923
872.397	4862
872.526	4850
872.656	4752
872.785	4816
872.915	5003
873.044	5071
873.173	4987
873.303	4995
873.432	4961
873.561	4953
873.69	4919
873.819	4847
873.948	4919
874.077	4862
874.206	4790
874.335	4850
874.464	4923
874.593	5014
874.722	4965
874.851	5086
874.979	5014
875.108	5083
875.237	4923
875.365	4873
875.494	4934
875.623	5018
875.751	4828
875.88	4892
876.008	5006
876.136	4999
876.265	5140
876.393	5372
876.521	5246
876.65	5193
876.778	5162
876.906	5083
877.034	5067
877.162	5006
877.29	4984
877.418	5022
877.546	5052
877.674	5060
877.802	5064
877.93	4976
878.058	4927
878.185	4877
878.313	4961
878.441	4965
878.568	4801
878.696	4961
878.824	4942
878.951	4987
879.079	5105
879.206	5307
879.333	5105
879.461	5033
879.588	5029
879.715	5098
879.842	5208
879.97	5033
880.097	4725
880.224	4702
880.351	4847
880.478	4847
880.605	4797
880.732	4793
880.859	5052
880.986	4904
881.112	4934
881.239	4721
881.366	4687
881.493	4607
881.619	4626
881.746	4691
881.872	4664
881.999	4641
882.125	4729
882.252	4752
882.378	4824
882.505	4949
882.631	4847
882.757	4721
882.883	4744
883.01	4721
883.136	4656
883.262	4615
883.388	4622
883.514	4831
883.64	4835
883.766	4797
883.892	4672
884.018	4668
884.143	4908
884.269	5003
884.395	4668
884.52	4634
884.646	4653
884.772	4596
884.897	4599
885.023	4691
885.148	4793
885.274	4866
885.399	4805
885.524	4691
885.65	4725
885.775	4740
885.9	4721
886.025	4889
886.15	4809
886.275	4706
886.4	4698
886.525	4721
886.65	4736
886.775	4656
886.9	4889
887.025	5029
887.149	4782
887.274	4675
887.399	4607
887.523	4618
887.648	4611
887.773	4618
887.897	4729
888.021	4744
888.146	4706
888.27	4843
888.395	4915
888.519	4812
888.643	4835
888.767	4889
888.891	4702
889.015	4603
889.139	4634
889.263	4641
889.387	4752
889.511	4866
889.635	4771
889.759	4656
889.883	4649
890.006	4778
890.13	4812
890.254	4622
890.377	4698
890.501	4550
890.624	4504
890.748	4607
890.871	4535
890.995	4455
891.118	4390
891.241	4489
891.364	4535
891.488	4634
891.611	4516
891.734	4558
891.857	4626
891.98	4554
892.103	4679
892.226	4615
892.349	4519
892.471	4383
892.594	4561
892.717	4558
892.839	4561
892.962	4603
893.085	4615
893.207	4607
893.33	4462
893.452	4508
893.575	4672
893.697	4558
893.819	4752
893.941	4831
894.064	4721
894.186	4603
894.308	4558
894.43	4721
894.552	4850
894.674	4782
894.796	4542
894.918	4615
895.04	4577
895.161	4672
895.283	4649
895.405	4580
895.526	4630
895.648	4653
895.769	4679
895.891	4717
896.012	4698
896.134	4752
896.255	4691
896.376	4653
896.498	4641
896.619	4645
896.74	4637
896.861	4675
896.982	4942
897.103	5147
897.224	4831
897.345	4774
897.466	4653
897.587	4729
897.708	4896
897.828	4820
897.949	4660
898.07	4561
898.19	4656
898.311	4797
898.431	4691
898.552	4717
898.672	4843
898.792	4797
898.913	4733
899.033	4645
899.153	4504
899.273	4394
899.393	4493
899.513	4478
899.633	4527
899.753	4535
899.873	4504
899.993	4592
900.113	4558
900.232	4538
900.352	4542
900.472	4451
900.591	4386
900.711	4546
900.83	4462
900.95	4596
901.069	4664
901.189	4508
901.308	4417
901.427	4344
901.546	4409
901.665	4455
901.784	4478
901.904	4413
902.023	4310
902.141	4207
902.26	4177
902.379	4295
902.498	4268
902.617	4246
902.735	4386
902.854	4413
902.973	4329
903.091	4238
903.21	4246
903.328	4348
903.446	4322
903.565	4276
903.683	4363
903.801	4333
903.919	4455
904.038	4451
904.156	4383
904.274	4405
904.392	4371
904.51	4455
904.627	4512
904.745	4561
904.863	4618
904.981	4417
905.098	4390
905.216	4394
905.334	4470
905.451	4489
905.569	4474
905.686	4592
905.803	4577
905.921	4432
906.038	4584
906.155	4512
906.272	4466
906.389	4485
906.506	4394
906.623	4432
906.74	4424
906.857	4325
906.974	4432
907.091	4599
907.208	4675
907.324	4618
907.441	4489
907.557	4402
907.674	4367
907.79	4386
907.907	4413
908.023	4519
908.139	4519
908.256	4470
908.372	4516
908.488	4481
908.604	4390
908.72	4375
908.836	4421
908.952	4451
909.068	4493
909.184	4565
909.3	4508
909.415	4664
909.531	4577
909.647	4371
909.762	4466
909.878	4390
909.993	4459
910.108	4489
910.224	4440
910.339	4531
910.454	4447
910.57	4379
910.685	4371
910.8	4634
910.915	4611
911.03	4531
911.145	4367
911.259	4386
911.374	4402
911.489	4310
911.604	4325
911.718	4196
911.833	4238
911.947	4109
912.062	4082
912.176	4261
912.291	4246
912.405	4265
912.519	4535
912.633	4558
912.748	4424
912.862	4318
912.976	4234
913.09	4139
913.204	4234
913.318	4249
913.431	4402
913.545	4383
913.659	4474
913.772	4409
913.886	4261
914	4261
914.113	4432
914.226	4493
914.34	4447
914.453	4280
914.566	4428
914.68	4310
914.793	4333
914.906	4188
915.019	4120
915.132	4109
915.245	4219
915.358	4253
915.47	4291
915.583	4284
915.696	4360
915.809	4402
915.921	4462
916.034	4272
916.146	4276
916.259	4272
916.371	4405
916.483	4352
916.595	4280
916.708	4341
916.82	4318
916.932	4344
917.044	4360
917.156	4348
917.268	4287
917.38	4325
917.491	4310
917.603	4325
917.715	4470
917.826	4493
917.938	4371
918.049	4303
918.161	4424
918.272	4573
918.384	4592
918.495	4436
918.606	4329
918.717	4249
918.828	4379
918.939	4428
919.05	4291
919.161	4329
919.272	4154
919.383	4303
919.494	4485
919.604	4641
919.715	4459
919.826	4333
919.936	4474
920.047	4584
920.157	4512
920.267	4744
920.378	4599
920.488	4500
920.598	4733
920.708	4942
920.818	4778
920.928	4786
921.038	4972
921.148	4961
921.258	4683
921.368	4546
921.477	4535
921.587	4478
921.697	4413
921.806	4558
921.916	4436
922.025	4344
922.134	4291
922.244	4242
922.353	4363
922.462	4223
922.571	4169
922.68	4017
922.789	3975
922.898	4044
923.007	3991
923.116	4143
923.224	4029
923.333	4131
923.442	4044
923.55	4013
923.659	4059
923.767	4143
923.876	4063
923.984	4150
924.092	3968
924.201	4093
924.309	4154
924.417	4131
924.525	4071
924.633	4128
924.741	5064
924.849	3945
924.956	4150
925.064	4013
925.172	3941
925.279	3991
925.387	4112
925.494	4040
925.602	4268
925.709	4154
925.816	4071
925.924	4158
926.031	4200
926.138	4196
926.245	4257
926.352	4086
926.459	4276
926.566	4322
926.673	4192
926.779	4082
926.886	4128
926.993	4006
927.099	3987
927.206	4006
927.312	3968
927.419	4116
927.525	4036
927.631	4082
927.737	4025
927.843	3918
927.95	3880
928.056	3941
928.162	3991
928.267	4082
928.373	4687
928.479	4150
928.585	3884
928.69	4032
928.796	4120
928.901	4002
929.007	3846
929.112	4029
929.218	3979
929.323	3941
929.428	3991
929.533	4116
929.638	3945
929.743	4032
929.848	4082
929.953	4010
930.058	3975
930.163	3846
930.267	3816
930.372	4002
930.477	3854
930.581	4082
930.685	3987
930.79	3812
930.894	3911
930.998	3880
931.103	4071
931.207	3759
931.311	3755
931.415	3648
931.519	3591
931.623	3606
