Data from test_V78500241_905.txt Node
Date: Fri Mar 25 16:55:17 CST 2022
User: usil
Spectrometer: V785-0024
Trigger mode: 0
Integration Time (sec): 4.000000E-1
Scans to average: 1
Nonlinearity correction enabled: false
Boxcar width: 0
Storing dark spectrum: false
XAxis mode: Wavelengths
Number of Pixels in Spectrum: 1024
>>>>>Begin Spectral Data<<<<<
801.071	7974
801.214	8062
801.356	7928
801.499	7856
801.641	7826
801.783	7841
801.926	7963
802.068	7947
802.211	7902
802.353	7993
802.496	7818
802.638	7868
802.78	7925
802.923	7849
803.065	7852
803.208	7906
803.35	8024
803.492	8096
803.635	8191
803.777	8027
803.919	8138
804.061	8381
804.204	8145
804.346	7970
804.488	7959
804.63	8103
804.773	7970
804.915	8073
805.057	8279
805.199	8191
805.341	8202
805.483	8221
805.626	8233
805.768	8138
805.91	8161
806.052	8187
806.194	8058
806.336	8259
806.478	8058
806.62	8024
806.762	8164
806.904	8259
807.046	8495
807.188	8309
807.33	8324
807.472	8374
807.614	8153
807.756	8134
807.898	7967
808.04	7871
808.182	7925
808.324	7837
808.465	7841
808.607	8043
808.749	8115
808.891	8157
809.033	8271
809.174	8214
809.316	8043
809.458	8081
809.6	7928
809.741	7997
809.883	8001
810.025	8092
810.166	8115
810.308	8012
810.45	8001
810.591	7902
810.733	7731
810.875	7674
811.016	7495
811.158	7457
811.299	7537
811.441	7742
811.582	7658
811.724	7605
811.865	7544
812.007	7632
812.148	7582
812.29	7643
812.431	7704
812.573	7776
812.714	7963
812.855	8065
812.997	8210
813.138	8336
813.279	8164
813.421	8058
813.562	7967
813.703	7879
813.845	7765
813.986	7434
814.127	7316
814.268	7240
814.41	7209
814.551	7114
814.692	7126
814.833	7065
814.974	7198
815.115	7126
815.256	7019
815.397	6954
815.539	6943
815.68	6825
815.821	6779
815.962	6886
816.103	6829
816.244	6749
816.385	6582
816.526	6662
816.666	6494
816.807	6289
816.948	6414
817.089	6433
817.23	6418
817.371	6357
817.512	6437
817.653	6391
817.793	6372
817.934	6357
818.075	6384
818.216	6388
818.356	6369
818.497	6224
818.638	6076
818.778	6144
818.919	6117
819.06	6182
819.2	6273
819.341	6289
819.481	6395
819.622	6471
819.762	6734
819.903	6707
820.043	6601
820.184	6608
820.324	6578
820.465	6665
820.605	6677
820.746	6631
820.886	6490
821.026	6578
821.167	6646
821.307	6753
821.447	6700
821.588	6623
821.728	6563
821.868	6498
822.008	6353
822.149	6361
822.289	6304
822.429	6178
822.569	6060
822.709	6133
822.849	5885
822.99	5870
823.13	5912
823.27	5954
823.41	5805
823.55	5733
823.69	5779
823.83	5805
823.97	5680
824.11	5509
824.25	5505
824.389	5589
824.529	5573
824.669	5547
824.809	5596
824.949	5634
825.089	5577
825.228	5543
825.368	5410
825.508	5379
825.648	5307
825.787	5387
825.927	5379
826.067	5341
826.206	5303
826.346	5357
826.485	5345
826.625	5444
826.765	5532
826.904	5421
827.044	5254
827.183	5155
827.323	5140
827.462	5204
827.601	5155
827.741	5159
827.88	5136
828.02	5079
828.159	5239
828.298	5292
828.437	5395
828.577	5337
828.716	5459
828.855	5273
828.994	5155
829.134	5113
829.273	5166
829.412	5140
829.551	5079
829.69	5170
829.829	5231
829.968	5326
830.107	5201
830.246	5284
830.385	5121
830.524	5113
830.663	5056
830.802	4999
830.941	4889
831.08	4881
831.219	4942
831.357	4972
831.496	5201
831.635	4919
831.774	4870
831.913	4793
832.051	4740
832.19	4721
832.329	4809
832.467	4687
832.606	4584
832.744	4706
832.883	4729
833.022	4679
833.16	4755
833.299	4801
833.437	4831
833.576	4824
833.714	4854
833.852	4854
833.991	4873
834.129	4953
834.267	4949
834.406	4938
834.544	4953
834.682	4934
834.821	4953
834.959	5132
835.097	4991
835.235	5197
835.373	5048
835.511	5064
835.65	4953
835.788	5033
835.926	4930
836.064	4812
836.202	4908
836.34	5143
836.478	5242
836.615	5079
836.753	5197
836.891	5239
837.029	5220
837.167	5197
837.305	5109
837.443	5140
837.58	5086
837.718	5261
837.856	5208
837.993	5151
838.131	5216
838.269	5189
838.406	5105
838.544	5143
838.681	4995
838.819	4949
838.956	4877
839.094	4892
839.231	4957
839.369	5052
839.506	5398
839.643	5223
839.781	5060
839.918	5033
840.055	5136
840.193	5090
840.33	5102
840.467	5079
840.604	5189
840.742	5429
840.879	5083
841.016	5113
841.153	5109
841.29	5376
841.427	5345
841.564	5254
841.701	5318
841.838	5220
841.975	5239
842.112	5288
842.249	5121
842.385	5113
842.522	5315
842.659	5136
842.796	5193
842.933	5132
843.069	5193
843.206	5117
843.343	5288
843.479	5193
843.616	5235
843.752	5014
843.889	5037
844.025	5220
844.162	5033
844.298	5162
844.435	5022
844.571	5067
844.708	5231
844.844	5231
844.98	5322
845.117	5345
845.253	5117
845.389	5109
845.525	5124
845.661	5083
845.798	4953
845.934	5201
846.07	5033
846.206	5132
846.342	5216
846.478	5201
846.614	5018
846.75	4953
846.886	4946
847.022	5113
847.158	5029
847.294	4991
847.429	5067
847.565	5022
847.701	5269
847.837	4866
847.972	4824
848.108	4949
848.244	4957
848.379	4721
848.515	4752
848.65	4717
848.786	4729
848.921	4763
849.057	4881
849.192	4915
849.328	4786
849.463	4854
849.598	4793
849.734	4729
849.869	4649
850.004	4603
850.14	4649
850.275	4523
850.41	4546
850.545	4542
850.68	4531
850.815	4626
850.95	4592
851.085	4831
851.22	4729
851.355	4679
851.49	4626
851.625	4634
851.76	4615
851.895	4554
852.03	4523
852.165	4656
852.299	4755
852.434	4763
852.569	4702
852.703	4733
852.838	4778
852.973	4908
853.107	4889
853.242	4694
853.376	4649
853.511	4542
853.645	4577
853.78	4778
853.914	4687
854.048	4698
854.183	4599
854.317	4706
854.451	4858
854.585	4656
854.72	4626
854.854	4714
854.988	4573
855.122	4649
855.256	4523
855.39	4611
855.524	4782
855.658	4710
855.792	4714
855.926	4729
856.06	4721
856.194	4759
856.327	4615
856.461	4626
856.595	4637
856.729	4653
856.862	4733
856.996	4675
857.13	4660
857.263	4744
857.397	4721
857.53	4672
857.664	4740
857.797	4691
857.931	4793
858.064	4679
858.197	4691
858.331	4649
858.464	4592
858.597	4493
858.731	4607
858.864	4641
858.997	4561
859.13	4645
859.263	4702
859.396	4691
859.529	4592
859.662	4523
859.795	4485
859.928	4588
860.061	4717
860.194	4763
860.327	4622
860.46	4565
860.592	4714
860.725	4736
860.858	4675
860.99	4592
861.123	4519
861.256	4519
861.388	4626
861.521	5227
861.653	4481
861.786	4424
861.918	4432
862.05	4516
862.183	4561
862.315	4577
862.447	4679
862.58	4512
862.712	4383
862.844	4371
862.976	4470
863.108	4481
863.24	4752
863.372	4356
863.504	4436
863.636	4356
863.768	4474
863.9	4417
864.032	4341
864.164	4352
864.296	4478
864.428	4527
864.559	4565
864.691	4500
864.823	4508
864.954	4466
865.086	4497
865.217	4424
865.349	4432
865.48	4421
865.612	4485
865.743	4615
865.875	4409
866.006	4398
866.137	4447
866.269	4428
866.4	4459
866.531	4386
866.662	4337
866.793	4455
866.924	4405
867.055	4512
867.186	4481
867.317	4390
867.448	4371
867.579	4356
867.71	4367
867.841	4360
867.972	4432
868.103	4421
868.233	4436
868.364	4459
868.495	4451
868.625	4637
868.756	4771
868.886	4584
869.017	4672
869.147	4782
869.278	4767
869.408	4675
869.539	4641
869.669	4733
869.799	4698
869.929	4797
870.06	4733
870.19	4965
870.32	4904
870.45	4938
870.58	4972
870.71	5090
870.84	5048
870.97	4953
871.1	4862
871.23	5170
871.36	5086
871.489	5025
871.619	5090
871.749	5117
871.879	5132
872.008	5132
872.138	5060
872.267	4961
872.397	4824
872.526	4805
872.656	4736
872.785	4790
872.915	4923
873.044	5003
873.173	4938
873.303	4938
873.432	4942
873.561	4934
873.69	4854
873.819	4870
873.948	4854
874.077	4790
874.206	4748
874.335	4797
874.464	4877
874.593	5067
874.722	4957
874.851	5086
874.979	5056
875.108	5064
875.237	4930
875.365	4850
875.494	4896
875.623	4942
875.751	4828
875.88	4873
876.008	4991
876.136	4976
876.265	5162
876.393	5330
876.521	5235
876.65	5208
876.778	5128
876.906	5037
877.034	5037
877.162	5045
877.29	4995
877.418	5064
877.546	5052
877.674	4991
877.802	4987
877.93	4987
878.058	4968
878.185	4847
878.313	4949
878.441	4949
878.568	4805
878.696	4877
878.824	4984
878.951	4984
879.079	5094
879.206	5277
879.333	5052
879.461	4949
879.588	4995
879.715	5128
879.842	5197
879.97	5025
880.097	4767
880.224	4717
880.351	4774
880.478	4828
880.605	4755
880.732	4778
880.859	5060
880.986	4908
881.112	4877
881.239	4790
881.366	4637
881.493	4596
881.619	4554
881.746	4626
881.872	4679
881.999	4645
882.125	4672
882.252	4752
882.378	4839
882.505	4953
882.631	4767
882.757	4675
882.883	4729
883.01	4668
883.136	4683
883.262	4588
883.388	4622
883.514	4812
883.64	4862
883.766	4801
883.892	4679
884.018	4729
884.143	4858
884.269	4984
884.395	4725
884.52	4641
884.646	4649
884.772	4596
884.897	4512
885.023	4694
885.148	4755
885.274	4850
885.399	4782
885.524	4710
885.65	4660
885.775	4759
885.9	4687
886.025	4873
886.15	4763
886.275	4790
886.4	4596
886.525	4714
886.65	4714
886.775	4683
886.9	4908
887.025	5025
887.149	4820
887.274	4675
887.399	4577
887.523	4615
887.648	4550
887.773	4596
887.897	4767
888.021	4744
888.146	4641
888.27	4824
888.395	4885
888.519	4797
888.643	4847
888.767	4831
888.891	4668
889.015	4618
889.139	4675
889.263	4626
889.387	4740
889.511	4847
889.635	4763
889.759	4611
889.883	4641
890.006	4668
890.13	4839
890.254	4615
890.377	4710
890.501	4485
890.624	4481
890.748	4630
890.871	4455
890.995	4413
891.118	4371
891.241	4519
891.364	4516
891.488	4645
891.611	4478
891.734	4542
891.857	4584
891.98	4573
892.103	4649
892.226	4588
892.349	4531
892.471	4390
892.594	4573
892.717	4558
892.839	4580
892.962	4558
893.085	4660
893.207	4565
893.33	4424
893.452	4538
893.575	4653
893.697	4527
893.819	4790
893.941	4759
894.064	4752
894.186	4630
894.308	4554
894.43	4706
894.552	4820
894.674	4736
894.796	4546
894.918	4554
895.04	4519
895.161	4691
895.283	4634
895.405	4580
895.526	4603
895.648	4755
895.769	4691
895.891	4668
896.012	4717
896.134	4694
896.255	4679
896.376	4649
896.498	4588
896.619	4622
896.74	4603
896.861	4668
896.982	4976
897.103	5086
897.224	4786
897.345	4725
897.466	4660
897.587	4729
897.708	4831
897.828	4755
897.949	4675
898.07	4527
898.19	4675
898.311	4831
898.431	4672
898.552	4721
898.672	4793
898.792	4793
898.913	4694
899.033	4611
899.153	4546
899.273	4421
899.393	4443
899.513	4504
899.633	4481
899.753	4546
899.873	4516
899.993	4592
900.113	4554
900.232	4542
900.352	4504
900.472	4478
900.591	4409
900.711	4440
900.83	4455
900.95	4607
901.069	4714
901.189	4512
901.308	4386
901.427	4299
901.546	4344
901.665	4455
901.784	4489
901.904	4386
902.023	4276
902.141	4169
902.26	4162
902.379	4287
902.498	4249
902.617	4207
902.735	4371
902.854	4352
902.973	4356
903.091	4177
903.21	4215
903.328	4265
903.446	4284
903.565	4230
903.683	4291
903.801	4287
903.919	4322
904.038	4405
904.156	4322
904.274	4428
904.392	4371
904.51	4417
904.627	4455
904.745	4607
904.863	4611
904.981	4394
905.098	4333
905.216	4306
905.334	4398
905.451	4405
905.569	4409
905.686	4516
905.803	4569
905.921	4417
906.038	4527
906.155	4481
906.272	4390
906.389	4443
906.506	4337
906.623	4390
906.74	4375
906.857	4299
906.974	4363
907.091	4493
907.208	4675
907.324	4603
907.441	4459
907.557	4371
907.674	4299
907.79	4322
907.907	4352
908.023	4474
908.139	4489
908.256	4428
908.372	4485
908.488	4462
908.604	4375
908.72	4322
908.836	4375
908.952	4383
909.068	4436
909.184	4500
909.3	4447
909.415	4554
909.531	4527
909.647	4333
909.762	4383
909.878	4291
909.993	4459
910.108	4417
910.224	4379
910.339	4500
910.454	4398
910.57	4344
910.685	4287
910.8	4630
910.915	4588
911.03	4459
911.145	4314
911.259	4337
911.374	4352
911.489	4314
911.604	4253
911.718	4150
911.833	4207
911.947	4082
912.062	3994
912.176	4196
912.291	4219
912.405	4238
912.519	4489
912.633	4542
912.748	4383
912.862	4306
912.976	4204
913.09	4059
913.204	4147
913.318	4219
913.431	4341
913.545	4356
913.659	4409
913.772	4360
913.886	4246
914	4215
914.113	4356
914.226	4428
914.34	4363
914.453	4242
914.566	4459
914.68	4276
914.793	4303
914.906	4120
915.019	4158
915.132	4090
915.245	4188
915.358	4204
915.47	4230
915.583	4253
915.696	4276
915.809	4405
915.921	4451
916.034	4223
916.146	4219
916.259	4188
916.371	4394
916.483	4348
916.595	4287
916.708	4341
916.82	4341
916.932	4303
917.044	4333
917.156	4299
917.268	4211
917.38	4234
917.491	4223
917.603	4314
917.715	4455
917.826	4402
917.938	4375
918.049	4234
918.161	4390
918.272	4546
918.384	4512
918.495	4466
918.606	4322
918.717	4215
918.828	4287
918.939	4394
919.05	4238
919.161	4295
919.272	4135
919.383	4261
919.494	4451
919.604	4603
919.715	4459
919.826	4337
919.936	4402
920.047	4500
920.157	4466
920.267	4694
920.378	4478
920.488	4508
920.598	4691
920.708	4843
920.818	4736
920.928	4725
921.038	4908
921.148	4923
921.258	4653
921.368	4546
921.477	4489
921.587	4478
921.697	4375
921.806	4500
921.916	4440
922.025	4234
922.134	4284
922.244	4215
922.353	4329
922.462	4154
922.571	4147
922.68	3972
922.789	3979
922.898	3983
923.007	3937
923.116	4074
923.224	4082
923.333	4040
923.442	3979
923.55	3953
923.659	4032
923.767	4105
923.876	3987
923.984	4116
924.092	4002
924.201	4067
924.309	4078
924.417	4093
924.525	4040
924.633	4116
924.741	4885
924.849	3899
924.956	4135
925.064	3945
925.172	3937
925.279	3975
925.387	4055
925.494	4071
925.602	4188
925.709	4166
925.816	4063
925.924	4101
926.031	4207
926.138	4177
926.245	4162
926.352	4093
926.459	4188
926.566	4318
926.673	4143
926.779	4097
926.886	4051
926.993	3953
927.099	3918
927.206	3918
927.312	3956
927.419	4044
927.525	4021
927.631	4093
927.737	3968
927.843	3945
927.95	3835
928.056	3945
928.162	4006
928.267	4063
928.373	4573
928.479	4097
928.585	3915
928.69	4032
928.796	4025
928.901	3987
929.007	3835
929.112	3941
929.218	4006
929.323	3907
929.428	3915
929.533	4109
929.638	3854
929.743	3926
929.848	4051
929.953	3987
930.058	3926
930.163	3766
930.267	3823
930.372	3941
930.477	3808
930.581	4071
930.685	3983
930.79	3800
930.894	3873
930.998	3861
931.103	4013
931.207	3705
931.311	3728
931.415	3694
931.519	3515
931.623	3500
