Data from test_V78500241_2190.txt Node
Date: Fri Mar 25 17:04:13 CST 2022
User: usil
Spectrometer: V785-0024
Trigger mode: 0
Integration Time (sec): 4.000000E-1
Scans to average: 1
Nonlinearity correction enabled: false
Boxcar width: 0
Storing dark spectrum: false
XAxis mode: Wavelengths
Number of Pixels in Spectrum: 1024
>>>>>Begin Spectral Data<<<<<
801.071	8081
801.214	7955
801.356	7856
801.499	7864
801.641	7833
801.783	7871
801.926	7955
802.068	7951
802.211	8065
802.353	8012
802.496	7887
802.638	7868
802.78	7936
802.923	7951
803.065	7917
803.208	7879
803.35	7978
803.492	8100
803.635	8206
803.777	8008
803.919	8134
804.061	8465
804.204	8164
804.346	8020
804.488	8012
804.63	8103
804.773	8031
804.915	8183
805.057	8301
805.199	8168
805.341	8195
805.483	8271
805.626	8267
805.768	8168
805.91	8183
806.052	8172
806.194	8111
806.336	8267
806.478	8134
806.62	8069
806.762	8100
806.904	8301
807.046	8511
807.188	8389
807.33	8347
807.472	8328
807.614	8172
807.756	8206
807.898	7989
808.04	7913
808.182	7864
808.324	7940
808.465	7921
808.607	8069
808.749	8130
808.891	8195
809.033	8317
809.174	8214
809.316	8103
809.458	8069
809.6	8020
809.741	8031
809.883	8043
810.025	8054
810.166	8107
810.308	8035
810.45	7955
810.591	7879
810.733	7731
810.875	7704
811.016	7499
811.158	7518
811.299	7620
811.441	7753
811.582	7708
811.724	7529
811.865	7510
812.007	7578
812.148	7529
812.29	7715
812.431	7776
812.573	7849
812.714	7993
812.855	8161
812.997	8210
813.138	8301
813.279	8115
813.421	8115
813.562	7921
813.703	7811
813.845	7757
813.986	7495
814.127	7240
814.268	7236
814.41	7171
814.551	7179
814.692	7209
814.833	7099
814.974	7164
815.115	7110
815.256	6973
815.397	6970
815.539	6951
815.68	6783
815.821	6753
815.962	6840
816.103	6814
816.244	6719
816.385	6650
816.526	6589
816.666	6528
816.807	6331
816.948	6471
817.089	6467
817.23	6426
817.371	6395
817.512	6426
817.653	6399
817.793	6334
817.934	6502
818.075	6467
818.216	6452
818.356	6380
818.497	6270
818.638	6133
818.778	6155
818.919	6163
819.06	6205
819.2	6292
819.341	6338
819.481	6372
819.622	6494
819.762	6764
819.903	6768
820.043	6532
820.184	6612
820.324	6566
820.465	6722
820.605	6650
820.746	6642
820.886	6540
821.026	6616
821.167	6707
821.307	6837
821.447	6783
821.588	6665
821.728	6620
821.868	6566
822.008	6308
822.149	6388
822.289	6391
822.429	6201
822.569	6121
822.709	6155
822.849	5893
822.99	5923
823.13	5901
823.27	5927
823.41	5851
823.55	5760
823.69	5817
823.83	5817
823.97	5680
824.11	5501
824.25	5505
824.389	5592
824.529	5570
824.669	5547
824.809	5630
824.949	5752
825.089	5611
825.228	5551
825.368	5455
825.508	5330
825.648	5360
825.787	5414
825.927	5368
826.067	5322
826.206	5284
826.346	5357
826.485	5353
826.625	5406
826.765	5558
826.904	5463
827.044	5258
827.183	5239
827.323	5166
827.462	5277
827.601	5178
827.741	5181
827.88	5189
828.02	5166
828.159	5220
828.298	5258
828.437	5360
828.577	5341
828.716	5474
828.855	5372
828.994	5185
829.134	5174
829.273	5170
829.412	5143
829.551	5128
829.69	5166
829.829	5231
829.968	5414
830.107	5273
830.246	5269
830.385	5181
830.524	5117
830.663	5045
830.802	4965
830.941	4919
831.08	4900
831.219	4965
831.357	5018
831.496	5136
831.635	4923
831.774	4820
831.913	4858
832.051	4679
832.19	4736
832.329	4843
832.467	4706
832.606	4668
832.744	4706
832.883	4683
833.022	4778
833.16	4797
833.299	4812
833.437	4839
833.576	4839
833.714	4854
833.852	4870
833.991	4892
834.129	4995
834.267	4930
834.406	4892
834.544	5003
834.682	4965
834.821	5003
834.959	5159
835.097	4976
835.235	5132
835.373	5105
835.511	5048
835.65	5010
835.788	5025
835.926	4980
836.064	4858
836.202	4923
836.34	5105
836.478	5212
836.615	5109
836.753	5223
836.891	5292
837.029	5296
837.167	5185
837.305	5159
837.443	5174
837.58	5079
837.718	5292
837.856	5197
837.993	5185
838.131	5193
838.269	5223
838.406	5261
838.544	5231
838.681	5025
838.819	5018
838.956	4904
839.094	4927
839.231	4991
839.369	5117
839.506	5417
839.643	5303
839.781	5056
839.918	5041
840.055	5132
840.193	5083
840.33	5113
840.467	5170
840.604	5193
840.742	5421
840.879	5060
841.016	5102
841.153	5132
841.29	5372
841.427	5379
841.564	5265
841.701	5368
841.838	5280
841.975	5250
842.112	5318
842.249	5121
842.385	5041
842.522	5326
842.659	5197
842.796	5117
842.933	5212
843.069	5124
843.206	5170
843.343	5280
843.479	5239
843.616	5322
843.752	5018
843.889	4991
844.025	5201
844.162	5045
844.298	5162
844.435	5075
844.571	5025
844.708	5185
844.844	5231
844.98	5357
845.117	5326
845.253	5170
845.389	5079
845.525	5220
845.661	5128
845.798	5079
845.934	5128
846.07	5025
846.206	5216
846.342	5273
846.478	5147
846.614	4980
846.75	4930
846.886	4957
847.022	5197
847.158	4949
847.294	5083
847.429	5090
847.565	5102
847.701	5322
847.837	4828
847.972	4816
848.108	4995
848.244	4923
848.379	4793
848.515	4740
848.65	4744
848.786	4744
848.921	4778
849.057	4824
849.192	4923
849.328	4847
849.463	4862
849.598	4774
849.734	4786
849.869	4691
850.004	4679
850.14	4622
850.275	4615
850.41	4550
850.545	4546
850.68	4618
850.815	4596
850.95	4584
851.085	4839
851.22	4740
851.355	4626
851.49	4618
851.625	4618
851.76	4615
851.895	4531
852.03	4577
852.165	4672
852.299	4782
852.434	4805
852.569	4729
852.703	4782
852.838	4858
852.973	4957
853.107	4904
853.242	4721
853.376	4660
853.511	4546
853.645	4630
853.78	4767
853.914	4691
854.048	4664
854.183	4615
854.317	4683
854.451	4858
854.585	4653
854.72	4653
854.854	4816
854.988	4626
855.122	4626
855.256	4508
855.39	4641
855.524	4740
855.658	4744
855.792	4736
855.926	4763
856.06	4763
856.194	4763
856.327	4714
856.461	4573
856.595	4596
856.729	4599
856.862	4664
856.996	4694
857.13	4729
857.263	4759
857.397	4828
857.53	4641
857.664	4721
857.797	4793
857.931	4767
858.064	4710
858.197	4725
858.331	4603
858.464	4607
858.597	4512
858.731	4603
858.864	4584
858.997	4634
859.13	4653
859.263	4656
859.396	4664
859.529	4599
859.662	4542
859.795	4523
859.928	4649
860.061	4740
860.194	4774
860.327	4634
860.46	4542
860.592	4748
860.725	4691
860.858	4683
860.99	4599
861.123	4538
861.256	4542
861.388	4626
861.521	5383
861.653	4470
861.786	4436
861.918	4459
862.05	4489
862.183	4558
862.315	4565
862.447	4634
862.58	4550
862.712	4402
862.844	4306
862.976	4485
863.108	4428
863.24	4786
863.372	4303
863.504	4428
863.636	4421
863.768	4504
863.9	4390
864.032	4360
864.164	4386
864.296	4466
864.428	4508
864.559	4558
864.691	4531
864.823	4504
864.954	4493
865.086	4573
865.217	4481
865.349	4440
865.48	4443
865.612	4459
865.743	4592
865.875	4447
866.006	4402
866.137	4455
866.269	4459
866.4	4424
866.531	4405
866.662	4421
866.793	4398
866.924	4432
867.055	4497
867.186	4455
867.317	4421
867.448	4394
867.579	4409
867.71	4409
867.841	4341
867.972	4455
868.103	4424
868.233	4447
868.364	4394
868.495	4459
868.625	4634
868.756	4782
868.886	4554
869.017	4599
869.147	4729
869.278	4729
869.408	4698
869.539	4694
869.669	4675
869.799	4683
869.929	4778
870.06	4755
870.19	4942
870.32	4900
870.45	4946
870.58	4980
870.71	5079
870.84	5071
870.97	4961
871.1	4919
871.23	5170
871.36	5117
871.489	4980
871.619	4999
871.749	5124
871.879	5117
872.008	5189
872.138	5010
872.267	4987
872.397	4824
872.526	4843
872.656	4714
872.785	4767
872.915	4911
873.044	5052
873.173	4965
873.303	4953
873.432	4946
873.561	4961
873.69	4828
873.819	4835
873.948	4908
874.077	4831
874.206	4763
874.335	4805
874.464	4923
874.593	4987
874.722	4923
874.851	5090
874.979	5083
875.108	4995
875.237	4915
875.365	4972
875.494	4900
875.623	4927
875.751	4881
875.88	4862
876.008	4949
876.136	5079
876.265	5223
876.393	5341
876.521	5273
876.65	5201
876.778	5159
876.906	5052
877.034	5041
877.162	5086
877.29	4984
877.418	5018
877.546	5067
877.674	5010
877.802	5041
877.93	5014
878.058	4900
878.185	4877
878.313	4949
878.441	4999
878.568	4812
878.696	4889
878.824	4949
878.951	5006
879.079	5121
879.206	5311
879.333	5067
879.461	4987
879.588	4968
879.715	5124
879.842	5193
879.97	4976
880.097	4828
880.224	4752
880.351	4793
880.478	4839
880.605	4790
880.732	4801
880.859	5079
880.986	4911
881.112	4858
881.239	4797
881.366	4702
881.493	4603
881.619	4584
881.746	4683
881.872	4653
881.999	4637
882.125	4694
882.252	4755
882.378	4809
882.505	4987
882.631	4812
882.757	4618
882.883	4744
883.01	4748
883.136	4679
883.262	4577
883.388	4626
883.514	4809
883.64	4843
883.766	4801
883.892	4656
884.018	4717
884.143	4896
884.269	4961
884.395	4706
884.52	4599
884.646	4637
884.772	4580
884.897	4523
885.023	4630
885.148	4805
885.274	4873
885.399	4816
885.524	4710
885.65	4717
885.775	4767
885.9	4706
886.025	4820
886.15	4793
886.275	4698
886.4	4691
886.525	4725
886.65	4683
886.775	4717
886.9	4873
887.025	4984
887.149	4805
887.274	4603
887.399	4588
887.523	4569
887.648	4596
887.773	4550
887.897	4740
888.021	4778
888.146	4710
888.27	4801
888.395	4919
888.519	4778
888.643	4866
888.767	4790
888.891	4664
889.015	4577
889.139	4596
889.263	4618
889.387	4717
889.511	4892
889.635	4790
889.759	4664
889.883	4672
890.006	4702
890.13	4816
890.254	4649
890.377	4664
890.501	4508
890.624	4538
890.748	4679
890.871	4485
890.995	4421
891.118	4409
891.241	4561
891.364	4516
891.488	4611
891.611	4466
891.734	4508
891.857	4618
891.98	4546
892.103	4664
892.226	4596
892.349	4523
892.471	4440
892.594	4531
892.717	4573
892.839	4577
892.962	4577
893.085	4672
893.207	4622
893.33	4413
893.452	4565
893.575	4588
893.697	4603
893.819	4816
893.941	4847
894.064	4755
894.186	4580
894.308	4531
894.43	4748
894.552	4873
894.674	4771
894.796	4523
894.918	4618
895.04	4531
895.161	4736
895.283	4675
895.405	4618
895.526	4611
895.648	4664
895.769	4683
895.891	4729
896.012	4725
896.134	4698
896.255	4664
896.376	4679
896.498	4569
896.619	4660
896.74	4607
896.861	4584
896.982	4915
897.103	5041
897.224	4824
897.345	4687
897.466	4615
897.587	4729
897.708	4850
897.828	4763
897.949	4656
898.07	4577
898.19	4607
898.311	4828
898.431	4649
898.552	4679
898.672	4774
898.792	4786
898.913	4729
899.033	4603
899.153	4459
899.273	4421
899.393	4478
899.513	4500
899.633	4512
899.753	4542
899.873	4497
899.993	4558
900.113	4535
900.232	4592
900.352	4554
900.472	4516
900.591	4398
900.711	4474
900.83	4443
900.95	4626
901.069	4679
901.189	4497
901.308	4440
901.427	4341
901.546	4363
901.665	4493
901.784	4485
901.904	4360
902.023	4325
902.141	4219
902.26	4158
902.379	4299
902.498	4227
902.617	4215
902.735	4310
902.854	4390
902.973	4344
903.091	4192
903.21	4234
903.328	4284
903.446	4265
903.565	4284
903.683	4341
903.801	4276
903.919	4348
904.038	4432
904.156	4295
904.274	4421
904.392	4371
904.51	4474
904.627	4493
904.745	4653
904.863	4634
904.981	4436
905.098	4341
905.216	4314
905.334	4428
905.451	4417
905.569	4470
905.686	4546
905.803	4573
905.921	4402
906.038	4580
906.155	4489
906.272	4417
906.389	4478
906.506	4280
906.623	4356
906.74	4375
906.857	4314
906.974	4356
907.091	4592
907.208	4687
907.324	4554
907.441	4500
907.557	4337
907.674	4329
907.79	4253
907.907	4379
908.023	4413
908.139	4440
908.256	4390
908.372	4474
908.488	4409
908.604	4352
908.72	4314
908.836	4390
908.952	4337
909.068	4417
909.184	4527
909.3	4402
909.415	4626
909.531	4561
909.647	4344
909.762	4417
909.878	4363
909.993	4474
910.108	4371
910.224	4363
910.339	4462
910.454	4424
910.57	4367
910.685	4287
910.8	4668
910.915	4577
911.03	4527
911.145	4314
911.259	4310
911.374	4390
911.489	4261
911.604	4303
911.718	4177
911.833	4227
911.947	4059
912.062	4067
912.176	4200
912.291	4223
912.405	4249
912.519	4451
912.633	4493
912.748	4333
912.862	4306
912.976	4246
913.09	4116
913.204	4120
913.318	4238
913.431	4333
913.545	4367
913.659	4432
913.772	4318
913.886	4242
914	4204
914.113	4371
914.226	4440
914.34	4375
914.453	4234
914.566	4424
914.68	4268
914.793	4299
914.906	4112
915.019	4120
915.132	4090
915.245	4181
915.358	4192
915.47	4257
915.583	4249
915.696	4299
915.809	4409
915.921	4447
916.034	4253
916.146	4230
916.259	4211
916.371	4371
916.483	4367
916.595	4287
916.708	4383
916.82	4314
916.932	4291
917.044	4291
917.156	4295
917.268	4223
917.38	4280
917.491	4306
917.603	4257
917.715	4383
917.826	4451
917.938	4333
918.049	4234
918.161	4367
918.272	4531
918.384	4512
918.495	4421
918.606	4287
918.717	4219
918.828	4318
918.939	4333
919.05	4257
919.161	4310
919.272	4131
919.383	4177
919.494	4443
919.604	4637
919.715	4462
919.826	4363
919.936	4375
920.047	4538
920.157	4485
920.267	4755
920.378	4512
920.488	4485
920.598	4717
920.708	4824
920.818	4744
920.928	4778
921.038	4976
921.148	4942
921.258	4622
921.368	4531
921.477	4497
921.587	4459
921.697	4367
921.806	4554
921.916	4424
922.025	4223
922.134	4242
922.244	4188
922.353	4299
922.462	4162
922.571	4135
922.68	3994
922.789	3972
922.898	4010
923.007	3972
923.116	4120
923.224	4074
923.333	4055
923.442	3953
923.55	3915
923.659	4040
923.767	4093
923.876	3983
923.984	4101
924.092	3987
924.201	4063
924.309	4128
924.417	4120
924.525	4078
924.633	4097
924.741	5041
924.849	3953
924.956	4109
925.064	3915
925.172	3934
925.279	3907
925.387	4055
925.494	4063
925.602	4169
925.709	4177
925.816	4071
925.924	4124
926.031	4166
926.138	4169
926.245	4211
926.352	4124
926.459	4242
926.566	4291
926.673	4116
926.779	4093
926.886	4147
926.993	3960
927.099	3956
927.206	3907
927.312	3918
927.419	4063
927.525	4025
927.631	4112
927.737	3926
927.843	3930
927.95	3819
928.056	3975
928.162	3991
928.267	4063
928.373	4691
928.479	4124
928.585	3896
928.69	4055
928.796	4105
928.901	3987
929.007	3838
929.112	4044
929.218	4013
929.323	3956
929.428	3930
929.533	4086
929.638	3907
929.743	3998
929.848	4067
929.953	3987
930.058	3884
930.163	3770
930.267	3804
930.372	3934
930.477	3846
930.581	4074
930.685	3964
930.79	3827
930.894	3861
930.998	3869
931.103	4090
931.207	3690
931.311	3675
931.415	3652
931.519	3557
931.623	3542
