Data from test_V78500241_2676.txt Node
Date: Fri Mar 25 17:07:36 CST 2022
User: usil
Spectrometer: V785-0024
Trigger mode: 0
Integration Time (sec): 4.000000E-1
Scans to average: 1
Nonlinearity correction enabled: false
Boxcar width: 0
Storing dark spectrum: false
XAxis mode: Wavelengths
Number of Pixels in Spectrum: 1024
>>>>>Begin Spectral Data<<<<<
801.071	8065
801.214	8050
801.356	7947
801.499	7890
801.641	7807
801.783	7902
801.926	7982
802.068	8084
802.211	7978
802.353	7989
802.496	7879
802.638	7883
802.78	7970
802.923	7944
803.065	7856
803.208	7845
803.35	7955
803.492	8119
803.635	8256
803.777	8115
803.919	8153
804.061	8473
804.204	8191
804.346	8069
804.488	8001
804.63	8168
804.773	8088
804.915	8130
805.057	8343
805.199	8206
805.341	8305
805.483	8252
805.626	8218
805.768	8111
805.91	8107
806.052	8240
806.194	8123
806.336	8381
806.478	8138
806.62	8012
806.762	8172
806.904	8218
807.046	8393
807.188	8377
807.33	8351
807.472	8286
807.614	8168
807.756	8161
807.898	7986
808.04	7936
808.182	7799
808.324	7959
808.465	7921
808.607	8077
808.749	8157
808.891	8214
809.033	8366
809.174	8244
809.316	8065
809.458	8054
809.6	8001
809.741	8054
809.883	8046
810.025	8176
810.166	8050
810.308	8031
810.45	8035
810.591	7944
810.733	7700
810.875	7643
811.016	7548
811.158	7521
811.299	7636
811.441	7715
811.582	7746
811.724	7578
811.865	7529
812.007	7571
812.148	7605
812.29	7655
812.431	7696
812.573	7871
812.714	7974
812.855	8100
812.997	8214
813.138	8320
813.279	8172
813.421	8111
813.562	8027
813.703	7765
813.845	7814
813.986	7495
814.127	7274
814.268	7232
814.41	7217
814.551	7137
814.692	7232
814.833	7088
814.974	7080
815.115	7091
815.256	6977
815.397	6905
815.539	6920
815.68	6795
815.821	6837
815.962	6871
816.103	6818
816.244	6730
816.385	6665
816.526	6654
816.666	6513
816.807	6315
816.948	6407
817.089	6437
817.23	6441
817.371	6426
817.512	6426
817.653	6407
817.793	6365
817.934	6407
818.075	6433
818.216	6437
818.356	6433
818.497	6239
818.638	6159
818.778	6117
818.919	6175
819.06	6133
819.2	6331
819.341	6258
819.481	6281
819.622	6574
819.762	6783
819.903	6764
820.043	6612
820.184	6578
820.324	6563
820.465	6715
820.605	6684
820.746	6646
820.886	6506
821.026	6707
821.167	6681
821.307	6821
821.447	6753
821.588	6650
821.728	6574
821.868	6502
822.008	6353
822.149	6391
822.289	6357
822.429	6175
822.569	6125
822.709	6136
822.849	5920
822.99	5904
823.13	6003
823.27	5942
823.41	5794
823.55	5813
823.69	5771
823.83	5824
823.97	5680
824.11	5554
824.25	5554
824.389	5596
824.529	5634
824.669	5562
824.809	5699
824.949	5722
825.089	5676
825.228	5615
825.368	5512
825.508	5391
825.648	5330
825.787	5387
825.927	5436
826.067	5364
826.206	5307
826.346	5398
826.485	5463
826.625	5433
826.765	5589
826.904	5532
827.044	5292
827.183	5254
827.323	5204
827.462	5277
827.601	5193
827.741	5242
827.88	5296
828.02	5151
828.159	5326
828.298	5372
828.437	5372
828.577	5296
828.716	5524
828.855	5391
828.994	5220
829.134	5197
829.273	5212
829.412	5204
829.551	5170
829.69	5227
829.829	5292
829.968	5383
830.107	5296
830.246	5330
830.385	5208
830.524	5170
830.663	5102
830.802	4984
830.941	4968
831.08	4934
831.219	5071
831.357	4991
831.496	5185
831.635	4961
831.774	4892
831.913	4892
832.051	4782
832.19	4778
832.329	4919
832.467	4714
832.606	4672
832.744	4759
832.883	4752
833.022	4790
833.16	4820
833.299	4870
833.437	4885
833.576	4896
833.714	4889
833.852	4873
833.991	4938
834.129	4999
834.267	4987
834.406	4968
834.544	5052
834.682	5079
834.821	4976
834.959	5235
835.097	5033
835.235	5155
835.373	5136
835.511	5086
835.65	5041
835.788	5064
835.926	4911
836.064	4889
836.202	5006
836.34	5185
836.478	5269
836.615	5155
836.753	5231
836.891	5353
837.029	5261
837.167	5220
837.305	5189
837.443	5121
837.58	5117
837.718	5311
837.856	5223
837.993	5189
838.131	5299
838.269	5239
838.406	5216
838.544	5159
838.681	5067
838.819	5025
838.956	4942
839.094	4987
839.231	5003
839.369	5090
839.506	5433
839.643	5318
839.781	5105
839.918	5029
840.055	5166
840.193	5113
840.33	5166
840.467	5128
840.604	5208
840.742	5463
840.879	5113
841.016	5166
841.153	5181
841.29	5395
841.427	5410
841.564	5345
841.701	5410
841.838	5357
841.975	5250
842.112	5277
842.249	5121
842.385	5159
842.522	5349
842.659	5185
842.796	5140
842.933	5250
843.069	5208
843.206	5204
843.343	5341
843.479	5269
843.616	5303
843.752	5071
843.889	4999
844.025	5227
844.162	5052
844.298	5231
844.435	5064
844.571	5117
844.708	5201
844.844	5299
844.98	5433
845.117	5318
845.253	5185
845.389	5083
845.525	5147
845.661	5231
845.798	5071
845.934	5143
846.07	5102
846.206	5231
846.342	5349
846.478	5178
846.614	5083
846.75	4965
846.886	4984
847.022	5223
847.158	5071
847.294	5121
847.429	5128
847.565	5060
847.701	5402
847.837	4858
847.972	4812
848.108	5003
848.244	4965
848.379	4854
848.515	4786
848.65	4759
848.786	4778
848.921	4835
849.057	4885
849.192	4889
849.328	4911
849.463	4892
849.598	4816
849.734	4755
849.869	4687
850.004	4656
850.14	4702
850.275	4630
850.41	4550
850.545	4577
850.68	4630
850.815	4675
850.95	4630
851.085	4828
851.22	4752
851.355	4752
851.49	4679
851.625	4641
851.76	4615
851.895	4645
852.03	4565
852.165	4660
852.299	4752
852.434	4843
852.569	4767
852.703	4805
852.838	4938
852.973	4911
853.107	4957
853.242	4755
853.376	4664
853.511	4531
853.645	4675
853.78	4752
853.914	4706
854.048	4714
854.183	4691
854.317	4740
854.451	4809
854.585	4744
854.72	4675
854.854	4729
854.988	4622
855.122	4698
855.256	4577
855.39	4626
855.524	4835
855.658	4714
855.792	4710
855.926	4717
856.06	4725
856.194	4809
856.327	4744
856.461	4603
856.595	4618
856.729	4656
856.862	4782
856.996	4774
857.13	4774
857.263	4778
857.397	4854
857.53	4729
857.664	4782
857.797	4793
857.931	4782
858.064	4694
858.197	4767
858.331	4752
858.464	4611
858.597	4550
858.731	4668
858.864	4717
858.997	4637
859.13	4637
859.263	4683
859.396	4717
859.529	4618
859.662	4588
859.795	4542
859.928	4645
860.061	4835
860.194	4759
860.327	4592
860.46	4596
860.592	4778
860.725	4740
860.858	4763
860.99	4596
861.123	4546
861.256	4538
861.388	4660
861.521	5452
861.653	4470
861.786	4459
861.918	4447
862.05	4561
862.183	4611
862.315	4611
862.447	4668
862.58	4569
862.712	4409
862.844	4383
862.976	4478
863.108	4504
863.24	4767
863.372	4367
863.504	4405
863.636	4443
863.768	4481
863.9	4493
864.032	4428
864.164	4405
864.296	4466
864.428	4538
864.559	4561
864.691	4596
864.823	4569
864.954	4535
865.086	4512
865.217	4466
865.349	4462
865.48	4523
865.612	4558
865.743	4622
865.875	4527
866.006	4443
866.137	4462
866.269	4447
866.4	4447
866.531	4455
866.662	4470
866.793	4428
866.924	4432
867.055	4577
867.186	4504
867.317	4428
867.448	4413
867.579	4455
867.71	4432
867.841	4402
867.972	4523
868.103	4443
868.233	4455
868.364	4523
868.495	4474
868.625	4656
868.756	4847
868.886	4584
869.017	4626
869.147	4797
869.278	4801
869.408	4683
869.539	4649
869.669	4748
869.799	4710
869.929	4824
870.06	4801
870.19	4972
870.32	4938
870.45	4999
870.58	5052
870.71	5124
870.84	5151
870.97	5006
871.1	4934
871.23	5178
871.36	5151
871.489	5086
871.619	5090
871.749	5105
871.879	5159
872.008	5170
872.138	5086
872.267	5022
872.397	4927
872.526	4801
872.656	4755
872.785	4889
872.915	4953
873.044	5071
873.173	4987
873.303	4980
873.432	4900
873.561	4934
873.69	4919
873.819	4923
873.948	4923
874.077	4812
874.206	4812
874.335	4835
874.464	4965
874.593	5162
874.722	5010
874.851	5086
874.979	5094
875.108	5052
875.237	4942
875.365	4915
875.494	4919
875.623	5025
875.751	4831
875.88	4953
876.008	5014
876.136	5006
876.265	5250
876.393	5372
876.521	5250
876.65	5254
876.778	5170
876.906	5098
877.034	5052
877.162	5033
877.29	5060
877.418	5045
877.546	5075
877.674	5071
877.802	5056
877.93	5064
878.058	4980
878.185	4934
878.313	5010
878.441	4949
878.568	4816
878.696	4881
878.824	4980
878.951	5033
879.079	5117
879.206	5273
879.333	5109
879.461	5003
879.588	5029
879.715	5166
879.842	5235
879.97	5010
880.097	4805
880.224	4736
880.351	4828
880.478	4850
880.605	4828
880.732	4862
880.859	5132
880.986	4927
881.112	4923
881.239	4748
881.366	4752
881.493	4603
881.619	4626
881.746	4679
881.872	4691
881.999	4634
882.125	4744
882.252	4835
882.378	4896
882.505	4980
882.631	4850
882.757	4675
882.883	4755
883.01	4694
883.136	4679
883.262	4592
883.388	4569
883.514	4820
883.64	4831
883.766	4820
883.892	4698
884.018	4740
884.143	4919
884.269	5022
884.395	4744
884.52	4656
884.646	4687
884.772	4596
884.897	4588
885.023	4668
885.148	4748
885.274	4908
885.399	4908
885.524	4748
885.65	4721
885.775	4763
885.9	4714
886.025	4858
886.15	4839
886.275	4755
886.4	4626
886.525	4786
886.65	4702
886.775	4698
886.9	4915
887.025	5094
887.149	4839
887.274	4664
887.399	4637
887.523	4561
887.648	4637
887.773	4550
887.897	4755
888.021	4885
888.146	4721
888.27	4790
888.395	4968
888.519	4786
888.643	4763
888.767	4812
888.891	4702
889.015	4645
889.139	4664
889.263	4626
889.387	4752
889.511	4858
889.635	4824
889.759	4672
889.883	4615
890.006	4744
890.13	4919
890.254	4634
890.377	4675
890.501	4550
890.624	4546
890.748	4603
890.871	4554
890.995	4421
891.118	4413
891.241	4550
891.364	4607
891.488	4630
891.611	4565
891.734	4546
891.857	4630
891.98	4588
892.103	4683
892.226	4569
892.349	4565
892.471	4428
892.594	4554
892.717	4634
892.839	4573
892.962	4641
893.085	4664
893.207	4615
893.33	4481
893.452	4561
893.575	4630
893.697	4588
893.819	4850
893.941	4854
894.064	4790
894.186	4645
894.308	4611
894.43	4706
894.552	4816
894.674	4816
894.796	4561
894.918	4641
895.04	4615
895.161	4694
895.283	4656
895.405	4561
895.526	4599
895.648	4717
895.769	4733
895.891	4721
896.012	4771
896.134	4721
896.255	4672
896.376	4637
896.498	4618
896.619	4672
896.74	4618
896.861	4615
896.982	4908
897.103	5140
897.224	4831
897.345	4759
897.466	4660
897.587	4725
897.708	4862
897.828	4771
897.949	4683
898.07	4561
898.19	4634
898.311	4839
898.431	4694
898.552	4748
898.672	4847
898.792	4843
898.913	4752
899.033	4637
899.153	4561
899.273	4451
899.393	4478
899.513	4565
899.633	4554
899.753	4573
899.873	4565
899.993	4592
900.113	4523
900.232	4584
900.352	4546
900.472	4546
900.591	4424
900.711	4470
900.83	4451
900.95	4637
901.069	4698
901.189	4527
901.308	4375
901.427	4291
901.546	4371
901.665	4512
901.784	4500
901.904	4428
902.023	4314
902.141	4223
902.26	4223
902.379	4310
902.498	4272
902.617	4238
902.735	4371
902.854	4394
902.973	4409
903.091	4219
903.21	4192
903.328	4257
903.446	4310
903.565	4280
903.683	4348
903.801	4276
903.919	4417
904.038	4474
904.156	4303
904.274	4451
904.392	4413
904.51	4485
904.627	4481
904.745	4622
904.863	4626
904.981	4409
905.098	4318
905.216	4371
905.334	4409
905.451	4455
905.569	4409
905.686	4603
905.803	4599
905.921	4424
906.038	4561
906.155	4489
906.272	4383
906.389	4500
906.506	4344
906.623	4367
906.74	4402
906.857	4284
906.974	4409
907.091	4592
907.208	4702
907.324	4584
907.441	4573
907.557	4318
907.674	4318
907.79	4367
907.907	4379
908.023	4497
908.139	4478
908.256	4375
908.372	4485
908.488	4455
908.604	4363
908.72	4352
908.836	4363
908.952	4417
909.068	4409
909.184	4546
909.3	4497
909.415	4645
909.531	4565
909.647	4363
909.762	4405
909.878	4322
909.993	4440
910.108	4432
910.224	4432
910.339	4481
910.454	4455
910.57	4375
910.685	4337
910.8	4645
910.915	4630
911.03	4519
911.145	4337
911.259	4371
911.374	4413
911.489	4348
911.604	4337
911.718	4219
911.833	4192
911.947	4120
912.062	4048
912.176	4253
912.291	4249
912.405	4276
912.519	4466
912.633	4508
912.748	4398
912.862	4363
912.976	4215
913.09	4082
913.204	4188
913.318	4276
913.431	4386
913.545	4360
913.659	4485
913.772	4424
913.886	4291
914	4246
914.113	4413
914.226	4421
914.34	4409
914.453	4211
914.566	4436
914.68	4333
914.793	4303
914.906	4196
915.019	4071
915.132	4112
915.245	4154
915.358	4211
915.47	4257
915.583	4265
915.696	4295
915.809	4398
915.921	4405
916.034	4284
916.146	4291
916.259	4246
916.371	4379
916.483	4356
916.595	4249
916.708	4325
916.82	4295
916.932	4348
917.044	4367
917.156	4276
917.268	4211
917.38	4242
917.491	4272
917.603	4310
917.715	4402
917.826	4451
917.938	4356
918.049	4265
918.161	4390
918.272	4512
918.384	4508
918.495	4421
918.606	4329
918.717	4272
918.828	4333
918.939	4375
919.05	4200
919.161	4398
919.272	4120
919.383	4276
919.494	4394
919.604	4607
919.715	4459
919.826	4352
919.936	4367
920.047	4577
920.157	4455
920.267	4744
920.378	4542
920.488	4519
920.598	4702
920.708	4892
920.818	4805
920.928	4763
921.038	4968
921.148	4911
921.258	4637
921.368	4569
921.477	4493
921.587	4500
921.697	4405
921.806	4554
921.916	4485
922.025	4268
922.134	4238
922.244	4242
922.353	4344
922.462	4200
922.571	4150
922.68	4040
922.789	3979
922.898	4051
923.007	3998
923.116	4105
923.224	4067
923.333	4090
923.442	4002
923.55	3975
923.659	4029
923.767	4124
923.876	4029
923.984	4097
924.092	4010
924.201	4086
924.309	4074
924.417	4124
924.525	4105
924.633	4109
924.741	5067
924.849	3903
924.956	4120
925.064	3968
925.172	3945
925.279	3975
925.387	4086
925.494	4048
925.602	4230
925.709	4196
925.816	4017
925.924	4090
926.031	4265
926.138	4158
926.245	4211
926.352	4097
926.459	4227
926.566	4306
926.673	4169
926.779	4090
926.886	4109
926.993	3991
927.099	3987
927.206	3930
927.312	3956
927.419	4105
927.525	4025
927.631	4124
927.737	3991
927.843	3968
927.95	3831
928.056	3918
928.162	4013
928.267	4059
928.373	4615
928.479	4093
928.585	3880
928.69	4029
928.796	4101
928.901	3960
929.007	3892
929.112	4029
929.218	3968
929.323	3956
929.428	3937
929.533	4105
929.638	3964
929.743	3964
929.848	4040
929.953	3994
930.058	3972
930.163	3766
930.267	3797
930.372	3964
930.477	3812
930.581	4097
930.685	3926
930.79	3778
930.894	3861
930.998	3880
931.103	4029
931.207	3709
931.311	3724
931.415	3686
931.519	3545
931.623	3553
