Data from test_V78500241_733.txt Node
Date: Fri Mar 25 16:54:05 CST 2022
User: usil
Spectrometer: V785-0024
Trigger mode: 0
Integration Time (sec): 4.000000E-1
Scans to average: 1
Nonlinearity correction enabled: false
Boxcar width: 0
Storing dark spectrum: false
XAxis mode: Wavelengths
Number of Pixels in Spectrum: 1024
>>>>>Begin Spectral Data<<<<<
801.071	8001
801.214	7967
801.356	7879
801.499	7814
801.641	7818
801.783	7788
801.926	8005
802.068	7913
802.211	7978
802.353	7955
802.496	7837
802.638	7913
802.78	7856
802.923	7928
803.065	7795
803.208	7883
803.35	8039
803.492	8088
803.635	8218
803.777	8027
803.919	8088
804.061	8427
804.204	8111
804.346	8012
804.488	8035
804.63	8126
804.773	8054
804.915	8020
805.057	8366
805.199	8161
805.341	8214
805.483	8286
805.626	8138
805.768	8111
805.91	8172
806.052	8180
806.194	8157
806.336	8305
806.478	8183
806.62	8054
806.762	8130
806.904	8244
807.046	8450
807.188	8393
807.33	8328
807.472	8336
807.614	8115
807.756	8073
807.898	7947
808.04	7860
808.182	7784
808.324	7814
808.465	7909
808.607	7989
808.749	8161
808.891	8134
809.033	8305
809.174	8123
809.316	7974
809.458	8081
809.6	7936
809.741	7982
809.883	8111
810.025	8031
810.166	8008
810.308	8027
810.45	8058
810.591	7841
810.733	7738
810.875	7658
811.016	7556
811.158	7449
811.299	7544
811.441	7693
811.582	7689
811.724	7571
811.865	7529
812.007	7487
812.148	7575
812.29	7499
812.431	7700
812.573	7856
812.714	7909
812.855	8073
812.997	8248
813.138	8389
813.279	8134
813.421	8077
813.562	8039
813.703	7875
813.845	7750
813.986	7487
814.127	7266
814.268	7236
814.41	7198
814.551	7145
814.692	7141
814.833	7042
814.974	7015
815.115	7110
815.256	6962
815.397	6966
815.539	6962
815.68	6837
815.821	6757
815.962	6848
816.103	6734
816.244	6730
816.385	6673
816.526	6608
816.666	6460
816.807	6224
816.948	6418
817.089	6437
817.23	6452
817.371	6384
817.512	6357
817.653	6342
817.793	6334
817.934	6429
818.075	6426
818.216	6391
818.356	6391
818.497	6228
818.638	6083
818.778	6114
818.919	6095
819.06	6129
819.2	6277
819.341	6270
819.481	6357
819.622	6464
819.762	6707
819.903	6681
820.043	6585
820.184	6563
820.324	6517
820.465	6711
820.605	6681
820.746	6563
820.886	6441
821.026	6616
821.167	6722
821.307	6764
821.447	6730
821.588	6639
821.728	6486
821.868	6502
822.008	6270
822.149	6315
822.289	6357
822.429	6140
822.569	6011
822.709	6152
822.849	5931
822.99	5874
823.13	5942
823.27	5999
823.41	5745
823.55	5821
823.69	5748
823.83	5802
823.97	5691
824.11	5501
824.25	5551
824.389	5539
824.529	5539
824.669	5486
824.809	5589
824.949	5668
825.089	5589
825.228	5532
825.368	5421
825.508	5334
825.648	5311
825.787	5376
825.927	5368
826.067	5280
826.206	5296
826.346	5337
826.485	5345
826.625	5387
826.765	5528
826.904	5467
827.044	5197
827.183	5197
827.323	5109
827.462	5277
827.601	5147
827.741	5178
827.88	5220
828.02	5136
828.159	5208
828.298	5250
828.437	5353
828.577	5280
828.716	5463
828.855	5318
828.994	5124
829.134	5197
829.273	5155
829.412	5121
829.551	5102
829.69	5117
829.829	5212
829.968	5357
830.107	5250
830.246	5265
830.385	5159
830.524	5162
830.663	5056
830.802	4957
830.941	4915
831.08	4843
831.219	4968
831.357	4999
831.496	5193
831.635	4873
831.774	4809
831.913	4828
832.051	4691
832.19	4710
832.329	4850
832.467	4694
832.606	4675
832.744	4706
832.883	4717
833.022	4733
833.16	4793
833.299	4820
833.437	4790
833.576	4793
833.714	4824
833.852	4824
833.991	4873
834.129	4946
834.267	4980
834.406	4900
834.544	4949
834.682	5022
834.821	4957
834.959	5162
835.097	4984
835.235	5162
835.373	5067
835.511	5109
835.65	5006
835.788	5018
835.926	4889
836.064	4835
836.202	4881
836.34	5170
836.478	5185
836.615	5128
836.753	5235
836.891	5277
837.029	5197
837.167	5143
837.305	5136
837.443	5136
837.58	5048
837.718	5227
837.856	5185
837.993	5147
838.131	5227
838.269	5204
838.406	5166
838.544	5185
838.681	5102
838.819	5086
838.956	4896
839.094	4866
839.231	5022
839.369	5090
839.506	5395
839.643	5265
839.781	5052
839.918	4942
840.055	5075
840.193	5052
840.33	5159
840.467	5143
840.604	5159
840.742	5414
840.879	5060
841.016	5048
841.153	5121
841.29	5349
841.427	5322
841.564	5299
841.701	5326
841.838	5303
841.975	5246
842.112	5261
842.249	5128
842.385	5098
842.522	5326
842.659	5159
842.796	5117
842.933	5231
843.069	5067
843.206	5102
843.343	5318
843.479	5223
843.616	5315
843.752	4995
843.889	4961
844.025	5201
844.162	5014
844.298	5212
844.435	5071
844.571	5071
844.708	5178
844.844	5322
844.98	5307
845.117	5246
845.253	5094
845.389	5022
845.525	5193
845.661	5102
845.798	5037
845.934	5143
846.07	5090
846.206	5151
846.342	5216
846.478	5166
846.614	5071
846.75	4961
846.886	4911
847.022	5079
847.158	5010
847.294	5022
847.429	5090
847.565	5052
847.701	5299
847.837	4873
847.972	4786
848.108	4976
848.244	4946
848.379	4778
848.515	4714
848.65	4691
848.786	4736
848.921	4786
849.057	4885
849.192	4870
849.328	4866
849.463	4828
849.598	4729
849.734	4740
849.869	4664
850.004	4630
850.14	4675
850.275	4588
850.41	4519
850.545	4550
850.68	4565
850.815	4626
850.95	4634
851.085	4850
851.22	4714
851.355	4653
851.49	4584
851.625	4660
851.76	4584
851.895	4542
852.03	4489
852.165	4615
852.299	4656
852.434	4790
852.569	4721
852.703	4729
852.838	4820
852.973	4927
853.107	4896
853.242	4729
853.376	4653
853.511	4561
853.645	4584
853.78	4812
853.914	4729
854.048	4618
854.183	4634
854.317	4649
854.451	4816
854.585	4687
854.72	4622
854.854	4759
854.988	4599
855.122	4626
855.256	4519
855.39	4664
855.524	4755
855.658	4748
855.792	4702
855.926	4752
856.06	4736
856.194	4782
856.327	4679
856.461	4626
856.595	4611
856.729	4622
856.862	4733
856.996	4668
857.13	4714
857.263	4740
857.397	4782
857.53	4611
857.664	4771
857.797	4748
857.931	4721
858.064	4687
858.197	4755
858.331	4672
858.464	4618
858.597	4523
858.731	4641
858.864	4592
858.997	4599
859.13	4653
859.263	4664
859.396	4725
859.529	4561
859.662	4599
859.795	4527
859.928	4626
860.061	4736
860.194	4736
860.327	4615
860.46	4584
860.592	4733
860.725	4694
860.858	4702
860.99	4596
861.123	4493
861.256	4554
861.388	4630
861.521	5471
861.653	4436
861.786	4451
861.918	4451
862.05	4516
862.183	4573
862.315	4584
862.447	4618
862.58	4527
862.712	4409
862.844	4299
862.976	4474
863.108	4440
863.24	4896
863.372	4322
863.504	4402
863.636	4360
863.768	4481
863.9	4455
864.032	4325
864.164	4440
864.296	4459
864.428	4558
864.559	4580
864.691	4535
864.823	4470
864.954	4474
865.086	4497
865.217	4500
865.349	4459
865.48	4440
865.612	4462
865.743	4630
865.875	4485
866.006	4447
866.137	4459
866.269	4432
866.4	4455
866.531	4398
866.662	4379
866.793	4363
866.924	4371
867.055	4470
867.186	4432
867.317	4402
867.448	4375
867.579	4363
867.71	4367
867.841	4356
867.972	4432
868.103	4470
868.233	4440
868.364	4447
868.495	4489
868.625	4668
868.756	4744
868.886	4584
869.017	4615
869.147	4771
869.278	4710
869.408	4626
869.539	4622
869.669	4706
869.799	4615
869.929	4744
870.06	4755
870.19	4942
870.32	4934
870.45	4915
870.58	4991
870.71	5075
870.84	5067
870.97	4927
871.1	4930
871.23	5159
871.36	5147
871.489	4999
871.619	5147
871.749	5094
871.879	5086
872.008	5216
872.138	5079
872.267	4987
872.397	4831
872.526	4793
872.656	4759
872.785	4812
872.915	4896
873.044	5041
873.173	4930
873.303	4972
873.432	4927
873.561	4957
873.69	4885
873.819	4839
873.948	4885
874.077	4809
874.206	4755
874.335	4801
874.464	4900
874.593	5048
874.722	4927
874.851	5086
874.979	5064
875.108	5025
875.237	4870
875.365	4854
875.494	4870
875.623	4938
875.751	4831
875.88	4862
876.008	4972
876.136	4987
876.265	5170
876.393	5334
876.521	5273
876.65	5216
876.778	5178
876.906	5083
877.034	4999
877.162	5045
877.29	4965
877.418	5033
877.546	5037
877.674	5064
877.802	5006
877.93	4991
878.058	4972
878.185	4873
878.313	4938
878.441	4889
878.568	4786
878.696	4870
878.824	4908
878.951	4995
879.079	5128
879.206	5326
879.333	5105
879.461	4946
879.588	5010
879.715	5155
879.842	5166
879.97	4968
880.097	4797
880.224	4767
880.351	4771
880.478	4797
880.605	4763
880.732	4763
880.859	5079
880.986	4896
881.112	4866
881.239	4774
881.366	4668
881.493	4611
881.619	4577
881.746	4641
881.872	4634
881.999	4660
882.125	4649
882.252	4809
882.378	4816
882.505	4949
882.631	4782
882.757	4672
882.883	4759
883.01	4721
883.136	4675
883.262	4577
883.388	4622
883.514	4793
883.64	4854
883.766	4805
883.892	4683
884.018	4733
884.143	4889
884.269	4957
884.395	4649
884.52	4641
884.646	4668
884.772	4599
884.897	4516
885.023	4687
885.148	4824
885.274	4847
885.399	4797
885.524	4721
885.65	4698
885.775	4687
885.9	4675
886.025	4854
886.15	4767
886.275	4748
886.4	4641
886.525	4733
886.65	4717
886.775	4687
886.9	4881
887.025	5071
887.149	4736
887.274	4645
887.399	4603
887.523	4573
887.648	4569
887.773	4573
887.897	4759
888.021	4790
888.146	4675
888.27	4831
888.395	4911
888.519	4820
888.643	4828
888.767	4824
888.891	4664
889.015	4637
889.139	4599
889.263	4611
889.387	4729
889.511	4900
889.635	4752
889.759	4626
889.883	4645
890.006	4702
890.13	4843
890.254	4592
890.377	4653
890.501	4508
890.624	4535
890.748	4603
890.871	4489
890.995	4443
891.118	4375
891.241	4554
891.364	4531
891.488	4656
891.611	4489
891.734	4573
891.857	4611
891.98	4535
892.103	4611
892.226	4588
892.349	4527
892.471	4462
892.594	4592
892.717	4592
892.839	4607
892.962	4580
893.085	4672
893.207	4592
893.33	4409
893.452	4497
893.575	4634
893.697	4580
893.819	4744
893.941	4850
894.064	4790
894.186	4565
894.308	4561
894.43	4771
894.552	4828
894.674	4763
894.796	4577
894.918	4584
895.04	4596
895.161	4694
895.283	4668
895.405	4569
895.526	4573
895.648	4637
895.769	4675
895.891	4717
896.012	4729
896.134	4717
896.255	4660
896.376	4645
896.498	4615
896.619	4679
896.74	4569
896.861	4679
896.982	4923
897.103	5060
897.224	4835
897.345	4763
897.466	4630
897.587	4698
897.708	4858
897.828	4801
897.949	4736
898.07	4569
898.19	4622
898.311	4820
898.431	4679
898.552	4710
898.672	4824
898.792	4786
898.913	4725
899.033	4622
899.153	4493
899.273	4352
899.393	4516
899.513	4508
899.633	4538
899.753	4531
899.873	4535
899.993	4569
900.113	4554
900.232	4584
900.352	4531
900.472	4466
900.591	4383
900.711	4455
900.83	4432
900.95	4634
901.069	4717
901.189	4531
901.308	4348
901.427	4318
901.546	4371
901.665	4455
901.784	4546
901.904	4348
902.023	4333
902.141	4181
902.26	4211
902.379	4310
902.498	4234
902.617	4223
902.735	4367
902.854	4398
902.973	4352
903.091	4219
903.21	4234
903.328	4318
903.446	4268
903.565	4257
903.683	4360
903.801	4284
903.919	4428
904.038	4417
904.156	4337
904.274	4493
904.392	4417
904.51	4455
904.627	4508
904.745	4584
904.863	4615
904.981	4367
905.098	4272
905.216	4360
905.334	4432
905.451	4417
905.569	4440
905.686	4535
905.803	4565
905.921	4398
906.038	4527
906.155	4447
906.272	4424
906.389	4462
906.506	4329
906.623	4341
906.74	4367
906.857	4314
906.974	4386
907.091	4558
907.208	4615
907.324	4584
907.441	4485
907.557	4337
907.674	4329
907.79	4341
907.907	4394
908.023	4485
908.139	4470
908.256	4455
908.372	4516
908.488	4402
908.604	4341
908.72	4295
908.836	4344
908.952	4341
909.068	4432
909.184	4599
909.3	4436
909.415	4561
909.531	4554
909.647	4310
909.762	4394
909.878	4310
909.993	4466
910.108	4379
910.224	4413
910.339	4489
910.454	4390
910.57	4306
910.685	4341
910.8	4649
910.915	4634
911.03	4527
911.145	4318
911.259	4348
911.374	4360
911.489	4280
911.604	4272
911.718	4166
911.833	4154
911.947	4124
912.062	3987
912.176	4188
912.291	4188
912.405	4242
912.519	4466
912.633	4493
912.748	4363
912.862	4280
912.976	4162
913.09	4109
913.204	4169
913.318	4227
913.431	4383
913.545	4356
913.659	4417
913.772	4341
913.886	4249
914	4238
914.113	4348
914.226	4402
914.34	4405
914.453	4238
914.566	4447
914.68	4306
914.793	4318
914.906	4162
915.019	4086
915.132	4101
915.245	4181
915.358	4173
915.47	4200
915.583	4238
915.696	4306
915.809	4402
915.921	4402
916.034	4253
916.146	4223
916.259	4204
916.371	4363
916.483	4329
916.595	4265
916.708	4295
916.82	4333
916.932	4299
917.044	4329
917.156	4348
917.268	4223
917.38	4246
917.491	4287
917.603	4344
917.715	4405
917.826	4428
917.938	4325
918.049	4265
918.161	4379
918.272	4531
918.384	4542
918.495	4402
918.606	4284
918.717	4234
918.828	4352
918.939	4367
919.05	4238
919.161	4322
919.272	4109
919.383	4219
919.494	4417
919.604	4626
919.715	4436
919.826	4341
919.936	4367
920.047	4516
920.157	4527
920.267	4691
920.378	4516
920.488	4481
920.598	4706
920.708	4843
920.818	4752
920.928	4740
921.038	4930
921.148	4908
921.258	4656
921.368	4565
921.477	4459
921.587	4432
921.697	4383
921.806	4550
921.916	4424
922.025	4276
922.134	4257
922.244	4234
922.353	4314
922.462	4135
922.571	4097
922.68	3983
922.789	3934
922.898	4021
923.007	3994
923.116	4051
923.224	4044
923.333	4010
923.442	3979
923.55	3983
923.659	4048
923.767	4090
923.876	4006
923.984	4078
924.092	3949
924.201	3994
924.309	4059
924.417	4112
924.525	4086
924.633	4109
924.741	4873
924.849	3915
924.956	4120
925.064	3937
925.172	3842
925.279	3930
925.387	4021
925.494	4025
925.602	4249
925.709	4158
925.816	4048
925.924	4135
926.031	4227
926.138	4150
926.245	4181
926.352	4093
926.459	4204
926.566	4325
926.673	4192
926.779	4090
926.886	4090
926.993	3960
927.099	3975
927.206	3953
927.312	3956
927.419	4017
927.525	4002
927.631	4074
927.737	3956
927.843	3930
927.95	3827
928.056	3949
928.162	3968
928.267	4029
928.373	4740
928.479	4105
928.585	3861
928.69	4025
928.796	4074
928.901	3979
929.007	3850
929.112	3983
929.218	3945
929.323	3937
929.428	3918
929.533	4112
929.638	3857
929.743	3945
929.848	4017
929.953	4017
930.058	3937
930.163	3804
930.267	3823
930.372	3991
930.477	3819
930.581	4059
930.685	3953
930.79	3789
930.894	3865
930.998	3865
931.103	4059
931.207	3717
931.311	3717
931.415	3660
931.519	3523
931.623	3526
