Data from test_V78500241_1176.txt Node
Date: Fri Mar 25 16:57:10 CST 2022
User: usil
Spectrometer: V785-0024
Trigger mode: 0
Integration Time (sec): 4.000000E-1
Scans to average: 1
Nonlinearity correction enabled: false
Boxcar width: 0
Storing dark spectrum: false
XAxis mode: Wavelengths
Number of Pixels in Spectrum: 1024
>>>>>Begin Spectral Data<<<<<
801.071	8043
801.214	7974
801.356	7883
801.499	7750
801.641	7746
801.783	7761
801.926	7917
802.068	7955
802.211	7898
802.353	8054
802.496	7833
802.638	7799
802.78	7993
802.923	7974
803.065	7860
803.208	7864
803.35	7928
803.492	8183
803.635	8126
803.777	7947
803.919	8096
804.061	8438
804.204	8161
804.346	8050
804.488	7967
804.63	8096
804.773	8008
804.915	8187
805.057	8267
805.199	8111
805.341	8229
805.483	8267
805.626	8191
805.768	8168
805.91	8210
806.052	8218
806.194	8111
806.336	8355
806.478	8145
806.62	8027
806.762	8126
806.904	8233
807.046	8465
807.188	8347
807.33	8317
807.472	8351
807.614	8202
807.756	8172
807.898	8035
808.04	7818
808.182	7944
808.324	7822
808.465	7986
808.607	8115
808.749	8065
808.891	8161
809.033	8317
809.174	8275
809.316	8077
809.458	8039
809.6	8005
809.741	8054
809.883	8020
810.025	8046
810.166	8062
810.308	8005
810.45	8039
810.591	7902
810.733	7727
810.875	7632
811.016	7483
811.158	7544
811.299	7578
811.441	7723
811.582	7693
811.724	7594
811.865	7453
812.007	7594
812.148	7575
812.29	7609
812.431	7693
812.573	7841
812.714	8008
812.855	8100
812.997	8130
813.138	8252
813.279	8180
813.421	8050
813.562	7970
813.703	7811
813.845	7719
813.986	7438
814.127	7240
814.268	7190
814.41	7141
814.551	7149
814.692	7190
814.833	7061
814.974	7069
815.115	7141
815.256	6939
815.397	6916
815.539	6935
815.68	6859
815.821	6787
815.962	6829
816.103	6741
816.244	6745
816.385	6650
816.526	6559
816.666	6429
816.807	6304
816.948	6365
817.089	6460
817.23	6513
817.371	6369
817.512	6441
817.653	6346
817.793	6380
817.934	6357
818.075	6460
818.216	6388
818.356	6388
818.497	6232
818.638	6136
818.778	6125
818.919	6152
819.06	6144
819.2	6300
819.341	6342
819.481	6376
819.622	6528
819.762	6726
819.903	6673
820.043	6601
820.184	6574
820.324	6563
820.465	6662
820.605	6665
820.746	6555
820.886	6460
821.026	6623
821.167	6700
821.307	6776
821.447	6749
821.588	6642
821.728	6566
821.868	6532
822.008	6308
822.149	6350
822.289	6350
822.429	6098
822.569	6095
822.709	6098
822.849	5992
822.99	5878
823.13	5950
823.27	5859
823.41	5786
823.55	5809
823.69	5790
823.83	5786
823.97	5653
824.11	5509
824.25	5551
824.389	5539
824.529	5592
824.669	5528
824.809	5627
824.949	5596
825.089	5547
825.228	5532
825.368	5402
825.508	5341
825.648	5345
825.787	5372
825.927	5357
826.067	5288
826.206	5235
826.346	5387
826.485	5357
826.625	5376
826.765	5482
826.904	5509
827.044	5242
827.183	5155
827.323	5132
827.462	5280
827.601	5143
827.741	5235
827.88	5201
828.02	5155
828.159	5231
828.298	5242
828.437	5353
828.577	5231
828.716	5512
828.855	5315
828.994	5128
829.134	5128
829.273	5178
829.412	5109
829.551	5121
829.69	5155
829.829	5201
829.968	5315
830.107	5273
830.246	5254
830.385	5159
830.524	5155
830.663	5090
830.802	4930
830.941	4877
831.08	4854
831.219	4968
831.357	4930
831.496	5098
831.635	4915
831.774	4858
831.913	4854
832.051	4721
832.19	4698
832.329	4854
832.467	4694
832.606	4611
832.744	4721
832.883	4721
833.022	4717
833.16	4763
833.299	4801
833.437	4774
833.576	4835
833.714	4847
833.852	4866
833.991	4896
834.129	4953
834.267	4980
834.406	4854
834.544	4904
834.682	4987
834.821	4953
834.959	5166
835.097	4972
835.235	5162
835.373	5105
835.511	5094
835.65	5075
835.788	5018
835.926	4889
836.064	4870
836.202	4938
836.34	5117
836.478	5204
836.615	5128
836.753	5204
836.891	5204
837.029	5235
837.167	5140
837.305	5155
837.443	5090
837.58	5060
837.718	5235
837.856	5166
837.993	5136
838.131	5231
838.269	5170
838.406	5223
838.544	5151
838.681	5033
838.819	4995
838.956	4862
839.094	4911
839.231	4949
839.369	5086
839.506	5391
839.643	5254
839.781	5045
839.918	5029
840.055	5105
840.193	5071
840.33	5075
840.467	5113
840.604	5151
840.742	5452
840.879	5067
841.016	5071
841.153	5136
841.29	5376
841.427	5311
841.564	5296
841.701	5334
841.838	5307
841.975	5227
842.112	5250
842.249	5147
842.385	5113
842.522	5280
842.659	5181
842.796	5102
842.933	5201
843.069	5136
843.206	5159
843.343	5299
843.479	5201
843.616	5189
843.752	5006
843.889	4991
844.025	5223
844.162	4968
844.298	5185
844.435	5029
844.571	5071
844.708	5201
844.844	5299
844.98	5337
845.117	5265
845.253	5143
845.389	5052
845.525	5102
845.661	5124
845.798	4999
845.934	5178
846.07	5041
846.206	5189
846.342	5337
846.478	5220
846.614	5006
846.75	4987
846.886	4942
847.022	5159
847.158	4999
847.294	5045
847.429	5071
847.565	5018
847.701	5303
847.837	4843
847.972	4778
848.108	4957
848.244	4908
848.379	4748
848.515	4717
848.65	4714
848.786	4771
848.921	4755
849.057	4828
849.192	4877
849.328	4816
849.463	4839
849.598	4763
849.734	4714
849.869	4656
850.004	4630
850.14	4637
850.275	4596
850.41	4531
850.545	4588
850.68	4603
850.815	4618
850.95	4599
851.085	4812
851.22	4748
851.355	4694
851.49	4603
851.625	4622
851.76	4626
851.895	4519
852.03	4508
852.165	4622
852.299	4702
852.434	4797
852.569	4748
852.703	4824
852.838	4831
852.973	4930
853.107	4908
853.242	4721
853.376	4733
853.511	4538
853.645	4596
853.78	4782
853.914	4702
854.048	4634
854.183	4656
854.317	4637
854.451	4824
854.585	4698
854.72	4622
854.854	4748
854.988	4592
855.122	4664
855.256	4531
855.39	4683
855.524	4733
855.658	4683
855.792	4679
855.926	4729
856.06	4710
856.194	4790
856.327	4721
856.461	4596
856.595	4603
856.729	4641
856.862	4725
856.996	4683
857.13	4653
857.263	4717
857.397	4805
857.53	4626
857.664	4744
857.797	4763
857.931	4797
858.064	4656
858.197	4763
858.331	4675
858.464	4565
858.597	4508
858.731	4634
858.864	4599
858.997	4554
859.13	4694
859.263	4668
859.396	4706
859.529	4577
859.662	4592
859.795	4542
859.928	4607
860.061	4759
860.194	4725
860.327	4580
860.46	4618
860.592	4687
860.725	4694
860.858	4694
860.99	4584
861.123	4535
861.256	4508
861.388	4618
861.521	5197
861.653	4493
861.786	4447
861.918	4405
862.05	4462
862.183	4497
862.315	4584
862.447	4645
862.58	4558
862.712	4367
862.844	4367
862.976	4489
863.108	4485
863.24	4873
863.372	4322
863.504	4398
863.636	4390
863.768	4481
863.9	4428
864.032	4341
864.164	4398
864.296	4478
864.428	4519
864.559	4538
864.691	4508
864.823	4527
864.954	4497
865.086	4508
865.217	4436
865.349	4405
865.48	4428
865.612	4489
865.743	4618
865.875	4451
866.006	4455
866.137	4440
866.269	4447
866.4	4462
866.531	4344
866.662	4375
866.793	4383
866.924	4356
867.055	4466
867.186	4451
867.317	4428
867.448	4398
867.579	4409
867.71	4398
867.841	4360
867.972	4432
868.103	4417
868.233	4470
868.364	4443
868.495	4497
868.625	4668
868.756	4736
868.886	4561
869.017	4531
869.147	4733
869.278	4774
869.408	4630
869.539	4626
869.669	4714
869.799	4649
869.929	4721
870.06	4736
870.19	4930
870.32	4949
870.45	4885
870.58	5014
870.71	5083
870.84	5067
870.97	4870
871.1	4877
871.23	5132
871.36	5060
871.489	4972
871.619	5003
871.749	5067
871.879	5094
872.008	5178
872.138	5033
872.267	4999
872.397	4831
872.526	4797
872.656	4691
872.785	4793
872.915	4927
873.044	5052
873.173	4908
873.303	4984
873.432	4961
873.561	4953
873.69	4896
873.819	4889
873.948	4934
874.077	4812
874.206	4771
874.335	4793
874.464	4896
874.593	5022
874.722	4953
874.851	5098
874.979	5037
875.108	5071
875.237	4858
875.365	4839
875.494	4866
875.623	5003
875.751	4774
875.88	4870
876.008	4911
876.136	4984
876.265	5136
876.393	5349
876.521	5269
876.65	5201
876.778	5178
876.906	5052
877.034	4991
877.162	5033
877.29	4980
877.418	5018
877.546	5060
877.674	5064
877.802	5018
877.93	4987
878.058	4908
878.185	4831
878.313	4980
878.441	4915
878.568	4797
878.696	4835
878.824	4892
878.951	4957
879.079	5090
879.206	5246
879.333	5102
879.461	4972
879.588	5022
879.715	5143
879.842	5223
879.97	5022
880.097	4774
880.224	4736
880.351	4790
880.478	4828
880.605	4782
880.732	4774
880.859	5071
880.986	4911
881.112	4866
881.239	4782
881.366	4653
881.493	4649
881.619	4538
881.746	4637
881.872	4626
881.999	4645
882.125	4694
882.252	4797
882.378	4839
882.505	4908
882.631	4793
882.757	4668
882.883	4694
883.01	4733
883.136	4683
883.262	4603
883.388	4527
883.514	4774
883.64	4843
883.766	4740
883.892	4660
884.018	4710
884.143	4870
884.269	4972
884.395	4694
884.52	4622
884.646	4630
884.772	4565
884.897	4577
885.023	4668
885.148	4759
885.274	4801
885.399	4793
885.524	4694
885.65	4733
885.775	4729
885.9	4721
886.025	4828
886.15	4793
886.275	4683
886.4	4645
886.525	4691
886.65	4683
886.775	4649
886.9	4915
887.025	5018
887.149	4786
887.274	4603
887.399	4603
887.523	4573
887.648	4550
887.773	4561
887.897	4771
888.021	4748
888.146	4660
888.27	4786
888.395	4923
888.519	4752
888.643	4824
888.767	4828
888.891	4702
889.015	4561
889.139	4645
889.263	4565
889.387	4721
889.511	4881
889.635	4752
889.759	4596
889.883	4637
890.006	4702
890.13	4801
890.254	4653
890.377	4691
890.501	4527
890.624	4527
890.748	4599
890.871	4466
890.995	4424
891.118	4367
891.241	4523
891.364	4550
891.488	4611
891.611	4443
891.734	4535
891.857	4641
891.98	4546
892.103	4607
892.226	4584
892.349	4519
892.471	4402
892.594	4535
892.717	4584
892.839	4561
892.962	4588
893.085	4653
893.207	4546
893.33	4443
893.452	4535
893.575	4641
893.697	4577
893.819	4774
893.941	4812
894.064	4759
894.186	4558
894.308	4592
894.43	4721
894.552	4797
894.674	4725
894.796	4519
894.918	4554
895.04	4512
895.161	4725
895.283	4645
895.405	4531
895.526	4554
895.648	4702
895.769	4660
895.891	4675
896.012	4744
896.134	4637
896.255	4660
896.376	4649
896.498	4607
896.619	4649
896.74	4607
896.861	4630
896.982	4900
897.103	5060
897.224	4850
897.345	4748
897.466	4645
897.587	4721
897.708	4816
897.828	4755
897.949	4607
898.07	4565
898.19	4641
898.311	4763
898.431	4694
898.552	4721
898.672	4843
898.792	4786
898.913	4748
899.033	4618
899.153	4481
899.273	4386
899.393	4470
899.513	4500
899.633	4497
899.753	4573
899.873	4474
899.993	4580
900.113	4561
900.232	4592
900.352	4523
900.472	4531
900.591	4421
900.711	4512
900.83	4421
900.95	4596
901.069	4668
901.189	4493
901.308	4363
901.427	4337
901.546	4383
901.665	4455
901.784	4516
901.904	4402
902.023	4310
902.141	4192
902.26	4135
902.379	4310
902.498	4227
902.617	4207
902.735	4367
902.854	4356
902.973	4360
903.091	4230
903.21	4242
903.328	4249
903.446	4276
903.565	4276
903.683	4322
903.801	4265
903.919	4436
904.038	4398
904.156	4306
904.274	4402
904.392	4379
904.51	4409
904.627	4481
904.745	4580
904.863	4580
904.981	4398
905.098	4284
905.216	4379
905.334	4451
905.451	4459
905.569	4451
905.686	4542
905.803	4554
905.921	4390
906.038	4531
906.155	4470
906.272	4402
906.389	4443
906.506	4344
906.623	4367
906.74	4386
906.857	4314
906.974	4383
907.091	4531
907.208	4660
907.324	4596
907.441	4497
907.557	4306
907.674	4367
907.79	4325
907.907	4402
908.023	4432
908.139	4462
908.256	4402
908.372	4443
908.488	4428
908.604	4386
908.72	4310
908.836	4386
908.952	4386
909.068	4436
909.184	4592
909.3	4489
909.415	4588
909.531	4596
909.647	4310
909.762	4360
909.878	4348
909.993	4386
910.108	4447
910.224	4413
910.339	4508
910.454	4371
910.57	4356
910.685	4280
910.8	4656
910.915	4554
911.03	4451
911.145	4344
911.259	4356
911.374	4337
911.489	4234
911.604	4242
911.718	4169
911.833	4185
911.947	4082
912.062	3998
912.176	4185
912.291	4219
912.405	4238
912.519	4474
912.633	4512
912.748	4390
912.862	4337
912.976	4207
913.09	4135
913.204	4150
913.318	4227
913.431	4348
913.545	4356
913.659	4462
913.772	4306
913.886	4303
914	4219
914.113	4367
914.226	4432
914.34	4428
914.453	4211
914.566	4390
914.68	4318
914.793	4325
914.906	4139
915.019	4124
915.132	4021
915.245	4181
915.358	4173
915.47	4188
915.583	4249
915.696	4299
915.809	4451
915.921	4379
916.034	4268
916.146	4246
916.259	4200
916.371	4413
916.483	4363
916.595	4295
916.708	4348
916.82	4325
916.932	4318
917.044	4306
917.156	4360
917.268	4185
917.38	4268
917.491	4253
917.603	4333
917.715	4447
917.826	4432
917.938	4371
918.049	4192
918.161	4363
918.272	4531
918.384	4542
918.495	4451
918.606	4360
918.717	4200
918.828	4310
918.939	4352
919.05	4242
919.161	4341
919.272	4101
919.383	4238
919.494	4428
919.604	4615
919.715	4424
919.826	4348
919.936	4402
920.047	4550
920.157	4478
920.267	4679
920.378	4550
920.488	4527
920.598	4698
920.708	4889
920.818	4672
920.928	4740
921.038	4946
921.148	4900
921.258	4637
921.368	4607
921.477	4512
921.587	4455
921.697	4383
921.806	4523
921.916	4478
922.025	4261
922.134	4246
922.244	4196
922.353	4322
922.462	4188
922.571	4105
922.68	4021
922.789	3949
922.898	4013
923.007	3949
923.116	4097
923.224	4017
923.333	4013
923.442	3972
923.55	3968
923.659	4025
923.767	4120
923.876	4013
923.984	4101
924.092	3964
924.201	4082
924.309	4093
924.417	4105
924.525	3972
924.633	4086
924.741	5086
924.849	3896
924.956	4124
925.064	3934
925.172	3930
925.279	3911
925.387	4044
925.494	4074
925.602	4230
925.709	4196
925.816	3987
925.924	4105
926.031	4253
926.138	4158
926.245	4150
926.352	4078
926.459	4246
926.566	4318
926.673	4173
926.779	4090
926.886	4082
926.993	3953
927.099	3964
927.206	3918
927.312	3922
927.419	4078
927.525	3964
927.631	4067
927.737	3972
927.843	3892
927.95	3812
928.056	3934
928.162	3941
928.267	4032
928.373	4675
928.479	4086
928.585	3873
928.69	4013
928.796	4086
928.901	3930
929.007	3850
929.112	3987
929.218	3972
929.323	3953
929.428	3922
929.533	4124
929.638	3861
929.743	3964
929.848	4063
929.953	3998
930.058	3926
930.163	3770
930.267	3842
930.372	3972
930.477	3812
930.581	4101
930.685	3930
930.79	3804
930.894	3911
930.998	3854
931.103	4025
931.207	3701
931.311	3667
931.415	3686
931.519	3492
931.623	3545
