Data from test_V78500241_2473.txt Node
Date: Fri Mar 25 17:06:11 CST 2022
User: usil
Spectrometer: V785-0024
Trigger mode: 0
Integration Time (sec): 4.000000E-1
Scans to average: 1
Nonlinearity correction enabled: false
Boxcar width: 0
Storing dark spectrum: false
XAxis mode: Wavelengths
Number of Pixels in Spectrum: 1024
>>>>>Begin Spectral Data<<<<<
801.071	8031
801.214	7959
801.356	7830
801.499	7826
801.641	7803
801.783	7841
801.926	7928
802.068	7925
802.211	7913
802.353	7997
802.496	7830
802.638	7807
802.78	7879
802.923	7894
803.065	7898
803.208	7803
803.35	7959
803.492	8126
803.635	8103
803.777	8073
803.919	8149
804.061	8438
804.204	8164
804.346	8058
804.488	7936
804.63	8145
804.773	8039
804.915	8107
805.057	8263
805.199	8134
805.341	8199
805.483	8233
805.626	8221
805.768	8142
805.91	8202
806.052	8202
806.194	8081
806.336	8279
806.478	8103
806.62	8039
806.762	8084
806.904	8180
807.046	8412
807.188	8427
807.33	8267
807.472	8355
807.614	8161
807.756	8153
807.898	8035
808.04	7868
808.182	7852
808.324	7879
808.465	7925
808.607	8050
808.749	8062
808.891	8206
809.033	8275
809.174	8214
809.316	8130
809.458	8027
809.6	7989
809.741	8008
809.883	7997
810.025	8084
810.166	8069
810.308	8016
810.45	8016
810.591	7871
810.733	7799
810.875	7639
811.016	7537
811.158	7422
811.299	7582
811.441	7738
811.582	7651
811.724	7548
811.865	7510
812.007	7639
812.148	7594
812.29	7597
812.431	7731
812.573	7909
812.714	7955
812.855	8130
812.997	8210
813.138	8324
813.279	8157
813.421	8054
813.562	7970
813.703	7837
813.845	7814
813.986	7460
814.127	7251
814.268	7232
814.41	7225
814.551	7126
814.692	7175
814.833	7076
814.974	7118
815.115	7126
815.256	6993
815.397	6916
815.539	6962
815.68	6829
815.821	6700
815.962	6852
816.103	6886
816.244	6738
816.385	6631
816.526	6608
816.666	6509
816.807	6292
816.948	6498
817.089	6506
817.23	6467
817.371	6414
817.512	6388
817.653	6437
817.793	6361
817.934	6410
818.075	6448
818.216	6429
818.356	6388
818.497	6270
818.638	6098
818.778	6167
818.919	6114
819.06	6091
819.2	6346
819.341	6388
819.481	6380
819.622	6551
819.762	6749
819.903	6677
820.043	6601
820.184	6589
820.324	6612
820.465	6749
820.605	6669
820.746	6650
820.886	6540
821.026	6669
821.167	6715
821.307	6798
821.447	6768
821.588	6700
821.728	6574
821.868	6490
822.008	6308
822.149	6422
822.289	6380
822.429	6144
822.569	6064
822.709	6064
822.849	5920
822.99	5908
823.13	5939
823.27	5950
823.41	5847
823.55	5836
823.69	5836
823.83	5802
823.97	5688
824.11	5543
824.25	5558
824.389	5570
824.529	5600
824.669	5516
824.809	5627
824.949	5646
825.089	5596
825.228	5554
825.368	5383
825.508	5334
825.648	5330
825.787	5391
825.927	5379
826.067	5292
826.206	5250
826.346	5357
826.485	5482
826.625	5406
826.765	5520
826.904	5501
827.044	5254
827.183	5223
827.323	5166
827.462	5261
827.601	5159
827.741	5201
827.88	5242
828.02	5094
828.159	5250
828.298	5269
828.437	5395
828.577	5254
828.716	5493
828.855	5322
828.994	5212
829.134	5178
829.273	5189
829.412	5121
829.551	5094
829.69	5170
829.829	5227
829.968	5379
830.107	5315
830.246	5273
830.385	5201
830.524	5124
830.663	5132
830.802	4927
830.941	4927
831.08	4889
831.219	4968
831.357	4949
831.496	5083
831.635	4927
831.774	4824
831.913	4820
832.051	4755
832.19	4725
832.329	4854
832.467	4691
832.606	4588
832.744	4744
832.883	4664
833.022	4729
833.16	4778
833.299	4831
833.437	4816
833.576	4831
833.714	4892
833.852	4831
833.991	4908
834.129	4949
834.267	4938
834.406	4911
834.544	4938
834.682	5010
834.821	4953
834.959	5181
835.097	4942
835.235	5166
835.373	5098
835.511	5140
835.65	5048
835.788	5041
835.926	4862
836.064	4847
836.202	4961
836.34	5189
836.478	5242
836.615	5166
836.753	5220
836.891	5303
837.029	5227
837.167	5235
837.305	5147
837.443	5189
837.58	5102
837.718	5220
837.856	5166
837.993	5174
838.131	5193
838.269	5239
838.406	5204
838.544	5132
838.681	4999
838.819	4984
838.956	4904
839.094	4911
839.231	4976
839.369	5045
839.506	5444
839.643	5239
839.781	5048
839.918	5052
840.055	5121
840.193	5105
840.33	5132
840.467	5162
840.604	5193
840.742	5429
840.879	5033
841.016	5090
841.153	5174
841.29	5383
841.427	5303
841.564	5330
841.701	5383
841.838	5307
841.975	5246
842.112	5292
842.249	5140
842.385	5121
842.522	5322
842.659	5178
842.796	5113
842.933	5178
843.069	5132
843.206	5105
843.343	5273
843.479	5208
843.616	5265
843.752	5025
843.889	5067
844.025	5193
844.162	5018
844.298	5185
844.435	5086
844.571	5014
844.708	5162
844.844	5345
844.98	5307
845.117	5277
845.253	5143
845.389	5105
845.525	5197
845.661	5128
845.798	5029
845.934	5109
846.07	5048
846.206	5201
846.342	5265
846.478	5178
846.614	5033
846.75	5003
846.886	4965
847.022	5151
847.158	4995
847.294	5037
847.429	5136
847.565	5075
847.701	5318
847.837	4828
847.972	4839
848.108	4987
848.244	4942
848.379	4790
848.515	4733
848.65	4717
848.786	4736
848.921	4786
849.057	4816
849.192	4896
849.328	4793
849.463	4847
849.598	4782
849.734	4752
849.869	4668
850.004	4622
850.14	4626
850.275	4599
850.41	4531
850.545	4622
850.68	4584
850.815	4573
850.95	4622
851.085	4847
851.22	4740
851.355	4694
851.49	4565
851.625	4615
851.76	4588
851.895	4527
852.03	4527
852.165	4649
852.299	4714
852.434	4748
852.569	4755
852.703	4752
852.838	4858
852.973	4938
853.107	4900
853.242	4744
853.376	4660
853.511	4554
853.645	4596
853.78	4790
853.914	4725
854.048	4679
854.183	4596
854.317	4729
854.451	4862
854.585	4653
854.72	4672
854.854	4793
854.988	4634
855.122	4664
855.256	4554
855.39	4622
855.524	4755
855.658	4721
855.792	4675
855.926	4706
856.06	4767
856.194	4801
856.327	4729
856.461	4603
856.595	4641
856.729	4592
856.862	4786
856.996	4660
857.13	4729
857.263	4786
857.397	4793
857.53	4653
857.664	4767
857.797	4702
857.931	4767
858.064	4675
858.197	4729
858.331	4653
858.464	4599
858.597	4535
858.731	4668
858.864	4603
858.997	4573
859.13	4618
859.263	4607
859.396	4679
859.529	4596
859.662	4573
859.795	4531
859.928	4630
860.061	4740
860.194	4763
860.327	4603
860.46	4573
860.592	4706
860.725	4691
860.858	4725
860.99	4577
861.123	4538
861.256	4546
861.388	4599
861.521	5250
861.653	4493
861.786	4478
861.918	4497
862.05	4470
862.183	4516
862.315	4554
862.447	4641
862.58	4512
862.712	4394
862.844	4352
862.976	4428
863.108	4443
863.24	4877
863.372	4314
863.504	4413
863.636	4409
863.768	4523
863.9	4440
864.032	4371
864.164	4390
864.296	4478
864.428	4558
864.559	4535
864.691	4516
864.823	4485
864.954	4462
865.086	4535
865.217	4455
865.349	4440
865.48	4474
865.612	4462
865.743	4592
865.875	4459
866.006	4447
866.137	4459
866.269	4402
866.4	4443
866.531	4447
866.662	4428
866.793	4383
866.924	4424
867.055	4489
867.186	4481
867.317	4394
867.448	4383
867.579	4348
867.71	4409
867.841	4337
867.972	4455
868.103	4466
868.233	4443
868.364	4413
868.495	4459
868.625	4660
868.756	4748
868.886	4599
869.017	4611
869.147	4805
869.278	4763
869.408	4649
869.539	4588
869.669	4702
869.799	4630
869.929	4774
870.06	4683
870.19	4900
870.32	4896
870.45	4919
870.58	4980
870.71	5140
870.84	5166
870.97	4896
871.1	4892
871.23	5197
871.36	5083
871.489	5010
871.619	5109
871.749	5060
871.879	5121
872.008	5178
872.138	5067
872.267	4938
872.397	4854
872.526	4782
872.656	4714
872.785	4866
872.915	4968
873.044	5056
873.173	4946
873.303	4946
873.432	4991
873.561	4934
873.69	4862
873.819	4850
873.948	4873
874.077	4835
874.206	4763
874.335	4831
874.464	4927
874.593	5018
874.722	4923
874.851	5041
874.979	5041
875.108	5064
875.237	4927
875.365	4938
875.494	4870
875.623	5029
875.751	4820
875.88	4870
876.008	4980
876.136	5029
876.265	5185
876.393	5326
876.521	5284
876.65	5220
876.778	5140
876.906	5071
877.034	5014
877.162	5025
877.29	5037
877.418	5067
877.546	5056
877.674	5006
877.802	4999
877.93	5033
878.058	4919
878.185	4839
878.313	4961
878.441	4930
878.568	4824
878.696	4866
878.824	4984
878.951	5025
879.079	5117
879.206	5280
879.333	5086
879.461	4961
879.588	5029
879.715	5117
879.842	5239
879.97	5018
880.097	4793
880.224	4698
880.351	4809
880.478	4839
880.605	4782
880.732	4790
880.859	5117
880.986	4854
881.112	4862
881.239	4793
881.366	4683
881.493	4603
881.619	4592
881.746	4596
881.872	4615
881.999	4691
882.125	4694
882.252	4786
882.378	4778
882.505	4965
882.631	4771
882.757	4660
882.883	4706
883.01	4725
883.136	4687
883.262	4580
883.388	4599
883.514	4805
883.64	4847
883.766	4793
883.892	4679
884.018	4706
884.143	4923
884.269	5029
884.395	4672
884.52	4630
884.646	4622
884.772	4603
884.897	4561
885.023	4622
885.148	4759
885.274	4900
885.399	4805
885.524	4744
885.65	4729
885.775	4729
885.9	4675
886.025	4828
886.15	4748
886.275	4660
886.4	4660
886.525	4752
886.65	4698
886.775	4660
886.9	4877
887.025	5056
887.149	4805
887.274	4630
887.399	4542
887.523	4618
887.648	4577
887.773	4565
887.897	4752
888.021	4786
888.146	4691
888.27	4790
888.395	4919
888.519	4748
888.643	4847
888.767	4835
888.891	4653
889.015	4615
889.139	4626
889.263	4599
889.387	4759
889.511	4881
889.635	4782
889.759	4618
889.883	4645
890.006	4771
890.13	4816
890.254	4664
890.377	4683
890.501	4596
890.624	4470
890.748	4653
890.871	4474
890.995	4432
891.118	4386
891.241	4485
891.364	4519
891.488	4626
891.611	4481
891.734	4508
891.857	4584
891.98	4508
892.103	4672
892.226	4626
892.349	4542
892.471	4390
892.594	4504
892.717	4500
892.839	4519
892.962	4596
893.085	4664
893.207	4596
893.33	4413
893.452	4519
893.575	4611
893.697	4569
893.819	4748
893.941	4809
894.064	4771
894.186	4569
894.308	4535
894.43	4683
894.552	4797
894.674	4763
894.796	4546
894.918	4569
895.04	4573
895.161	4729
895.283	4694
895.405	4561
895.526	4630
895.648	4649
895.769	4683
895.891	4717
896.012	4782
896.134	4797
896.255	4645
896.376	4653
896.498	4634
896.619	4702
896.74	4618
896.861	4641
896.982	4934
897.103	5128
897.224	4892
897.345	4740
897.466	4653
897.587	4778
897.708	4866
897.828	4843
897.949	4687
898.07	4626
898.19	4672
898.311	4858
898.431	4714
898.552	4771
898.672	4847
898.792	4797
898.913	4733
899.033	4672
899.153	4558
899.273	4504
899.393	4535
899.513	4500
899.633	4512
899.753	4626
899.873	4561
899.993	4630
900.113	4573
900.232	4630
900.352	4535
900.472	4500
900.591	4383
900.711	4542
900.83	4462
900.95	4664
901.069	4717
901.189	4558
901.308	4394
901.427	4383
901.546	4405
901.665	4489
901.784	4523
901.904	4402
902.023	4375
902.141	4219
902.26	4200
902.379	4371
902.498	4314
902.617	4280
902.735	4409
902.854	4432
902.973	4375
903.091	4242
903.21	4242
903.328	4367
903.446	4310
903.565	4314
903.683	4360
903.801	4314
903.919	4428
904.038	4512
904.156	4363
904.274	4466
904.392	4478
904.51	4451
904.627	4516
904.745	4622
904.863	4706
904.981	4417
905.098	4352
905.216	4409
905.334	4519
905.451	4462
905.569	4455
905.686	4603
905.803	4615
905.921	4424
906.038	4577
906.155	4527
906.272	4447
906.389	4481
906.506	4443
906.623	4424
906.74	4466
906.857	4390
906.974	4428
907.091	4596
907.208	4683
907.324	4653
907.441	4554
907.557	4375
907.674	4360
907.79	4386
907.907	4413
908.023	4519
908.139	4462
908.256	4459
908.372	4481
908.488	4493
908.604	4443
908.72	4360
908.836	4421
908.952	4424
909.068	4455
909.184	4634
909.3	4497
909.415	4607
909.531	4573
909.647	4375
909.762	4440
909.878	4329
909.993	4478
910.108	4474
910.224	4455
910.339	4516
910.454	4455
910.57	4386
910.685	4344
910.8	4637
910.915	4634
911.03	4577
911.145	4379
911.259	4371
911.374	4440
911.489	4337
911.604	4303
911.718	4219
911.833	4230
911.947	4139
912.062	4090
912.176	4265
912.291	4276
912.405	4284
912.519	4497
912.633	4558
912.748	4398
912.862	4356
912.976	4223
913.09	4097
913.204	4223
913.318	4295
913.431	4409
913.545	4360
913.659	4462
913.772	4398
913.886	4268
914	4238
914.113	4459
914.226	4451
914.34	4417
914.453	4295
914.566	4432
914.68	4344
914.793	4394
914.906	4139
915.019	4154
915.132	4124
915.245	4230
915.358	4265
915.47	4253
915.583	4325
915.696	4337
915.809	4428
915.921	4508
916.034	4276
916.146	4253
916.259	4295
916.371	4466
916.483	4405
916.595	4325
916.708	4363
916.82	4329
916.932	4383
917.044	4375
917.156	4329
917.268	4253
917.38	4318
917.491	4238
917.603	4344
917.715	4413
917.826	4478
917.938	4360
918.049	4314
918.161	4375
918.272	4542
918.384	4592
918.495	4481
918.606	4299
918.717	4295
918.828	4360
918.939	4398
919.05	4348
919.161	4344
919.272	4162
919.383	4318
919.494	4447
919.604	4649
919.715	4474
919.826	4394
919.936	4440
920.047	4554
920.157	4519
920.267	4683
920.378	4573
920.488	4493
920.598	4717
920.708	4934
920.818	4771
920.928	4824
921.038	4984
921.148	4934
921.258	4691
921.368	4592
921.477	4497
921.587	4481
921.697	4440
921.806	4542
921.916	4447
922.025	4268
922.134	4280
922.244	4249
922.353	4375
922.462	4207
922.571	4204
922.68	4048
922.789	3964
922.898	4074
923.007	4040
923.116	4158
923.224	4101
923.333	4082
923.442	4036
923.55	3994
923.659	4078
923.767	4116
923.876	3998
923.984	4124
924.092	4044
924.201	4074
924.309	4154
924.417	4139
924.525	4097
924.633	4143
924.741	5029
924.849	3941
924.956	4223
925.064	3994
925.172	3956
925.279	4002
925.387	4112
925.494	4074
925.602	4200
925.709	4227
925.816	4044
925.924	4196
926.031	4265
926.138	4200
926.245	4265
926.352	4093
926.459	4284
926.566	4268
926.673	4181
926.779	4116
926.886	4090
926.993	4013
927.099	3956
927.206	3968
927.312	3998
927.419	4101
927.525	4048
927.631	4097
927.737	4006
927.843	3949
927.95	3896
928.056	4010
928.162	4025
928.267	4063
928.373	4698
928.479	4154
928.585	3896
928.69	4059
928.796	4071
928.901	3983
929.007	3884
929.112	4013
929.218	3987
929.323	3983
929.428	3998
929.533	4135
929.638	3915
929.743	4002
929.848	4074
929.953	4021
930.058	3972
930.163	3774
930.267	3892
930.372	4032
930.477	3842
930.581	4120
930.685	3934
930.79	3842
930.894	3880
930.998	3880
931.103	4048
931.207	3717
931.311	3747
931.415	3732
931.519	3572
931.623	3557
