Data from test_V78500241_1946.txt Node
Date: Fri Mar 25 17:02:31 CST 2022
User: usil
Spectrometer: V785-0024
Trigger mode: 0
Integration Time (sec): 4.000000E-1
Scans to average: 1
Nonlinearity correction enabled: false
Boxcar width: 0
Storing dark spectrum: false
XAxis mode: Wavelengths
Number of Pixels in Spectrum: 1024
>>>>>Begin Spectral Data<<<<<
801.071	8016
801.214	7917
801.356	7822
801.499	7811
801.641	7792
801.783	7818
801.926	7936
802.068	7906
802.211	7925
802.353	7947
802.496	7822
802.638	7849
802.78	7811
802.923	7879
803.065	7875
803.208	7830
803.35	7959
803.492	7944
803.635	8111
803.777	7978
803.919	8039
804.061	8400
804.204	8138
804.346	8035
804.488	7955
804.63	8123
804.773	7963
804.915	8092
805.057	8248
805.199	8172
805.341	8199
805.483	8214
805.626	8218
805.768	8142
805.91	8271
806.052	8111
806.194	8157
806.336	8267
806.478	8054
806.62	8016
806.762	8157
806.904	8282
807.046	8518
807.188	8412
807.33	8290
807.472	8362
807.614	8088
807.756	8115
807.898	8043
808.04	7902
808.182	7936
808.324	7879
808.465	7852
808.607	8172
808.749	8046
808.891	8221
809.033	8305
809.174	8138
809.316	8103
809.458	8103
809.6	8027
809.741	8058
809.883	8069
810.025	8069
810.166	7982
810.308	7989
810.45	7970
810.591	7917
810.733	7647
810.875	7662
811.016	7460
811.158	7441
811.299	7609
811.441	7700
811.582	7693
811.724	7590
811.865	7556
812.007	7548
812.148	7567
812.29	7563
812.431	7731
812.573	7909
812.714	7997
812.855	8153
812.997	8225
813.138	8290
813.279	8187
813.421	8027
813.562	7936
813.703	7871
813.845	7765
813.986	7426
814.127	7259
814.268	7183
814.41	7168
814.551	7137
814.692	7198
814.833	7088
814.974	7069
815.115	7122
815.256	6970
815.397	6886
815.539	6981
815.68	6760
815.821	6753
815.962	6833
816.103	6814
816.244	6730
816.385	6635
816.526	6608
816.666	6456
816.807	6285
816.948	6391
817.089	6448
817.23	6429
817.371	6296
817.512	6376
817.653	6376
817.793	6410
817.934	6350
818.075	6395
818.216	6467
818.356	6361
818.497	6300
818.638	6136
818.778	6171
818.919	6129
819.06	6144
819.2	6266
819.341	6292
819.481	6384
819.622	6521
819.762	6741
819.903	6749
820.043	6574
820.184	6563
820.324	6566
820.465	6696
820.605	6662
820.746	6654
820.886	6483
821.026	6616
821.167	6749
821.307	6806
821.447	6749
821.588	6673
821.728	6509
821.868	6559
822.008	6350
822.149	6399
822.289	6338
822.429	6087
822.569	6095
822.709	6079
822.849	5863
822.99	5897
823.13	5920
823.27	5912
823.41	5821
823.55	5733
823.69	5802
823.83	5832
823.97	5653
824.11	5535
824.25	5467
824.389	5528
824.529	5581
824.669	5516
824.809	5581
824.949	5691
825.089	5630
825.228	5539
825.368	5398
825.508	5357
825.648	5318
825.787	5398
825.927	5383
826.067	5318
826.206	5296
826.346	5368
826.485	5368
826.625	5395
826.765	5493
826.904	5448
827.044	5201
827.183	5174
827.323	5132
827.462	5220
827.601	5155
827.741	5178
827.88	5216
828.02	5109
828.159	5258
828.298	5303
828.437	5353
828.577	5277
828.716	5452
828.855	5242
828.994	5128
829.134	5143
829.273	5185
829.412	5147
829.551	5128
829.69	5170
829.829	5261
829.968	5341
830.107	5261
830.246	5258
830.385	5170
830.524	5159
830.663	5052
830.802	4942
830.941	4870
831.08	4892
831.219	4972
831.357	4991
831.496	5121
831.635	4919
831.774	4816
831.913	4839
832.051	4702
832.19	4740
832.329	4843
832.467	4679
832.606	4630
832.744	4774
832.883	4710
833.022	4740
833.16	4790
833.299	4778
833.437	4831
833.576	4774
833.714	4812
833.852	4831
833.991	4885
834.129	4965
834.267	4938
834.406	4881
834.544	4984
834.682	4968
834.821	4968
834.959	5140
835.097	4946
835.235	5155
835.373	5086
835.511	5105
835.65	5029
835.788	4984
835.926	4904
836.064	4843
836.202	4915
836.34	5151
836.478	5216
836.615	5132
836.753	5220
836.891	5235
837.029	5277
837.167	5212
837.305	5189
837.443	5124
837.58	5105
837.718	5239
837.856	5174
837.993	5121
838.131	5201
838.269	5193
838.406	5189
838.544	5197
838.681	5014
838.819	4999
838.956	4877
839.094	4877
839.231	4942
839.369	5083
839.506	5444
839.643	5250
839.781	5071
839.918	4995
840.055	5083
840.193	5117
840.33	5083
840.467	5117
840.604	5201
840.742	5406
840.879	5022
841.016	5041
841.153	5159
841.29	5360
841.427	5318
841.564	5250
841.701	5322
841.838	5235
841.975	5246
842.112	5246
842.249	5132
842.385	5067
842.522	5307
842.659	5166
842.796	5109
842.933	5162
843.069	5136
843.206	5132
843.343	5246
843.479	5242
843.616	5258
843.752	5052
843.889	4965
844.025	5189
844.162	4965
844.298	5193
844.435	5045
844.571	5064
844.708	5170
844.844	5284
844.98	5337
845.117	5261
845.253	5166
845.389	5090
845.525	5170
845.661	5124
845.798	5033
845.934	5128
846.07	5056
846.206	5170
846.342	5265
846.478	5220
846.614	4991
846.75	4934
846.886	4957
847.022	5151
847.158	4995
847.294	5052
847.429	5094
847.565	5037
847.701	5303
847.837	4858
847.972	4793
848.108	4919
848.244	4889
848.379	4759
848.515	4733
848.65	4733
848.786	4740
848.921	4755
849.057	4828
849.192	4866
849.328	4767
849.463	4862
849.598	4740
849.734	4763
849.869	4710
850.004	4596
850.14	4607
850.275	4634
850.41	4550
850.545	4588
850.68	4599
850.815	4649
850.95	4577
851.085	4866
851.22	4763
851.355	4698
851.49	4618
851.625	4656
851.76	4634
851.895	4558
852.03	4542
852.165	4649
852.299	4729
852.434	4778
852.569	4767
852.703	4771
852.838	4877
852.973	4911
853.107	4900
853.242	4698
853.376	4664
853.511	4573
853.645	4626
853.78	4839
853.914	4687
854.048	4691
854.183	4630
854.317	4679
854.451	4858
854.585	4664
854.72	4626
854.854	4763
854.988	4584
855.122	4626
855.256	4523
855.39	4668
855.524	4774
855.658	4668
855.792	4694
855.926	4755
856.06	4767
856.194	4778
856.327	4672
856.461	4565
856.595	4588
856.729	4634
856.862	4706
856.996	4668
857.13	4691
857.263	4778
857.397	4790
857.53	4634
857.664	4725
857.797	4805
857.931	4790
858.064	4694
858.197	4736
858.331	4641
858.464	4550
858.597	4516
858.731	4599
858.864	4645
858.997	4588
859.13	4694
859.263	4637
859.396	4721
859.529	4584
859.662	4580
859.795	4546
859.928	4653
860.061	4752
860.194	4759
860.327	4599
860.46	4580
860.592	4725
860.725	4702
860.858	4740
860.99	4527
861.123	4546
861.256	4489
861.388	4580
861.521	5277
861.653	4508
861.786	4428
861.918	4470
862.05	4542
862.183	4523
862.315	4603
862.447	4649
862.58	4558
862.712	4379
862.844	4322
862.976	4481
863.108	4405
863.24	4759
863.372	4344
863.504	4409
863.636	4409
863.768	4455
863.9	4432
864.032	4413
864.164	4413
864.296	4447
864.428	4542
864.559	4550
864.691	4489
864.823	4531
864.954	4462
865.086	4455
865.217	4459
865.349	4417
865.48	4428
865.612	4504
865.743	4630
865.875	4432
866.006	4455
866.137	4497
866.269	4432
866.4	4447
866.531	4428
866.662	4417
866.793	4432
866.924	4379
867.055	4478
867.186	4443
867.317	4409
867.448	4386
867.579	4436
867.71	4432
867.841	4367
867.972	4470
868.103	4428
868.233	4424
868.364	4451
868.495	4538
868.625	4706
868.756	4725
868.886	4584
869.017	4607
869.147	4740
869.278	4687
869.408	4637
869.539	4611
869.669	4672
869.799	4607
869.929	4786
870.06	4736
870.19	4923
870.32	4873
870.45	4934
870.58	4987
870.71	5045
870.84	5102
870.97	4953
871.1	4892
871.23	5067
871.36	5132
871.489	4999
871.619	5022
871.749	5086
871.879	5102
872.008	5105
872.138	4995
872.267	4965
872.397	4831
872.526	4782
872.656	4725
872.785	4831
872.915	4915
873.044	5022
873.173	4870
873.303	4972
873.432	4965
873.561	4961
873.69	4862
873.819	4843
873.948	4904
874.077	4782
874.206	4748
874.335	4736
874.464	4911
874.593	5060
874.722	4953
874.851	5079
874.979	5064
875.108	5029
875.237	4923
875.365	4885
875.494	4877
875.623	4870
875.751	4755
875.88	4892
876.008	4968
876.136	5037
876.265	5212
876.393	5318
876.521	5239
876.65	5193
876.778	5178
876.906	5052
877.034	4987
877.162	5041
877.29	5022
877.418	5071
877.546	5018
877.674	5010
877.802	5025
877.93	5029
878.058	4915
878.185	4835
878.313	4972
878.441	4949
878.568	4820
878.696	4873
878.824	4915
878.951	5006
879.079	5109
879.206	5265
879.333	5094
879.461	4984
879.588	5014
879.715	5102
879.842	5239
879.97	4965
880.097	4767
880.224	4729
880.351	4782
880.478	4831
880.605	4809
880.732	4805
880.859	5086
880.986	4919
881.112	4938
881.239	4759
881.366	4634
881.493	4626
881.619	4523
881.746	4653
881.872	4660
881.999	4656
882.125	4664
882.252	4816
882.378	4828
882.505	4961
882.631	4824
882.757	4626
882.883	4714
883.01	4736
883.136	4634
883.262	4550
883.388	4577
883.514	4786
883.64	4812
883.766	4782
883.892	4687
884.018	4672
884.143	4870
884.269	4991
884.395	4645
884.52	4622
884.646	4626
884.772	4554
884.897	4542
885.023	4645
885.148	4801
885.274	4812
885.399	4748
885.524	4702
885.65	4634
885.775	4771
885.9	4725
886.025	4870
886.15	4748
886.275	4736
886.4	4664
886.525	4687
886.65	4740
886.775	4664
886.9	4927
887.025	5064
887.149	4782
887.274	4630
887.399	4569
887.523	4584
887.648	4569
887.773	4558
887.897	4759
888.021	4801
888.146	4683
888.27	4793
888.395	4866
888.519	4786
888.643	4816
888.767	4828
888.891	4672
889.015	4622
889.139	4611
889.263	4558
889.387	4786
889.511	4778
889.635	4786
889.759	4611
889.883	4664
890.006	4698
890.13	4847
890.254	4630
890.377	4694
890.501	4554
890.624	4508
890.748	4622
890.871	4485
890.995	4405
891.118	4379
891.241	4508
891.364	4500
891.488	4588
891.611	4497
891.734	4569
891.857	4599
891.98	4558
892.103	4622
892.226	4607
892.349	4588
892.471	4383
892.594	4580
892.717	4554
892.839	4577
892.962	4550
893.085	4660
893.207	4588
893.33	4474
893.452	4508
893.575	4577
893.697	4588
893.819	4812
893.941	4778
894.064	4782
894.186	4565
894.308	4569
894.43	4733
894.552	4820
894.674	4736
894.796	4554
894.918	4592
895.04	4561
895.161	4710
895.283	4694
895.405	4596
895.526	4596
895.648	4698
895.769	4649
895.891	4717
896.012	4672
896.134	4714
896.255	4634
896.376	4641
896.498	4641
896.619	4637
896.74	4618
896.861	4683
896.982	4927
897.103	5117
897.224	4843
897.345	4736
897.466	4634
897.587	4736
897.708	4873
897.828	4759
897.949	4672
898.07	4493
898.19	4630
898.311	4809
898.431	4618
898.552	4725
898.672	4812
898.792	4809
898.913	4721
899.033	4641
899.153	4481
899.273	4421
899.393	4459
899.513	4531
899.633	4493
899.753	4550
899.873	4481
899.993	4546
900.113	4500
900.232	4538
900.352	4531
900.472	4489
900.591	4363
900.711	4500
900.83	4417
900.95	4584
901.069	4660
901.189	4630
901.308	4360
901.427	4303
901.546	4379
901.665	4390
901.784	4478
901.904	4447
902.023	4295
902.141	4147
902.26	4139
902.379	4303
902.498	4207
902.617	4215
902.735	4322
902.854	4383
902.973	4409
903.091	4211
903.21	4207
903.328	4299
903.446	4257
903.565	4242
903.683	4379
903.801	4257
903.919	4421
904.038	4394
904.156	4344
904.274	4390
904.392	4367
904.51	4432
904.627	4489
904.745	4573
904.863	4634
904.981	4348
905.098	4318
905.216	4337
905.334	4443
905.451	4451
905.569	4390
905.686	4550
905.803	4550
905.921	4409
906.038	4542
906.155	4474
906.272	4386
906.389	4421
906.506	4333
906.623	4360
906.74	4318
906.857	4261
906.974	4322
907.091	4565
907.208	4645
907.324	4554
907.441	4474
907.557	4299
907.674	4322
907.79	4348
907.907	4348
908.023	4459
908.139	4466
908.256	4451
908.372	4421
908.488	4398
908.604	4318
908.72	4352
908.836	4314
908.952	4333
909.068	4424
909.184	4550
909.3	4466
909.415	4550
909.531	4523
909.647	4299
909.762	4344
909.878	4314
909.993	4405
910.108	4379
910.224	4459
910.339	4443
910.454	4379
910.57	4367
910.685	4265
910.8	4615
910.915	4592
911.03	4436
911.145	4333
911.259	4329
911.374	4322
911.489	4299
911.604	4253
911.718	4196
911.833	4215
911.947	4071
912.062	4074
912.176	4215
912.291	4242
912.405	4272
912.519	4466
912.633	4512
912.748	4379
912.862	4352
912.976	4215
913.09	4120
913.204	4219
913.318	4253
913.431	4375
913.545	4398
913.659	4459
913.772	4352
913.886	4272
914	4272
914.113	4424
914.226	4432
914.34	4409
914.453	4284
914.566	4478
914.68	4344
914.793	4341
914.906	4177
915.019	4166
915.132	4116
915.245	4204
915.358	4272
915.47	4276
915.583	4318
915.696	4291
915.809	4447
915.921	4462
916.034	4265
916.146	4310
916.259	4265
916.371	4459
916.483	4379
916.595	4314
916.708	4386
916.82	4363
916.932	4352
917.044	4333
917.156	4386
917.268	4261
917.38	4306
917.491	4314
917.603	4390
917.715	4478
917.826	4440
917.938	4409
918.049	4249
918.161	4432
918.272	4615
918.384	4603
918.495	4493
918.606	4348
918.717	4299
918.828	4363
918.939	4375
919.05	4303
919.161	4348
919.272	4192
919.383	4246
919.494	4470
919.604	4641
919.715	4462
919.826	4398
919.936	4421
920.047	4554
920.157	4542
920.267	4748
920.378	4561
920.488	4580
920.598	4694
920.708	4930
920.818	4790
920.928	4778
921.038	4957
921.148	5003
921.258	4672
921.368	4588
921.477	4535
921.587	4500
921.697	4409
921.806	4580
921.916	4447
922.025	4325
922.134	4337
922.244	4265
922.353	4352
922.462	4177
922.571	4192
922.68	4071
922.789	3998
922.898	4044
923.007	3998
923.116	4135
923.224	4147
923.333	4112
923.442	4006
923.55	4074
923.659	4071
923.767	4135
923.876	4086
923.984	4135
924.092	3991
924.201	4093
924.309	4124
924.417	4181
924.525	4090
924.633	4124
924.741	5060
924.849	3937
924.956	4128
925.064	4010
925.172	3975
925.279	4002
925.387	4116
925.494	4032
925.602	4272
925.709	4211
925.816	4120
925.924	4211
926.031	4253
926.138	4147
926.245	4227
926.352	4124
926.459	4257
926.566	4295
926.673	4234
926.779	4109
926.886	4131
926.993	3991
927.099	3926
927.206	3896
927.312	3937
927.419	4032
927.525	4032
927.631	4128
927.737	4029
927.843	3937
927.95	3873
928.056	3994
928.162	3983
928.267	4078
928.373	4653
928.479	4143
928.585	3915
928.69	4055
928.796	4109
928.901	3975
929.007	3888
929.112	4048
929.218	4040
929.323	3994
929.428	3934
929.533	4158
929.638	3930
929.743	3972
929.848	4082
929.953	4032
930.058	3949
930.163	3819
930.267	3892
930.372	3998
930.477	3869
930.581	4135
930.685	3953
930.79	3884
930.894	3937
930.998	3846
931.103	4082
931.207	3751
931.311	3728
931.415	3667
931.519	3564
931.623	3591
