Data from test_V78500241_8.txt Node
Date: Fri Mar 25 16:49:03 CST 2022
User: usil
Spectrometer: V785-0024
Trigger mode: 0
Integration Time (sec): 4.000000E-1
Scans to average: 1
Nonlinearity correction enabled: false
Boxcar width: 0
Storing dark spectrum: false
XAxis mode: Wavelengths
Number of Pixels in Spectrum: 1024
>>>>>Begin Spectral Data<<<<<
801.071	8103
801.214	8138
801.356	8046
801.499	7993
801.641	7864
801.783	7898
801.926	7978
802.068	7989
802.211	8005
802.353	8103
802.496	7925
802.638	7978
802.78	8012
802.923	7955
803.065	7902
803.208	7864
803.35	8043
803.492	8157
803.635	8195
803.777	8050
803.919	8157
804.061	8454
804.204	8210
804.346	8046
804.488	7928
804.63	8081
804.773	8073
804.915	8103
805.057	8286
805.199	8153
805.341	8248
805.483	8301
805.626	8229
805.768	8161
805.91	8229
806.052	8279
806.194	8077
806.336	8275
806.478	8153
806.62	8096
806.762	8142
806.904	8294
807.046	8492
807.188	8427
807.33	8317
807.472	8324
807.614	8168
807.756	8126
807.898	8016
808.04	7928
808.182	7902
808.324	7974
808.465	7989
808.607	8020
808.749	8145
808.891	8202
809.033	8259
809.174	8138
809.316	8084
809.458	8058
809.6	7974
809.741	8001
809.883	8069
810.025	8126
810.166	8119
810.308	8016
810.45	7997
810.591	7906
810.733	7822
810.875	7753
811.016	7529
811.158	7533
811.299	7727
811.441	7841
811.582	7769
811.724	7658
811.865	7586
812.007	7609
812.148	7681
812.29	7715
812.431	7742
812.573	7833
812.714	8008
812.855	8130
812.997	8225
813.138	8404
813.279	8202
813.421	8157
813.562	8016
813.703	7902
813.845	7879
813.986	7506
814.127	7293
814.268	7324
814.41	7274
814.551	7251
814.692	7324
814.833	7198
814.974	7091
815.115	7107
815.256	6970
815.397	6935
815.539	6958
815.68	6825
815.821	6863
815.962	6928
816.103	6905
816.244	6700
816.385	6692
816.526	6684
816.666	6563
816.807	6327
816.948	6494
817.089	6494
817.23	6407
817.371	6399
817.512	6395
817.653	6380
817.793	6361
817.934	6479
818.075	6475
818.216	6479
818.356	6372
818.497	6304
818.638	6190
818.778	6273
818.919	6216
819.06	6190
819.2	6365
819.341	6315
819.481	6372
819.622	6612
819.762	6806
819.903	6730
820.043	6673
820.184	6707
820.324	6665
820.465	6703
820.605	6722
820.746	6681
820.886	6616
821.026	6787
821.167	6764
821.307	6844
821.447	6867
821.588	6650
821.728	6639
821.868	6563
822.008	6388
822.149	6422
822.289	6346
822.429	6251
822.569	6106
822.709	6190
822.849	5969
822.99	5904
823.13	5927
823.27	5942
823.41	5790
823.55	5813
823.69	5870
823.83	5847
823.97	5699
824.11	5539
824.25	5577
824.389	5646
824.529	5638
824.669	5653
824.809	5672
824.949	5745
825.089	5714
825.228	5608
825.368	5482
825.508	5414
825.648	5406
825.787	5493
825.927	5444
826.067	5395
826.206	5326
826.346	5387
826.485	5429
826.625	5497
826.765	5543
826.904	5547
827.044	5288
827.183	5273
827.323	5166
827.462	5235
827.601	5223
827.741	5273
827.88	5223
828.02	5140
828.159	5280
828.298	5322
828.437	5368
828.577	5368
828.716	5516
828.855	5334
828.994	5204
829.134	5201
829.273	5223
829.412	5174
829.551	5189
829.69	5242
829.829	5277
829.968	5402
830.107	5337
830.246	5357
830.385	5280
830.524	5159
830.663	5071
830.802	5033
830.941	4908
831.08	4938
831.219	4972
831.357	5010
831.496	5246
831.635	4987
831.774	4866
831.913	4828
832.051	4710
832.19	4778
832.329	4866
832.467	4748
832.606	4702
832.744	4782
832.883	4721
833.022	4767
833.16	4847
833.299	4930
833.437	4854
833.576	4870
833.714	4866
833.852	4930
833.991	4908
834.129	4965
834.267	4968
834.406	5022
834.544	5010
834.682	4976
834.821	5060
834.959	5189
835.097	5048
835.235	5189
835.373	5113
835.511	5143
835.65	5056
835.788	5064
835.926	4858
836.064	4984
836.202	4968
836.34	5166
836.478	5227
836.615	5193
836.753	5288
836.891	5353
837.029	5265
837.167	5288
837.305	5220
837.443	5201
837.58	5124
837.718	5337
837.856	5220
837.993	5250
838.131	5337
838.269	5269
838.406	5296
838.544	5261
838.681	5086
838.819	5083
838.956	4889
839.094	4991
839.231	5014
839.369	5124
839.506	5459
839.643	5288
839.781	5117
839.918	5075
840.055	5071
840.193	5132
840.33	5136
840.467	5189
840.604	5258
840.742	5547
840.879	5098
841.016	5128
841.153	5117
841.29	5410
841.427	5402
841.564	5414
841.701	5383
841.838	5334
841.975	5345
842.112	5273
842.249	5197
842.385	5181
842.522	5353
842.659	5235
842.796	5178
842.933	5170
843.069	5204
843.206	5197
843.343	5353
843.479	5280
843.616	5337
843.752	5060
843.889	5064
844.025	5280
844.162	5018
844.298	5223
844.435	5086
844.571	5113
844.708	5254
844.844	5322
844.98	5433
845.117	5360
845.253	5181
845.389	5151
845.525	5201
845.661	5204
845.798	5102
845.934	5178
846.07	5094
846.206	5208
846.342	5379
846.478	5189
846.614	5048
846.75	5060
846.886	5006
847.022	5151
847.158	5071
847.294	5098
847.429	5128
847.565	5105
847.701	5429
847.837	4938
847.972	4877
848.108	5037
848.244	5010
848.379	4820
848.515	4774
848.65	4774
848.786	4809
848.921	4809
849.057	4919
849.192	4904
849.328	4892
849.463	4877
849.598	4843
849.734	4820
849.869	4706
850.004	4733
850.14	4721
850.275	4630
850.41	4546
850.545	4607
850.68	4645
850.815	4641
850.95	4634
851.085	4923
851.22	4786
851.355	4706
851.49	4679
851.625	4679
851.76	4675
851.895	4584
852.03	4611
852.165	4672
852.299	4778
852.434	4828
852.569	4809
852.703	4767
852.838	4854
852.973	4968
853.107	4949
853.242	4828
853.376	4717
853.511	4584
853.645	4694
853.78	4828
853.914	4683
854.048	4736
854.183	4653
854.317	4736
854.451	4885
854.585	4675
854.72	4679
854.854	4809
854.988	4660
855.122	4683
855.256	4577
855.39	4752
855.524	4786
855.658	4755
855.792	4702
855.926	4778
856.06	4759
856.194	4866
856.327	4687
856.461	4664
856.595	4660
856.729	4679
856.862	4790
856.996	4752
857.13	4835
857.263	4824
857.397	4858
857.53	4702
857.664	4729
857.797	4744
857.931	4778
858.064	4790
858.197	4771
858.331	4691
858.464	4672
858.597	4558
858.731	4668
858.864	4672
858.997	4694
859.13	4733
859.263	4729
859.396	4721
859.529	4653
859.662	4637
859.795	4569
859.928	4691
860.061	4805
860.194	4816
860.327	4637
860.46	4592
860.592	4778
860.725	4786
860.858	4759
860.99	4599
861.123	4554
861.256	4519
861.388	4675
861.521	5448
861.653	4466
861.786	4466
861.918	4428
862.05	4550
862.183	4599
862.315	4634
862.447	4645
862.58	4611
862.712	4451
862.844	4379
862.976	4535
863.108	4493
863.24	4900
863.372	4405
863.504	4440
863.636	4459
863.768	4565
863.9	4436
864.032	4390
864.164	4440
864.296	4508
864.428	4588
864.559	4649
864.691	4554
864.823	4577
864.954	4588
865.086	4504
865.217	4546
865.349	4474
865.48	4455
865.612	4546
865.743	4630
865.875	4516
866.006	4462
866.137	4497
866.269	4451
866.4	4481
866.531	4512
866.662	4447
866.793	4424
866.924	4428
867.055	4527
867.186	4485
867.317	4421
867.448	4394
867.579	4417
867.71	4421
867.841	4421
867.972	4527
868.103	4516
868.233	4500
868.364	4432
868.495	4519
868.625	4710
868.756	4763
868.886	4637
869.017	4649
869.147	4793
869.278	4831
869.408	4725
869.539	4675
869.669	4801
869.799	4710
869.929	4767
870.06	4805
870.19	4999
870.32	4972
870.45	5006
870.58	5045
870.71	5162
870.84	5143
870.97	4984
871.1	4965
871.23	5193
871.36	5166
871.489	5105
871.619	5117
871.749	5128
871.879	5208
872.008	5220
872.138	5117
872.267	5094
872.397	4934
872.526	4835
872.656	4748
872.785	4858
872.915	5045
873.044	5052
873.173	4995
873.303	5025
873.432	5041
873.561	5041
873.69	4976
873.819	4984
873.948	4965
874.077	4900
874.206	4824
874.335	4862
874.464	4953
874.593	5117
874.722	4991
874.851	5170
874.979	5102
875.108	5045
875.237	4911
875.365	4866
875.494	4965
875.623	5029
875.751	4847
875.88	4923
876.008	5022
876.136	5109
876.265	5284
876.393	5357
876.521	5318
876.65	5288
876.778	5231
876.906	5121
877.034	5071
877.162	5094
877.29	5029
877.418	5121
877.546	5098
877.674	5140
877.802	5109
877.93	5018
878.058	4980
878.185	4919
878.313	5010
878.441	5014
878.568	4862
878.696	4968
878.824	5022
878.951	5075
879.079	5147
879.206	5395
879.333	5201
879.461	5022
879.588	5079
879.715	5124
879.842	5284
879.97	5056
880.097	4835
880.224	4820
880.351	4889
880.478	4839
880.605	4873
880.732	4797
880.859	5140
880.986	4984
881.112	4927
881.239	4835
881.366	4694
881.493	4641
881.619	4672
881.746	4641
881.872	4668
881.999	4717
882.125	4725
882.252	4866
882.378	4877
882.505	4949
882.631	4847
882.757	4763
882.883	4786
883.01	4714
883.136	4729
883.262	4691
883.388	4622
883.514	4828
883.64	4923
883.766	4839
883.892	4786
884.018	4744
884.143	4953
884.269	4999
884.395	4733
884.52	4721
884.646	4748
884.772	4637
884.897	4599
885.023	4714
885.148	4847
885.274	4900
885.399	4858
885.524	4801
885.65	4778
885.775	4771
885.9	4805
886.025	4900
886.15	4850
886.275	4755
886.4	4710
886.525	4752
886.65	4740
886.775	4744
886.9	4923
887.025	5117
887.149	4881
887.274	4694
887.399	4599
887.523	4653
887.648	4645
887.773	4615
887.897	4831
888.021	4801
888.146	4717
888.27	4870
888.395	4957
888.519	4850
888.643	4870
888.767	4877
888.891	4744
889.015	4626
889.139	4675
889.263	4630
889.387	4786
889.511	4820
889.635	4854
889.759	4675
889.883	4645
890.006	4820
890.13	4862
890.254	4645
890.377	4740
890.501	4622
890.624	4584
890.748	4698
890.871	4565
890.995	4489
891.118	4417
891.241	4535
891.364	4603
891.488	4721
891.611	4569
891.734	4634
891.857	4653
891.98	4687
892.103	4641
892.226	4626
892.349	4588
892.471	4497
892.594	4626
892.717	4596
892.839	4656
892.962	4664
893.085	4714
893.207	4603
893.33	4531
893.452	4550
893.575	4725
893.697	4603
893.819	4797
893.941	4911
894.064	4873
894.186	4660
894.308	4622
894.43	4801
894.552	4835
894.674	4831
894.796	4584
894.918	4679
895.04	4653
895.161	4736
895.283	4721
895.405	4611
895.526	4706
895.648	4744
895.769	4721
895.891	4729
896.012	4824
896.134	4797
896.255	4710
896.376	4668
896.498	4683
896.619	4733
896.74	4607
896.861	4672
896.982	4987
897.103	5109
897.224	4870
897.345	4805
897.466	4740
897.587	4740
897.708	4862
897.828	4854
897.949	4725
898.07	4611
898.19	4717
898.311	4847
898.431	4721
898.552	4767
898.672	4919
898.792	4862
898.913	4805
899.033	4771
899.153	4531
899.273	4512
899.393	4558
899.513	4584
899.633	4558
899.753	4603
899.873	4550
899.993	4641
900.113	4558
900.232	4626
900.352	4599
900.472	4535
900.591	4466
900.711	4550
900.83	4493
900.95	4656
901.069	4729
901.189	4569
901.308	4402
901.427	4310
901.546	4413
901.665	4523
901.784	4542
901.904	4371
902.023	4398
902.141	4234
902.26	4207
902.379	4299
902.498	4295
902.617	4268
902.735	4424
902.854	4447
902.973	4379
903.091	4230
903.21	4272
903.328	4352
903.446	4341
903.565	4284
903.683	4337
903.801	4329
903.919	4451
904.038	4481
904.156	4348
904.274	4459
904.392	4455
904.51	4508
904.627	4512
904.745	4611
904.863	4691
904.981	4474
905.098	4390
905.216	4424
905.334	4500
905.451	4493
905.569	4508
905.686	4611
905.803	4580
905.921	4489
906.038	4588
906.155	4527
906.272	4405
906.389	4474
906.506	4466
906.623	4405
906.74	4451
906.857	4363
906.974	4428
907.091	4607
907.208	4778
907.324	4668
907.441	4569
907.557	4329
907.674	4390
907.79	4394
907.907	4440
908.023	4527
908.139	4561
908.256	4432
908.372	4538
908.488	4512
908.604	4432
908.72	4367
908.836	4394
908.952	4409
909.068	4493
909.184	4645
909.3	4546
909.415	4645
909.531	4592
909.647	4485
909.762	4390
909.878	4367
909.993	4474
910.108	4459
910.224	4474
910.339	4535
910.454	4459
910.57	4383
910.685	4371
910.8	4694
910.915	4653
911.03	4542
911.145	4390
911.259	4436
911.374	4413
911.489	4348
911.604	4310
911.718	4238
911.833	4257
911.947	4131
912.062	4063
912.176	4265
912.291	4291
912.405	4325
912.519	4535
912.633	4573
912.748	4432
912.862	4363
912.976	4280
913.09	4162
913.204	4230
913.318	4268
913.431	4402
913.545	4398
913.659	4523
913.772	4356
913.886	4268
914	4310
914.113	4447
914.226	4478
914.34	4447
914.453	4306
914.566	4474
914.68	4333
914.793	4428
914.906	4246
915.019	4200
915.132	4109
915.245	4246
915.358	4272
915.47	4299
915.583	4310
915.696	4360
915.809	4447
915.921	4512
916.034	4322
916.146	4386
916.259	4246
916.371	4402
916.483	4413
916.595	4318
916.708	4402
916.82	4360
916.932	4383
917.044	4405
917.156	4363
917.268	4238
917.38	4322
917.491	4291
917.603	4390
917.715	4519
917.826	4466
917.938	4405
918.049	4333
918.161	4432
918.272	4592
918.384	4569
918.495	4535
918.606	4310
918.717	4295
918.828	4417
918.939	4440
919.05	4337
919.161	4360
919.272	4173
919.383	4265
919.494	4451
919.604	4626
919.715	4481
919.826	4424
919.936	4497
920.047	4535
920.157	4466
920.267	4706
920.378	4603
920.488	4565
920.598	4752
920.708	4904
920.818	4812
920.928	4816
921.038	5067
921.148	4965
921.258	4675
921.368	4622
921.477	4535
921.587	4481
921.697	4447
921.806	4622
921.916	4497
922.025	4325
922.134	4337
922.244	4265
922.353	4371
922.462	4204
922.571	4215
922.68	4082
922.789	4036
922.898	4090
923.007	4025
923.116	4109
923.224	4131
923.333	4090
923.442	4040
923.55	4059
923.659	4025
923.767	4162
923.876	4029
923.984	4215
924.092	4029
924.201	4124
924.309	4131
924.417	4173
924.525	4120
924.633	4169
924.741	5098
924.849	3975
924.956	4169
925.064	4040
925.172	3987
925.279	4074
925.387	4097
925.494	4101
925.602	4253
925.709	4238
925.816	4109
925.924	4177
926.031	4284
926.138	4249
926.245	4284
926.352	4147
926.459	4280
926.566	4379
926.673	4200
926.779	4112
926.886	4139
926.993	3968
927.099	4013
927.206	4013
927.312	3975
927.419	4078
927.525	4105
927.631	4150
927.737	3994
927.843	3945
927.95	3918
928.056	3979
928.162	4002
928.267	4135
928.373	4771
928.479	4185
928.585	3922
928.69	4044
928.796	4109
928.901	4010
929.007	3884
929.112	4017
929.218	4071
929.323	3964
929.428	3972
929.533	4192
929.638	4021
929.743	4063
929.848	4139
929.953	4025
930.058	3922
930.163	3880
930.267	3873
930.372	4059
930.477	3857
930.581	4128
930.685	3994
930.79	3854
930.894	3941
930.998	3899
931.103	4112
931.207	3755
931.311	3732
931.415	3671
931.519	3542
931.623	3595
