Data from test_V78500241_1276.txt Node
Date: Fri Mar 25 16:57:52 CST 2022
User: usil
Spectrometer: V785-0024
Trigger mode: 0
Integration Time (sec): 4.000000E-1
Scans to average: 1
Nonlinearity correction enabled: false
Boxcar width: 0
Storing dark spectrum: false
XAxis mode: Wavelengths
Number of Pixels in Spectrum: 1024
>>>>>Begin Spectral Data<<<<<
801.071	7963
801.214	8092
801.356	7883
801.499	7894
801.641	7753
801.783	7792
801.926	7932
802.068	7921
802.211	7944
802.353	8027
802.496	7784
802.638	7811
802.78	7967
802.923	7928
803.065	7917
803.208	7894
803.35	7944
803.492	8058
803.635	8191
803.777	8020
803.919	8157
804.061	8419
804.204	8172
804.346	8012
804.488	7967
804.63	8157
804.773	8016
804.915	8153
805.057	8301
805.199	8168
805.341	8244
805.483	8317
805.626	8145
805.768	8195
805.91	8225
806.052	8279
806.194	8138
806.336	8256
806.478	8111
806.62	8054
806.762	8145
806.904	8248
807.046	8438
807.188	8465
807.33	8389
807.472	8351
807.614	8187
807.756	8084
807.898	8020
808.04	7902
808.182	7894
808.324	7970
808.465	7944
808.607	8043
808.749	8126
808.891	8149
809.033	8305
809.174	8244
809.316	8016
809.458	8054
809.6	8054
809.741	8039
809.883	8016
810.025	8081
810.166	8081
810.308	8016
810.45	8092
810.591	7868
810.733	7731
810.875	7712
811.016	7559
811.158	7533
811.299	7571
811.441	7734
811.582	7693
811.724	7590
811.865	7643
812.007	7578
812.148	7605
812.29	7624
812.431	7769
812.573	7932
812.714	7989
812.855	8096
812.997	8187
813.138	8336
813.279	8218
813.421	8069
813.562	8054
813.703	7879
813.845	7784
813.986	7502
814.127	7213
814.268	7194
814.41	7263
814.551	7198
814.692	7206
814.833	7076
814.974	7152
815.115	7080
815.256	6958
815.397	6878
815.539	7008
815.68	6856
815.821	6779
815.962	6916
816.103	6825
816.244	6696
816.385	6684
816.526	6604
816.666	6509
816.807	6289
816.948	6445
817.089	6437
817.23	6475
817.371	6407
817.512	6410
817.653	6437
817.793	6372
817.934	6388
818.075	6433
818.216	6460
818.356	6391
818.497	6247
818.638	6133
818.778	6178
818.919	6152
819.06	6186
819.2	6407
819.341	6308
819.481	6399
819.622	6563
819.762	6734
819.903	6684
820.043	6555
820.184	6616
820.324	6570
820.465	6791
820.605	6707
820.746	6658
820.886	6494
821.026	6658
821.167	6673
821.307	6791
821.447	6787
821.588	6688
821.728	6536
821.868	6486
822.008	6350
822.149	6346
822.289	6350
822.429	6121
822.569	6095
822.709	6106
822.849	5912
822.99	5863
823.13	5939
823.27	5893
823.41	5790
823.55	5813
823.69	5767
823.83	5802
823.97	5699
824.11	5497
824.25	5512
824.389	5543
824.529	5634
824.669	5524
824.809	5623
824.949	5646
825.089	5638
825.228	5547
825.368	5345
825.508	5357
825.648	5391
825.787	5391
825.927	5341
826.067	5307
826.206	5311
826.346	5341
826.485	5417
826.625	5433
826.765	5524
826.904	5463
827.044	5280
827.183	5204
827.323	5128
827.462	5235
827.601	5216
827.741	5136
827.88	5220
828.02	5113
828.159	5265
828.298	5292
828.437	5395
828.577	5273
828.716	5505
828.855	5303
828.994	5197
829.134	5159
829.273	5170
829.412	5128
829.551	5136
829.69	5166
829.829	5208
829.968	5429
830.107	5284
830.246	5258
830.385	5193
830.524	5204
830.663	5045
830.802	4938
830.941	4881
831.08	4904
831.219	4991
831.357	5041
831.496	5162
831.635	4904
831.774	4885
831.913	4866
832.051	4725
832.19	4774
832.329	4835
832.467	4679
832.606	4660
832.744	4721
832.883	4736
833.022	4729
833.16	4793
833.299	4835
833.437	4805
833.576	4835
833.714	4854
833.852	4870
833.991	4881
834.129	5006
834.267	4930
834.406	4915
834.544	4987
834.682	4919
834.821	4984
834.959	5113
835.097	4938
835.235	5193
835.373	5094
835.511	5136
835.65	5029
835.788	5010
835.926	4896
836.064	4923
836.202	4946
836.34	5197
836.478	5258
836.615	5132
836.753	5235
836.891	5303
837.029	5242
837.167	5181
837.305	5227
837.443	5121
837.58	5071
837.718	5193
837.856	5193
837.993	5151
838.131	5220
838.269	5204
838.406	5162
838.544	5174
838.681	5083
838.819	5025
838.956	4881
839.094	4946
839.231	4972
839.369	5094
839.506	5391
839.643	5235
839.781	5033
839.918	5045
840.055	5079
840.193	5052
840.33	5094
840.467	5113
840.604	5174
840.742	5448
840.879	5067
841.016	5048
841.153	5143
841.29	5360
841.427	5277
841.564	5322
841.701	5337
841.838	5277
841.975	5204
842.112	5258
842.249	5132
842.385	5048
842.522	5326
842.659	5117
842.796	5147
842.933	5189
843.069	5060
843.206	5124
843.343	5265
843.479	5193
843.616	5288
843.752	5056
843.889	5045
844.025	5223
844.162	5041
844.298	5193
844.435	5067
844.571	5048
844.708	5223
844.844	5277
844.98	5360
845.117	5337
845.253	5159
845.389	5067
845.525	5140
845.661	5162
845.798	5048
845.934	5124
846.07	5006
846.206	5170
846.342	5246
846.478	5159
846.614	5029
846.75	4972
846.886	4949
847.022	5143
847.158	5018
847.294	5025
847.429	5090
847.565	5037
847.701	5303
847.837	4885
847.972	4820
848.108	4984
848.244	4881
848.379	4809
848.515	4721
848.65	4767
848.786	4763
848.921	4771
849.057	4866
849.192	4927
849.328	4759
849.463	4812
849.598	4767
849.734	4733
849.869	4668
850.004	4607
850.14	4675
850.275	4660
850.41	4546
850.545	4546
850.68	4580
850.815	4618
850.95	4637
851.085	4866
851.22	4729
851.355	4710
851.49	4599
851.625	4641
851.76	4664
851.895	4603
852.03	4538
852.165	4622
852.299	4714
852.434	4771
852.569	4740
852.703	4736
852.838	4805
852.973	4900
853.107	4892
853.242	4729
853.376	4691
853.511	4577
853.645	4573
853.78	4759
853.914	4717
854.048	4637
854.183	4630
854.317	4687
854.451	4778
854.585	4752
854.72	4622
854.854	4748
854.988	4641
855.122	4645
855.256	4531
855.39	4641
855.524	4774
855.658	4714
855.792	4706
855.926	4721
856.06	4759
856.194	4805
856.327	4683
856.461	4596
856.595	4596
856.729	4607
856.862	4694
856.996	4660
857.13	4717
857.263	4725
857.397	4870
857.53	4622
857.664	4683
857.797	4778
857.931	4820
858.064	4710
858.197	4740
858.331	4679
858.464	4584
858.597	4500
858.731	4641
858.864	4626
858.997	4634
859.13	4710
859.263	4679
859.396	4721
859.529	4599
859.662	4554
859.795	4558
859.928	4653
860.061	4767
860.194	4733
860.327	4599
860.46	4542
860.592	4698
860.725	4714
860.858	4755
860.99	4565
861.123	4531
861.256	4485
861.388	4641
861.521	5143
861.653	4462
861.786	4466
861.918	4443
862.05	4558
862.183	4546
862.315	4607
862.447	4649
862.58	4577
862.712	4398
862.844	4310
862.976	4409
863.108	4409
863.24	4873
863.372	4299
863.504	4402
863.636	4394
863.768	4459
863.9	4383
864.032	4402
864.164	4394
864.296	4474
864.428	4546
864.559	4554
864.691	4535
864.823	4512
864.954	4512
865.086	4512
865.217	4466
865.349	4409
865.48	4489
865.612	4500
865.743	4634
865.875	4462
866.006	4405
866.137	4447
866.269	4443
866.4	4424
866.531	4447
866.662	4405
866.793	4379
866.924	4417
867.055	4493
867.186	4478
867.317	4428
867.448	4325
867.579	4386
867.71	4421
867.841	4344
867.972	4470
868.103	4436
868.233	4478
868.364	4440
868.495	4481
868.625	4607
868.756	4763
868.886	4584
869.017	4656
869.147	4763
869.278	4812
869.408	4641
869.539	4634
869.669	4672
869.799	4645
869.929	4710
870.06	4740
870.19	4938
870.32	4953
870.45	4889
870.58	5018
870.71	5121
870.84	5121
870.97	4965
871.1	4896
871.23	5124
871.36	5140
871.489	5022
871.619	5079
871.749	5067
871.879	5128
872.008	5098
872.138	5041
872.267	4953
872.397	4850
872.526	4828
872.656	4679
872.785	4805
872.915	4961
873.044	4999
873.173	4972
873.303	4949
873.432	4961
873.561	4953
873.69	4877
873.819	4831
873.948	4908
874.077	4797
874.206	4763
874.335	4854
874.464	4930
874.593	5056
874.722	4942
874.851	5102
874.979	5090
875.108	4976
875.237	4900
875.365	4877
875.494	4881
875.623	4911
875.751	4797
875.88	4839
876.008	4972
876.136	5022
876.265	5174
876.393	5273
876.521	5318
876.65	5185
876.778	5178
876.906	5075
877.034	4984
877.162	5022
877.29	4972
877.418	5014
877.546	5048
877.674	5014
877.802	5094
877.93	5029
878.058	4946
878.185	4889
878.313	4972
878.441	4942
878.568	4748
878.696	4812
878.824	4976
878.951	4946
879.079	5086
879.206	5299
879.333	5098
879.461	4957
879.588	4984
879.715	5113
879.842	5235
879.97	5003
880.097	4786
880.224	4736
880.351	4748
880.478	4831
880.605	4778
880.732	4774
880.859	5071
880.986	4850
881.112	4930
881.239	4767
881.366	4717
881.493	4580
881.619	4573
881.746	4634
881.872	4664
881.999	4649
882.125	4687
882.252	4824
882.378	4858
882.505	4923
882.631	4786
882.757	4630
882.883	4729
883.01	4717
883.136	4679
883.262	4634
883.388	4615
883.514	4778
883.64	4824
883.766	4793
883.892	4664
884.018	4698
884.143	4911
884.269	4968
884.395	4668
884.52	4641
884.646	4656
884.772	4599
884.897	4596
885.023	4645
885.148	4752
885.274	4873
885.399	4778
885.524	4710
885.65	4694
885.775	4683
885.9	4706
886.025	4828
886.15	4805
886.275	4714
886.4	4687
886.525	4717
886.65	4698
886.775	4672
886.9	4900
887.025	5029
887.149	4790
887.274	4637
887.399	4573
887.523	4637
887.648	4596
887.773	4611
887.897	4733
888.021	4786
888.146	4637
888.27	4759
888.395	4896
888.519	4801
888.643	4778
888.767	4824
888.891	4622
889.015	4596
889.139	4672
889.263	4630
889.387	4710
889.511	4854
889.635	4824
889.759	4630
889.883	4603
890.006	4752
890.13	4831
890.254	4634
890.377	4679
890.501	4577
890.624	4523
890.748	4649
890.871	4508
890.995	4417
891.118	4402
891.241	4512
891.364	4516
891.488	4660
891.611	4504
891.734	4542
891.857	4508
891.98	4565
892.103	4615
892.226	4596
892.349	4500
892.471	4371
892.594	4531
892.717	4580
892.839	4558
892.962	4599
893.085	4649
893.207	4607
893.33	4481
893.452	4516
893.575	4694
893.697	4615
893.819	4820
893.941	4793
894.064	4782
894.186	4538
894.308	4558
894.43	4744
894.552	4812
894.674	4698
894.796	4561
894.918	4569
895.04	4584
895.161	4653
895.283	4634
895.405	4626
895.526	4656
895.648	4668
895.769	4675
895.891	4691
896.012	4691
896.134	4744
896.255	4668
896.376	4641
896.498	4630
896.619	4660
896.74	4584
896.861	4641
896.982	4911
897.103	5094
897.224	4771
897.345	4755
897.466	4649
897.587	4729
897.708	4866
897.828	4763
897.949	4687
898.07	4546
898.19	4599
898.311	4797
898.431	4683
898.552	4778
898.672	4820
898.792	4786
898.913	4740
899.033	4588
899.153	4538
899.273	4428
899.393	4462
899.513	4561
899.633	4531
899.753	4497
899.873	4474
899.993	4599
900.113	4527
900.232	4596
900.352	4516
900.472	4481
900.591	4379
900.711	4489
900.83	4405
900.95	4599
901.069	4679
901.189	4523
901.308	4295
901.427	4337
901.546	4390
901.665	4485
901.784	4504
901.904	4348
902.023	4337
902.141	4185
902.26	4192
902.379	4306
902.498	4215
902.617	4219
902.735	4325
902.854	4394
902.973	4333
903.091	4177
903.21	4166
903.328	4284
903.446	4242
903.565	4200
903.683	4337
903.801	4276
903.919	4375
904.038	4432
904.156	4291
904.274	4348
904.392	4390
904.51	4398
904.627	4462
904.745	4584
904.863	4626
904.981	4383
905.098	4253
905.216	4344
905.334	4443
905.451	4405
905.569	4409
905.686	4592
905.803	4592
905.921	4417
906.038	4554
906.155	4485
906.272	4367
906.389	4436
906.506	4356
906.623	4398
906.74	4379
906.857	4341
906.974	4352
907.091	4584
907.208	4668
907.324	4577
907.441	4481
907.557	4363
907.674	4329
907.79	4329
907.907	4390
908.023	4443
908.139	4504
908.256	4447
908.372	4497
908.488	4436
908.604	4360
908.72	4325
908.836	4394
908.952	4383
909.068	4421
909.184	4592
909.3	4455
909.415	4550
909.531	4569
909.647	4333
909.762	4329
909.878	4367
909.993	4455
910.108	4436
910.224	4413
910.339	4462
910.454	4432
910.57	4337
910.685	4318
910.8	4645
910.915	4603
911.03	4512
911.145	4341
911.259	4314
911.374	4375
911.489	4280
911.604	4265
911.718	4147
911.833	4219
911.947	4071
912.062	4025
912.176	4192
912.291	4215
912.405	4280
912.519	4447
912.633	4481
912.748	4352
912.862	4314
912.976	4200
913.09	4093
913.204	4211
913.318	4265
913.431	4394
913.545	4363
913.659	4405
913.772	4329
913.886	4219
914	4219
914.113	4379
914.226	4421
914.34	4379
914.453	4238
914.566	4432
914.68	4291
914.793	4291
914.906	4188
915.019	4116
915.132	4071
915.245	4211
915.358	4215
915.47	4253
915.583	4234
915.696	4325
915.809	4428
915.921	4424
916.034	4280
916.146	4333
916.259	4219
916.371	4356
916.483	4367
916.595	4249
916.708	4322
916.82	4314
916.932	4280
917.044	4333
917.156	4333
917.268	4188
917.38	4287
917.491	4246
917.603	4325
917.715	4440
917.826	4421
917.938	4322
918.049	4223
918.161	4375
918.272	4550
918.384	4554
918.495	4398
918.606	4261
918.717	4272
918.828	4318
918.939	4337
919.05	4276
919.161	4287
919.272	4112
919.383	4207
919.494	4405
919.604	4626
919.715	4421
919.826	4402
919.936	4417
920.047	4497
920.157	4459
920.267	4687
920.378	4493
920.488	4497
920.598	4687
920.708	4870
920.818	4793
920.928	4733
921.038	4972
921.148	4908
921.258	4588
921.368	4596
921.477	4462
921.587	4455
921.697	4348
921.806	4542
921.916	4413
922.025	4268
922.134	4268
922.244	4181
922.353	4352
922.462	4177
922.571	4105
922.68	4010
922.789	3991
922.898	4048
923.007	3983
923.116	4067
923.224	4101
923.333	4093
923.442	3998
923.55	3991
923.659	3998
923.767	4078
923.876	3975
923.984	4105
924.092	3979
924.201	4067
924.309	4074
924.417	4135
924.525	4040
924.633	4105
924.741	4987
924.849	3964
924.956	4101
925.064	3964
925.172	3926
925.279	3953
925.387	4048
925.494	4059
925.602	4238
925.709	4154
925.816	4051
925.924	4139
926.031	4246
926.138	4124
926.245	4207
926.352	4074
926.459	4230
926.566	4261
926.673	4128
926.779	4082
926.886	4036
926.993	3991
927.099	3972
927.206	3972
927.312	3922
927.419	4078
927.525	4029
927.631	4051
927.737	3968
927.843	3934
927.95	3819
928.056	3975
928.162	3998
928.267	4048
928.373	4660
928.479	4097
928.585	3865
928.69	4044
928.796	4063
928.901	3975
929.007	3846
929.112	4002
929.218	3960
929.323	3941
929.428	3956
929.533	4116
929.638	3934
929.743	3953
929.848	4086
929.953	3975
930.058	3903
930.163	3717
930.267	3850
930.372	3968
930.477	3808
930.581	4063
930.685	3960
930.79	3800
930.894	3941
930.998	3823
931.103	4021
931.207	3709
931.311	3652
931.415	3637
931.519	3534
931.623	3568
