Data from test_V78500241_2780.txt Node
Date: Fri Mar 25 17:08:19 CST 2022
User: usil
Spectrometer: V785-0024
Trigger mode: 0
Integration Time (sec): 4.000000E-1
Scans to average: 1
Nonlinearity correction enabled: false
Boxcar width: 0
Storing dark spectrum: false
XAxis mode: Wavelengths
Number of Pixels in Spectrum: 1024
>>>>>Begin Spectral Data<<<<<
801.071	8008
801.214	8001
801.356	7890
801.499	7906
801.641	7727
801.783	7856
801.926	8020
802.068	7852
802.211	8016
802.353	7967
802.496	7849
802.638	7849
802.78	7944
802.923	7936
803.065	7944
803.208	7864
803.35	8005
803.492	8100
803.635	8210
803.777	8084
803.919	8153
804.061	8419
804.204	8145
804.346	8111
804.488	7982
804.63	8058
804.773	8001
804.915	8081
805.057	8248
805.199	8123
805.341	8221
805.483	8328
805.626	8256
805.768	8145
805.91	8202
806.052	8199
806.194	8115
806.336	8317
806.478	8081
806.62	8069
806.762	8081
806.904	8214
807.046	8442
807.188	8366
807.33	8294
807.472	8415
807.614	8214
807.756	8149
807.898	7974
808.04	7902
808.182	7913
808.324	7940
808.465	7944
808.607	8050
808.749	8073
808.891	8225
809.033	8271
809.174	8164
809.316	8187
809.458	8046
809.6	8005
809.741	7978
809.883	8016
810.025	8153
810.166	8058
810.308	7982
810.45	8005
810.591	7868
810.733	7750
810.875	7696
811.016	7495
811.158	7460
811.299	7616
811.441	7746
811.582	7704
811.724	7582
811.865	7594
812.007	7651
812.148	7674
812.29	7605
812.431	7795
812.573	7947
812.714	7963
812.855	8107
812.997	8244
813.138	8252
813.279	8180
813.421	8111
813.562	8012
813.703	7841
813.845	7818
813.986	7430
814.127	7278
814.268	7244
814.41	7175
814.551	7110
814.692	7202
814.833	7027
814.974	7137
815.115	7110
815.256	6894
815.397	6947
815.539	6935
815.68	6821
815.821	6840
815.962	6810
816.103	6821
816.244	6753
816.385	6627
816.526	6627
816.666	6475
816.807	6353
816.948	6479
817.089	6490
817.23	6429
817.371	6391
817.512	6372
817.653	6334
817.793	6342
817.934	6475
818.075	6445
818.216	6441
818.356	6353
818.497	6262
818.638	6057
818.778	6197
818.919	6133
819.06	6129
819.2	6323
819.341	6327
819.481	6357
819.622	6464
819.762	6734
819.903	6658
820.043	6620
820.184	6544
820.324	6646
820.465	6669
820.605	6681
820.746	6616
820.886	6532
821.026	6673
821.167	6749
821.307	6821
821.447	6760
821.588	6677
821.728	6521
821.868	6479
822.008	6327
822.149	6361
822.289	6384
822.429	6140
822.569	6072
822.709	6072
822.849	5897
822.99	5901
823.13	5950
823.27	5939
823.41	5798
823.55	5756
823.69	5767
823.83	5832
823.97	5703
824.11	5528
824.25	5493
824.389	5551
824.529	5539
824.669	5516
824.809	5634
824.949	5672
825.089	5634
825.228	5585
825.368	5433
825.508	5383
825.648	5334
825.787	5318
825.927	5345
826.067	5322
826.206	5227
826.346	5379
826.485	5360
826.625	5406
826.765	5573
826.904	5478
827.044	5288
827.183	5174
827.323	5079
827.462	5265
827.601	5212
827.741	5227
827.88	5231
828.02	5121
828.159	5174
828.298	5303
828.437	5330
828.577	5269
828.716	5425
828.855	5307
828.994	5136
829.134	5132
829.273	5185
829.412	5124
829.551	5155
829.69	5147
829.829	5269
829.968	5357
830.107	5269
830.246	5288
830.385	5151
830.524	5143
830.663	5048
830.802	5006
830.941	4873
831.08	4816
831.219	4972
831.357	5014
831.496	5132
831.635	4908
831.774	4824
831.913	4831
832.051	4755
832.19	4771
832.329	4847
832.467	4683
832.606	4622
832.744	4725
832.883	4748
833.022	4736
833.16	4774
833.299	4782
833.437	4812
833.576	4782
833.714	4828
833.852	4885
833.991	4915
834.129	4934
834.267	4938
834.406	4881
834.544	4995
834.682	4938
834.821	4953
834.959	5185
835.097	4995
835.235	5159
835.373	5037
835.511	5140
835.65	5018
835.788	4999
835.926	4900
836.064	4828
836.202	4930
836.34	5151
836.478	5220
836.615	5155
836.753	5208
836.891	5239
837.029	5250
837.167	5193
837.305	5181
837.443	5132
837.58	5094
837.718	5239
837.856	5216
837.993	5174
838.131	5231
838.269	5216
838.406	5147
838.544	5166
838.681	5025
838.819	4999
838.956	4896
839.094	4919
839.231	4949
839.369	5075
839.506	5444
839.643	5227
839.781	5029
839.918	5010
840.055	5098
840.193	5079
840.33	5048
840.467	5090
840.604	5162
840.742	5448
840.879	5086
841.016	5060
841.153	5151
841.29	5387
841.427	5307
841.564	5360
841.701	5322
841.838	5273
841.975	5204
842.112	5280
842.249	5109
842.385	5079
842.522	5341
842.659	5136
842.796	5121
842.933	5136
843.069	5113
843.206	5201
843.343	5277
843.479	5239
843.616	5273
843.752	5105
843.889	5006
844.025	5208
844.162	5003
844.298	5227
844.435	5124
844.571	4987
844.708	5193
844.844	5288
844.98	5341
845.117	5296
845.253	5121
845.389	5105
845.525	5189
845.661	5109
845.798	5060
845.934	5090
846.07	5052
846.206	5155
846.342	5284
846.478	5132
846.614	5014
846.75	4980
846.886	4968
847.022	5105
847.158	5006
847.294	5052
847.429	5079
847.565	5067
847.701	5318
847.837	4850
847.972	4858
848.108	4972
848.244	4987
848.379	4809
848.515	4763
848.65	4729
848.786	4778
848.921	4771
849.057	4847
849.192	4850
849.328	4866
849.463	4866
849.598	4809
849.734	4733
849.869	4649
850.004	4637
850.14	4664
850.275	4584
850.41	4500
850.545	4615
850.68	4607
850.815	4653
850.95	4637
851.085	4801
851.22	4744
851.355	4637
851.49	4664
851.625	4637
851.76	4694
851.895	4558
852.03	4519
852.165	4653
852.299	4744
852.434	4744
852.569	4729
852.703	4774
852.838	4847
852.973	4934
853.107	4995
853.242	4725
853.376	4694
853.511	4538
853.645	4618
853.78	4828
853.914	4675
854.048	4664
854.183	4656
854.317	4649
854.451	4839
854.585	4694
854.72	4634
854.854	4774
854.988	4565
855.122	4660
855.256	4542
855.39	4653
855.524	4774
855.658	4698
855.792	4679
855.926	4721
856.06	4797
856.194	4809
856.327	4687
856.461	4569
856.595	4588
856.729	4641
856.862	4771
856.996	4702
857.13	4714
857.263	4755
857.397	4752
857.53	4626
857.664	4778
857.797	4782
857.931	4752
858.064	4687
858.197	4759
858.331	4687
858.464	4626
858.597	4508
858.731	4584
858.864	4634
858.997	4622
859.13	4679
859.263	4618
859.396	4748
859.529	4573
859.662	4592
859.795	4546
859.928	4672
860.061	4767
860.194	4725
860.327	4603
860.46	4596
860.592	4668
860.725	4736
860.858	4702
860.99	4607
861.123	4519
861.256	4527
861.388	4630
861.521	5299
861.653	4500
861.786	4375
861.918	4512
862.05	4542
862.183	4527
862.315	4596
862.447	4634
862.58	4569
862.712	4383
862.844	4375
862.976	4443
863.108	4478
863.24	4778
863.372	4360
863.504	4459
863.636	4428
863.768	4436
863.9	4428
864.032	4310
864.164	4360
864.296	4481
864.428	4504
864.559	4550
864.691	4523
864.823	4481
864.954	4500
865.086	4523
865.217	4424
865.349	4405
865.48	4447
865.612	4489
865.743	4626
865.875	4466
866.006	4443
866.137	4489
866.269	4436
866.4	4485
866.531	4421
866.662	4371
866.793	4421
866.924	4402
867.055	4485
867.186	4436
867.317	4421
867.448	4325
867.579	4398
867.71	4428
867.841	4322
867.972	4459
868.103	4436
868.233	4451
868.364	4451
868.495	4485
868.625	4672
868.756	4759
868.886	4599
869.017	4656
869.147	4790
869.278	4809
869.408	4615
869.539	4641
869.669	4687
869.799	4634
869.929	4755
870.06	4740
870.19	4968
870.32	4915
870.45	4915
870.58	5014
870.71	5102
870.84	5045
870.97	4991
871.1	4930
871.23	5174
871.36	5121
871.489	5003
871.619	5094
871.749	5121
871.879	5159
872.008	5166
872.138	5075
872.267	4980
872.397	4858
872.526	4828
872.656	4771
872.785	4820
872.915	4965
873.044	5075
873.173	4942
873.303	4919
873.432	4984
873.561	4949
873.69	4953
873.819	4854
873.948	4866
874.077	4774
874.206	4744
874.335	4793
874.464	4923
874.593	5098
874.722	4927
874.851	5109
874.979	5067
875.108	5132
875.237	4900
875.365	4870
875.494	4870
875.623	4965
875.751	4767
875.88	4904
876.008	4953
876.136	5056
876.265	5212
876.393	5315
876.521	5223
876.65	5212
876.778	5155
876.906	5079
877.034	4987
877.162	5052
877.29	4984
877.418	5048
877.546	5056
877.674	5052
877.802	5067
877.93	4972
878.058	4919
878.185	4854
878.313	4961
878.441	4972
878.568	4812
878.696	4927
878.824	4968
878.951	5003
879.079	5105
879.206	5296
879.333	5124
879.461	5006
879.588	5006
879.715	5117
879.842	5220
879.97	5003
880.097	4820
880.224	4740
880.351	4835
880.478	4839
880.605	4790
880.732	4771
880.859	5090
880.986	4911
881.112	4942
881.239	4774
881.366	4649
881.493	4618
881.619	4611
881.746	4630
881.872	4637
881.999	4618
882.125	4694
882.252	4801
882.378	4866
882.505	4915
882.631	4816
882.757	4634
882.883	4740
883.01	4721
883.136	4675
883.262	4618
883.388	4603
883.514	4854
883.64	4892
883.766	4763
883.892	4687
884.018	4702
884.143	4877
884.269	4995
884.395	4679
884.52	4622
884.646	4611
884.772	4577
884.897	4554
885.023	4653
885.148	4774
885.274	4843
885.399	4820
885.524	4683
885.65	4710
885.775	4736
885.9	4721
886.025	4850
886.15	4805
886.275	4706
886.4	4656
886.525	4767
886.65	4675
886.775	4683
886.9	4896
887.025	4991
887.149	4797
887.274	4668
887.399	4577
887.523	4634
887.648	4558
887.773	4573
887.897	4740
888.021	4786
888.146	4626
888.27	4816
888.395	4896
888.519	4759
888.643	4816
888.767	4812
888.891	4679
889.015	4645
889.139	4675
889.263	4565
889.387	4759
889.511	4828
889.635	4782
889.759	4649
889.883	4664
890.006	4748
890.13	4850
890.254	4622
890.377	4607
890.501	4550
890.624	4523
890.748	4683
890.871	4516
890.995	4436
891.118	4390
891.241	4504
891.364	4546
891.488	4588
891.611	4428
891.734	4523
891.857	4592
891.98	4546
892.103	4611
892.226	4592
892.349	4527
892.471	4417
892.594	4569
892.717	4592
892.839	4588
892.962	4577
893.085	4649
893.207	4573
893.33	4466
893.452	4500
893.575	4637
893.697	4573
893.819	4828
893.941	4854
894.064	4774
894.186	4618
894.308	4569
894.43	4752
894.552	4805
894.674	4752
894.796	4561
894.918	4615
895.04	4546
895.161	4687
895.283	4706
895.405	4611
895.526	4672
895.648	4679
895.769	4710
895.891	4748
896.012	4752
896.134	4702
896.255	4675
896.376	4626
896.498	4580
896.619	4706
896.74	4573
896.861	4626
896.982	4892
897.103	5083
897.224	4858
897.345	4733
897.466	4714
897.587	4717
897.708	4828
897.828	4744
897.949	4649
898.07	4550
898.19	4645
898.311	4824
898.431	4664
898.552	4729
898.672	4835
898.792	4843
898.913	4714
899.033	4611
899.153	4508
899.273	4394
899.393	4504
899.513	4531
899.633	4512
899.753	4554
899.873	4493
899.993	4599
900.113	4527
900.232	4603
900.352	4512
900.472	4504
900.591	4394
900.711	4485
900.83	4413
900.95	4611
901.069	4660
901.189	4584
901.308	4318
901.427	4329
901.546	4386
901.665	4466
901.784	4554
901.904	4390
902.023	4325
902.141	4177
902.26	4150
902.379	4325
902.498	4207
902.617	4215
902.735	4386
902.854	4405
902.973	4379
903.091	4196
903.21	4188
903.328	4306
903.446	4303
903.565	4295
903.683	4337
903.801	4287
903.919	4367
904.038	4447
904.156	4337
904.274	4421
904.392	4390
904.51	4402
904.627	4481
904.745	4565
904.863	4622
904.981	4367
905.098	4287
905.216	4390
905.334	4455
905.451	4394
905.569	4428
905.686	4573
905.803	4588
905.921	4432
906.038	4516
906.155	4443
906.272	4363
906.389	4481
906.506	4348
906.623	4386
906.74	4348
906.857	4314
906.974	4383
907.091	4527
907.208	4698
907.324	4599
907.441	4516
907.557	4390
907.674	4356
907.79	4333
907.907	4383
908.023	4447
908.139	4500
908.256	4409
908.372	4478
908.488	4478
908.604	4379
908.72	4318
908.836	4363
908.952	4344
909.068	4440
909.184	4558
909.3	4481
909.415	4561
909.531	4523
909.647	4333
909.762	4383
909.878	4367
909.993	4405
910.108	4390
910.224	4459
910.339	4466
910.454	4363
910.57	4371
910.685	4299
910.8	4668
910.915	4607
911.03	4447
911.145	4348
911.259	4287
911.374	4379
911.489	4291
911.604	4322
911.718	4162
911.833	4154
911.947	4078
912.062	4051
912.176	4227
912.291	4253
912.405	4268
912.519	4409
912.633	4516
912.748	4402
912.862	4333
912.976	4143
913.09	4082
913.204	4166
913.318	4287
913.431	4360
913.545	4402
913.659	4383
913.772	4352
913.886	4310
914	4242
914.113	4333
914.226	4428
914.34	4428
914.453	4249
914.566	4409
914.68	4314
914.793	4356
914.906	4166
915.019	4086
915.132	4086
915.245	4204
915.358	4219
915.47	4253
915.583	4246
915.696	4329
915.809	4451
915.921	4462
916.034	4242
916.146	4280
916.259	4223
916.371	4356
916.483	4329
916.595	4238
916.708	4268
916.82	4379
916.932	4306
917.044	4303
917.156	4333
917.268	4242
917.38	4265
917.491	4295
917.603	4318
917.715	4428
917.826	4470
917.938	4367
918.049	4249
918.161	4363
918.272	4577
918.384	4546
918.495	4474
918.606	4287
918.717	4215
918.828	4344
918.939	4360
919.05	4261
919.161	4314
919.272	4158
919.383	4207
919.494	4455
919.604	4588
919.715	4436
919.826	4363
919.936	4451
920.047	4538
920.157	4459
920.267	4687
920.378	4546
920.488	4500
920.598	4755
920.708	4889
920.818	4752
920.928	4710
921.038	4938
921.148	4930
921.258	4584
921.368	4592
921.477	4489
921.587	4417
921.697	4363
921.806	4516
921.916	4462
922.025	4284
922.134	4295
922.244	4192
922.353	4325
922.462	4173
922.571	4150
922.68	4036
922.789	3994
922.898	4040
923.007	4044
923.116	4071
923.224	4051
923.333	4071
923.442	3964
923.55	3975
923.659	4051
923.767	4097
923.876	4013
923.984	4124
924.092	3975
924.201	4086
924.309	4082
924.417	4116
924.525	4067
924.633	4120
924.741	4904
924.849	3888
924.956	4124
925.064	3934
925.172	3941
925.279	3953
925.387	4044
925.494	4029
925.602	4234
925.709	4158
925.816	4063
925.924	4086
926.031	4246
926.138	4162
926.245	4169
926.352	4078
926.459	4249
926.566	4306
926.673	4143
926.779	4048
926.886	4105
926.993	3983
927.099	3956
927.206	3930
927.312	3945
927.419	4040
927.525	4071
927.631	4090
927.737	3972
927.843	3979
927.95	3861
928.056	3960
928.162	3964
928.267	4071
928.373	4683
928.479	4101
928.585	3941
928.69	3991
928.796	4082
928.901	3953
929.007	3846
929.112	4040
929.218	3945
929.323	3937
929.428	3926
929.533	4124
929.638	3884
929.743	4002
929.848	4078
929.953	4017
930.058	3930
930.163	3793
930.267	3804
930.372	3994
930.477	3823
930.581	4086
930.685	3975
930.79	3793
930.894	3880
930.998	3819
931.103	3987
931.207	3694
931.311	3701
931.415	3679
931.519	3542
931.623	3584
