Data from test_V78500241_540.txt Node
Date: Fri Mar 25 16:52:45 CST 2022
User: usil
Spectrometer: V785-0024
Trigger mode: 0
Integration Time (sec): 4.000000E-1
Scans to average: 1
Nonlinearity correction enabled: false
Boxcar width: 0
Storing dark spectrum: false
XAxis mode: Wavelengths
Number of Pixels in Spectrum: 1024
>>>>>Begin Spectral Data<<<<<
801.071	8024
801.214	8065
801.356	7875
801.499	7898
801.641	7795
801.783	7890
801.926	8092
802.068	8020
802.211	8081
802.353	8103
802.496	7913
802.638	7936
802.78	7982
802.923	7894
803.065	7959
803.208	7879
803.35	7902
803.492	8005
803.635	8081
803.777	8062
803.919	8115
804.061	8389
804.204	8100
804.346	8096
804.488	8012
804.63	8081
804.773	7982
804.915	8111
805.057	8237
805.199	8202
805.341	8244
805.483	8263
805.626	8134
805.768	8081
805.91	8126
806.052	8164
806.194	8130
806.336	8267
806.478	8077
806.62	8081
806.762	8164
806.904	8229
807.046	8495
807.188	8355
807.33	8263
807.472	8377
807.614	8183
807.756	8100
807.898	8001
808.04	7909
808.182	7883
808.324	7921
808.465	7879
808.607	8024
808.749	8103
808.891	8256
809.033	8301
809.174	8183
809.316	8039
809.458	8088
809.6	8001
809.741	8062
809.883	8092
810.025	8065
810.166	8035
810.308	8050
810.45	7967
810.591	7845
810.733	7757
810.875	7651
811.016	7559
811.158	7529
811.299	7502
811.441	7769
811.582	7727
811.724	7575
811.865	7556
812.007	7578
812.148	7601
812.29	7632
812.431	7723
812.573	7913
812.714	8035
812.855	8149
812.997	8263
813.138	8366
813.279	8317
813.421	8172
813.562	8088
813.703	7909
813.845	7742
813.986	7521
814.127	7358
814.268	7240
814.41	7278
814.551	7282
814.692	7190
814.833	7122
814.974	7118
815.115	7164
815.256	7023
815.397	6920
815.539	6943
815.68	6802
815.821	6852
815.962	6905
816.103	6844
816.244	6768
816.385	6642
816.526	6639
816.666	6502
816.807	6365
816.948	6490
817.089	6464
817.23	6464
817.371	6365
817.512	6460
817.653	6448
817.793	6338
817.934	6376
818.075	6483
818.216	6445
818.356	6418
818.497	6281
818.638	6148
818.778	6144
818.919	6140
819.06	6194
819.2	6308
819.341	6281
819.481	6346
819.622	6502
819.762	6795
819.903	6703
820.043	6547
820.184	6551
820.324	6566
820.465	6715
820.605	6639
820.746	6604
820.886	6452
821.026	6593
821.167	6741
821.307	6802
821.447	6734
821.588	6662
821.728	6593
821.868	6513
822.008	6311
822.149	6399
822.289	6350
822.429	6186
822.569	6121
822.709	6091
822.849	5965
822.99	5897
823.13	5893
823.27	5950
823.41	5794
823.55	5710
823.69	5783
823.83	5771
823.97	5608
824.11	5547
824.25	5532
824.389	5570
824.529	5589
824.669	5566
824.809	5604
824.949	5649
825.089	5600
825.228	5539
825.368	5417
825.508	5318
825.648	5395
825.787	5379
825.927	5414
826.067	5292
826.206	5345
826.346	5398
826.485	5402
826.625	5414
826.765	5539
826.904	5471
827.044	5223
827.183	5220
827.323	5159
827.462	5223
827.601	5143
827.741	5174
827.88	5201
828.02	5170
828.159	5242
828.298	5299
828.437	5376
828.577	5299
828.716	5387
828.855	5288
828.994	5185
829.134	5174
829.273	5162
829.412	5136
829.551	5151
829.69	5159
829.829	5292
829.968	5353
830.107	5296
830.246	5250
830.385	5155
830.524	5155
830.663	5105
830.802	4991
830.941	4927
831.08	4873
831.219	5003
831.357	5025
831.496	5166
831.635	4923
831.774	4927
831.913	4831
832.051	4675
832.19	4736
832.329	4877
832.467	4763
832.606	4694
832.744	4714
832.883	4740
833.022	4714
833.16	4763
833.299	4873
833.437	4828
833.576	4862
833.714	4908
833.852	4892
833.991	4881
834.129	4987
834.267	4972
834.406	4949
834.544	4976
834.682	4984
834.821	4953
834.959	5094
835.097	4980
835.235	5185
835.373	5102
835.511	5071
835.65	5102
835.788	5045
835.926	4938
836.064	4927
836.202	4961
836.34	5201
836.478	5166
836.615	5136
836.753	5246
836.891	5322
837.029	5212
837.167	5178
837.305	5181
837.443	5128
837.58	5102
837.718	5212
837.856	5174
837.993	5178
838.131	5258
838.269	5265
838.406	5223
838.544	5128
838.681	5060
838.819	4987
838.956	4908
839.094	4889
839.231	4984
839.369	5098
839.506	5360
839.643	5269
839.781	5086
839.918	5075
840.055	5094
840.193	5124
840.33	5117
840.467	5166
840.604	5193
840.742	5474
840.879	5102
841.016	5147
841.153	5174
841.29	5376
841.427	5292
841.564	5318
841.701	5372
841.838	5280
841.975	5231
842.112	5311
842.249	5136
842.385	5124
842.522	5353
842.659	5181
842.796	5117
842.933	5216
843.069	5121
843.206	5159
843.343	5315
843.479	5231
843.616	5307
843.752	5060
843.889	5029
844.025	5223
844.162	5033
844.298	5227
844.435	5048
844.571	5086
844.708	5250
844.844	5292
844.98	5357
845.117	5318
845.253	5132
845.389	5079
845.525	5155
845.661	5098
845.798	5056
845.934	5155
846.07	5090
846.206	5231
846.342	5330
846.478	5185
846.614	5014
846.75	4968
846.886	4919
847.022	5109
847.158	5045
847.294	5086
847.429	5105
847.565	5029
847.701	5345
847.837	4847
847.972	4866
848.108	4980
848.244	4949
848.379	4816
848.515	4752
848.65	4759
848.786	4736
848.921	4812
849.057	4870
849.192	4889
849.328	4812
849.463	4843
849.598	4809
849.734	4778
849.869	4637
850.004	4641
850.14	4721
850.275	4550
850.41	4535
850.545	4573
850.68	4634
850.815	4615
850.95	4622
851.085	4892
851.22	4721
851.355	4653
851.49	4626
851.625	4615
851.76	4664
851.895	4527
852.03	4535
852.165	4668
852.299	4744
852.434	4790
852.569	4736
852.703	4733
852.838	4873
852.973	4938
853.107	4896
853.242	4767
853.376	4660
853.511	4550
853.645	4607
853.78	4790
853.914	4691
854.048	4706
854.183	4664
854.317	4710
854.451	4900
854.585	4683
854.72	4664
854.854	4812
854.988	4626
855.122	4607
855.256	4504
855.39	4679
855.524	4778
855.658	4679
855.792	4641
855.926	4748
856.06	4771
856.194	4771
856.327	4721
856.461	4599
856.595	4603
856.729	4656
856.862	4774
856.996	4694
857.13	4752
857.263	4748
857.397	4790
857.53	4725
857.664	4725
857.797	4771
857.931	4828
858.064	4694
858.197	4717
858.331	4664
858.464	4641
858.597	4558
858.731	4615
858.864	4607
858.997	4588
859.13	4656
859.263	4649
859.396	4748
859.529	4599
859.662	4577
859.795	4554
859.928	4611
860.061	4774
860.194	4782
860.327	4550
860.46	4538
860.592	4694
860.725	4733
860.858	4740
860.99	4577
861.123	4561
861.256	4497
861.388	4615
861.521	5421
861.653	4489
861.786	4436
861.918	4443
862.05	4474
862.183	4531
862.315	4607
862.447	4672
862.58	4527
862.712	4375
862.844	4310
862.976	4474
863.108	4466
863.24	4911
863.372	4367
863.504	4474
863.636	4356
863.768	4451
863.9	4424
864.032	4421
864.164	4424
864.296	4478
864.428	4592
864.559	4569
864.691	4542
864.823	4527
864.954	4478
865.086	4527
865.217	4474
865.349	4436
865.48	4428
865.612	4508
865.743	4611
865.875	4485
866.006	4405
866.137	4470
866.269	4478
866.4	4462
866.531	4417
866.662	4394
866.793	4413
866.924	4443
867.055	4519
867.186	4470
867.317	4447
867.448	4398
867.579	4417
867.71	4363
867.841	4405
867.972	4478
868.103	4470
868.233	4443
868.364	4447
868.495	4485
868.625	4672
868.756	4774
868.886	4554
869.017	4634
869.147	4774
869.278	4771
869.408	4653
869.539	4626
869.669	4744
869.799	4691
869.929	4736
870.06	4664
870.19	4927
870.32	4900
870.45	4968
870.58	5037
870.71	5098
870.84	5079
870.97	4972
871.1	4919
871.23	5166
871.36	5136
871.489	5033
871.619	5033
871.749	5113
871.879	5193
872.008	5185
872.138	5052
872.267	4984
872.397	4900
872.526	4767
872.656	4687
872.785	4828
872.915	4957
873.044	5025
873.173	4927
873.303	4957
873.432	5006
873.561	4942
873.69	4858
873.819	4873
873.948	4942
874.077	4831
874.206	4767
874.335	4771
874.464	4949
874.593	5041
874.722	4976
874.851	5098
874.979	5094
875.108	5071
875.237	4892
875.365	4900
875.494	4877
875.623	4987
875.751	4839
875.88	4885
876.008	4961
876.136	5010
876.265	5201
876.393	5360
876.521	5223
876.65	5258
876.778	5159
876.906	5041
877.034	5033
877.162	5003
877.29	5006
877.418	5010
877.546	4991
877.674	4987
877.802	5037
877.93	4995
878.058	4957
878.185	4904
878.313	4949
878.441	4953
878.568	4816
878.696	4877
878.824	4984
878.951	5041
879.079	5178
879.206	5269
879.333	5151
879.461	4999
879.588	5022
879.715	5083
879.842	5185
879.97	5025
880.097	4771
880.224	4710
880.351	4831
880.478	4820
880.605	4801
880.732	4801
880.859	5098
880.986	4930
881.112	4904
881.239	4763
881.366	4675
881.493	4611
881.619	4584
881.746	4668
881.872	4668
881.999	4599
882.125	4706
882.252	4805
882.378	4835
882.505	4980
882.631	4835
882.757	4645
882.883	4782
883.01	4763
883.136	4698
883.262	4615
883.388	4622
883.514	4778
883.64	4889
883.766	4805
883.892	4694
884.018	4733
884.143	4930
884.269	4984
884.395	4691
884.52	4672
884.646	4672
884.772	4611
884.897	4546
885.023	4637
885.148	4755
885.274	4866
885.399	4828
885.524	4706
885.65	4706
885.775	4763
885.9	4664
886.025	4896
886.15	4790
886.275	4672
886.4	4664
886.525	4733
886.65	4694
886.775	4733
886.9	4949
887.025	5083
887.149	4820
887.274	4687
887.399	4580
887.523	4592
887.648	4577
887.773	4599
887.897	4767
888.021	4801
888.146	4675
888.27	4816
888.395	4892
888.519	4866
888.643	4850
888.767	4835
888.891	4687
889.015	4588
889.139	4694
889.263	4615
889.387	4782
889.511	4896
889.635	4809
889.759	4634
889.883	4622
890.006	4698
890.13	4782
890.254	4656
890.377	4736
890.501	4542
890.624	4577
890.748	4698
890.871	4538
890.995	4447
891.118	4409
891.241	4531
891.364	4577
891.488	4675
891.611	4508
891.734	4538
891.857	4626
891.98	4504
892.103	4649
892.226	4577
892.349	4516
892.471	4390
892.594	4542
892.717	4561
892.839	4538
892.962	4573
893.085	4622
893.207	4611
893.33	4424
893.452	4497
893.575	4694
893.697	4630
893.819	4767
893.941	4839
894.064	4824
894.186	4542
894.308	4603
894.43	4714
894.552	4820
894.674	4725
894.796	4607
894.918	4577
895.04	4592
895.161	4721
895.283	4679
895.405	4550
895.526	4618
895.648	4683
895.769	4679
895.891	4733
896.012	4733
896.134	4710
896.255	4645
896.376	4694
896.498	4615
896.619	4641
896.74	4599
896.861	4630
896.982	4923
897.103	5159
897.224	4820
897.345	4729
897.466	4687
897.587	4706
897.708	4809
897.828	4759
897.949	4664
898.07	4561
898.19	4630
898.311	4793
898.431	4706
898.552	4744
898.672	4858
898.792	4831
898.913	4748
899.033	4630
899.153	4538
899.273	4428
899.393	4516
899.513	4527
899.633	4569
899.753	4565
899.873	4523
899.993	4577
900.113	4554
900.232	4607
900.352	4554
900.472	4527
900.591	4379
900.711	4493
900.83	4417
900.95	4615
901.069	4706
901.189	4531
901.308	4390
901.427	4314
901.546	4344
901.665	4474
901.784	4546
901.904	4379
902.023	4272
902.141	4227
902.26	4181
902.379	4325
902.498	4257
902.617	4272
902.735	4398
902.854	4402
902.973	4375
903.091	4246
903.21	4192
903.328	4276
903.446	4234
903.565	4291
903.683	4360
903.801	4306
903.919	4394
904.038	4417
904.156	4337
904.274	4447
904.392	4386
904.51	4447
904.627	4466
904.745	4592
904.863	4618
904.981	4394
905.098	4360
905.216	4383
905.334	4409
905.451	4462
905.569	4462
905.686	4500
905.803	4550
905.921	4390
906.038	4523
906.155	4489
906.272	4375
906.389	4432
906.506	4379
906.623	4390
906.74	4394
906.857	4344
906.974	4363
907.091	4599
907.208	4675
907.324	4588
907.441	4504
907.557	4379
907.674	4344
907.79	4322
907.907	4405
908.023	4493
908.139	4424
908.256	4421
908.372	4466
908.488	4493
908.604	4363
908.72	4344
908.836	4405
908.952	4371
909.068	4436
909.184	4550
909.3	4558
909.415	4561
909.531	4580
909.647	4363
909.762	4379
909.878	4322
909.993	4443
910.108	4424
910.224	4421
910.339	4519
910.454	4409
910.57	4344
910.685	4299
910.8	4637
910.915	4599
911.03	4523
911.145	4318
911.259	4352
911.374	4383
911.489	4291
911.604	4291
911.718	4200
911.833	4204
911.947	4090
912.062	4067
912.176	4230
912.291	4242
912.405	4242
912.519	4451
912.633	4512
912.748	4367
912.862	4314
912.976	4204
913.09	4078
913.204	4196
913.318	4234
913.431	4379
913.545	4360
913.659	4440
913.772	4379
913.886	4265
914	4200
914.113	4363
914.226	4481
914.34	4405
914.453	4192
914.566	4379
914.68	4268
914.793	4310
914.906	4204
915.019	4112
915.132	4109
915.245	4207
915.358	4192
915.47	4261
915.583	4272
915.696	4318
915.809	4417
915.921	4432
916.034	4246
916.146	4280
916.259	4200
916.371	4409
916.483	4386
916.595	4272
916.708	4299
916.82	4337
916.932	4325
917.044	4344
917.156	4333
917.268	4265
917.38	4238
917.491	4276
917.603	4333
917.715	4455
917.826	4421
917.938	4325
918.049	4177
918.161	4398
918.272	4523
918.384	4580
918.495	4443
918.606	4306
918.717	4215
918.828	4314
918.939	4348
919.05	4280
919.161	4322
919.272	4162
919.383	4272
919.494	4428
919.604	4611
919.715	4424
919.826	4325
919.936	4428
920.047	4493
920.157	4485
920.267	4653
920.378	4592
920.488	4489
920.598	4694
920.708	4896
920.818	4729
920.928	4752
921.038	4934
921.148	4934
921.258	4607
921.368	4504
921.477	4493
921.587	4466
921.697	4356
921.806	4573
921.916	4402
922.025	4234
922.134	4253
922.244	4230
922.353	4303
922.462	4169
922.571	4105
922.68	4067
922.789	3964
922.898	4017
923.007	3915
923.116	4090
923.224	4074
923.333	4051
923.442	4010
923.55	3987
923.659	4006
923.767	4074
923.876	4006
923.984	4139
924.092	3964
924.201	4032
924.309	4082
924.417	4131
924.525	4071
924.633	4071
924.741	5056
924.849	3945
924.956	4128
925.064	3918
925.172	3915
925.279	3941
925.387	4029
925.494	4063
925.602	4200
925.709	4192
925.816	4036
925.924	4147
926.031	4234
926.138	4223
926.245	4185
926.352	4105
926.459	4249
926.566	4295
926.673	4188
926.779	4112
926.886	4063
926.993	3964
927.099	3956
927.206	3930
927.312	3949
927.419	4078
927.525	3979
927.631	4044
927.737	3968
927.843	3953
927.95	3846
928.056	3930
928.162	4006
928.267	4101
928.373	4702
928.479	4120
928.585	3926
928.69	4017
928.796	4059
928.901	3968
929.007	3876
929.112	4017
929.218	3930
929.323	3926
929.428	3926
929.533	4154
929.638	3903
929.743	3964
929.848	4032
929.953	4025
930.058	3945
930.163	3816
930.267	3869
930.372	4025
930.477	3774
930.581	4051
930.685	3899
930.79	3812
930.894	3926
930.998	3823
931.103	4078
931.207	3740
931.311	3701
931.415	3698
931.519	3526
931.623	3526
