Data from test_V78500241_654.txt Node
Date: Fri Mar 25 16:53:32 CST 2022
User: usil
Spectrometer: V785-0024
Trigger mode: 0
Integration Time (sec): 4.000000E-1
Scans to average: 1
Nonlinearity correction enabled: false
Boxcar width: 0
Storing dark spectrum: false
XAxis mode: Wavelengths
Number of Pixels in Spectrum: 1024
>>>>>Begin Spectral Data<<<<<
801.071	8016
801.214	7967
801.356	7871
801.499	7849
801.641	7811
801.783	7875
801.926	7963
802.068	7967
802.211	7970
802.353	7986
802.496	7879
802.638	7963
802.78	7978
802.923	7868
803.065	7849
803.208	7814
803.35	7913
803.492	8157
803.635	8115
803.777	8058
803.919	8172
804.061	8374
804.204	8134
804.346	8081
804.488	7970
804.63	8180
804.773	7974
804.915	8050
805.057	8279
805.199	8214
805.341	8161
805.483	8267
805.626	8248
805.768	8142
805.91	8259
806.052	8244
806.194	8069
806.336	8309
806.478	8100
806.62	8065
806.762	8157
806.904	8244
807.046	8492
807.188	8400
807.33	8282
807.472	8305
807.614	8164
807.756	8142
807.898	7978
808.04	7837
808.182	7833
808.324	7879
808.465	7902
808.607	8081
808.749	8153
808.891	8248
809.033	8256
809.174	8145
809.316	7989
809.458	8081
809.6	7959
809.741	8088
809.883	8016
810.025	8088
810.166	8001
810.308	8050
810.45	8046
810.591	7906
810.733	7761
810.875	7624
811.016	7525
811.158	7502
811.299	7620
811.441	7746
811.582	7700
811.724	7525
811.865	7510
812.007	7601
812.148	7613
812.29	7655
812.431	7685
812.573	7799
812.714	8031
812.855	8077
812.997	8210
813.138	8351
813.279	8271
813.421	8100
813.562	7974
813.703	7852
813.845	7811
813.986	7499
814.127	7301
814.268	7263
814.41	7232
814.551	7190
814.692	7183
814.833	7088
814.974	7080
815.115	7168
815.256	6935
815.397	6882
815.539	6932
815.68	6818
815.821	6833
815.962	6871
816.103	6852
816.244	6677
816.385	6639
816.526	6631
816.666	6471
816.807	6277
816.948	6403
817.089	6464
817.23	6475
817.371	6410
817.512	6414
817.653	6399
817.793	6311
817.934	6395
818.075	6467
818.216	6448
818.356	6372
818.497	6216
818.638	6129
818.778	6144
818.919	6125
819.06	6102
819.2	6277
819.341	6258
819.481	6304
819.622	6521
819.762	6753
819.903	6688
820.043	6536
820.184	6582
820.324	6544
820.465	6665
820.605	6654
820.746	6601
820.886	6475
821.026	6635
821.167	6681
821.307	6798
821.447	6795
821.588	6570
821.728	6547
821.868	6456
822.008	6258
822.149	6323
822.289	6327
822.429	6205
822.569	6049
822.709	6144
822.849	5874
822.99	5897
823.13	5885
823.27	5916
823.41	5748
823.55	5805
823.69	5786
823.83	5771
823.97	5684
824.11	5577
824.25	5497
824.389	5619
824.529	5577
824.669	5463
824.809	5668
824.949	5688
825.089	5634
825.228	5562
825.368	5414
825.508	5345
825.648	5307
825.787	5376
825.927	5379
826.067	5258
826.206	5311
826.346	5349
826.485	5421
826.625	5398
826.765	5516
826.904	5429
827.044	5254
827.183	5212
827.323	5143
827.462	5261
827.601	5174
827.741	5159
827.88	5197
828.02	5079
828.159	5231
828.298	5311
828.437	5360
828.577	5315
828.716	5505
828.855	5341
828.994	5132
829.134	5181
829.273	5178
829.412	5132
829.551	5121
829.69	5166
829.829	5212
829.968	5330
830.107	5273
830.246	5292
830.385	5181
830.524	5136
830.663	5083
830.802	4934
830.941	4877
831.08	4843
831.219	4953
831.357	4942
831.496	5185
831.635	4949
831.774	4877
831.913	4854
832.051	4736
832.19	4706
832.329	4847
832.467	4721
832.606	4630
832.744	4710
832.883	4729
833.022	4740
833.16	4752
833.299	4847
833.437	4801
833.576	4877
833.714	4793
833.852	4835
833.991	4892
834.129	4965
834.267	4938
834.406	4885
834.544	4919
834.682	4987
834.821	4949
834.959	5117
835.097	4961
835.235	5143
835.373	5071
835.511	5113
835.65	5003
835.788	5048
835.926	4892
836.064	4824
836.202	4923
836.34	5143
836.478	5239
836.615	5094
836.753	5170
836.891	5303
837.029	5246
837.167	5201
837.305	5132
837.443	5189
837.58	5105
837.718	5273
837.856	5220
837.993	5128
838.131	5155
838.269	5216
838.406	5170
838.544	5181
838.681	5041
838.819	5025
838.956	4866
839.094	4904
839.231	4972
839.369	5094
839.506	5463
839.643	5246
839.781	5067
839.918	5037
840.055	5143
840.193	5162
840.33	5079
840.467	5109
840.604	5155
840.742	5429
840.879	5094
841.016	5094
841.153	5178
841.29	5387
841.427	5379
841.564	5292
841.701	5345
841.838	5239
841.975	5239
842.112	5265
842.249	5132
842.385	5117
842.522	5284
842.659	5136
842.796	5155
842.933	5185
843.069	5189
843.206	5109
843.343	5334
843.479	5254
843.616	5235
843.752	5052
843.889	5006
844.025	5250
844.162	5037
844.298	5227
844.435	5071
844.571	5022
844.708	5181
844.844	5334
844.98	5357
845.117	5284
845.253	5124
845.389	5075
845.525	5159
845.661	5102
845.798	5029
845.934	5136
846.07	5022
846.206	5208
846.342	5265
846.478	5185
846.614	5018
846.75	4927
846.886	4927
847.022	5166
847.158	4991
847.294	5075
847.429	5079
847.565	5067
847.701	5341
847.837	4850
847.972	4801
848.108	4942
848.244	4957
848.379	4809
848.515	4714
848.65	4721
848.786	4729
848.921	4790
849.057	4835
849.192	4908
849.328	4820
849.463	4866
849.598	4801
849.734	4786
849.869	4653
850.004	4607
850.14	4672
850.275	4554
850.41	4519
850.545	4542
850.68	4577
850.815	4634
850.95	4615
851.085	4786
851.22	4759
851.355	4679
851.49	4615
851.625	4630
851.76	4675
851.895	4580
852.03	4523
852.165	4649
852.299	4706
852.434	4740
852.569	4702
852.703	4778
852.838	4786
852.973	4908
853.107	4953
853.242	4710
853.376	4615
853.511	4542
853.645	4599
853.78	4793
853.914	4683
854.048	4634
854.183	4634
854.317	4691
854.451	4828
854.585	4706
854.72	4626
854.854	4740
854.988	4603
855.122	4622
855.256	4455
855.39	4672
855.524	4736
855.658	4725
855.792	4679
855.926	4740
856.06	4744
856.194	4816
856.327	4668
856.461	4603
856.595	4588
856.729	4596
856.862	4725
856.996	4679
857.13	4706
857.263	4755
857.397	4816
857.53	4675
857.664	4740
857.797	4710
857.931	4744
858.064	4702
858.197	4725
858.331	4637
858.464	4618
858.597	4508
858.731	4626
858.864	4660
858.997	4645
859.13	4637
859.263	4702
859.396	4691
859.529	4622
859.662	4577
859.795	4523
859.928	4603
860.061	4778
860.194	4725
860.327	4672
860.46	4561
860.592	4706
860.725	4679
860.858	4691
860.99	4599
861.123	4512
861.256	4485
861.388	4615
861.521	5311
861.653	4500
861.786	4481
861.918	4462
862.05	4500
862.183	4550
862.315	4603
862.447	4630
862.58	4550
862.712	4390
862.844	4352
862.976	4402
863.108	4436
863.24	4877
863.372	4333
863.504	4424
863.636	4386
863.768	4466
863.9	4424
864.032	4363
864.164	4386
864.296	4462
864.428	4500
864.559	4573
864.691	4531
864.823	4512
864.954	4523
865.086	4535
865.217	4443
865.349	4386
865.48	4459
865.612	4542
865.743	4607
865.875	4531
866.006	4402
866.137	4424
866.269	4390
866.4	4470
866.531	4405
866.662	4379
866.793	4386
866.924	4440
867.055	4485
867.186	4474
867.317	4455
867.448	4383
867.579	4375
867.71	4363
867.841	4352
867.972	4443
868.103	4481
868.233	4428
868.364	4489
868.495	4489
868.625	4645
868.756	4797
868.886	4565
869.017	4630
869.147	4793
869.278	4782
869.408	4656
869.539	4641
869.669	4702
869.799	4691
869.929	4729
870.06	4706
870.19	4927
870.32	4904
870.45	4881
870.58	4991
870.71	5033
870.84	5143
870.97	4942
871.1	4881
871.23	5102
871.36	5117
871.489	4995
871.619	5090
871.749	5094
871.879	5147
872.008	5170
872.138	5029
872.267	5014
872.397	4816
872.526	4839
872.656	4668
872.785	4820
872.915	4980
873.044	5045
873.173	4995
873.303	5003
873.432	4953
873.561	4900
873.69	4873
873.819	4854
873.948	4957
874.077	4805
874.206	4710
874.335	4805
874.464	4930
874.593	5071
874.722	5048
874.851	5105
874.979	5079
875.108	4999
875.237	4911
875.365	4889
875.494	4911
875.623	4984
875.751	4805
875.88	4850
876.008	5033
876.136	5025
876.265	5162
876.393	5303
876.521	5246
876.65	5181
876.778	5147
876.906	5083
877.034	5052
877.162	5064
877.29	4995
877.418	5033
877.546	5022
877.674	5018
877.802	5037
877.93	4968
878.058	4930
878.185	4870
878.313	4946
878.441	4915
878.568	4782
878.696	4972
878.824	4987
878.951	4991
879.079	5071
879.206	5296
879.333	5147
879.461	4980
879.588	4991
879.715	5090
879.842	5197
879.97	4999
880.097	4782
880.224	4748
880.351	4812
880.478	4866
880.605	4835
880.732	4812
880.859	5132
880.986	4911
881.112	4930
881.239	4809
881.366	4706
881.493	4615
881.619	4592
881.746	4626
881.872	4679
881.999	4675
882.125	4660
882.252	4786
882.378	4812
882.505	4987
882.631	4778
882.757	4691
882.883	4740
883.01	4748
883.136	4641
883.262	4607
883.388	4615
883.514	4858
883.64	4900
883.766	4771
883.892	4660
884.018	4786
884.143	4892
884.269	4976
884.395	4634
884.52	4622
884.646	4611
884.772	4580
884.897	4546
885.023	4660
885.148	4759
885.274	4896
885.399	4816
885.524	4710
885.65	4656
885.775	4748
885.9	4736
886.025	4866
886.15	4831
886.275	4729
886.4	4668
886.525	4740
886.65	4687
886.775	4714
886.9	4881
887.025	5010
887.149	4809
887.274	4626
887.399	4542
887.523	4569
887.648	4580
887.773	4588
887.897	4740
888.021	4790
888.146	4660
888.27	4824
888.395	4881
888.519	4801
888.643	4797
888.767	4839
888.891	4694
889.015	4611
889.139	4603
889.263	4550
889.387	4797
889.511	4862
889.635	4790
889.759	4622
889.883	4683
890.006	4759
890.13	4831
890.254	4637
890.377	4717
890.501	4542
890.624	4489
890.748	4645
890.871	4493
890.995	4443
891.118	4432
891.241	4504
891.364	4497
891.488	4649
891.611	4474
891.734	4527
891.857	4599
891.98	4538
892.103	4641
892.226	4622
892.349	4554
892.471	4424
892.594	4546
892.717	4611
892.839	4565
892.962	4618
893.085	4660
893.207	4523
893.33	4481
893.452	4550
893.575	4653
893.697	4588
893.819	4809
893.941	4816
894.064	4744
894.186	4596
894.308	4561
894.43	4721
894.552	4820
894.674	4767
894.796	4561
894.918	4588
895.04	4550
895.161	4698
895.283	4645
895.405	4550
895.526	4626
895.648	4687
895.769	4653
895.891	4717
896.012	4717
896.134	4736
896.255	4653
896.376	4584
896.498	4603
896.619	4660
896.74	4596
896.861	4634
896.982	4961
897.103	5102
897.224	4850
897.345	4736
897.466	4649
897.587	4721
897.708	4809
897.828	4778
897.949	4656
898.07	4577
898.19	4653
898.311	4801
898.431	4634
898.552	4752
898.672	4858
898.792	4774
898.913	4687
899.033	4626
899.153	4565
899.273	4386
899.393	4478
899.513	4538
899.633	4485
899.753	4550
899.873	4436
899.993	4580
900.113	4504
900.232	4561
900.352	4474
900.472	4508
900.591	4390
900.711	4478
900.83	4443
900.95	4558
901.069	4611
901.189	4542
901.308	4363
901.427	4310
901.546	4417
901.665	4474
901.784	4542
901.904	4379
902.023	4318
902.141	4143
902.26	4158
902.379	4314
902.498	4261
902.617	4211
902.735	4367
902.854	4375
902.973	4360
903.091	4185
903.21	4215
903.328	4295
903.446	4276
903.565	4249
903.683	4356
903.801	4280
903.919	4371
904.038	4402
904.156	4341
904.274	4432
904.392	4413
904.51	4424
904.627	4485
904.745	4573
904.863	4653
904.981	4363
905.098	4276
905.216	4333
905.334	4390
905.451	4428
905.569	4432
905.686	4527
905.803	4580
905.921	4371
906.038	4542
906.155	4504
906.272	4352
906.389	4428
906.506	4322
906.623	4390
906.74	4360
906.857	4322
906.974	4344
907.091	4538
907.208	4721
907.324	4599
907.441	4500
907.557	4363
907.674	4333
907.79	4280
907.907	4440
908.023	4478
908.139	4459
908.256	4436
908.372	4478
908.488	4424
908.604	4337
908.72	4322
908.836	4386
908.952	4322
909.068	4409
909.184	4588
909.3	4478
909.415	4573
909.531	4580
909.647	4390
909.762	4390
909.878	4360
909.993	4432
910.108	4394
910.224	4413
910.339	4504
910.454	4390
910.57	4325
910.685	4306
910.8	4622
910.915	4603
911.03	4466
911.145	4352
911.259	4329
911.374	4386
911.489	4280
911.604	4310
911.718	4109
911.833	4169
911.947	4086
912.062	4040
912.176	4219
912.291	4242
912.405	4211
912.519	4413
912.633	4489
912.748	4375
912.862	4284
912.976	4230
913.09	4093
913.204	4166
913.318	4284
913.431	4371
913.545	4363
913.659	4424
913.772	4352
913.886	4223
914	4276
914.113	4379
914.226	4447
914.34	4379
914.453	4276
914.566	4363
914.68	4310
914.793	4348
914.906	4150
915.019	4112
915.132	4086
915.245	4158
915.358	4204
915.47	4276
915.583	4291
915.696	4310
915.809	4402
915.921	4432
916.034	4306
916.146	4234
916.259	4242
916.371	4379
916.483	4383
916.595	4268
916.708	4299
916.82	4287
916.932	4303
917.044	4303
917.156	4344
917.268	4230
917.38	4291
917.491	4284
917.603	4329
917.715	4489
917.826	4459
917.938	4341
918.049	4242
918.161	4363
918.272	4538
918.384	4527
918.495	4432
918.606	4272
918.717	4299
918.828	4329
918.939	4371
919.05	4223
919.161	4310
919.272	4181
919.383	4280
919.494	4428
919.604	4580
919.715	4432
919.826	4348
919.936	4375
920.047	4519
920.157	4474
920.267	4717
920.378	4512
920.488	4493
920.598	4679
920.708	4873
920.818	4744
920.928	4740
921.038	4938
921.148	4946
921.258	4622
921.368	4569
921.477	4538
921.587	4462
921.697	4363
921.806	4535
921.916	4440
922.025	4284
922.134	4265
922.244	4227
922.353	4318
922.462	4196
922.571	4124
922.68	4021
922.789	3975
922.898	4036
923.007	3975
923.116	4105
923.224	4059
923.333	4048
923.442	3964
923.55	3991
923.659	4040
923.767	4112
923.876	3956
923.984	4097
924.092	3953
924.201	4078
924.309	4059
924.417	4101
924.525	4044
924.633	4150
924.741	5056
924.849	3892
924.956	4097
925.064	4010
925.172	3918
925.279	3979
925.387	4040
925.494	4029
925.602	4192
925.709	4162
925.816	4006
925.924	4173
926.031	4215
926.138	4143
926.245	4181
926.352	4109
926.459	4238
926.566	4306
926.673	4150
926.779	4051
926.886	4067
926.993	3983
927.099	3926
927.206	3937
927.312	3918
927.419	4021
927.525	4044
927.631	4120
927.737	3941
927.843	3926
927.95	3835
928.056	3941
928.162	4006
928.267	4051
928.373	4649
928.479	4093
928.585	3865
928.69	3979
928.796	4051
928.901	3953
929.007	3861
929.112	3983
929.218	3968
929.323	3899
929.428	3884
929.533	4090
929.638	3899
929.743	3975
929.848	3987
929.953	4025
930.058	3915
930.163	3747
930.267	3816
930.372	3972
930.477	3831
930.581	4074
930.685	3956
930.79	3869
930.894	3922
930.998	3880
931.103	4051
931.207	3705
931.311	3709
931.415	3652
931.519	3564
931.623	3564
