Data from test_V78500241_801.txt Node
Date: Fri Mar 25 16:54:34 CST 2022
User: usil
Spectrometer: V785-0024
Trigger mode: 0
Integration Time (sec): 4.000000E-1
Scans to average: 1
Nonlinearity correction enabled: false
Boxcar width: 0
Storing dark spectrum: false
XAxis mode: Wavelengths
Number of Pixels in Spectrum: 1024
>>>>>Begin Spectral Data<<<<<
801.071	8031
801.214	8035
801.356	7837
801.499	7879
801.641	7833
801.783	7807
801.926	7963
802.068	7944
802.211	8005
802.353	7963
802.496	7913
802.638	7925
802.78	7978
802.923	7909
803.065	7864
803.208	7879
803.35	7970
803.492	8130
803.635	8161
803.777	8073
803.919	8111
804.061	8400
804.204	8142
804.346	8016
804.488	7967
804.63	8130
804.773	8050
804.915	8069
805.057	8282
805.199	8180
805.341	8202
805.483	8237
805.626	8172
805.768	8088
805.91	8206
806.052	8183
806.194	8123
806.336	8252
806.478	8103
806.62	8043
806.762	8138
806.904	8271
807.046	8488
807.188	8374
807.33	8305
807.472	8301
807.614	8210
807.756	8065
807.898	7959
808.04	7849
808.182	7849
808.324	7909
808.465	7852
808.607	8050
808.749	8065
808.891	8237
809.033	8290
809.174	8202
809.316	8046
809.458	8012
809.6	7959
809.741	8062
809.883	8077
810.025	8142
810.166	8005
810.308	8073
810.45	8016
810.591	7936
810.733	7719
810.875	7700
811.016	7563
811.158	7453
811.299	7563
811.441	7674
811.582	7658
811.724	7556
811.865	7571
812.007	7521
812.148	7616
812.29	7578
812.431	7715
812.573	7860
812.714	8035
812.855	8119
812.997	8233
813.138	8290
813.279	8172
813.421	8115
813.562	8031
813.703	7849
813.845	7776
813.986	7487
814.127	7244
814.268	7236
814.41	7209
814.551	7164
814.692	7175
814.833	7110
814.974	7072
815.115	7072
815.256	6913
815.397	6977
815.539	6939
815.68	6833
815.821	6776
815.962	6833
816.103	6848
816.244	6707
816.385	6585
816.526	6578
816.666	6486
816.807	6273
816.948	6407
817.089	6483
817.23	6437
817.371	6350
817.512	6327
817.653	6441
817.793	6304
817.934	6422
818.075	6372
818.216	6441
818.356	6331
818.497	6247
818.638	6068
818.778	6148
818.919	6148
819.06	6140
819.2	6315
819.341	6258
819.481	6384
819.622	6506
819.762	6673
819.903	6677
820.043	6608
820.184	6521
820.324	6593
820.465	6650
820.605	6681
820.746	6654
820.886	6475
821.026	6654
821.167	6753
821.307	6757
821.447	6806
821.588	6601
821.728	6547
821.868	6479
822.008	6346
822.149	6369
822.289	6391
822.429	6209
822.569	6148
822.709	6144
822.849	5927
822.99	5916
823.13	5935
823.27	5954
823.41	5786
823.55	5821
823.69	5817
823.83	5832
823.97	5688
824.11	5577
824.25	5554
824.389	5646
824.529	5577
824.669	5532
824.809	5638
824.949	5665
825.089	5585
825.228	5604
825.368	5463
825.508	5383
825.648	5395
825.787	5425
825.927	5398
826.067	5345
826.206	5353
826.346	5376
826.485	5467
826.625	5429
826.765	5585
826.904	5512
827.044	5330
827.183	5185
827.323	5185
827.462	5231
827.601	5220
827.741	5178
827.88	5220
828.02	5170
828.159	5307
828.298	5326
828.437	5387
828.577	5307
828.716	5535
828.855	5372
828.994	5197
829.134	5178
829.273	5208
829.412	5143
829.551	5166
829.69	5136
829.829	5277
829.968	5372
830.107	5273
830.246	5269
830.385	5212
830.524	5166
830.663	5136
830.802	5037
830.941	4904
831.08	4892
831.219	5022
831.357	5041
831.496	5208
831.635	4968
831.774	4870
831.913	4919
832.051	4729
832.19	4793
832.329	4896
832.467	4702
832.606	4664
832.744	4740
832.883	4744
833.022	4767
833.16	4790
833.299	4881
833.437	4839
833.576	4801
833.714	4850
833.852	4904
833.991	4930
834.129	4957
834.267	4984
834.406	4949
834.544	4999
834.682	5041
834.821	5003
834.959	5174
835.097	5029
835.235	5193
835.373	5136
835.511	5121
835.65	5117
835.788	5045
835.926	4976
836.064	4961
836.202	4995
836.34	5162
836.478	5284
836.615	5136
836.753	5212
836.891	5296
837.029	5227
837.167	5235
837.305	5193
837.443	5155
837.58	5128
837.718	5258
837.856	5189
837.993	5136
838.131	5246
838.269	5201
838.406	5220
838.544	5189
838.681	5090
838.819	5022
838.956	4999
839.094	4934
839.231	4976
839.369	5086
839.506	5425
839.643	5303
839.781	5109
839.918	4999
840.055	5155
840.193	5159
840.33	5132
840.467	5151
840.604	5235
840.742	5433
840.879	5109
841.016	5128
841.153	5204
841.29	5368
841.427	5410
841.564	5372
841.701	5387
841.838	5364
841.975	5254
842.112	5307
842.249	5162
842.385	5124
842.522	5379
842.659	5223
842.796	5212
842.933	5273
843.069	5174
843.206	5170
843.343	5330
843.479	5292
843.616	5345
843.752	5071
843.889	5060
844.025	5235
844.162	5022
844.298	5250
844.435	5128
844.571	5079
844.708	5231
844.844	5349
844.98	5372
845.117	5357
845.253	5151
845.389	5086
845.525	5143
845.661	5166
845.798	5075
845.934	5105
846.07	5075
846.206	5239
846.342	5387
846.478	5231
846.614	5052
846.75	5006
846.886	4999
847.022	5159
847.158	5067
847.294	5102
847.429	5086
847.565	5075
847.701	5341
847.837	4900
847.972	4843
848.108	4968
848.244	4972
848.379	4850
848.515	4752
848.65	4733
848.786	4782
848.921	4843
849.057	4858
849.192	4919
849.328	4797
849.463	4889
849.598	4805
849.734	4778
849.869	4736
850.004	4656
850.14	4675
850.275	4630
850.41	4565
850.545	4561
850.68	4611
850.815	4672
850.95	4664
851.085	4809
851.22	4767
851.355	4679
851.49	4649
851.625	4645
851.76	4668
851.895	4519
852.03	4558
852.165	4672
852.299	4733
852.434	4790
852.569	4748
852.703	4763
852.838	4858
852.973	4965
853.107	4934
853.242	4694
853.376	4656
853.511	4573
853.645	4656
853.78	4862
853.914	4714
854.048	4675
854.183	4660
854.317	4710
854.451	4930
854.585	4653
854.72	4637
854.854	4748
854.988	4611
855.122	4675
855.256	4550
855.39	4675
855.524	4786
855.658	4717
855.792	4679
855.926	4755
856.06	4767
856.194	4854
856.327	4687
856.461	4622
856.595	4622
856.729	4668
856.862	4759
856.996	4721
857.13	4733
857.263	4755
857.397	4828
857.53	4679
857.664	4740
857.797	4744
857.931	4797
858.064	4721
858.197	4767
858.331	4683
858.464	4607
858.597	4535
858.731	4672
858.864	4645
858.997	4584
859.13	4729
859.263	4660
859.396	4679
859.529	4561
859.662	4565
859.795	4569
859.928	4664
860.061	4778
860.194	4790
860.327	4630
860.46	4603
860.592	4748
860.725	4763
860.858	4725
860.99	4622
861.123	4485
861.256	4558
861.388	4630
861.521	5288
861.653	4485
861.786	4447
861.918	4489
862.05	4535
862.183	4527
862.315	4622
862.447	4687
862.58	4542
862.712	4402
862.844	4329
862.976	4508
863.108	4508
863.24	4805
863.372	4352
863.504	4440
863.636	4447
863.768	4474
863.9	4466
864.032	4375
864.164	4447
864.296	4493
864.428	4504
864.559	4558
864.691	4538
864.823	4519
864.954	4542
865.086	4497
865.217	4462
865.349	4451
865.48	4508
865.612	4493
865.743	4630
865.875	4500
866.006	4436
866.137	4451
866.269	4455
866.4	4421
866.531	4470
866.662	4428
866.793	4443
866.924	4440
867.055	4470
867.186	4443
867.317	4421
867.448	4371
867.579	4394
867.71	4356
867.841	4386
867.972	4481
868.103	4493
868.233	4500
868.364	4398
868.495	4497
868.625	4664
868.756	4771
868.886	4599
869.017	4649
869.147	4790
869.278	4786
869.408	4672
869.539	4687
869.669	4687
869.799	4691
869.929	4748
870.06	4744
870.19	4976
870.32	4953
870.45	4908
870.58	4999
870.71	5117
870.84	5064
870.97	4984
871.1	4942
871.23	5136
871.36	5143
871.489	5025
871.619	5083
871.749	5113
871.879	5109
872.008	5181
872.138	5052
872.267	4987
872.397	4896
872.526	4835
872.656	4736
872.785	4774
872.915	4965
873.044	5067
873.173	4957
873.303	4946
873.432	4961
873.561	4999
873.69	4904
873.819	4930
873.948	4953
874.077	4812
874.206	4752
874.335	4824
874.464	4923
874.593	5064
874.722	4927
874.851	5045
874.979	5048
875.108	5132
875.237	4927
875.365	4885
875.494	4896
875.623	4991
875.751	4801
875.88	4900
876.008	4965
876.136	5048
876.265	5208
876.393	5372
876.521	5284
876.65	5235
876.778	5189
876.906	5056
877.034	5048
877.162	5037
877.29	5033
877.418	5064
877.546	5067
877.674	5083
877.802	4949
877.93	4972
878.058	4934
878.185	4885
878.313	4965
878.441	4911
878.568	4767
878.696	4828
878.824	4934
878.951	4987
879.079	5140
879.206	5315
879.333	5147
879.461	4991
879.588	5003
879.715	5105
879.842	5273
879.97	5060
880.097	4759
880.224	4774
880.351	4824
880.478	4812
880.605	4873
880.732	4801
880.859	5086
880.986	4862
881.112	4961
881.239	4759
881.366	4675
881.493	4558
881.619	4599
881.746	4698
881.872	4626
881.999	4653
882.125	4706
882.252	4755
882.378	4816
882.505	4972
882.631	4816
882.757	4668
882.883	4763
883.01	4755
883.136	4645
883.262	4588
883.388	4653
883.514	4850
883.64	4904
883.766	4790
883.892	4675
884.018	4691
884.143	4908
884.269	4984
884.395	4733
884.52	4664
884.646	4706
884.772	4607
884.897	4577
885.023	4660
885.148	4759
885.274	4858
885.399	4797
885.524	4702
885.65	4733
885.775	4740
885.9	4675
886.025	4866
886.15	4793
886.275	4694
886.4	4672
886.525	4691
886.65	4729
886.775	4649
886.9	4908
887.025	5041
887.149	4778
887.274	4687
887.399	4603
887.523	4607
887.648	4554
887.773	4599
887.897	4774
888.021	4797
888.146	4729
888.27	4816
888.395	4949
888.519	4831
888.643	4816
888.767	4866
888.891	4645
889.015	4645
889.139	4653
889.263	4577
889.387	4763
889.511	4839
889.635	4774
889.759	4649
889.883	4630
890.006	4748
890.13	4797
890.254	4634
890.377	4683
890.501	4550
890.624	4523
890.748	4637
890.871	4504
890.995	4436
891.118	4367
891.241	4535
891.364	4546
891.488	4618
891.611	4485
891.734	4531
891.857	4630
891.98	4626
892.103	4634
892.226	4580
892.349	4535
892.471	4443
892.594	4538
892.717	4656
892.839	4577
892.962	4531
893.085	4656
893.207	4603
893.33	4413
893.452	4519
893.575	4668
893.697	4554
893.819	4816
893.941	4839
894.064	4774
894.186	4588
894.308	4554
894.43	4729
894.552	4752
894.674	4774
894.796	4565
894.918	4603
895.04	4577
895.161	4702
895.283	4634
895.405	4630
895.526	4607
895.648	4740
895.769	4691
895.891	4774
896.012	4744
896.134	4706
896.255	4645
896.376	4622
896.498	4596
896.619	4687
896.74	4618
896.861	4630
896.982	4930
897.103	5064
897.224	4870
897.345	4755
897.466	4637
897.587	4733
897.708	4908
897.828	4767
897.949	4687
898.07	4554
898.19	4641
898.311	4816
898.431	4683
898.552	4736
898.672	4812
898.792	4748
898.913	4714
899.033	4622
899.153	4481
899.273	4413
899.393	4481
899.513	4519
899.633	4516
899.753	4580
899.873	4504
899.993	4611
900.113	4550
900.232	4577
900.352	4546
900.472	4451
900.591	4379
900.711	4470
900.83	4455
900.95	4615
901.069	4691
901.189	4519
901.308	4367
901.427	4310
901.546	4329
901.665	4451
901.784	4512
901.904	4402
902.023	4306
902.141	4192
902.26	4124
902.379	4360
902.498	4295
902.617	4204
902.735	4424
902.854	4417
902.973	4371
903.091	4223
903.21	4246
903.328	4287
903.446	4299
903.565	4276
903.683	4363
903.801	4280
903.919	4417
904.038	4440
904.156	4337
904.274	4436
904.392	4394
904.51	4424
904.627	4432
904.745	4599
904.863	4656
904.981	4379
905.098	4314
905.216	4329
905.334	4447
905.451	4413
905.569	4417
905.686	4550
905.803	4550
905.921	4390
906.038	4550
906.155	4485
906.272	4432
906.389	4481
906.506	4348
906.623	4398
906.74	4386
906.857	4257
906.974	4394
907.091	4618
907.208	4660
907.324	4554
907.441	4485
907.557	4356
907.674	4333
907.79	4325
907.907	4394
908.023	4500
908.139	4481
908.256	4455
908.372	4497
908.488	4413
908.604	4352
908.72	4348
908.836	4402
908.952	4390
909.068	4383
909.184	4542
909.3	4474
909.415	4592
909.531	4523
909.647	4398
909.762	4363
909.878	4325
909.993	4462
910.108	4447
910.224	4405
910.339	4516
910.454	4356
910.57	4383
910.685	4291
910.8	4714
910.915	4592
911.03	4523
911.145	4268
911.259	4363
911.374	4348
911.489	4322
911.604	4276
911.718	4177
911.833	4204
911.947	4074
912.062	4048
912.176	4242
912.291	4219
912.405	4192
912.519	4432
912.633	4527
912.748	4375
912.862	4325
912.976	4238
913.09	4074
913.204	4143
913.318	4230
913.431	4367
913.545	4356
913.659	4428
913.772	4371
913.886	4272
914	4215
914.113	4383
914.226	4428
914.34	4390
914.453	4215
914.566	4455
914.68	4322
914.793	4337
914.906	4150
915.019	4131
915.132	4109
915.245	4196
915.358	4196
915.47	4230
915.583	4272
915.696	4306
915.809	4363
915.921	4413
916.034	4257
916.146	4314
916.259	4181
916.371	4440
916.483	4299
916.595	4268
916.708	4268
916.82	4280
916.932	4299
917.044	4280
917.156	4310
917.268	4234
917.38	4287
917.491	4265
917.603	4314
917.715	4383
917.826	4474
917.938	4363
918.049	4261
918.161	4405
918.272	4538
918.384	4542
918.495	4394
918.606	4268
918.717	4291
918.828	4291
918.939	4367
919.05	4299
919.161	4325
919.272	4139
919.383	4272
919.494	4455
919.604	4565
919.715	4436
919.826	4390
919.936	4386
920.047	4519
920.157	4447
920.267	4691
920.378	4516
920.488	4527
920.598	4717
920.708	4866
920.818	4698
920.928	4755
921.038	4919
921.148	4911
921.258	4664
921.368	4535
921.477	4443
921.587	4432
921.697	4356
921.806	4535
921.916	4443
922.025	4287
922.134	4246
922.244	4219
922.353	4322
922.462	4166
922.571	4135
922.68	3968
922.789	3983
922.898	4044
923.007	3975
923.116	4090
923.224	4078
923.333	4116
923.442	3987
923.55	3960
923.659	4032
923.767	4074
923.876	4010
923.984	4093
924.092	3964
924.201	4093
924.309	4067
924.417	4093
924.525	4067
924.633	4139
924.741	4877
924.849	3945
924.956	4124
925.064	3998
925.172	3922
925.279	3968
925.387	4090
925.494	4063
925.602	4204
925.709	4188
925.816	4055
925.924	4128
926.031	4215
926.138	4158
926.245	4207
926.352	4097
926.459	4253
926.566	4310
926.673	4135
926.779	4105
926.886	4093
926.993	4006
927.099	3934
927.206	3922
927.312	3930
927.419	4051
927.525	4067
927.631	4120
927.737	3979
927.843	3968
927.95	3812
928.056	3922
928.162	3994
928.267	4036
928.373	4679
928.479	4109
928.585	3918
928.69	4025
928.796	4086
928.901	3934
929.007	3861
929.112	4013
929.218	3991
929.323	3937
929.428	3960
929.533	4116
929.638	3926
929.743	3953
929.848	4021
929.953	3964
930.058	3915
930.163	3804
930.267	3819
930.372	3979
930.477	3797
930.581	4131
930.685	3926
930.79	3835
930.894	3930
930.998	3880
931.103	4017
931.207	3675
931.311	3644
931.415	3671
931.519	3526
931.623	3564
