Data from test_V78500241_2819.txt Node
Date: Fri Mar 25 17:08:36 CST 2022
User: usil
Spectrometer: V785-0024
Trigger mode: 0
Integration Time (sec): 4.000000E-1
Scans to average: 1
Nonlinearity correction enabled: false
Boxcar width: 0
Storing dark spectrum: false
XAxis mode: Wavelengths
Number of Pixels in Spectrum: 1024
>>>>>Begin Spectral Data<<<<<
801.071	7982
801.214	8016
801.356	7894
801.499	7898
801.641	7868
801.783	7913
801.926	7993
802.068	7989
802.211	7986
802.353	8005
802.496	7868
802.638	7940
802.78	7959
802.923	7913
803.065	7875
803.208	7902
803.35	8008
803.492	8058
803.635	8225
803.777	8069
803.919	8168
804.061	8389
804.204	8172
804.346	8077
804.488	7978
804.63	8126
804.773	7989
804.915	8119
805.057	8290
805.199	8199
805.341	8229
805.483	8324
805.626	8275
805.768	8176
805.91	8199
806.052	8233
806.194	8088
806.336	8313
806.478	8153
806.62	8111
806.762	8149
806.904	8317
807.046	8495
807.188	8362
807.33	8240
807.472	8358
807.614	8187
807.756	8229
807.898	8008
808.04	7898
808.182	7970
808.324	7860
808.465	7906
808.607	8088
808.749	8172
808.891	8244
809.033	8358
809.174	8237
809.316	8039
809.458	8035
809.6	8005
809.741	8084
809.883	8073
810.025	8107
810.166	8077
810.308	8031
810.45	8005
810.591	7849
810.733	7769
810.875	7704
811.016	7571
811.158	7464
811.299	7594
811.441	7723
811.582	7772
811.724	7590
811.865	7491
812.007	7590
812.148	7590
812.29	7616
812.431	7761
812.573	7845
812.714	7993
812.855	8103
812.997	8252
813.138	8286
813.279	8176
813.421	8073
813.562	8020
813.703	7913
813.845	7788
813.986	7468
814.127	7327
814.268	7251
814.41	7209
814.551	7137
814.692	7171
814.833	7088
814.974	7091
815.115	7171
815.256	6920
815.397	6966
815.539	6954
815.68	6818
815.821	6821
815.962	6848
816.103	6837
816.244	6711
816.385	6631
816.526	6623
816.666	6521
816.807	6327
816.948	6414
817.089	6513
817.23	6395
817.371	6422
817.512	6395
817.653	6403
817.793	6353
817.934	6403
818.075	6403
818.216	6410
818.356	6429
818.497	6247
818.638	6182
818.778	6144
818.919	6167
819.06	6140
819.2	6410
819.341	6311
819.481	6315
819.622	6506
819.762	6749
819.903	6669
820.043	6597
820.184	6578
820.324	6608
820.465	6642
820.605	6719
820.746	6673
820.886	6559
821.026	6738
821.167	6711
821.307	6859
821.447	6764
821.588	6703
821.728	6616
821.868	6547
822.008	6311
822.149	6486
822.289	6399
822.429	6190
822.569	6110
822.709	6201
822.849	5980
822.99	5927
823.13	6019
823.27	5977
823.41	5821
823.55	5870
823.69	5824
823.83	5912
823.97	5729
824.11	5570
824.25	5520
824.389	5623
824.529	5608
824.669	5627
824.809	5642
824.949	5710
825.089	5649
825.228	5589
825.368	5452
825.508	5395
825.648	5349
825.787	5398
825.927	5425
826.067	5341
826.206	5318
826.346	5398
826.485	5433
826.625	5471
826.765	5615
826.904	5558
827.044	5235
827.183	5227
827.323	5223
827.462	5353
827.601	5216
827.741	5258
827.88	5258
828.02	5166
828.159	5280
828.298	5349
828.437	5459
828.577	5315
828.716	5486
828.855	5337
828.994	5193
829.134	5220
829.273	5246
829.412	5220
829.551	5178
829.69	5197
829.829	5277
829.968	5421
830.107	5269
830.246	5341
830.385	5239
830.524	5170
830.663	5079
830.802	4991
830.941	4927
831.08	4949
831.219	5075
831.357	5033
831.496	5174
831.635	4957
831.774	4854
831.913	4930
832.051	4801
832.19	4782
832.329	4831
832.467	4755
832.606	4698
832.744	4748
832.883	4763
833.022	4805
833.16	4870
833.299	4873
833.437	4877
833.576	4854
833.714	4866
833.852	4980
833.991	4919
834.129	4999
834.267	4957
834.406	4919
834.544	4942
834.682	5018
834.821	4972
834.959	5181
835.097	5029
835.235	5216
835.373	5102
835.511	5140
835.65	5064
835.788	5041
835.926	4934
836.064	4870
836.202	4946
836.34	5155
836.478	5254
836.615	5208
836.753	5273
836.891	5364
837.029	5239
837.167	5220
837.305	5204
837.443	5216
837.58	5117
837.718	5315
837.856	5235
837.993	5128
838.131	5250
838.269	5242
838.406	5201
838.544	5212
838.681	5045
838.819	5029
838.956	4915
839.094	4946
839.231	5025
839.369	5060
839.506	5421
839.643	5322
839.781	5064
839.918	5037
840.055	5105
840.193	5117
840.33	5162
840.467	5189
840.604	5242
840.742	5520
840.879	5159
841.016	5124
841.153	5204
841.29	5417
841.427	5349
841.564	5387
841.701	5398
841.838	5326
841.975	5258
842.112	5280
842.249	5140
842.385	5170
842.522	5425
842.659	5208
842.796	5174
842.933	5201
843.069	5204
843.206	5181
843.343	5330
843.479	5296
843.616	5303
843.752	5094
843.889	5052
844.025	5261
844.162	5018
844.298	5273
844.435	5140
844.571	5067
844.708	5208
844.844	5303
844.98	5318
845.117	5330
845.253	5128
845.389	5147
845.525	5197
845.661	5170
845.798	5052
845.934	5189
846.07	5064
846.206	5201
846.342	5315
846.478	5212
846.614	5045
846.75	5022
846.886	4976
847.022	5159
847.158	5056
847.294	5140
847.429	5162
847.565	5155
847.701	5349
847.837	4896
847.972	4854
848.108	5003
848.244	4949
848.379	4790
848.515	4744
848.65	4725
848.786	4733
848.921	4809
849.057	4881
849.192	4915
849.328	4820
849.463	4870
849.598	4831
849.734	4767
849.869	4740
850.004	4641
850.14	4645
850.275	4660
850.41	4550
850.545	4592
850.68	4637
850.815	4683
850.95	4660
851.085	4847
851.22	4763
851.355	4706
851.49	4702
851.625	4630
851.76	4672
851.895	4630
852.03	4550
852.165	4664
852.299	4771
852.434	4828
852.569	4759
852.703	4805
852.838	4908
852.973	4957
853.107	4896
853.242	4835
853.376	4710
853.511	4611
853.645	4611
853.78	4847
853.914	4710
854.048	4660
854.183	4634
854.317	4710
854.451	4858
854.585	4710
854.72	4656
854.854	4763
854.988	4653
855.122	4626
855.256	4523
855.39	4725
855.524	4805
855.658	4786
855.792	4740
855.926	4714
856.06	4748
856.194	4782
856.327	4717
856.461	4626
856.595	4622
856.729	4698
856.862	4767
856.996	4733
857.13	4786
857.263	4759
857.397	4801
857.53	4618
857.664	4721
857.797	4850
857.931	4831
858.064	4710
858.197	4771
858.331	4710
858.464	4664
858.597	4538
858.731	4664
858.864	4664
858.997	4649
859.13	4653
859.263	4679
859.396	4744
859.529	4596
859.662	4603
859.795	4558
859.928	4687
860.061	4771
860.194	4790
860.327	4637
860.46	4561
860.592	4729
860.725	4733
860.858	4771
860.99	4607
861.123	4554
861.256	4577
861.388	4637
861.521	5364
861.653	4516
861.786	4519
861.918	4451
862.05	4523
862.183	4584
862.315	4664
862.447	4630
862.58	4622
862.712	4428
862.844	4348
862.976	4497
863.108	4451
863.24	4763
863.372	4363
863.504	4474
863.636	4383
863.768	4527
863.9	4440
864.032	4447
864.164	4493
864.296	4447
864.428	4607
864.559	4588
864.691	4626
864.823	4516
864.954	4588
865.086	4516
865.217	4493
865.349	4455
865.48	4470
865.612	4523
865.743	4660
865.875	4474
866.006	4455
866.137	4478
866.269	4466
866.4	4447
866.531	4481
866.662	4440
866.793	4409
866.924	4417
867.055	4489
867.186	4462
867.317	4459
867.448	4379
867.579	4394
867.71	4344
867.841	4417
867.972	4474
868.103	4493
868.233	4500
868.364	4470
868.495	4538
868.625	4656
868.756	4774
868.886	4599
869.017	4664
869.147	4786
869.278	4778
869.408	4675
869.539	4634
869.669	4786
869.799	4679
869.929	4790
870.06	4786
870.19	5010
870.32	4961
870.45	4942
870.58	5041
870.71	5140
870.84	5124
870.97	4968
871.1	4984
871.23	5117
871.36	5185
871.489	5090
871.619	5094
871.749	5181
871.879	5140
872.008	5193
872.138	5041
872.267	5006
872.397	4835
872.526	4824
872.656	4752
872.785	4835
872.915	4961
873.044	5041
873.173	4889
873.303	4980
873.432	4968
873.561	4980
873.69	4885
873.819	4854
873.948	4930
874.077	4828
874.206	4824
874.335	4820
874.464	4972
874.593	5079
874.722	5033
874.851	5086
874.979	5102
875.108	5064
875.237	4953
875.365	4858
875.494	4915
875.623	4972
875.751	4816
875.88	4938
876.008	4976
876.136	5079
876.265	5201
876.393	5330
876.521	5277
876.65	5269
876.778	5170
876.906	5102
877.034	5075
877.162	5075
877.29	5014
877.418	5067
877.546	5067
877.674	5094
877.802	5056
877.93	5079
878.058	4987
878.185	4881
878.313	5025
878.441	4980
878.568	4866
878.696	4904
878.824	5025
878.951	4984
879.079	5197
879.206	5258
879.333	5113
879.461	5018
879.588	5006
879.715	5128
879.842	5185
879.97	5060
880.097	4839
880.224	4790
880.351	4790
880.478	4843
880.605	4835
880.732	4782
880.859	5056
880.986	4896
881.112	4885
881.239	4793
881.366	4694
881.493	4618
881.619	4592
881.746	4626
881.872	4664
881.999	4630
882.125	4744
882.252	4812
882.378	4816
882.505	4904
882.631	4797
882.757	4710
882.883	4748
883.01	4729
883.136	4641
883.262	4603
883.388	4641
883.514	4835
883.64	4862
883.766	4824
883.892	4687
884.018	4790
884.143	4908
884.269	5029
884.395	4725
884.52	4596
884.646	4630
884.772	4645
884.897	4550
885.023	4687
885.148	4763
885.274	4946
885.399	4881
885.524	4767
885.65	4752
885.775	4778
885.9	4698
886.025	4862
886.15	4797
886.275	4710
886.4	4607
886.525	4786
886.65	4698
886.775	4706
886.9	4919
887.025	5048
887.149	4862
887.274	4683
887.399	4611
887.523	4626
887.648	4580
887.773	4584
887.897	4717
888.021	4790
888.146	4698
888.27	4824
888.395	4957
888.519	4801
888.643	4820
888.767	4870
888.891	4706
889.015	4580
889.139	4710
889.263	4637
889.387	4782
889.511	4858
889.635	4793
889.759	4672
889.883	4698
890.006	4744
890.13	4816
890.254	4622
890.377	4664
890.501	4573
890.624	4527
890.748	4634
890.871	4542
890.995	4436
891.118	4424
891.241	4523
891.364	4588
891.488	4618
891.611	4508
891.734	4561
891.857	4584
891.98	4584
892.103	4649
892.226	4573
892.349	4558
892.471	4493
892.594	4573
892.717	4626
892.839	4569
892.962	4626
893.085	4679
893.207	4615
893.33	4466
893.452	4542
893.575	4679
893.697	4588
893.819	4831
893.941	4820
894.064	4702
894.186	4554
894.308	4584
894.43	4744
894.552	4835
894.674	4793
894.796	4584
894.918	4634
895.04	4622
895.161	4797
895.283	4672
895.405	4580
895.526	4679
895.648	4717
895.769	4698
895.891	4774
896.012	4752
896.134	4797
896.255	4725
896.376	4611
896.498	4694
896.619	4733
896.74	4645
896.861	4656
896.982	4923
897.103	5105
897.224	4847
897.345	4744
897.466	4691
897.587	4729
897.708	4889
897.828	4812
897.949	4679
898.07	4592
898.19	4588
898.311	4812
898.431	4672
898.552	4733
898.672	4862
898.792	4816
898.913	4755
899.033	4611
899.153	4531
899.273	4428
899.393	4519
899.513	4535
899.633	4569
899.753	4580
899.873	4516
899.993	4592
900.113	4554
900.232	4611
900.352	4554
900.472	4519
900.591	4413
900.711	4466
900.83	4421
900.95	4622
901.069	4771
901.189	4512
901.308	4341
901.427	4341
901.546	4398
901.665	4428
901.784	4573
901.904	4440
902.023	4284
902.141	4253
902.26	4169
902.379	4314
902.498	4272
902.617	4188
902.735	4356
902.854	4398
902.973	4329
903.091	4272
903.21	4192
903.328	4318
903.446	4295
903.565	4265
903.683	4360
903.801	4284
903.919	4383
904.038	4470
904.156	4314
904.274	4409
904.392	4413
904.51	4413
904.627	4417
904.745	4592
904.863	4675
904.981	4383
905.098	4284
905.216	4398
905.334	4421
905.451	4440
905.569	4474
905.686	4550
905.803	4580
905.921	4398
906.038	4535
906.155	4542
906.272	4379
906.389	4523
906.506	4386
906.623	4360
906.74	4394
906.857	4337
906.974	4367
907.091	4577
907.208	4660
907.324	4596
907.441	4519
907.557	4337
907.674	4390
907.79	4299
907.907	4447
908.023	4497
908.139	4470
908.256	4424
908.372	4459
908.488	4440
908.604	4386
908.72	4337
908.836	4375
908.952	4348
909.068	4466
909.184	4554
909.3	4508
909.415	4592
909.531	4565
909.647	4333
909.762	4341
909.878	4379
909.993	4447
910.108	4470
910.224	4462
910.339	4512
910.454	4455
910.57	4322
910.685	4337
910.8	4645
910.915	4535
911.03	4489
911.145	4348
911.259	4310
911.374	4402
911.489	4337
911.604	4303
911.718	4166
911.833	4211
911.947	4090
912.062	4040
912.176	4207
912.291	4219
912.405	4253
912.519	4466
912.633	4432
912.748	4402
912.862	4337
912.976	4238
913.09	4090
913.204	4204
913.318	4261
913.431	4383
913.545	4379
913.659	4447
913.772	4379
913.886	4287
914	4242
914.113	4386
914.226	4508
914.34	4428
914.453	4249
914.566	4451
914.68	4356
914.793	4344
914.906	4188
915.019	4090
915.132	4143
915.245	4204
915.358	4253
915.47	4211
915.583	4280
915.696	4299
915.809	4421
915.921	4424
916.034	4253
916.146	4253
916.259	4238
916.371	4379
916.483	4409
916.595	4242
916.708	4329
916.82	4329
916.932	4310
917.044	4341
917.156	4329
917.268	4207
917.38	4265
917.491	4303
917.603	4344
917.715	4417
917.826	4466
917.938	4375
918.049	4230
918.161	4421
918.272	4546
918.384	4538
918.495	4436
918.606	4310
918.717	4261
918.828	4367
918.939	4402
919.05	4261
919.161	4303
919.272	4139
919.383	4253
919.494	4436
919.604	4641
919.715	4421
919.826	4379
919.936	4363
920.047	4497
920.157	4470
920.267	4694
920.378	4516
920.488	4523
920.598	4698
920.708	4881
920.818	4774
920.928	4790
921.038	4961
921.148	4896
921.258	4611
921.368	4546
921.477	4481
921.587	4451
921.697	4398
921.806	4569
921.916	4447
922.025	4367
922.134	4253
922.244	4204
922.353	4356
922.462	4181
922.571	4154
922.68	4029
922.789	4002
922.898	4017
923.007	4025
923.116	4093
923.224	4105
923.333	4086
923.442	4032
923.55	4010
923.659	4021
923.767	4112
923.876	3968
923.984	4086
924.092	4036
924.201	4078
924.309	4112
924.417	4116
924.525	4086
924.633	4109
924.741	4946
924.849	3873
924.956	4139
925.064	3983
925.172	3911
925.279	3964
925.387	4055
925.494	4044
925.602	4227
925.709	4192
925.816	4067
925.924	4147
926.031	4215
926.138	4185
926.245	4188
926.352	4093
926.459	4314
926.566	4314
926.673	4154
926.779	4090
926.886	4048
926.993	3972
927.099	3960
927.206	3953
927.312	3922
927.419	4063
927.525	4059
927.631	4101
927.737	3956
927.843	3972
927.95	3915
928.056	3949
928.162	3972
928.267	4082
928.373	4656
928.479	4143
928.585	3865
928.69	4021
928.796	4067
928.901	3972
929.007	3857
929.112	4017
929.218	4029
929.323	3922
929.428	3949
929.533	4105
929.638	3892
929.743	3956
929.848	4044
929.953	3975
930.058	3915
930.163	3793
930.267	3861
930.372	3937
930.477	3838
930.581	4128
930.685	3964
930.79	3838
930.894	3861
930.998	3869
931.103	4055
931.207	3709
931.311	3709
931.415	3709
931.519	3549
931.623	3561
