Data from test_V78500241_1500.txt Node
Date: Fri Mar 25 16:59:25 CST 2022
User: usil
Spectrometer: V785-0024
Trigger mode: 0
Integration Time (sec): 4.000000E-1
Scans to average: 1
Nonlinearity correction enabled: false
Boxcar width: 0
Storing dark spectrum: false
XAxis mode: Wavelengths
Number of Pixels in Spectrum: 1024
>>>>>Begin Spectral Data<<<<<
801.071	8020
801.214	8008
801.356	7856
801.499	7887
801.641	7788
801.783	7826
801.926	7963
802.068	7921
802.211	7883
802.353	7970
802.496	7772
802.638	7894
802.78	7913
802.923	7909
803.065	7856
803.208	7811
803.35	7944
803.492	8016
803.635	8199
803.777	8046
803.919	8142
804.061	8438
804.204	8180
804.346	8134
804.488	8012
804.63	8092
804.773	8039
804.915	8149
805.057	8237
805.199	8206
805.341	8180
805.483	8176
805.626	8206
805.768	8145
805.91	8286
806.052	8229
806.194	8183
806.336	8279
806.478	8092
806.62	8043
806.762	8164
806.904	8320
807.046	8465
807.188	8343
807.33	8324
807.472	8332
807.614	8126
807.756	8164
807.898	7955
808.04	7875
808.182	7902
808.324	7841
808.465	7936
808.607	8016
808.749	8081
808.891	8138
809.033	8214
809.174	8229
809.316	8035
809.458	8027
809.6	7959
809.741	8001
809.883	8046
810.025	8043
810.166	8058
810.308	7925
810.45	8039
810.591	7841
810.733	7670
810.875	7674
811.016	7495
811.158	7438
811.299	7620
811.441	7731
811.582	7704
811.724	7544
811.865	7480
812.007	7594
812.148	7578
812.29	7647
812.431	7704
812.573	7928
812.714	8069
812.855	8153
812.997	8210
813.138	8290
813.279	8191
813.421	8008
813.562	7951
813.703	7799
813.845	7715
813.986	7403
814.127	7225
814.268	7202
814.41	7244
814.551	7206
814.692	7247
814.833	7118
814.974	7118
815.115	7072
815.256	6977
815.397	6924
815.539	6844
815.68	6825
815.821	6806
815.962	6825
816.103	6772
816.244	6772
816.385	6578
816.526	6559
816.666	6513
816.807	6300
816.948	6403
817.089	6471
817.23	6445
817.371	6388
817.512	6361
817.653	6369
817.793	6327
817.934	6399
818.075	6456
818.216	6395
818.356	6388
818.497	6266
818.638	6117
818.778	6140
818.919	6140
819.06	6144
819.2	6300
819.341	6399
819.481	6331
819.622	6525
819.762	6681
819.903	6700
820.043	6566
820.184	6574
820.324	6593
820.465	6669
820.605	6711
820.746	6650
820.886	6490
821.026	6650
821.167	6669
821.307	6730
821.447	6753
821.588	6665
821.728	6585
821.868	6517
822.008	6323
822.149	6407
822.289	6376
822.429	6201
822.569	6053
822.709	6095
822.849	5878
822.99	5904
823.13	5927
823.27	5923
823.41	5752
823.55	5775
823.69	5767
823.83	5794
823.97	5688
824.11	5551
824.25	5528
824.389	5615
824.529	5516
824.669	5570
824.809	5646
824.949	5642
825.089	5611
825.228	5589
825.368	5368
825.508	5334
825.648	5341
825.787	5318
825.927	5349
826.067	5315
826.206	5277
826.346	5337
826.485	5414
826.625	5421
826.765	5547
826.904	5505
827.044	5227
827.183	5159
827.323	5098
827.462	5223
827.601	5143
827.741	5193
827.88	5212
828.02	5140
828.159	5246
828.298	5284
828.437	5307
828.577	5269
828.716	5512
828.855	5250
828.994	5155
829.134	5151
829.273	5109
829.412	5113
829.551	5136
829.69	5128
829.829	5288
829.968	5341
830.107	5254
830.246	5254
830.385	5185
830.524	5105
830.663	5041
830.802	4953
830.941	4873
831.08	4866
831.219	4976
831.357	4961
831.496	5162
831.635	4850
831.774	4843
831.913	4782
832.051	4714
832.19	4679
832.329	4828
832.467	4691
832.606	4611
832.744	4714
832.883	4710
833.022	4729
833.16	4725
833.299	4850
833.437	4820
833.576	4824
833.714	4835
833.852	4843
833.991	4862
834.129	4942
834.267	4908
834.406	4919
834.544	4968
834.682	4923
834.821	4968
834.959	5121
835.097	4965
835.235	5124
835.373	5048
835.511	5086
835.65	4999
835.788	4957
835.926	4866
836.064	4877
836.202	4961
836.34	5201
836.478	5185
836.615	5166
836.753	5227
836.891	5261
837.029	5265
837.167	5189
837.305	5132
837.443	5170
837.58	5075
837.718	5258
837.856	5185
837.993	5147
838.131	5269
838.269	5185
838.406	5227
838.544	5181
838.681	5048
838.819	5041
838.956	4854
839.094	4870
839.231	5014
839.369	5071
839.506	5372
839.643	5242
839.781	5060
839.918	5018
840.055	5075
840.193	5071
840.33	5113
840.467	5083
840.604	5147
840.742	5402
840.879	5094
841.016	5052
841.153	5128
841.29	5315
841.427	5337
841.564	5292
841.701	5303
841.838	5235
841.975	5265
842.112	5269
842.249	5216
842.385	5029
842.522	5303
842.659	5102
842.796	5117
842.933	5174
843.069	5151
843.206	5121
843.343	5246
843.479	5181
843.616	5261
843.752	4957
843.889	5003
844.025	5170
844.162	5014
844.298	5193
844.435	5075
844.571	5052
844.708	5147
844.844	5231
844.98	5357
845.117	5277
845.253	5083
845.389	5090
845.525	5159
845.661	5178
845.798	5052
845.934	5140
846.07	5079
846.206	5166
846.342	5269
846.478	5105
846.614	5048
846.75	4934
846.886	4995
847.022	5090
847.158	5060
847.294	5083
847.429	5105
847.565	5041
847.701	5296
847.837	4850
847.972	4790
848.108	4927
848.244	4896
848.379	4744
848.515	4710
848.65	4714
848.786	4782
848.921	4702
849.057	4862
849.192	4900
849.328	4801
849.463	4847
849.598	4759
849.734	4736
849.869	4687
850.004	4626
850.14	4603
850.275	4573
850.41	4512
850.545	4561
850.68	4603
850.815	4611
850.95	4626
851.085	4812
851.22	4725
851.355	4675
851.49	4592
851.625	4653
851.76	4611
851.895	4523
852.03	4535
852.165	4634
852.299	4729
852.434	4774
852.569	4729
852.703	4714
852.838	4866
852.973	4919
853.107	4847
853.242	4767
853.376	4664
853.511	4546
853.645	4622
853.78	4805
853.914	4694
854.048	4694
854.183	4607
854.317	4691
854.451	4801
854.585	4672
854.72	4580
854.854	4744
854.988	4622
855.122	4622
855.256	4535
855.39	4675
855.524	4752
855.658	4691
855.792	4664
855.926	4706
856.06	4778
856.194	4763
856.327	4645
856.461	4634
856.595	4596
856.729	4584
856.862	4774
856.996	4668
857.13	4702
857.263	4782
857.397	4759
857.53	4668
857.664	4694
857.797	4736
857.931	4786
858.064	4656
858.197	4733
858.331	4679
858.464	4649
858.597	4508
858.731	4618
858.864	4550
858.997	4558
859.13	4656
859.263	4592
859.396	4683
859.529	4588
859.662	4561
859.795	4531
859.928	4603
860.061	4717
860.194	4767
860.327	4565
860.46	4577
860.592	4645
860.725	4679
860.858	4721
860.99	4558
861.123	4535
861.256	4523
861.388	4641
861.521	5322
861.653	4504
861.786	4481
861.918	4428
862.05	4542
862.183	4565
862.315	4558
862.447	4672
862.58	4527
862.712	4432
862.844	4291
862.976	4489
863.108	4443
863.24	4752
863.372	4344
863.504	4451
863.636	4402
863.768	4485
863.9	4360
864.032	4379
864.164	4428
864.296	4402
864.428	4577
864.559	4565
864.691	4500
864.823	4538
864.954	4523
865.086	4481
865.217	4478
865.349	4375
865.48	4451
865.612	4489
865.743	4599
865.875	4447
866.006	4417
866.137	4459
866.269	4417
866.4	4409
866.531	4379
866.662	4398
866.793	4413
866.924	4383
867.055	4493
867.186	4455
867.317	4409
867.448	4325
867.579	4413
867.71	4363
867.841	4352
867.972	4424
868.103	4531
868.233	4470
868.364	4443
868.495	4447
868.625	4607
868.756	4782
868.886	4573
869.017	4588
869.147	4767
869.278	4805
869.408	4596
869.539	4664
869.669	4653
869.799	4691
869.929	4721
870.06	4733
870.19	4953
870.32	4908
870.45	4934
870.58	4972
870.71	5064
870.84	5056
870.97	4911
871.1	4824
871.23	5079
871.36	5128
871.489	4965
871.619	5102
871.749	5090
871.879	5056
872.008	5151
872.138	5037
872.267	4995
872.397	4877
872.526	4801
872.656	4771
872.785	4805
872.915	4961
873.044	4972
873.173	4919
873.303	4965
873.432	4980
873.561	4976
873.69	4843
873.819	4847
873.948	4873
874.077	4755
874.206	4755
874.335	4805
874.464	4892
874.593	5014
874.722	4938
874.851	5060
874.979	5075
875.108	5018
875.237	4930
875.365	4835
875.494	4896
875.623	4946
875.751	4786
875.88	4839
876.008	4946
876.136	5048
876.265	5170
876.393	5383
876.521	5296
876.65	5227
876.778	5178
876.906	5052
877.034	5006
877.162	4961
877.29	4949
877.418	5071
877.546	5006
877.674	5014
877.802	5014
877.93	4984
878.058	4953
878.185	4873
878.313	4968
878.441	4957
878.568	4793
878.696	4862
878.824	4976
878.951	4961
879.079	5117
879.206	5239
879.333	5064
879.461	4919
879.588	4961
879.715	5109
879.842	5223
879.97	4946
880.097	4767
880.224	4744
880.351	4778
880.478	4782
880.605	4805
880.732	4782
880.859	5048
880.986	4877
881.112	4877
881.239	4748
881.366	4664
881.493	4577
881.619	4573
881.746	4626
881.872	4618
881.999	4668
882.125	4641
882.252	4736
882.378	4824
882.505	4942
882.631	4797
882.757	4653
882.883	4721
883.01	4664
883.136	4694
883.262	4641
883.388	4637
883.514	4767
883.64	4850
883.766	4763
883.892	4664
884.018	4672
884.143	4854
884.269	4995
884.395	4668
884.52	4634
884.646	4672
884.772	4592
884.897	4523
885.023	4641
885.148	4831
885.274	4835
885.399	4793
885.524	4698
885.65	4672
885.775	4740
885.9	4729
886.025	4835
886.15	4752
886.275	4706
886.4	4649
886.525	4694
886.65	4714
886.775	4694
886.9	4858
887.025	4987
887.149	4805
887.274	4675
887.399	4626
887.523	4622
887.648	4523
887.773	4558
887.897	4759
888.021	4759
888.146	4634
888.27	4782
888.395	4873
888.519	4793
888.643	4858
888.767	4816
888.891	4691
889.015	4618
889.139	4668
889.263	4580
889.387	4725
889.511	4866
889.635	4767
889.759	4626
889.883	4637
890.006	4721
890.13	4828
890.254	4611
890.377	4679
890.501	4554
890.624	4451
890.748	4615
890.871	4554
890.995	4421
891.118	4379
891.241	4478
891.364	4504
891.488	4649
891.611	4497
891.734	4500
891.857	4641
891.98	4554
892.103	4634
892.226	4569
892.349	4523
892.471	4402
892.594	4558
892.717	4527
892.839	4546
892.962	4561
893.085	4603
893.207	4596
893.33	4451
893.452	4538
893.575	4618
893.697	4584
893.819	4778
893.941	4793
894.064	4721
894.186	4596
894.308	4565
894.43	4714
894.552	4782
894.674	4767
894.796	4542
894.918	4554
895.04	4523
895.161	4691
895.283	4698
895.405	4561
895.526	4607
895.648	4706
895.769	4645
895.891	4744
896.012	4710
896.134	4702
896.255	4645
896.376	4618
896.498	4596
896.619	4717
896.74	4584
896.861	4626
896.982	4854
897.103	5052
897.224	4816
897.345	4748
897.466	4660
897.587	4744
897.708	4805
897.828	4759
897.949	4637
898.07	4516
898.19	4630
898.311	4824
898.431	4698
898.552	4672
898.672	4824
898.792	4782
898.913	4710
899.033	4603
899.153	4470
899.273	4402
899.393	4500
899.513	4440
899.633	4493
899.753	4527
899.873	4481
899.993	4538
900.113	4531
900.232	4558
900.352	4538
900.472	4466
900.591	4371
900.711	4424
900.83	4417
900.95	4630
901.069	4691
901.189	4573
901.308	4356
901.427	4363
901.546	4386
901.665	4489
901.784	4474
901.904	4398
902.023	4322
902.141	4185
902.26	4173
902.379	4276
902.498	4284
902.617	4204
902.735	4360
902.854	4398
902.973	4375
903.091	4230
903.21	4253
903.328	4272
903.446	4227
903.565	4268
903.683	4325
903.801	4257
903.919	4413
904.038	4432
904.156	4375
904.274	4451
904.392	4344
904.51	4447
904.627	4462
904.745	4531
904.863	4622
904.981	4424
905.098	4284
905.216	4352
905.334	4455
905.451	4447
905.569	4447
905.686	4508
905.803	4573
905.921	4371
906.038	4569
906.155	4481
906.272	4424
906.389	4462
906.506	4348
906.623	4405
906.74	4432
906.857	4291
906.974	4360
907.091	4512
907.208	4691
907.324	4558
907.441	4493
907.557	4306
907.674	4333
907.79	4303
907.907	4394
908.023	4497
908.139	4478
908.256	4440
908.372	4421
908.488	4481
908.604	4363
908.72	4295
908.836	4386
908.952	4356
909.068	4421
909.184	4561
909.3	4474
909.415	4596
909.531	4615
909.647	4352
909.762	4352
909.878	4348
909.993	4459
910.108	4394
910.224	4413
910.339	4493
910.454	4386
910.57	4375
910.685	4306
910.8	4679
910.915	4588
911.03	4516
911.145	4295
911.259	4325
911.374	4341
911.489	4341
911.604	4287
911.718	4192
911.833	4158
911.947	4040
912.062	4082
912.176	4173
912.291	4230
912.405	4249
912.519	4478
912.633	4497
912.748	4356
912.862	4310
912.976	4204
913.09	4055
913.204	4169
913.318	4234
913.431	4344
913.545	4394
913.659	4390
913.772	4348
913.886	4249
914	4211
914.113	4409
914.226	4413
914.34	4386
914.453	4223
914.566	4386
914.68	4318
914.793	4379
914.906	4219
915.019	4120
915.132	4093
915.245	4192
915.358	4227
915.47	4238
915.583	4230
915.696	4257
915.809	4421
915.921	4398
916.034	4246
916.146	4303
916.259	4173
916.371	4367
916.483	4356
916.595	4223
916.708	4329
916.82	4348
916.932	4272
917.044	4348
917.156	4314
917.268	4227
917.38	4306
917.491	4265
917.603	4371
917.715	4466
917.826	4451
917.938	4318
918.049	4204
918.161	4413
918.272	4508
918.384	4512
918.495	4478
918.606	4261
918.717	4257
918.828	4360
918.939	4333
919.05	4268
919.161	4284
919.272	4116
919.383	4188
919.494	4459
919.604	4603
919.715	4428
919.826	4348
919.936	4405
920.047	4478
920.157	4466
920.267	4694
920.378	4546
920.488	4500
920.598	4683
920.708	4828
920.818	4752
920.928	4755
921.038	4900
921.148	4892
921.258	4558
921.368	4550
921.477	4447
921.587	4462
921.697	4379
921.806	4538
921.916	4440
922.025	4276
922.134	4303
922.244	4238
922.353	4299
922.462	4181
922.571	4105
922.68	4013
922.789	3968
922.898	4059
923.007	4002
923.116	4101
923.224	4093
923.333	4093
923.442	3937
923.55	3968
923.659	4032
923.767	4074
923.876	4017
923.984	4086
924.092	3994
924.201	4131
924.309	4116
924.417	4120
924.525	4036
924.633	4109
924.741	4850
924.849	3903
924.956	4128
925.064	3987
925.172	3892
925.279	3987
925.387	4093
925.494	4021
925.602	4230
925.709	4177
925.816	4086
925.924	4150
926.031	4219
926.138	4181
926.245	4177
926.352	4036
926.459	4227
926.566	4291
926.673	4086
926.779	4090
926.886	4086
926.993	3964
927.099	3949
927.206	3926
927.312	3903
927.419	4078
927.525	3994
927.631	4090
927.737	3953
927.843	3922
927.95	3846
928.056	3896
928.162	3983
928.267	4071
928.373	4565
928.479	4093
928.585	3857
928.69	3994
928.796	4040
928.901	3968
929.007	3838
929.112	3964
929.218	3975
929.323	3945
929.428	3960
929.533	4143
929.638	3884
929.743	3991
929.848	4017
929.953	4013
930.058	3907
930.163	3759
930.267	3850
930.372	3991
930.477	3800
930.581	4109
930.685	3926
930.79	3823
930.894	3911
930.998	3819
931.103	4059
931.207	3709
931.311	3686
931.415	3663
931.519	3511
931.623	3564
