Data from test_V78500241_569.txt Node
Date: Fri Mar 25 16:52:57 CST 2022
User: usil
Spectrometer: V785-0024
Trigger mode: 0
Integration Time (sec): 4.000000E-1
Scans to average: 1
Nonlinearity correction enabled: false
Boxcar width: 0
Storing dark spectrum: false
XAxis mode: Wavelengths
Number of Pixels in Spectrum: 1024
>>>>>Begin Spectral Data<<<<<
801.071	8046
801.214	7940
801.356	7814
801.499	7841
801.641	7780
801.783	7830
801.926	8046
802.068	7925
802.211	7986
802.353	8005
802.496	7917
802.638	7951
802.78	7902
802.923	7925
803.065	7860
803.208	7852
803.35	7978
803.492	8058
803.635	8183
803.777	8092
803.919	8058
804.061	8442
804.204	8100
804.346	7997
804.488	7932
804.63	8088
804.773	7997
804.915	8043
805.057	8328
805.199	8214
805.341	8214
805.483	8244
805.626	8142
805.768	8039
805.91	8111
806.052	8164
806.194	8043
806.336	8259
806.478	8111
806.62	8092
806.762	8115
806.904	8259
807.046	8427
807.188	8256
807.33	8240
807.472	8358
807.614	8065
807.756	8172
807.898	7959
808.04	7913
808.182	7970
808.324	7898
808.465	7890
808.607	8054
808.749	8180
808.891	8183
809.033	8271
809.174	8153
809.316	8035
809.458	8077
809.6	7909
809.741	8043
809.883	7986
810.025	8020
810.166	8035
810.308	8100
810.45	8031
810.591	7841
810.733	7742
810.875	7681
811.016	7563
811.158	7510
811.299	7571
811.441	7734
811.582	7746
811.724	7552
811.865	7529
812.007	7559
812.148	7499
812.29	7662
812.431	7753
812.573	7906
812.714	7967
812.855	8138
812.997	8221
813.138	8351
813.279	8183
813.421	8210
813.562	8005
813.703	7913
813.845	7780
813.986	7525
814.127	7331
814.268	7270
814.41	7209
814.551	7141
814.692	7198
814.833	7012
814.974	7034
815.115	7072
815.256	7012
815.397	6962
815.539	6973
815.68	6863
815.821	6741
815.962	6875
816.103	6829
816.244	6741
816.385	6665
816.526	6639
816.666	6483
816.807	6350
816.948	6418
817.089	6494
817.23	6407
817.371	6414
817.512	6365
817.653	6361
817.793	6323
817.934	6448
818.075	6445
818.216	6388
818.356	6376
818.497	6281
818.638	6163
818.778	6152
818.919	6140
819.06	6121
819.2	6235
819.341	6273
819.481	6361
819.622	6509
819.762	6715
819.903	6700
820.043	6521
820.184	6536
820.324	6547
820.465	6658
820.605	6700
820.746	6620
820.886	6540
821.026	6627
821.167	6681
821.307	6757
821.447	6677
821.588	6616
821.728	6486
821.868	6445
822.008	6308
822.149	6315
822.289	6327
822.429	6171
822.569	6072
822.709	6136
822.849	5931
822.99	5878
823.13	5893
823.27	5954
823.41	5779
823.55	5756
823.69	5733
823.83	5771
823.97	5619
824.11	5497
824.25	5490
824.389	5528
824.529	5539
824.669	5516
824.809	5623
824.949	5649
825.089	5661
825.228	5551
825.368	5398
825.508	5398
825.648	5341
825.787	5391
825.927	5311
826.067	5269
826.206	5318
826.346	5402
826.485	5425
826.625	5368
826.765	5520
826.904	5402
827.044	5220
827.183	5235
827.323	5140
827.462	5220
827.601	5189
827.741	5185
827.88	5258
828.02	5113
828.159	5254
828.298	5307
828.437	5360
828.577	5307
828.716	5452
828.855	5360
828.994	5140
829.134	5083
829.273	5193
829.412	5132
829.551	5143
829.69	5201
829.829	5235
829.968	5345
830.107	5239
830.246	5292
830.385	5197
830.524	5121
830.663	5037
830.802	4980
830.941	4862
831.08	4866
831.219	4949
831.357	4961
831.496	5143
831.635	4915
831.774	4831
831.913	4812
832.051	4740
832.19	4778
832.329	4839
832.467	4687
832.606	4649
832.744	4782
832.883	4675
833.022	4725
833.16	4721
833.299	4767
833.437	4797
833.576	4850
833.714	4847
833.852	4847
833.991	4885
834.129	4934
834.267	4972
834.406	4889
834.544	4908
834.682	4930
834.821	4915
834.959	5185
835.097	4972
835.235	5109
835.373	5121
835.511	5071
835.65	5041
835.788	5010
835.926	4908
836.064	4881
836.202	4915
836.34	5166
836.478	5208
836.615	5136
836.753	5162
836.891	5288
837.029	5181
837.167	5193
837.305	5170
837.443	5143
837.58	5029
837.718	5220
837.856	5201
837.993	5151
838.131	5208
838.269	5216
838.406	5208
838.544	5201
838.681	4991
838.819	5003
838.956	4885
839.094	4904
839.231	4930
839.369	5060
839.506	5402
839.643	5258
839.781	5045
839.918	4949
840.055	5098
840.193	5174
840.33	5105
840.467	5140
840.604	5201
840.742	5414
840.879	5090
841.016	5064
841.153	5102
841.29	5395
841.427	5334
841.564	5311
841.701	5299
841.838	5273
841.975	5250
842.112	5254
842.249	5090
842.385	5140
842.522	5231
842.659	5155
842.796	5151
842.933	5178
843.069	5166
843.206	5155
843.343	5284
843.479	5280
843.616	5254
843.752	5060
843.889	4976
844.025	5189
844.162	5033
844.298	5193
844.435	5022
844.571	5075
844.708	5204
844.844	5231
844.98	5334
845.117	5265
845.253	5159
845.389	5117
845.525	5132
845.661	5162
845.798	5048
845.934	5109
846.07	5064
846.206	5181
846.342	5315
846.478	5143
846.614	5006
846.75	4946
846.886	4946
847.022	5132
847.158	4965
847.294	5067
847.429	5124
847.565	5048
847.701	5299
847.837	4771
847.972	4831
848.108	4949
848.244	4927
848.379	4759
848.515	4683
848.65	4653
848.786	4717
848.921	4752
849.057	4858
849.192	4896
849.328	4793
849.463	4850
849.598	4702
849.734	4752
849.869	4679
850.004	4637
850.14	4664
850.275	4611
850.41	4546
850.545	4569
850.68	4603
850.815	4618
850.95	4618
851.085	4889
851.22	4767
851.355	4641
851.49	4637
851.625	4618
851.76	4622
851.895	4508
852.03	4550
852.165	4603
852.299	4763
852.434	4748
852.569	4721
852.703	4771
852.838	4847
852.973	4923
853.107	4896
853.242	4744
853.376	4672
853.511	4538
853.645	4645
853.78	4820
853.914	4691
854.048	4683
854.183	4622
854.317	4736
854.451	4847
854.585	4641
854.72	4592
854.854	4733
854.988	4569
855.122	4577
855.256	4485
855.39	4649
855.524	4774
855.658	4729
855.792	4683
855.926	4691
856.06	4752
856.194	4782
856.327	4668
856.461	4588
856.595	4565
856.729	4637
856.862	4717
856.996	4691
857.13	4763
857.263	4729
857.397	4828
857.53	4618
857.664	4721
857.797	4763
857.931	4755
858.064	4698
858.197	4748
858.331	4626
858.464	4573
858.597	4485
858.731	4550
858.864	4656
858.997	4603
859.13	4641
859.263	4706
859.396	4656
859.529	4573
859.662	4554
859.795	4558
859.928	4637
860.061	4790
860.194	4744
860.327	4584
860.46	4523
860.592	4721
860.725	4679
860.858	4710
860.99	4599
861.123	4485
861.256	4565
861.388	4611
861.521	5402
861.653	4485
861.786	4455
861.918	4478
862.05	4508
862.183	4561
862.315	4618
862.447	4660
862.58	4554
862.712	4379
862.844	4337
862.976	4428
863.108	4478
863.24	4843
863.372	4344
863.504	4428
863.636	4424
863.768	4489
863.9	4436
864.032	4352
864.164	4390
864.296	4508
864.428	4523
864.559	4516
864.691	4546
864.823	4538
864.954	4497
865.086	4493
865.217	4447
865.349	4383
865.48	4417
865.612	4512
865.743	4675
865.875	4455
866.006	4398
866.137	4531
866.269	4440
866.4	4451
866.531	4402
866.662	4409
866.793	4417
866.924	4402
867.055	4489
867.186	4466
867.317	4413
867.448	4371
867.579	4363
867.71	4443
867.841	4367
867.972	4432
868.103	4424
868.233	4447
868.364	4421
868.495	4474
868.625	4653
868.756	4725
868.886	4558
869.017	4599
869.147	4771
869.278	4702
869.408	4615
869.539	4637
869.669	4710
869.799	4668
869.929	4763
870.06	4721
870.19	4915
870.32	4942
870.45	4934
870.58	5029
870.71	5109
870.84	5102
870.97	4923
871.1	4915
871.23	5094
871.36	5136
871.489	4961
871.619	5086
871.749	5094
871.879	5094
872.008	5189
872.138	5029
872.267	4946
872.397	4881
872.526	4774
872.656	4714
872.785	4831
872.915	4957
873.044	4999
873.173	4957
873.303	5003
873.432	4968
873.561	4953
873.69	4843
873.819	4885
873.948	4930
874.077	4797
874.206	4706
874.335	4809
874.464	4953
874.593	5041
874.722	4980
874.851	5094
874.979	5041
875.108	5033
875.237	4946
875.365	4850
875.494	4858
875.623	5003
875.751	4820
875.88	4873
876.008	4934
876.136	5075
876.265	5189
876.393	5307
876.521	5242
876.65	5212
876.778	5147
876.906	5052
877.034	4987
877.162	5029
877.29	4965
877.418	5048
877.546	5037
877.674	5022
877.802	5022
877.93	5048
878.058	4927
878.185	4862
878.313	4942
878.441	4892
878.568	4771
878.696	4873
878.824	4984
878.951	4987
879.079	5124
879.206	5254
879.333	5143
879.461	4957
879.588	5014
879.715	5124
879.842	5261
879.97	5010
880.097	4797
880.224	4763
880.351	4752
880.478	4805
880.605	4809
880.732	4809
880.859	5060
880.986	4889
881.112	4915
881.239	4793
881.366	4660
881.493	4573
881.619	4592
881.746	4561
881.872	4653
881.999	4664
882.125	4698
882.252	4774
882.378	4850
882.505	4968
882.631	4809
882.757	4710
882.883	4736
883.01	4721
883.136	4660
883.262	4626
883.388	4599
883.514	4790
883.64	4885
883.766	4801
883.892	4679
884.018	4717
884.143	4892
884.269	4995
884.395	4698
884.52	4630
884.646	4641
884.772	4573
884.897	4558
885.023	4672
885.148	4771
885.274	4828
885.399	4774
885.524	4736
885.65	4740
885.775	4767
885.9	4706
886.025	4835
886.15	4767
886.275	4714
886.4	4679
886.525	4710
886.65	4694
886.775	4683
886.9	4889
887.025	5014
887.149	4805
887.274	4664
887.399	4558
887.523	4599
887.648	4565
887.773	4569
887.897	4778
888.021	4759
888.146	4668
888.27	4850
888.395	4892
888.519	4835
888.643	4797
888.767	4812
888.891	4683
889.015	4675
889.139	4630
889.263	4573
889.387	4797
889.511	4843
889.635	4793
889.759	4630
889.883	4622
890.006	4744
890.13	4820
890.254	4653
890.377	4664
890.501	4584
890.624	4512
890.748	4649
890.871	4443
890.995	4447
891.118	4394
891.241	4565
891.364	4527
891.488	4641
891.611	4516
891.734	4542
891.857	4577
891.98	4550
892.103	4683
892.226	4542
892.349	4481
892.471	4386
892.594	4611
892.717	4558
892.839	4569
892.962	4599
893.085	4630
893.207	4607
893.33	4470
893.452	4550
893.575	4675
893.697	4577
893.819	4793
893.941	4786
894.064	4706
894.186	4565
894.308	4550
894.43	4733
894.552	4824
894.674	4778
894.796	4561
894.918	4569
895.04	4523
895.161	4721
895.283	4694
895.405	4546
895.526	4630
895.648	4672
895.769	4698
895.891	4714
896.012	4778
896.134	4668
896.255	4615
896.376	4630
896.498	4645
896.619	4679
896.74	4599
896.861	4660
896.982	4892
897.103	5048
897.224	4831
897.345	4748
897.466	4660
897.587	4752
897.708	4835
897.828	4812
897.949	4649
898.07	4565
898.19	4618
898.311	4885
898.431	4645
898.552	4672
898.672	4805
898.792	4801
898.913	4740
899.033	4584
899.153	4478
899.273	4447
899.393	4466
899.513	4554
899.633	4523
899.753	4523
899.873	4512
899.993	4535
900.113	4500
900.232	4603
900.352	4504
900.472	4459
900.591	4352
900.711	4512
900.83	4440
900.95	4569
901.069	4656
901.189	4508
901.308	4344
901.427	4318
901.546	4375
901.665	4470
901.784	4478
901.904	4325
902.023	4295
902.141	4135
902.26	4139
902.379	4291
902.498	4246
902.617	4230
902.735	4344
902.854	4409
902.973	4333
903.091	4192
903.21	4227
903.328	4306
903.446	4287
903.565	4257
903.683	4367
903.801	4261
903.919	4443
904.038	4405
904.156	4337
904.274	4436
904.392	4375
904.51	4481
904.627	4508
904.745	4538
904.863	4660
904.981	4436
905.098	4314
905.216	4371
905.334	4493
905.451	4478
905.569	4443
905.686	4592
905.803	4599
905.921	4455
906.038	4603
906.155	4455
906.272	4417
906.389	4481
906.506	4333
906.623	4402
906.74	4421
906.857	4341
906.974	4421
907.091	4584
907.208	4714
907.324	4603
907.441	4516
907.557	4405
907.674	4409
907.79	4394
907.907	4428
908.023	4489
908.139	4504
908.256	4474
908.372	4523
908.488	4531
908.604	4333
908.72	4371
908.836	4443
908.952	4424
909.068	4428
909.184	4637
909.3	4554
909.415	4592
909.531	4630
909.647	4447
909.762	4398
909.878	4379
909.993	4455
910.108	4440
910.224	4447
910.339	4500
910.454	4493
910.57	4386
910.685	4375
910.8	4672
910.915	4626
911.03	4584
911.145	4375
911.259	4383
911.374	4356
911.489	4314
911.604	4318
911.718	4234
911.833	4265
911.947	4105
912.062	4071
912.176	4268
912.291	4265
912.405	4257
912.519	4493
912.633	4554
912.748	4390
912.862	4310
912.976	4265
913.09	4143
913.204	4227
913.318	4276
913.431	4428
913.545	4428
913.659	4474
913.772	4398
913.886	4303
914	4295
914.113	4428
914.226	4459
914.34	4424
914.453	4280
914.566	4447
914.68	4337
914.793	4356
914.906	4166
915.019	4143
915.132	4112
915.245	4238
915.358	4268
915.47	4299
915.583	4322
915.696	4299
915.809	4455
915.921	4470
916.034	4310
916.146	4295
916.259	4234
916.371	4383
916.483	4375
916.595	4291
916.708	4333
916.82	4379
916.932	4363
917.044	4344
917.156	4341
917.268	4234
917.38	4303
917.491	4306
917.603	4348
917.715	4428
917.826	4478
917.938	4402
918.049	4291
918.161	4443
918.272	4580
918.384	4561
918.495	4481
918.606	4329
918.717	4276
918.828	4379
918.939	4489
919.05	4299
919.161	4363
919.272	4215
919.383	4306
919.494	4455
919.604	4679
919.715	4447
919.826	4402
919.936	4421
920.047	4497
920.157	4516
920.267	4706
920.378	4584
920.488	4569
920.598	4744
920.708	4881
920.818	4729
920.928	4797
921.038	5033
921.148	4919
921.258	4626
921.368	4546
921.477	4527
921.587	4516
921.697	4417
921.806	4577
921.916	4474
922.025	4284
922.134	4314
922.244	4246
922.353	4348
922.462	4185
922.571	4173
922.68	4055
922.789	4055
922.898	4059
923.007	4044
923.116	4150
923.224	4105
923.333	4135
923.442	4013
923.55	4036
923.659	4025
923.767	4158
923.876	4021
923.984	4158
924.092	4017
924.201	4131
924.309	4112
924.417	4196
924.525	4082
924.633	4116
924.741	5102
924.849	3960
924.956	4150
925.064	3979
925.172	3941
925.279	4013
925.387	4109
925.494	4112
925.602	4200
925.709	4230
925.816	4074
925.924	4158
926.031	4253
926.138	4204
926.245	4215
926.352	4139
926.459	4238
926.566	4383
926.673	4223
926.779	4120
926.886	4082
926.993	4040
927.099	4013
927.206	3998
927.312	3945
927.419	4105
927.525	4055
927.631	4101
927.737	3987
927.843	3937
927.95	3842
928.056	3960
928.162	4002
928.267	4078
928.373	4740
928.479	4169
928.585	3907
928.69	4032
928.796	4124
928.901	4006
929.007	3907
929.112	4048
929.218	4029
929.323	3941
929.428	3964
929.533	4139
929.638	3975
929.743	3975
929.848	4055
929.953	4063
930.058	3911
930.163	3800
930.267	3918
930.372	4021
930.477	3823
930.581	4116
930.685	3991
930.79	3846
930.894	3915
930.998	3896
931.103	4086
931.207	3751
931.311	3705
931.415	3732
931.519	3519
931.623	3610
