Data from test_V78500241_604.txt Node
Date: Fri Mar 25 16:53:12 CST 2022
User: usil
Spectrometer: V785-0024
Trigger mode: 0
Integration Time (sec): 4.000000E-1
Scans to average: 1
Nonlinearity correction enabled: false
Boxcar width: 0
Storing dark spectrum: false
XAxis mode: Wavelengths
Number of Pixels in Spectrum: 1024
>>>>>Begin Spectral Data<<<<<
801.071	7993
801.214	7951
801.356	7841
801.499	7849
801.641	7792
801.783	7833
801.926	7982
802.068	7982
802.211	8016
802.353	8062
802.496	7909
802.638	7906
802.78	7883
802.923	7947
803.065	7807
803.208	7883
803.35	7932
803.492	8069
803.635	8161
803.777	8077
803.919	8096
804.061	8434
804.204	8130
804.346	8081
804.488	7997
804.63	8100
804.773	8039
804.915	8138
805.057	8317
805.199	8142
805.341	8221
805.483	8301
805.626	8225
805.768	8092
805.91	8199
806.052	8225
806.194	8149
806.336	8259
806.478	8134
806.62	8103
806.762	8180
806.904	8221
807.046	8446
807.188	8377
807.33	8233
807.472	8355
807.614	8248
807.756	8191
807.898	7932
808.04	7875
808.182	7955
808.324	7928
808.465	7928
808.607	8039
808.749	8065
808.891	8248
809.033	8252
809.174	8172
809.316	8054
809.458	8008
809.6	8016
809.741	7959
809.883	7959
810.025	7989
810.166	8020
810.308	7989
810.45	7978
810.591	7917
810.733	7723
810.875	7594
811.016	7582
811.158	7559
811.299	7601
811.441	7734
811.582	7704
811.724	7533
811.865	7544
812.007	7597
812.148	7613
812.29	7578
812.431	7715
812.573	7860
812.714	7974
812.855	8134
812.997	8183
813.138	8343
813.279	8225
813.421	8138
813.562	7970
813.703	7871
813.845	7849
813.986	7563
814.127	7381
814.268	7278
814.41	7240
814.551	7183
814.692	7133
814.833	7103
814.974	7103
815.115	7076
815.256	6951
815.397	6924
815.539	6958
815.68	6791
815.821	6776
815.962	6905
816.103	6867
816.244	6715
816.385	6673
816.526	6631
816.666	6490
816.807	6304
816.948	6376
817.089	6475
817.23	6403
817.371	6422
817.512	6372
817.653	6376
817.793	6357
817.934	6410
818.075	6445
818.216	6403
818.356	6403
818.497	6258
818.638	6079
818.778	6121
818.919	6079
819.06	6220
819.2	6285
819.341	6273
819.481	6376
819.622	6506
819.762	6662
819.903	6669
820.043	6612
820.184	6597
820.324	6540
820.465	6654
820.605	6669
820.746	6635
820.886	6551
821.026	6646
821.167	6692
821.307	6772
821.447	6757
821.588	6722
821.728	6502
821.868	6509
822.008	6300
822.149	6365
822.289	6372
822.429	6110
822.569	6072
822.709	6106
822.849	5897
822.99	5908
823.13	5893
823.27	5901
823.41	5707
823.55	5779
823.69	5798
823.83	5870
823.97	5657
824.11	5512
824.25	5501
824.389	5535
824.529	5570
824.669	5539
824.809	5680
824.949	5691
825.089	5589
825.228	5509
825.368	5368
825.508	5334
825.648	5414
825.787	5330
825.927	5368
826.067	5284
826.206	5265
826.346	5395
826.485	5391
826.625	5459
826.765	5554
826.904	5444
827.044	5284
827.183	5208
827.323	5136
827.462	5223
827.601	5143
827.741	5151
827.88	5227
828.02	5102
828.159	5239
828.298	5242
828.437	5353
828.577	5277
828.716	5512
828.855	5303
828.994	5174
829.134	5140
829.273	5216
829.412	5102
829.551	5113
829.69	5166
829.829	5216
829.968	5311
830.107	5311
830.246	5284
830.385	5151
830.524	5105
830.663	5022
830.802	4987
830.941	4847
831.08	4870
831.219	4965
831.357	4991
831.496	5178
831.635	4889
831.774	4889
831.913	4816
832.051	4698
832.19	4729
832.329	4873
832.467	4721
832.606	4634
832.744	4740
832.883	4725
833.022	4679
833.16	4805
833.299	4782
833.437	4866
833.576	4828
833.714	4873
833.852	4892
833.991	4900
834.129	4953
834.267	4915
834.406	4919
834.544	4942
834.682	4927
834.821	4972
834.959	5170
835.097	4957
835.235	5162
835.373	5048
835.511	5064
835.65	5033
835.788	5037
835.926	4938
836.064	4854
836.202	4915
836.34	5181
836.478	5216
836.615	5128
836.753	5212
836.891	5227
837.029	5212
837.167	5166
837.305	5117
837.443	5136
837.58	5056
837.718	5273
837.856	5181
837.993	5136
838.131	5189
838.269	5136
838.406	5204
838.544	5162
838.681	5102
838.819	4991
838.956	4908
839.094	4930
839.231	5003
839.369	5052
839.506	5417
839.643	5265
839.781	5117
839.918	5006
840.055	5086
840.193	5064
840.33	5140
840.467	5083
840.604	5140
840.742	5459
840.879	5090
841.016	5083
841.153	5113
841.29	5391
841.427	5318
841.564	5318
841.701	5330
841.838	5315
841.975	5265
842.112	5307
842.249	5155
842.385	5086
842.522	5299
842.659	5128
842.796	5117
842.933	5185
843.069	5143
843.206	5105
843.343	5330
843.479	5204
843.616	5250
843.752	5056
843.889	5041
844.025	5197
844.162	5083
844.298	5166
844.435	5105
844.571	5094
844.708	5136
844.844	5315
844.98	5364
845.117	5303
845.253	5143
845.389	5052
845.525	5121
845.661	5105
845.798	5029
845.934	5170
846.07	5025
846.206	5181
846.342	5265
846.478	5128
846.614	5041
846.75	5029
846.886	4938
847.022	5174
847.158	4999
847.294	5083
847.429	5124
847.565	5083
847.701	5299
847.837	4870
847.972	4790
848.108	4965
848.244	4908
848.379	4771
848.515	4729
848.65	4748
848.786	4736
848.921	4771
849.057	4919
849.192	4927
849.328	4843
849.463	4835
849.598	4831
849.734	4771
849.869	4683
850.004	4622
850.14	4687
850.275	4565
850.41	4470
850.545	4565
850.68	4569
850.815	4634
850.95	4615
851.085	4885
851.22	4733
851.355	4630
851.49	4656
851.625	4607
851.76	4660
851.895	4546
852.03	4500
852.165	4615
852.299	4744
852.434	4778
852.569	4706
852.703	4752
852.838	4812
852.973	4934
853.107	4919
853.242	4733
853.376	4645
853.511	4538
853.645	4622
853.78	4790
853.914	4694
854.048	4694
854.183	4630
854.317	4706
854.451	4790
854.585	4706
854.72	4588
854.854	4755
854.988	4630
855.122	4618
855.256	4542
855.39	4664
855.524	4748
855.658	4714
855.792	4744
855.926	4771
856.06	4759
856.194	4774
856.327	4702
856.461	4630
856.595	4634
856.729	4656
856.862	4809
856.996	4668
857.13	4694
857.263	4748
857.397	4721
857.53	4672
857.664	4744
857.797	4740
857.931	4790
858.064	4668
858.197	4748
858.331	4630
858.464	4645
858.597	4523
858.731	4653
858.864	4599
858.997	4615
859.13	4645
859.263	4664
859.396	4687
859.529	4584
859.662	4550
859.795	4550
859.928	4649
860.061	4778
860.194	4752
860.327	4611
860.46	4573
860.592	4656
860.725	4759
860.858	4744
860.99	4538
861.123	4519
861.256	4451
861.388	4531
861.521	5455
861.653	4462
861.786	4447
861.918	4455
862.05	4516
862.183	4542
862.315	4615
862.447	4645
862.58	4550
862.712	4348
862.844	4348
862.976	4462
863.108	4432
863.24	4854
863.372	4314
863.504	4455
863.636	4371
863.768	4443
863.9	4409
864.032	4379
864.164	4371
864.296	4504
864.428	4561
864.559	4538
864.691	4519
864.823	4504
864.954	4493
865.086	4546
865.217	4398
865.349	4409
865.48	4443
865.612	4535
865.743	4607
865.875	4462
866.006	4485
866.137	4409
866.269	4428
866.4	4466
866.531	4402
866.662	4409
866.793	4363
866.924	4424
867.055	4516
867.186	4470
867.317	4409
867.448	4360
867.579	4390
867.71	4413
867.841	4367
867.972	4462
868.103	4424
868.233	4386
868.364	4447
868.495	4462
868.625	4653
868.756	4755
868.886	4558
869.017	4577
869.147	4714
869.278	4782
869.408	4637
869.539	4656
869.669	4656
869.799	4687
869.929	4736
870.06	4706
870.19	4938
870.32	4908
870.45	4911
870.58	5014
870.71	5136
870.84	5105
870.97	4908
871.1	4923
871.23	5132
871.36	5136
871.489	5056
871.619	5067
871.749	5075
871.879	5132
872.008	5231
872.138	5064
872.267	4927
872.397	4831
872.526	4774
872.656	4763
872.785	4812
872.915	4904
873.044	5041
873.173	4961
873.303	4949
873.432	4999
873.561	4972
873.69	4881
873.819	4862
873.948	4911
874.077	4812
874.206	4717
874.335	4831
874.464	4946
874.593	5075
874.722	4968
874.851	5117
874.979	5048
875.108	4991
875.237	4972
875.365	4900
875.494	4896
875.623	4976
875.751	4839
875.88	4889
876.008	4995
876.136	4980
876.265	5151
876.393	5307
876.521	5223
876.65	5254
876.778	5121
876.906	5048
877.034	5014
877.162	5037
877.29	5022
877.418	5113
877.546	5029
877.674	5018
877.802	5033
877.93	5029
878.058	4949
878.185	4850
878.313	4938
878.441	4934
878.568	4835
878.696	4862
878.824	4961
878.951	4999
879.079	5140
879.206	5273
879.333	5098
879.461	4984
879.588	5003
879.715	5094
879.842	5204
879.97	5010
880.097	4790
880.224	4763
880.351	4725
880.478	4824
880.605	4771
880.732	4748
880.859	5056
880.986	4900
881.112	4885
881.239	4828
881.366	4630
881.493	4645
881.619	4611
881.746	4607
881.872	4679
881.999	4607
882.125	4687
882.252	4793
882.378	4831
882.505	4908
882.631	4809
882.757	4672
882.883	4717
883.01	4744
883.136	4645
883.262	4607
883.388	4618
883.514	4843
883.64	4839
883.766	4782
883.892	4679
884.018	4694
884.143	4877
884.269	5014
884.395	4656
884.52	4668
884.646	4626
884.772	4561
884.897	4542
885.023	4691
885.148	4736
885.274	4797
885.399	4835
885.524	4733
885.65	4653
885.775	4771
885.9	4691
886.025	4866
886.15	4809
886.275	4752
886.4	4645
886.525	4702
886.65	4721
886.775	4744
886.9	4896
887.025	5037
887.149	4866
887.274	4664
887.399	4550
887.523	4538
887.648	4603
887.773	4516
887.897	4710
888.021	4736
888.146	4672
888.27	4820
888.395	4892
888.519	4854
888.643	4801
888.767	4809
888.891	4683
889.015	4611
889.139	4630
889.263	4573
889.387	4763
889.511	4892
889.635	4805
889.759	4679
889.883	4634
890.006	4725
890.13	4835
890.254	4630
890.377	4653
890.501	4512
890.624	4504
890.748	4626
890.871	4478
890.995	4440
891.118	4424
891.241	4516
891.364	4573
891.488	4656
891.611	4531
891.734	4535
891.857	4603
891.98	4523
892.103	4672
892.226	4607
892.349	4527
892.471	4394
892.594	4603
892.717	4584
892.839	4573
892.962	4565
893.085	4668
893.207	4611
893.33	4447
893.452	4569
893.575	4645
893.697	4611
893.819	4755
893.941	4782
894.064	4733
894.186	4535
894.308	4554
894.43	4755
894.552	4793
894.674	4725
894.796	4577
894.918	4599
895.04	4580
895.161	4675
895.283	4710
895.405	4542
895.526	4603
895.648	4698
895.769	4698
895.891	4687
896.012	4729
896.134	4725
896.255	4683
896.376	4645
896.498	4607
896.619	4660
896.74	4641
896.861	4618
896.982	4927
897.103	5018
897.224	4778
897.345	4759
897.466	4672
897.587	4717
897.708	4835
897.828	4816
897.949	4637
898.07	4535
898.19	4622
898.311	4809
898.431	4672
898.552	4702
898.672	4786
898.792	4786
898.913	4752
899.033	4607
899.153	4519
899.273	4432
899.393	4512
899.513	4466
899.633	4538
899.753	4603
899.873	4470
899.993	4588
900.113	4519
900.232	4603
900.352	4580
900.472	4519
900.591	4390
900.711	4474
900.83	4447
900.95	4603
901.069	4702
901.189	4546
901.308	4436
901.427	4348
901.546	4459
901.665	4466
901.784	4531
901.904	4398
902.023	4322
902.141	4249
902.26	4200
902.379	4234
902.498	4242
902.617	4230
902.735	4371
902.854	4394
902.973	4367
903.091	4265
903.21	4284
903.328	4375
903.446	4291
903.565	4322
903.683	4344
903.801	4344
903.919	4447
904.038	4478
904.156	4325
904.274	4440
904.392	4481
904.51	4466
904.627	4508
904.745	4603
904.863	4714
904.981	4436
905.098	4363
905.216	4398
905.334	4462
905.451	4497
905.569	4485
905.686	4569
905.803	4599
905.921	4436
906.038	4573
906.155	4493
906.272	4440
906.389	4512
906.506	4394
906.623	4405
906.74	4440
906.857	4337
906.974	4402
907.091	4550
907.208	4679
907.324	4603
907.441	4550
907.557	4398
907.674	4402
907.79	4341
907.907	4409
908.023	4538
908.139	4519
908.256	4470
908.372	4462
908.488	4474
908.604	4344
908.72	4360
908.836	4424
908.952	4424
909.068	4455
909.184	4626
909.3	4542
909.415	4645
909.531	4603
909.647	4409
909.762	4413
909.878	4432
909.993	4455
910.108	4409
910.224	4459
910.339	4538
910.454	4402
910.57	4390
910.685	4367
910.8	4679
910.915	4626
911.03	4554
911.145	4356
911.259	4356
911.374	4402
911.489	4333
911.604	4329
911.718	4253
911.833	4242
911.947	4143
912.062	4048
912.176	4265
912.291	4291
912.405	4322
912.519	4516
912.633	4538
912.748	4428
912.862	4341
912.976	4276
913.09	4143
913.204	4200
913.318	4253
913.431	4394
913.545	4432
913.659	4455
913.772	4383
913.886	4322
914	4268
914.113	4405
914.226	4489
914.34	4447
914.453	4246
914.566	4443
914.68	4314
914.793	4413
914.906	4124
915.019	4139
915.132	4116
915.245	4181
915.358	4280
915.47	4257
915.583	4268
915.696	4333
915.809	4398
915.921	4455
916.034	4268
916.146	4280
916.259	4272
916.371	4394
916.483	4417
916.595	4276
916.708	4379
916.82	4367
916.932	4306
917.044	4383
917.156	4352
917.268	4287
917.38	4325
917.491	4344
917.603	4394
917.715	4497
917.826	4466
917.938	4367
918.049	4234
918.161	4386
918.272	4573
918.384	4535
918.495	4428
918.606	4322
918.717	4253
918.828	4325
918.939	4375
919.05	4257
919.161	4344
919.272	4147
919.383	4276
919.494	4489
919.604	4645
919.715	4462
919.826	4402
919.936	4409
920.047	4637
920.157	4535
920.267	4733
920.378	4599
920.488	4569
920.598	4733
920.708	4957
920.818	4740
920.928	4759
921.038	4976
921.148	4896
921.258	4679
921.368	4550
921.477	4554
921.587	4462
921.697	4462
921.806	4607
921.916	4417
922.025	4295
922.134	4303
922.244	4287
922.353	4329
922.462	4211
922.571	4173
922.68	4040
922.789	3987
922.898	4067
923.007	4025
923.116	4128
923.224	4116
923.333	4112
923.442	4036
923.55	4032
923.659	4090
923.767	4101
923.876	4051
923.984	4139
924.092	4029
924.201	4093
924.309	4150
924.417	4166
924.525	4093
924.633	4105
924.741	5067
924.849	3926
924.956	4158
925.064	4006
925.172	3949
925.279	4002
925.387	4093
925.494	4109
925.602	4223
925.709	4230
925.816	4048
925.924	4211
926.031	4246
926.138	4265
926.245	4219
926.352	4109
926.459	4333
926.566	4299
926.673	4166
926.779	4097
926.886	4112
926.993	3987
927.099	3956
927.206	3987
927.312	3991
927.419	4109
927.525	4044
927.631	4120
927.737	3994
927.843	3983
927.95	3854
928.056	4010
928.162	4044
928.267	4044
928.373	4706
928.479	4143
928.585	3838
928.69	4055
928.796	4109
928.901	3987
929.007	3899
929.112	4044
929.218	3964
929.323	3983
929.428	3979
929.533	4162
929.638	3968
929.743	3998
929.848	4044
929.953	4025
930.058	3960
930.163	3819
930.267	3857
930.372	4017
930.477	3835
930.581	4143
930.685	4010
930.79	3899
930.894	3922
930.998	3857
931.103	4093
931.207	3743
931.311	3701
931.415	3717
931.519	3561
931.623	3584
