Data from test_V78500241_2423.txt Node
Date: Fri Mar 25 17:05:51 CST 2022
User: usil
Spectrometer: V785-0024
Trigger mode: 0
Integration Time (sec): 4.000000E-1
Scans to average: 1
Nonlinearity correction enabled: false
Boxcar width: 0
Storing dark spectrum: false
XAxis mode: Wavelengths
Number of Pixels in Spectrum: 1024
>>>>>Begin Spectral Data<<<<<
801.071	8069
801.214	8058
801.356	7875
801.499	7814
801.641	7811
801.783	7875
801.926	7909
802.068	7902
802.211	7955
802.353	7959
802.496	7807
802.638	7864
802.78	7868
802.923	7955
803.065	7833
803.208	7928
803.35	7978
803.492	8046
803.635	8119
803.777	8062
803.919	8096
804.061	8484
804.204	8138
804.346	8088
804.488	7982
804.63	8046
804.773	8069
804.915	8081
805.057	8298
805.199	8100
805.341	8206
805.483	8309
805.626	8244
805.768	8187
805.91	8176
806.052	8206
806.194	8142
806.336	8237
806.478	8062
806.62	8008
806.762	8149
806.904	8263
807.046	8434
807.188	8320
807.33	8298
807.472	8336
807.614	8187
807.756	8153
807.898	8012
808.04	7849
808.182	7898
808.324	7814
808.465	7947
808.607	8024
808.749	8088
808.891	8199
809.033	8309
809.174	8275
809.316	8138
809.458	8069
809.6	8024
809.741	7909
809.883	7993
810.025	8035
810.166	8058
810.308	8039
810.45	8058
810.591	7856
810.733	7742
810.875	7620
811.016	7460
811.158	7518
811.299	7594
811.441	7742
811.582	7746
811.724	7616
811.865	7544
812.007	7636
812.148	7578
812.29	7655
812.431	7746
812.573	7826
812.714	7898
812.855	8157
812.997	8168
813.138	8351
813.279	8111
813.421	8138
813.562	7993
813.703	7830
813.845	7814
813.986	7407
814.127	7206
814.268	7209
814.41	7198
814.551	7126
814.692	7251
814.833	7202
814.974	7152
815.115	7156
815.256	6985
815.397	6905
815.539	6970
815.68	6833
815.821	6772
815.962	6856
816.103	6852
816.244	6642
816.385	6681
816.526	6665
816.666	6445
816.807	6311
816.948	6426
817.089	6479
817.23	6376
817.371	6388
817.512	6395
817.653	6388
817.793	6365
817.934	6410
818.075	6456
818.216	6494
818.356	6441
818.497	6262
818.638	6155
818.778	6114
818.919	6148
819.06	6182
819.2	6331
819.341	6384
819.481	6346
819.622	6509
819.762	6707
819.903	6726
820.043	6589
820.184	6654
820.324	6627
820.465	6745
820.605	6662
820.746	6677
820.886	6536
821.026	6711
821.167	6745
821.307	6818
821.447	6738
821.588	6642
821.728	6612
821.868	6479
822.008	6319
822.149	6388
822.289	6338
822.429	6197
822.569	6125
822.709	6144
822.849	5942
822.99	5901
823.13	5863
823.27	5901
823.41	5748
823.55	5729
823.69	5798
823.83	5821
823.97	5630
824.11	5535
824.25	5543
824.389	5532
824.529	5547
824.669	5535
824.809	5581
824.949	5699
825.089	5623
825.228	5558
825.368	5368
825.508	5360
825.648	5341
825.787	5402
825.927	5330
826.067	5292
826.206	5357
826.346	5345
826.485	5417
826.625	5444
826.765	5478
826.904	5471
827.044	5189
827.183	5204
827.323	5124
827.462	5258
827.601	5178
827.741	5159
827.88	5231
828.02	5143
828.159	5216
828.298	5326
828.437	5337
828.577	5288
828.716	5482
828.855	5242
828.994	5220
829.134	5102
829.273	5212
829.412	5189
829.551	5121
829.69	5132
829.829	5193
829.968	5383
830.107	5296
830.246	5273
830.385	5140
830.524	5105
830.663	5022
830.802	4949
830.941	4927
831.08	4892
831.219	4934
831.357	5018
831.496	5128
831.635	4957
831.774	4828
831.913	4919
832.051	4748
832.19	4710
832.329	4816
832.467	4717
832.606	4649
832.744	4733
832.883	4740
833.022	4717
833.16	4812
833.299	4862
833.437	4797
833.576	4839
833.714	4850
833.852	4862
833.991	4900
834.129	4965
834.267	4900
834.406	4904
834.544	4984
834.682	4915
834.821	4942
834.959	5128
835.097	4980
835.235	5147
835.373	5090
835.511	5094
835.65	5045
835.788	5025
835.926	4942
836.064	4919
836.202	4923
836.34	5159
836.478	5231
836.615	5102
836.753	5162
836.891	5258
837.029	5242
837.167	5250
837.305	5143
837.443	5124
837.58	5071
837.718	5269
837.856	5155
837.993	5124
838.131	5216
838.269	5212
838.406	5204
838.544	5204
838.681	5014
838.819	5003
838.956	4934
839.094	4900
839.231	5003
839.369	5113
839.506	5395
839.643	5269
839.781	5090
839.918	5018
840.055	5086
840.193	5045
840.33	5025
840.467	5109
840.604	5208
840.742	5440
840.879	5071
841.016	5041
841.153	5155
841.29	5440
841.427	5307
841.564	5292
841.701	5307
841.838	5223
841.975	5197
842.112	5284
842.249	5071
842.385	5121
842.522	5269
842.659	5208
842.796	5128
842.933	5136
843.069	5185
843.206	5105
843.343	5326
843.479	5216
843.616	5284
843.752	5064
843.889	5029
844.025	5178
844.162	5010
844.298	5201
844.435	5117
844.571	5056
844.708	5231
844.844	5273
844.98	5337
845.117	5265
845.253	5162
845.389	5083
845.525	5140
845.661	5083
845.798	5052
845.934	5174
846.07	5067
846.206	5208
846.342	5303
846.478	5181
846.614	5037
846.75	4949
846.886	4930
847.022	5140
847.158	5071
847.294	5075
847.429	5086
847.565	5045
847.701	5315
847.837	4881
847.972	4850
848.108	4999
848.244	4904
848.379	4774
848.515	4710
848.65	4702
848.786	4725
848.921	4805
849.057	4835
849.192	4904
849.328	4820
849.463	4873
849.598	4816
849.734	4778
849.869	4729
850.004	4615
850.14	4615
850.275	4630
850.41	4550
850.545	4573
850.68	4630
850.815	4649
850.95	4641
851.085	4862
851.22	4714
851.355	4691
851.49	4584
851.625	4641
851.76	4641
851.895	4569
852.03	4535
852.165	4649
852.299	4706
852.434	4797
852.569	4755
852.703	4824
852.838	4892
852.973	4930
853.107	4946
853.242	4793
853.376	4637
853.511	4558
853.645	4622
853.78	4790
853.914	4649
854.048	4668
854.183	4615
854.317	4710
854.451	4900
854.585	4691
854.72	4615
854.854	4710
854.988	4637
855.122	4641
855.256	4558
855.39	4611
855.524	4782
855.658	4725
855.792	4698
855.926	4774
856.06	4812
856.194	4797
856.327	4706
856.461	4615
856.595	4672
856.729	4596
856.862	4729
856.996	4672
857.13	4755
857.263	4824
857.397	4767
857.53	4649
857.664	4725
857.797	4763
857.931	4778
858.064	4698
858.197	4744
858.331	4653
858.464	4626
858.597	4538
858.731	4626
858.864	4607
858.997	4569
859.13	4641
859.263	4660
859.396	4679
859.529	4577
859.662	4584
859.795	4554
859.928	4649
860.061	4698
860.194	4763
860.327	4630
860.46	4565
860.592	4721
860.725	4660
860.858	4714
860.99	4573
861.123	4531
861.256	4493
861.388	4599
861.521	5334
861.653	4504
861.786	4402
861.918	4432
862.05	4531
862.183	4554
862.315	4672
862.447	4634
862.58	4573
862.712	4409
862.844	4333
862.976	4481
863.108	4474
863.24	4740
863.372	4322
863.504	4447
863.636	4402
863.768	4462
863.9	4417
864.032	4363
864.164	4417
864.296	4417
864.428	4554
864.559	4599
864.691	4558
864.823	4542
864.954	4504
865.086	4485
865.217	4447
865.349	4390
865.48	4424
865.612	4470
865.743	4626
865.875	4508
866.006	4424
866.137	4493
866.269	4451
866.4	4409
866.531	4409
866.662	4402
866.793	4390
866.924	4417
867.055	4474
867.186	4436
867.317	4413
867.448	4344
867.579	4367
867.71	4379
867.841	4398
867.972	4459
868.103	4493
868.233	4478
868.364	4489
868.495	4455
868.625	4656
868.756	4782
868.886	4599
869.017	4596
869.147	4733
869.278	4759
869.408	4634
869.539	4656
869.669	4748
869.799	4675
869.929	4771
870.06	4733
870.19	4938
870.32	4904
870.45	4942
870.58	5003
870.71	5090
870.84	5094
870.97	4938
871.1	4877
871.23	5121
871.36	5170
871.489	5083
871.619	5052
871.749	5121
871.879	5102
872.008	5201
872.138	5064
872.267	5033
872.397	4862
872.526	4847
872.656	4694
872.785	4843
872.915	4919
873.044	4999
873.173	4934
873.303	4995
873.432	4949
873.561	4968
873.69	4877
873.819	4858
873.948	4911
874.077	4786
874.206	4771
874.335	4824
874.464	4873
874.593	5045
874.722	4991
874.851	5086
874.979	5075
875.108	5037
875.237	4892
875.365	4927
875.494	4870
875.623	5029
875.751	4809
875.88	4900
876.008	4938
876.136	5052
876.265	5155
876.393	5322
876.521	5273
876.65	5242
876.778	5178
876.906	5098
877.034	5006
877.162	5048
877.29	5006
877.418	5113
877.546	5075
877.674	5056
877.802	5041
877.93	4991
878.058	4908
878.185	4870
878.313	4896
878.441	4953
878.568	4809
878.696	4816
878.824	4965
878.951	4987
879.079	5181
879.206	5277
879.333	5048
879.461	5010
879.588	5033
879.715	5083
879.842	5220
879.97	4995
880.097	4782
880.224	4721
880.351	4786
880.478	4831
880.605	4847
880.732	4816
880.859	5052
880.986	4892
881.112	4923
881.239	4782
881.366	4668
881.493	4645
881.619	4565
881.746	4702
881.872	4649
881.999	4641
882.125	4675
882.252	4771
882.378	4805
882.505	4873
882.631	4774
882.757	4656
882.883	4748
883.01	4752
883.136	4622
883.262	4626
883.388	4649
883.514	4809
883.64	4862
883.766	4824
883.892	4687
884.018	4691
884.143	4862
884.269	5010
884.395	4656
884.52	4645
884.646	4634
884.772	4596
884.897	4588
885.023	4645
885.148	4767
885.274	4915
885.399	4831
885.524	4698
885.65	4736
885.775	4721
885.9	4729
886.025	4828
886.15	4782
886.275	4702
886.4	4637
886.525	4744
886.65	4687
886.775	4729
886.9	4858
887.025	4999
887.149	4797
887.274	4656
887.399	4615
887.523	4630
887.648	4580
887.773	4573
887.897	4721
888.021	4805
888.146	4641
888.27	4839
888.395	4938
888.519	4767
888.643	4812
888.767	4847
888.891	4668
889.015	4596
889.139	4626
889.263	4645
889.387	4786
889.511	4889
889.635	4824
889.759	4622
889.883	4607
890.006	4752
890.13	4843
890.254	4634
890.377	4683
890.501	4558
890.624	4531
890.748	4679
890.871	4489
890.995	4398
891.118	4363
891.241	4504
891.364	4531
891.488	4653
891.611	4478
891.734	4546
891.857	4596
891.98	4584
892.103	4649
892.226	4615
892.349	4554
892.471	4421
892.594	4542
892.717	4653
892.839	4527
892.962	4577
893.085	4626
893.207	4599
893.33	4478
893.452	4535
893.575	4649
893.697	4573
893.819	4828
893.941	4847
894.064	4797
894.186	4611
894.308	4584
894.43	4755
894.552	4816
894.674	4752
894.796	4527
894.918	4561
895.04	4634
895.161	4717
895.283	4668
895.405	4580
895.526	4656
895.648	4645
895.769	4714
895.891	4698
896.012	4748
896.134	4729
896.255	4691
896.376	4664
896.498	4637
896.619	4694
896.74	4599
896.861	4630
896.982	4919
897.103	5067
897.224	4824
897.345	4736
897.466	4645
897.587	4771
897.708	4828
897.828	4782
897.949	4694
898.07	4535
898.19	4656
898.311	4805
898.431	4672
898.552	4778
898.672	4759
898.792	4782
898.913	4759
899.033	4618
899.153	4474
899.273	4432
899.393	4516
899.513	4504
899.633	4584
899.753	4542
899.873	4535
899.993	4538
900.113	4542
900.232	4592
900.352	4508
900.472	4432
900.591	4402
900.711	4474
900.83	4447
900.95	4584
901.069	4656
901.189	4512
901.308	4337
901.427	4363
901.546	4371
901.665	4432
901.784	4542
901.904	4413
902.023	4272
902.141	4234
902.26	4158
902.379	4265
902.498	4253
902.617	4230
902.735	4341
902.854	4367
902.973	4329
903.091	4227
903.21	4196
903.328	4246
903.446	4227
903.565	4249
903.683	4379
903.801	4291
903.919	4390
904.038	4451
904.156	4303
904.274	4405
904.392	4360
904.51	4424
904.627	4474
904.745	4584
904.863	4611
904.981	4390
905.098	4329
905.216	4352
905.334	4413
905.451	4436
905.569	4424
905.686	4550
905.803	4588
905.921	4375
906.038	4516
906.155	4504
906.272	4424
906.389	4421
906.506	4348
906.623	4356
906.74	4375
906.857	4303
906.974	4394
907.091	4550
907.208	4679
907.324	4527
907.441	4451
907.557	4344
907.674	4356
907.79	4318
907.907	4386
908.023	4500
908.139	4443
908.256	4405
908.372	4447
908.488	4417
908.604	4371
908.72	4325
908.836	4383
908.952	4371
909.068	4386
909.184	4538
909.3	4474
909.415	4637
909.531	4565
909.647	4344
909.762	4409
909.878	4386
909.993	4447
910.108	4367
910.224	4390
910.339	4516
910.454	4405
910.57	4390
910.685	4295
910.8	4672
910.915	4607
911.03	4485
911.145	4303
911.259	4363
911.374	4390
911.489	4265
911.604	4261
911.718	4131
911.833	4223
911.947	4067
912.062	4025
912.176	4234
912.291	4227
912.405	4249
912.519	4451
912.633	4527
912.748	4348
912.862	4310
912.976	4207
913.09	4071
913.204	4154
913.318	4287
913.431	4386
913.545	4417
913.659	4440
913.772	4352
913.886	4257
914	4207
914.113	4356
914.226	4432
914.34	4371
914.453	4200
914.566	4398
914.68	4272
914.793	4344
914.906	4200
915.019	4158
915.132	4124
915.245	4192
915.358	4181
915.47	4238
915.583	4284
915.696	4272
915.809	4363
915.921	4424
916.034	4230
916.146	4219
916.259	4207
916.371	4352
916.483	4367
916.595	4257
916.708	4287
916.82	4306
916.932	4291
917.044	4295
917.156	4352
917.268	4223
917.38	4246
917.491	4291
917.603	4306
917.715	4443
917.826	4462
917.938	4352
918.049	4246
918.161	4371
918.272	4531
918.384	4558
918.495	4489
918.606	4280
918.717	4207
918.828	4314
918.939	4371
919.05	4295
919.161	4299
919.272	4169
919.383	4211
919.494	4394
919.604	4641
919.715	4432
919.826	4325
919.936	4413
920.047	4535
920.157	4500
920.267	4679
920.378	4500
920.488	4455
920.598	4736
920.708	4835
920.818	4759
920.928	4736
921.038	4919
921.148	4908
921.258	4630
921.368	4519
921.477	4478
921.587	4443
921.697	4409
921.806	4500
921.916	4409
922.025	4318
922.134	4242
922.244	4200
922.353	4333
922.462	4143
922.571	4097
922.68	3987
922.789	3953
922.898	3968
923.007	3960
923.116	4074
923.224	4036
923.333	4051
923.442	3968
923.55	3987
923.659	4048
923.767	4093
923.876	3994
923.984	4139
924.092	3937
924.201	4044
924.309	4131
924.417	4135
924.525	4074
924.633	4082
924.741	4984
924.849	3945
924.956	4074
925.064	3956
925.172	3880
925.279	3975
925.387	3998
925.494	4036
925.602	4169
925.709	4166
925.816	4013
925.924	4086
926.031	4230
926.138	4169
926.245	4169
926.352	4082
926.459	4280
926.566	4284
926.673	4135
926.779	4059
926.886	4078
926.993	3979
927.099	3903
927.206	3876
927.312	3903
927.419	4059
927.525	4029
927.631	4139
927.737	3930
927.843	3941
927.95	3854
928.056	3915
928.162	3968
928.267	4051
928.373	4634
928.479	4101
928.585	3850
928.69	4086
928.796	4029
928.901	3926
929.007	3785
929.112	3987
929.218	3953
929.323	3937
929.428	3930
929.533	4124
929.638	3869
929.743	3953
929.848	4025
929.953	4013
930.058	3918
930.163	3838
930.267	3876
930.372	3968
930.477	3800
930.581	4063
930.685	4006
930.79	3823
930.894	3937
930.998	3854
931.103	4044
931.207	3736
931.311	3644
931.415	3728
931.519	3530
931.623	3576
