Data from test_V78500241_857.txt Node
Date: Fri Mar 25 16:54:57 CST 2022
User: usil
Spectrometer: V785-0024
Trigger mode: 0
Integration Time (sec): 4.000000E-1
Scans to average: 1
Nonlinearity correction enabled: false
Boxcar width: 0
Storing dark spectrum: false
XAxis mode: Wavelengths
Number of Pixels in Spectrum: 1024
>>>>>Begin Spectral Data<<<<<
801.071	7993
801.214	7978
801.356	7898
801.499	7826
801.641	7776
801.783	7868
801.926	7955
802.068	7909
802.211	7944
802.353	7978
802.496	7845
802.638	7826
802.78	7921
802.923	7940
803.065	7909
803.208	7830
803.35	7974
803.492	8172
803.635	8062
803.777	7986
803.919	8134
804.061	8431
804.204	8138
804.346	8062
804.488	7970
804.63	8111
804.773	8001
804.915	8035
805.057	8259
805.199	8142
805.341	8195
805.483	8248
805.626	8161
805.768	8084
805.91	8168
806.052	8183
806.194	8020
806.336	8195
806.478	8126
806.62	8024
806.762	8103
806.904	8218
807.046	8381
807.188	8332
807.33	8237
807.472	8328
807.614	8187
807.756	8126
807.898	7902
808.04	7837
808.182	7890
808.324	7833
808.465	7849
808.607	8062
808.749	8096
808.891	8214
809.033	8271
809.174	8161
809.316	8058
809.458	8103
809.6	7959
809.741	8005
809.883	7997
810.025	8062
810.166	8115
810.308	8062
810.45	8035
810.591	7887
810.733	7700
810.875	7616
811.016	7533
811.158	7483
811.299	7582
811.441	7738
811.582	7700
811.724	7529
811.865	7502
812.007	7544
812.148	7502
812.29	7609
812.431	7689
812.573	7811
812.714	7944
812.855	8084
812.997	8123
813.138	8275
813.279	8252
813.421	8088
813.562	7890
813.703	7814
813.845	7792
813.986	7510
814.127	7308
814.268	7251
814.41	7198
814.551	7084
814.692	7107
814.833	6989
814.974	7057
815.115	7088
815.256	6886
815.397	6848
815.539	6973
815.68	6757
815.821	6791
815.962	6810
816.103	6779
816.244	6677
816.385	6642
816.526	6642
816.666	6483
816.807	6243
816.948	6452
817.089	6452
817.23	6445
817.371	6315
817.512	6414
817.653	6384
817.793	6319
817.934	6391
818.075	6395
818.216	6388
818.356	6319
818.497	6216
818.638	6102
818.778	6095
818.919	6133
819.06	6106
819.2	6251
819.341	6296
819.481	6342
819.622	6521
819.762	6734
819.903	6669
820.043	6578
820.184	6570
820.324	6582
820.465	6707
820.605	6677
820.746	6601
820.886	6441
821.026	6616
821.167	6681
821.307	6722
821.447	6757
821.588	6585
821.728	6547
821.868	6429
822.008	6338
822.149	6369
822.289	6319
822.429	6167
822.569	6007
822.709	6030
822.849	5927
822.99	5916
823.13	5916
823.27	5889
823.41	5771
823.55	5710
823.69	5748
823.83	5767
823.97	5676
824.11	5471
824.25	5459
824.389	5558
824.529	5623
824.669	5463
824.809	5596
824.949	5676
825.089	5566
825.228	5524
825.368	5372
825.508	5299
825.648	5315
825.787	5357
825.927	5334
826.067	5288
826.206	5288
826.346	5395
826.485	5410
826.625	5429
826.765	5490
826.904	5455
827.044	5254
827.183	5162
827.323	5159
827.462	5231
827.601	5223
827.741	5181
827.88	5227
828.02	5056
828.159	5242
828.298	5315
828.437	5364
828.577	5277
828.716	5463
828.855	5273
828.994	5170
829.134	5151
829.273	5166
829.412	5151
829.551	5094
829.69	5162
829.829	5212
829.968	5391
830.107	5250
830.246	5239
830.385	5174
830.524	5143
830.663	5090
830.802	4980
830.941	4812
831.08	4820
831.219	4938
831.357	4965
831.496	5124
831.635	4919
831.774	4778
831.913	4812
832.051	4664
832.19	4706
832.329	4828
832.467	4691
832.606	4637
832.744	4706
832.883	4721
833.022	4714
833.16	4820
833.299	4790
833.437	4835
833.576	4816
833.714	4797
833.852	4858
833.991	4873
834.129	4961
834.267	4927
834.406	4881
834.544	4972
834.682	5037
834.821	4965
834.959	5193
835.097	4984
835.235	5128
835.373	5079
835.511	5048
835.65	5022
835.788	5037
835.926	4862
836.064	4908
836.202	4881
836.34	5170
836.478	5185
836.615	5151
836.753	5193
836.891	5231
837.029	5239
837.167	5201
837.305	5136
837.443	5113
837.58	5048
837.718	5269
837.856	5220
837.993	5155
838.131	5231
838.269	5193
838.406	5223
838.544	5197
838.681	5075
838.819	5056
838.956	4862
839.094	4877
839.231	4885
839.369	5102
839.506	5372
839.643	5273
839.781	5117
839.918	5052
840.055	5048
840.193	5056
840.33	5033
840.467	5159
840.604	5208
840.742	5463
840.879	5094
841.016	5109
841.153	5166
841.29	5379
841.427	5345
841.564	5334
841.701	5349
841.838	5299
841.975	5273
842.112	5280
842.249	5128
842.385	5121
842.522	5322
842.659	5193
842.796	5159
842.933	5258
843.069	5235
843.206	5181
843.343	5311
843.479	5227
843.616	5254
843.752	5037
843.889	5056
844.025	5208
844.162	5048
844.298	5239
844.435	5170
844.571	5102
844.708	5273
844.844	5299
844.98	5376
845.117	5345
845.253	5155
845.389	5102
845.525	5197
845.661	5159
845.798	5086
845.934	5151
846.07	5086
846.206	5197
846.342	5337
846.478	5197
846.614	5102
846.75	5006
846.886	4999
847.022	5189
847.158	5052
847.294	5113
847.429	5121
847.565	5109
847.701	5311
847.837	4831
847.972	4850
848.108	4980
848.244	4957
848.379	4824
848.515	4755
848.65	4748
848.786	4778
848.921	4755
849.057	4911
849.192	4934
849.328	4809
849.463	4854
849.598	4793
849.734	4752
849.869	4710
850.004	4675
850.14	4702
850.275	4645
850.41	4554
850.545	4592
850.68	4611
850.815	4603
850.95	4691
851.085	4850
851.22	4828
851.355	4691
851.49	4599
851.625	4683
851.76	4660
851.895	4577
852.03	4542
852.165	4675
852.299	4778
852.434	4809
852.569	4740
852.703	4786
852.838	4873
852.973	4892
853.107	4934
853.242	4710
853.376	4702
853.511	4588
853.645	4668
853.78	4805
853.914	4721
854.048	4649
854.183	4672
854.317	4752
854.451	4866
854.585	4675
854.72	4630
854.854	4763
854.988	4588
855.122	4687
855.256	4550
855.39	4687
855.524	4809
855.658	4706
855.792	4725
855.926	4752
856.06	4736
856.194	4786
856.327	4706
856.461	4656
856.595	4637
856.729	4656
856.862	4752
856.996	4702
857.13	4721
857.263	4740
857.397	4877
857.53	4649
857.664	4763
857.797	4744
857.931	4774
858.064	4702
858.197	4782
858.331	4672
858.464	4626
858.597	4611
858.731	4615
858.864	4641
858.997	4607
859.13	4653
859.263	4656
859.396	4710
859.529	4573
859.662	4615
859.795	4565
859.928	4641
860.061	4755
860.194	4801
860.327	4592
860.46	4565
860.592	4710
860.725	4755
860.858	4771
860.99	4592
861.123	4542
861.256	4580
861.388	4611
861.521	5326
861.653	4462
861.786	4462
861.918	4459
862.05	4546
862.183	4554
862.315	4618
862.447	4656
862.58	4554
862.712	4409
862.844	4344
862.976	4481
863.108	4478
863.24	4828
863.372	4363
863.504	4436
863.636	4443
863.768	4478
863.9	4417
864.032	4379
864.164	4459
864.296	4489
864.428	4565
864.559	4561
864.691	4580
864.823	4554
864.954	4527
865.086	4535
865.217	4466
865.349	4398
865.48	4497
865.612	4497
865.743	4664
865.875	4474
866.006	4459
866.137	4474
866.269	4421
866.4	4462
866.531	4394
866.662	4459
866.793	4417
866.924	4455
867.055	4554
867.186	4436
867.317	4451
867.448	4379
867.579	4405
867.71	4428
867.841	4402
867.972	4546
868.103	4459
868.233	4485
868.364	4428
868.495	4504
868.625	4645
868.756	4790
868.886	4538
869.017	4637
869.147	4812
869.278	4786
869.408	4691
869.539	4603
869.669	4755
869.799	4687
869.929	4790
870.06	4793
870.19	5025
870.32	4965
870.45	4953
870.58	5037
870.71	5102
870.84	5140
870.97	4972
871.1	4923
871.23	5143
871.36	5147
871.489	5045
871.619	5113
871.749	5060
871.879	5170
872.008	5178
872.138	5064
872.267	5006
872.397	4877
872.526	4831
872.656	4736
872.785	4831
872.915	4927
873.044	5048
873.173	4957
873.303	4957
873.432	4896
873.561	4877
873.69	4892
873.819	4839
873.948	4904
874.077	4778
874.206	4778
874.335	4847
874.464	4965
874.593	5048
874.722	4987
874.851	5098
874.979	5083
875.108	5083
875.237	4881
875.365	4866
875.494	4938
875.623	4961
875.751	4862
875.88	4885
876.008	5029
876.136	5064
876.265	5178
876.393	5379
876.521	5258
876.65	5239
876.778	5174
876.906	5056
877.034	4999
877.162	4999
877.29	5003
877.418	5067
877.546	5064
877.674	5018
877.802	5075
877.93	4991
878.058	4999
878.185	4858
878.313	4999
878.441	4976
878.568	4870
878.696	4881
878.824	5003
878.951	4953
879.079	5105
879.206	5292
879.333	5143
879.461	5006
879.588	5083
879.715	5109
879.842	5242
879.97	5052
880.097	4805
880.224	4736
880.351	4759
880.478	4835
880.605	4790
880.732	4839
880.859	5109
880.986	4904
881.112	4911
881.239	4824
881.366	4660
881.493	4649
881.619	4626
881.746	4683
881.872	4630
881.999	4649
882.125	4729
882.252	4763
882.378	4847
882.505	4930
882.631	4839
882.757	4668
882.883	4778
883.01	4733
883.136	4694
883.262	4611
883.388	4558
883.514	4812
883.64	4889
883.766	4774
883.892	4672
884.018	4694
884.143	4953
884.269	4999
884.395	4698
884.52	4679
884.646	4634
884.772	4611
884.897	4531
885.023	4660
885.148	4763
885.274	4858
885.399	4809
885.524	4714
885.65	4771
885.775	4786
885.9	4698
886.025	4839
886.15	4812
886.275	4687
886.4	4641
886.525	4725
886.65	4733
886.775	4721
886.9	4881
887.025	5109
887.149	4820
887.274	4668
887.399	4596
887.523	4607
887.648	4611
887.773	4561
887.897	4755
888.021	4786
888.146	4653
888.27	4847
888.395	4900
888.519	4828
888.643	4831
888.767	4790
888.891	4691
889.015	4618
889.139	4637
889.263	4603
889.387	4752
889.511	4847
889.635	4805
889.759	4675
889.883	4656
890.006	4725
890.13	4835
890.254	4622
890.377	4702
890.501	4565
890.624	4561
890.748	4653
890.871	4523
890.995	4394
891.118	4363
891.241	4531
891.364	4546
891.488	4634
891.611	4531
891.734	4558
891.857	4584
891.98	4596
892.103	4630
892.226	4580
892.349	4527
892.471	4421
892.594	4611
892.717	4577
892.839	4577
892.962	4592
893.085	4660
893.207	4649
893.33	4470
893.452	4516
893.575	4649
893.697	4596
893.819	4774
893.941	4854
894.064	4752
894.186	4565
894.308	4599
894.43	4694
894.552	4816
894.674	4786
894.796	4569
894.918	4607
895.04	4565
895.161	4763
895.283	4675
895.405	4611
895.526	4634
895.648	4698
895.769	4725
895.891	4702
896.012	4725
896.134	4710
896.255	4653
896.376	4641
896.498	4641
896.619	4748
896.74	4588
896.861	4656
896.982	4980
897.103	5102
897.224	4892
897.345	4752
897.466	4660
897.587	4767
897.708	4919
897.828	4812
897.949	4656
898.07	4550
898.19	4645
898.311	4782
898.431	4645
898.552	4721
898.672	4850
898.792	4850
898.913	4740
899.033	4607
899.153	4512
899.273	4455
899.393	4489
899.513	4580
899.633	4546
899.753	4554
899.873	4474
899.993	4577
900.113	4554
900.232	4588
900.352	4523
900.472	4447
900.591	4360
900.711	4504
900.83	4428
900.95	4573
901.069	4725
901.189	4577
901.308	4306
901.427	4318
901.546	4356
901.665	4462
901.784	4527
901.904	4360
902.023	4322
902.141	4196
902.26	4154
902.379	4314
902.498	4246
902.617	4215
902.735	4371
902.854	4390
902.973	4337
903.091	4253
903.21	4204
903.328	4272
903.446	4284
903.565	4322
903.683	4371
903.801	4265
903.919	4367
904.038	4459
904.156	4306
904.274	4447
904.392	4432
904.51	4485
904.627	4512
904.745	4607
904.863	4626
904.981	4402
905.098	4276
905.216	4379
905.334	4394
905.451	4398
905.569	4432
905.686	4546
905.803	4519
905.921	4402
906.038	4565
906.155	4527
906.272	4383
906.389	4481
906.506	4405
906.623	4402
906.74	4341
906.857	4360
906.974	4360
907.091	4577
907.208	4691
907.324	4584
907.441	4489
907.557	4337
907.674	4375
907.79	4314
907.907	4409
908.023	4466
908.139	4489
908.256	4409
908.372	4432
908.488	4394
908.604	4348
908.72	4318
908.836	4367
908.952	4341
909.068	4485
909.184	4565
909.3	4500
909.415	4561
909.531	4592
909.647	4398
909.762	4363
909.878	4375
909.993	4447
910.108	4462
910.224	4424
910.339	4535
910.454	4386
910.57	4375
910.685	4322
910.8	4721
910.915	4618
911.03	4523
911.145	4356
911.259	4352
911.374	4421
911.489	4310
911.604	4280
911.718	4196
911.833	4219
911.947	4128
912.062	4029
912.176	4253
912.291	4261
912.405	4314
912.519	4542
912.633	4527
912.748	4417
912.862	4375
912.976	4268
913.09	4116
913.204	4242
913.318	4287
913.431	4356
913.545	4386
913.659	4440
913.772	4409
913.886	4299
914	4234
914.113	4405
914.226	4527
914.34	4417
914.453	4249
914.566	4451
914.68	4325
914.793	4352
914.906	4166
915.019	4131
915.132	4139
915.245	4188
915.358	4272
915.47	4246
915.583	4238
915.696	4337
915.809	4485
915.921	4474
916.034	4299
916.146	4299
916.259	4234
916.371	4383
916.483	4409
916.595	4310
916.708	4363
916.82	4428
916.932	4367
917.044	4348
917.156	4394
917.268	4287
917.38	4344
917.491	4348
917.603	4363
917.715	4527
917.826	4474
917.938	4390
918.049	4280
918.161	4447
918.272	4637
918.384	4622
918.495	4474
918.606	4360
918.717	4299
918.828	4375
918.939	4386
919.05	4299
919.161	4352
919.272	4116
919.383	4238
919.494	4481
919.604	4675
919.715	4489
919.826	4390
919.936	4451
920.047	4615
920.157	4554
920.267	4740
920.378	4558
920.488	4527
920.598	4793
920.708	4965
920.818	4797
920.928	4828
921.038	4961
921.148	4946
921.258	4622
921.368	4592
921.477	4550
921.587	4478
921.697	4386
921.806	4580
921.916	4489
922.025	4257
922.134	4329
922.244	4268
922.353	4409
922.462	4211
922.571	4242
922.68	4040
922.789	4051
922.898	4055
923.007	4010
923.116	4112
923.224	4128
923.333	4124
923.442	3994
923.55	4025
923.659	4048
923.767	4162
923.876	4029
923.984	4150
924.092	4036
924.201	4135
924.309	4128
924.417	4093
924.525	4158
924.633	4128
924.741	4911
924.849	3934
924.956	4185
925.064	4006
925.172	3930
925.279	3972
925.387	4067
925.494	4101
925.602	4219
925.709	4230
925.816	4078
925.924	4215
926.031	4261
926.138	4158
926.245	4234
926.352	4150
926.459	4268
926.566	4325
926.673	4185
926.779	4143
926.886	4112
926.993	4025
927.099	3983
927.206	3934
927.312	3998
927.419	4051
927.525	4032
927.631	4135
927.737	4017
927.843	3922
927.95	3876
928.056	3949
928.162	4002
928.267	4051
928.373	4622
928.479	4124
928.585	3907
928.69	4067
928.796	4105
928.901	4013
929.007	3865
929.112	4021
929.218	4048
929.323	3964
929.428	3934
929.533	4120
929.638	3949
929.743	3975
929.848	4097
929.953	3991
930.058	3949
930.163	3846
930.267	3873
930.372	4032
930.477	3770
930.581	4147
930.685	3979
930.79	3823
930.894	3911
930.998	3896
931.103	4067
931.207	3751
931.311	3705
931.415	3667
931.519	3553
931.623	3625
