Data from test_V78500241_2572.txt Node
Date: Fri Mar 25 17:06:53 CST 2022
User: usil
Spectrometer: V785-0024
Trigger mode: 0
Integration Time (sec): 4.000000E-1
Scans to average: 1
Nonlinearity correction enabled: false
Boxcar width: 0
Storing dark spectrum: false
XAxis mode: Wavelengths
Number of Pixels in Spectrum: 1024
>>>>>Begin Spectral Data<<<<<
801.071	8039
801.214	8008
801.356	7841
801.499	7830
801.641	7772
801.783	7814
801.926	7928
802.068	7936
802.211	7932
802.353	8008
802.496	7890
802.638	7902
802.78	7871
802.923	7883
803.065	7902
803.208	7807
803.35	8001
803.492	8065
803.635	8103
803.777	7989
803.919	8065
804.061	8457
804.204	8126
804.346	8058
804.488	7947
804.63	8084
804.773	8016
804.915	8092
805.057	8229
805.199	8123
805.341	8126
805.483	8237
805.626	8218
805.768	8161
805.91	8180
806.052	8168
806.194	8107
806.336	8233
806.478	8081
806.62	7967
806.762	8077
806.904	8263
807.046	8446
807.188	8355
807.33	8328
807.472	8267
807.614	8123
807.756	8130
807.898	8008
808.04	7830
808.182	7833
808.324	7925
808.465	7925
808.607	8024
808.749	8119
808.891	8210
809.033	8347
809.174	8221
809.316	8107
809.458	8069
809.6	7955
809.741	7932
809.883	8073
810.025	8138
810.166	8058
810.308	7959
810.45	7947
810.591	7902
810.733	7689
810.875	7628
811.016	7521
811.158	7441
811.299	7540
811.441	7723
811.582	7712
811.724	7540
811.865	7548
812.007	7605
812.148	7559
812.29	7658
812.431	7715
812.573	7868
812.714	7944
812.855	8103
812.997	8172
813.138	8294
813.279	8168
813.421	8054
813.562	8031
813.703	7898
813.845	7727
813.986	7449
814.127	7232
814.268	7141
814.41	7149
814.551	7129
814.692	7240
814.833	7118
814.974	7099
815.115	7133
815.256	6993
815.397	6954
815.539	7000
815.68	6795
815.821	6814
815.962	6837
816.103	6776
816.244	6772
816.385	6631
816.526	6620
816.666	6513
816.807	6262
816.948	6407
817.089	6426
817.23	6486
817.371	6407
817.512	6376
817.653	6331
817.793	6346
817.934	6331
818.075	6441
818.216	6456
818.356	6357
818.497	6201
818.638	6129
818.778	6159
818.919	6133
819.06	6167
819.2	6388
819.341	6277
819.481	6350
819.622	6494
819.762	6730
819.903	6703
820.043	6616
820.184	6532
820.324	6517
820.465	6669
820.605	6722
820.746	6620
820.886	6566
821.026	6700
821.167	6787
821.307	6821
821.447	6764
821.588	6738
821.728	6582
821.868	6517
822.008	6357
822.149	6376
822.289	6391
822.429	6159
822.569	6095
822.709	6155
822.849	5984
822.99	5878
823.13	5954
823.27	5939
823.41	5805
823.55	5786
823.69	5790
823.83	5790
823.97	5688
824.11	5520
824.25	5516
824.389	5516
824.529	5554
824.669	5524
824.809	5638
824.949	5634
825.089	5589
825.228	5543
825.368	5425
825.508	5376
825.648	5341
825.787	5364
825.927	5402
826.067	5258
826.206	5261
826.346	5398
826.485	5379
826.625	5414
826.765	5543
826.904	5478
827.044	5220
827.183	5223
827.323	5128
827.462	5254
827.601	5174
827.741	5189
827.88	5208
828.02	5094
828.159	5223
828.298	5303
828.437	5357
828.577	5258
828.716	5436
828.855	5318
828.994	5143
829.134	5124
829.273	5151
829.412	5121
829.551	5147
829.69	5121
829.829	5212
829.968	5379
830.107	5239
830.246	5280
830.385	5208
830.524	5143
830.663	5045
830.802	4965
830.941	4862
831.08	4873
831.219	5006
831.357	5003
831.496	5170
831.635	4904
831.774	4862
831.913	4820
832.051	4744
832.19	4702
832.329	4801
832.467	4706
832.606	4634
832.744	4740
832.883	4706
833.022	4679
833.16	4759
833.299	4839
833.437	4892
833.576	4828
833.714	4873
833.852	4892
833.991	4889
834.129	4934
834.267	4942
834.406	4946
834.544	4995
834.682	4900
834.821	4980
834.959	5075
835.097	4984
835.235	5147
835.373	5067
835.511	5086
835.65	5018
835.788	4984
835.926	4870
836.064	4847
836.202	4896
836.34	5128
836.478	5216
836.615	5098
836.753	5216
836.891	5311
837.029	5273
837.167	5155
837.305	5128
837.443	5117
837.58	5041
837.718	5223
837.856	5181
837.993	5140
838.131	5239
838.269	5197
838.406	5189
838.544	5197
838.681	5033
838.819	4995
838.956	4896
839.094	4877
839.231	5010
839.369	5094
839.506	5433
839.643	5303
839.781	5041
839.918	5022
840.055	5113
840.193	5113
840.33	5132
840.467	5090
840.604	5216
840.742	5433
840.879	5079
841.016	5071
841.153	5140
841.29	5398
841.427	5334
841.564	5364
841.701	5406
841.838	5326
841.975	5284
842.112	5273
842.249	5143
842.385	5128
842.522	5292
842.659	5193
842.796	5162
842.933	5178
843.069	5166
843.206	5201
843.343	5322
843.479	5288
843.616	5261
843.752	5064
843.889	5075
844.025	5223
844.162	5033
844.298	5265
844.435	5128
844.571	5098
844.708	5288
844.844	5372
844.98	5395
845.117	5315
845.253	5166
845.389	5075
845.525	5193
845.661	5204
845.798	5083
845.934	5147
846.07	5079
846.206	5242
846.342	5303
846.478	5231
846.614	5075
846.75	4980
846.886	4995
847.022	5143
847.158	5094
847.294	5113
847.429	5132
847.565	5094
847.701	5414
847.837	4877
847.972	4850
848.108	5025
848.244	4930
848.379	4835
848.515	4824
848.65	4759
848.786	4790
848.921	4816
849.057	4896
849.192	4934
849.328	4820
849.463	4870
849.598	4850
849.734	4801
849.869	4729
850.004	4687
850.14	4660
850.275	4664
850.41	4577
850.545	4641
850.68	4649
850.815	4653
850.95	4656
851.085	4889
851.22	4771
851.355	4714
851.49	4607
851.625	4645
851.76	4668
851.895	4634
852.03	4565
852.165	4687
852.299	4736
852.434	4870
852.569	4835
852.703	4831
852.838	4889
852.973	4991
853.107	4995
853.242	4786
853.376	4687
853.511	4565
853.645	4634
853.78	4877
853.914	4729
854.048	4698
854.183	4717
854.317	4725
854.451	4904
854.585	4691
854.72	4698
854.854	4793
854.988	4653
855.122	4687
855.256	4558
855.39	4706
855.524	4793
855.658	4733
855.792	4683
855.926	4812
856.06	4843
856.194	4812
856.327	4698
856.461	4668
856.595	4645
856.729	4668
856.862	4752
856.996	4752
857.13	4725
857.263	4748
857.397	4889
857.53	4706
857.664	4740
857.797	4714
857.931	4790
858.064	4717
858.197	4782
858.331	4675
858.464	4664
858.597	4580
858.731	4630
858.864	4649
858.997	4622
859.13	4630
859.263	4683
859.396	4748
859.529	4626
859.662	4599
859.795	4550
859.928	4668
860.061	4767
860.194	4816
860.327	4656
860.46	4599
860.592	4744
860.725	4733
860.858	4744
860.99	4607
861.123	4508
861.256	4504
861.388	4664
861.521	5337
861.653	4523
861.786	4489
861.918	4519
862.05	4535
862.183	4645
862.315	4645
862.447	4714
862.58	4599
862.712	4417
862.844	4398
862.976	4504
863.108	4462
863.24	4790
863.372	4375
863.504	4432
863.636	4436
863.768	4516
863.9	4451
864.032	4405
864.164	4386
864.296	4497
864.428	4596
864.559	4596
864.691	4611
864.823	4573
864.954	4550
865.086	4546
865.217	4459
865.349	4459
865.48	4485
865.612	4546
865.743	4698
865.875	4478
866.006	4512
866.137	4451
866.269	4440
866.4	4421
866.531	4413
866.662	4447
866.793	4409
866.924	4459
867.055	4546
867.186	4478
867.317	4447
867.448	4417
867.579	4424
867.71	4402
867.841	4413
867.972	4478
868.103	4478
868.233	4516
868.364	4504
868.495	4527
868.625	4668
868.756	4767
868.886	4599
869.017	4683
869.147	4778
869.278	4793
869.408	4672
869.539	4706
869.669	4782
869.799	4717
869.929	4797
870.06	4763
870.19	5048
870.32	4968
870.45	4949
870.58	5064
870.71	5159
870.84	5223
870.97	4999
871.1	4930
871.23	5170
871.36	5147
871.489	5090
871.619	5132
871.749	5117
871.879	5140
872.008	5227
872.138	5094
872.267	5048
872.397	4854
872.526	4828
872.656	4755
872.785	4873
872.915	4953
873.044	5083
873.173	4980
873.303	5029
873.432	5025
873.561	4991
873.69	4862
873.819	4930
873.948	4965
874.077	4809
874.206	4801
874.335	4854
874.464	4930
874.593	5090
874.722	4987
874.851	5132
874.979	5056
875.108	5029
875.237	4930
875.365	4949
875.494	4938
875.623	5022
875.751	4858
875.88	4946
876.008	5014
876.136	5045
876.265	5231
876.393	5368
876.521	5235
876.65	5269
876.778	5151
876.906	5121
877.034	5079
877.162	5018
877.29	5025
877.418	5083
877.546	5098
877.674	5041
877.802	5045
877.93	5048
878.058	5014
878.185	4870
878.313	5003
878.441	4927
878.568	4877
878.696	4915
878.824	4991
878.951	5014
879.079	5151
879.206	5326
879.333	5136
879.461	5025
879.588	5003
879.715	5170
879.842	5261
879.97	4984
880.097	4809
880.224	4793
880.351	4831
880.478	4820
880.605	4828
880.732	4812
880.859	5121
880.986	4911
881.112	4927
881.239	4828
881.366	4694
881.493	4607
881.619	4615
881.746	4660
881.872	4714
881.999	4679
882.125	4691
882.252	4828
882.378	4816
882.505	5018
882.631	4820
882.757	4626
882.883	4759
883.01	4763
883.136	4729
883.262	4687
883.388	4622
883.514	4828
883.64	4843
883.766	4828
883.892	4736
884.018	4786
884.143	4889
884.269	5029
884.395	4687
884.52	4645
884.646	4698
884.772	4596
884.897	4554
885.023	4679
885.148	4873
885.274	4839
885.399	4843
885.524	4736
885.65	4694
885.775	4759
885.9	4717
886.025	4866
886.15	4850
886.275	4748
886.4	4660
886.525	4755
886.65	4706
886.775	4698
886.9	4896
887.025	5052
887.149	4835
887.274	4683
887.399	4554
887.523	4656
887.648	4580
887.773	4599
887.897	4744
888.021	4820
888.146	4744
888.27	4881
888.395	4930
888.519	4839
888.643	4809
888.767	4843
888.891	4702
889.015	4622
889.139	4675
889.263	4611
889.387	4778
889.511	4885
889.635	4843
889.759	4599
889.883	4618
890.006	4763
890.13	4858
890.254	4596
890.377	4694
890.501	4584
890.624	4580
890.748	4694
890.871	4523
890.995	4478
891.118	4428
891.241	4500
891.364	4580
891.488	4634
891.611	4508
891.734	4523
891.857	4634
891.98	4580
892.103	4649
892.226	4637
892.349	4538
892.471	4417
892.594	4592
892.717	4611
892.839	4592
892.962	4607
893.085	4706
893.207	4596
893.33	4493
893.452	4538
893.575	4687
893.697	4569
893.819	4797
893.941	4866
894.064	4774
894.186	4554
894.308	4611
894.43	4828
894.552	4816
894.674	4786
894.796	4538
894.918	4542
895.04	4554
895.161	4752
895.283	4691
895.405	4630
895.526	4656
895.648	4675
895.769	4702
895.891	4714
896.012	4759
896.134	4744
896.255	4645
896.376	4710
896.498	4615
896.619	4687
896.74	4702
896.861	4645
896.982	4930
897.103	5048
897.224	4847
897.345	4771
897.466	4653
897.587	4782
897.708	4881
897.828	4744
897.949	4725
898.07	4596
898.19	4634
898.311	4847
898.431	4748
898.552	4710
898.672	4816
898.792	4801
898.913	4801
899.033	4653
899.153	4508
899.273	4481
899.393	4504
899.513	4527
899.633	4592
899.753	4607
899.873	4538
899.993	4599
900.113	4535
900.232	4561
900.352	4500
900.472	4519
900.591	4440
900.711	4481
900.83	4466
900.95	4622
901.069	4733
901.189	4550
901.308	4363
901.427	4341
901.546	4352
901.665	4485
901.784	4508
901.904	4413
902.023	4386
902.141	4204
902.26	4188
902.379	4375
902.498	4219
902.617	4238
902.735	4379
902.854	4413
902.973	4390
903.091	4238
903.21	4230
903.328	4318
903.446	4284
903.565	4242
903.683	4413
903.801	4249
903.919	4432
904.038	4443
904.156	4325
904.274	4474
904.392	4451
904.51	4462
904.627	4519
904.745	4603
904.863	4683
904.981	4421
905.098	4310
905.216	4356
905.334	4436
905.451	4485
905.569	4466
905.686	4538
905.803	4584
905.921	4440
906.038	4542
906.155	4508
906.272	4432
906.389	4478
906.506	4352
906.623	4367
906.74	4402
906.857	4333
906.974	4363
907.091	4603
907.208	4710
907.324	4573
907.441	4531
907.557	4352
907.674	4325
907.79	4348
907.907	4405
908.023	4424
908.139	4504
908.256	4421
908.372	4481
908.488	4459
908.604	4348
908.72	4322
908.836	4371
908.952	4394
909.068	4443
909.184	4550
909.3	4535
909.415	4546
909.531	4573
909.647	4356
909.762	4352
909.878	4337
909.993	4432
910.108	4398
910.224	4413
910.339	4497
910.454	4409
910.57	4398
910.685	4306
910.8	4679
910.915	4569
911.03	4497
911.145	4333
911.259	4356
911.374	4379
911.489	4352
911.604	4314
911.718	4188
911.833	4215
911.947	4105
912.062	4051
912.176	4223
912.291	4246
912.405	4253
912.519	4451
912.633	4554
912.748	4371
912.862	4314
912.976	4207
913.09	4143
913.204	4219
913.318	4303
913.431	4386
913.545	4402
913.659	4409
913.772	4371
913.886	4276
914	4234
914.113	4428
914.226	4459
914.34	4447
914.453	4287
914.566	4478
914.68	4314
914.793	4383
914.906	4207
915.019	4192
915.132	4128
915.245	4211
915.358	4265
915.47	4287
915.583	4303
915.696	4337
915.809	4451
915.921	4455
916.034	4284
916.146	4299
916.259	4207
916.371	4363
916.483	4375
916.595	4314
916.708	4356
916.82	4348
916.932	4352
917.044	4390
917.156	4390
917.268	4268
917.38	4348
917.491	4325
917.603	4356
917.715	4485
917.826	4485
917.938	4394
918.049	4257
918.161	4462
918.272	4596
918.384	4599
918.495	4485
918.606	4306
918.717	4303
918.828	4367
918.939	4440
919.05	4337
919.161	4371
919.272	4192
919.383	4314
919.494	4500
919.604	4679
919.715	4512
919.826	4394
919.936	4440
920.047	4615
920.157	4565
920.267	4774
920.378	4596
920.488	4542
920.598	4755
920.708	4953
920.818	4778
920.928	4805
921.038	4965
921.148	4961
921.258	4660
921.368	4626
921.477	4565
921.587	4558
921.697	4455
921.806	4531
921.916	4485
922.025	4329
922.134	4272
922.244	4249
922.353	4379
922.462	4192
922.571	4219
922.68	4051
922.789	4021
922.898	4044
923.007	4032
923.116	4162
923.224	4109
923.333	4097
923.442	4010
923.55	3998
923.659	4093
923.767	4101
923.876	4086
923.984	4154
924.092	4059
924.201	4112
924.309	4143
924.417	4154
924.525	4109
924.633	4185
924.741	5086
924.849	3960
924.956	4173
925.064	3994
925.172	3945
925.279	4021
925.387	4139
925.494	4086
925.602	4238
925.709	4261
925.816	4128
925.924	4166
926.031	4268
926.138	4223
926.245	4158
926.352	4158
926.459	4253
926.566	4341
926.673	4185
926.779	4147
926.886	4105
926.993	4048
927.099	4010
927.206	4013
927.312	3960
927.419	4105
927.525	4048
927.631	4124
927.737	4021
927.843	3983
927.95	3945
928.056	3983
928.162	4044
928.267	4082
928.373	4588
928.479	4128
928.585	3873
928.69	4032
928.796	4093
928.901	4013
929.007	3922
929.112	4078
929.218	3983
929.323	3994
929.428	4002
929.533	4139
929.638	3949
929.743	4010
929.848	4101
929.953	4059
930.058	3968
930.163	3827
930.267	3899
930.372	4013
930.477	3850
930.581	4116
930.685	3991
930.79	3869
930.894	3926
930.998	3857
931.103	4112
931.207	3743
931.311	3747
931.415	3717
931.519	3580
931.623	3584
