Data from test_V78500241_1105.txt Node
Date: Fri Mar 25 16:56:41 CST 2022
User: usil
Spectrometer: V785-0024
Trigger mode: 0
Integration Time (sec): 4.000000E-1
Scans to average: 1
Nonlinearity correction enabled: false
Boxcar width: 0
Storing dark spectrum: false
XAxis mode: Wavelengths
Number of Pixels in Spectrum: 1024
>>>>>Begin Spectral Data<<<<<
801.071	8054
801.214	8054
801.356	7890
801.499	7795
801.641	7769
801.783	7803
801.926	7917
802.068	7894
802.211	7959
802.353	7944
802.496	7788
802.638	7902
802.78	7970
802.923	7947
803.065	7887
803.208	7833
803.35	7989
803.492	8062
803.635	8130
803.777	8031
803.919	8107
804.061	8431
804.204	8115
804.346	8054
804.488	7970
804.63	8092
804.773	8005
804.915	8073
805.057	8317
805.199	8115
805.341	8225
805.483	8259
805.626	8237
805.768	8123
805.91	8237
806.052	8202
806.194	8096
806.336	8225
806.478	8161
806.62	8008
806.762	8149
806.904	8221
807.046	8427
807.188	8389
807.33	8244
807.472	8320
807.614	8168
807.756	8130
807.898	8016
808.04	7849
808.182	7898
808.324	7906
808.465	7913
808.607	8046
808.749	8145
808.891	8153
809.033	8298
809.174	8240
809.316	8081
809.458	8005
809.6	8008
809.741	8054
809.883	7955
810.025	8153
810.166	8027
810.308	7978
810.45	7989
810.591	7898
810.733	7761
810.875	7647
811.016	7544
811.158	7521
811.299	7597
811.441	7685
811.582	7632
811.724	7594
811.865	7540
812.007	7529
812.148	7636
812.29	7624
812.431	7681
812.573	7894
812.714	8001
812.855	8062
812.997	8168
813.138	8240
813.279	8153
813.421	8176
813.562	7970
813.703	7833
813.845	7753
813.986	7480
814.127	7263
814.268	7190
814.41	7190
814.551	7110
814.692	7194
814.833	7019
814.974	7114
815.115	7110
815.256	6989
815.397	6935
815.539	6924
815.68	6806
815.821	6787
815.962	6840
816.103	6814
816.244	6757
816.385	6673
816.526	6654
816.666	6456
816.807	6281
816.948	6376
817.089	6494
817.23	6422
817.371	6395
817.512	6372
817.653	6479
817.793	6399
817.934	6399
818.075	6399
818.216	6483
818.356	6372
818.497	6251
818.638	6106
818.778	6140
818.919	6133
819.06	6144
819.2	6277
819.341	6311
819.481	6372
819.622	6498
819.762	6730
819.903	6738
820.043	6620
820.184	6631
820.324	6517
820.465	6688
820.605	6650
820.746	6627
820.886	6486
821.026	6620
821.167	6703
821.307	6779
821.447	6726
821.588	6677
821.728	6616
821.868	6467
822.008	6285
822.149	6410
822.289	6323
822.429	6155
822.569	6091
822.709	6117
822.849	5954
822.99	5885
823.13	5874
823.27	5889
823.41	5748
823.55	5805
823.69	5802
823.83	5745
823.97	5699
824.11	5554
824.25	5455
824.389	5535
824.529	5589
824.669	5516
824.809	5604
824.949	5634
825.089	5577
825.228	5535
825.368	5398
825.508	5341
825.648	5425
825.787	5402
825.927	5383
826.067	5303
826.206	5277
826.346	5360
826.485	5372
826.625	5364
826.765	5585
826.904	5501
827.044	5231
827.183	5174
827.323	5113
827.462	5265
827.601	5124
827.741	5166
827.88	5254
828.02	5113
828.159	5223
828.298	5315
828.437	5330
828.577	5246
828.716	5486
828.855	5326
828.994	5162
829.134	5155
829.273	5147
829.412	5151
829.551	5159
829.69	5170
829.829	5193
829.968	5417
830.107	5239
830.246	5269
830.385	5159
830.524	5121
830.663	5056
830.802	4976
830.941	4873
831.08	4862
831.219	4972
831.357	4987
831.496	5132
831.635	4942
831.774	4816
831.913	4847
832.051	4755
832.19	4694
832.329	4847
832.467	4702
832.606	4702
832.744	4672
832.883	4668
833.022	4717
833.16	4774
833.299	4786
833.437	4828
833.576	4847
833.714	4877
833.852	4866
833.991	4873
834.129	4923
834.267	4934
834.406	4946
834.544	4999
834.682	4923
834.821	4949
834.959	5109
835.097	4965
835.235	5124
835.373	5128
835.511	5052
835.65	5041
835.788	5029
835.926	4961
836.064	4927
836.202	4949
836.34	5162
836.478	5151
836.615	5071
836.753	5231
836.891	5288
837.029	5280
837.167	5151
837.305	5151
837.443	5143
837.58	5094
837.718	5185
837.856	5166
837.993	5147
838.131	5223
838.269	5193
838.406	5273
838.544	5178
838.681	5033
838.819	4972
838.956	4870
839.094	4900
839.231	4946
839.369	5090
839.506	5318
839.643	5216
839.781	5064
839.918	4984
840.055	5151
840.193	5067
840.33	5086
840.467	5128
840.604	5162
840.742	5410
840.879	5083
841.016	5067
841.153	5155
841.29	5353
841.427	5307
841.564	5273
841.701	5299
841.838	5242
841.975	5254
842.112	5261
842.249	5159
842.385	5151
842.522	5311
842.659	5162
842.796	5128
842.933	5208
843.069	5155
843.206	5124
843.343	5261
843.479	5170
843.616	5261
843.752	5025
843.889	4987
844.025	5117
844.162	4995
844.298	5178
844.435	5048
844.571	5045
844.708	5235
844.844	5292
844.98	5341
845.117	5296
845.253	5143
845.389	5060
845.525	5178
845.661	5067
845.798	5041
845.934	5113
846.07	5045
846.206	5143
846.342	5269
846.478	5159
846.614	5003
846.75	4927
846.886	4953
847.022	5090
847.158	5056
847.294	5018
847.429	5113
847.565	5060
847.701	5315
847.837	4839
847.972	4793
848.108	4957
848.244	4938
848.379	4736
848.515	4740
848.65	4740
848.786	4729
848.921	4759
849.057	4866
849.192	4870
849.328	4805
849.463	4858
849.598	4763
849.734	4733
849.869	4656
850.004	4599
850.14	4637
850.275	4626
850.41	4512
850.545	4603
850.68	4565
850.815	4653
850.95	4603
851.085	4877
851.22	4736
851.355	4675
851.49	4607
851.625	4622
851.76	4611
851.895	4554
852.03	4485
852.165	4592
852.299	4710
852.434	4763
852.569	4748
852.703	4752
852.838	4797
852.973	4919
853.107	4892
853.242	4740
853.376	4687
853.511	4485
853.645	4641
853.78	4763
853.914	4710
854.048	4656
854.183	4637
854.317	4622
854.451	4881
854.585	4710
854.72	4653
854.854	4714
854.988	4554
855.122	4618
855.256	4538
855.39	4618
855.524	4786
855.658	4698
855.792	4710
855.926	4698
856.06	4755
856.194	4790
856.327	4653
856.461	4626
856.595	4603
856.729	4615
856.862	4752
856.996	4752
857.13	4687
857.263	4733
857.397	4835
857.53	4668
857.664	4778
857.797	4752
857.931	4771
858.064	4714
858.197	4736
858.331	4664
858.464	4546
858.597	4504
858.731	4561
858.864	4675
858.997	4634
859.13	4683
859.263	4649
859.396	4691
859.529	4554
859.662	4580
859.795	4516
859.928	4637
860.061	4771
860.194	4763
860.327	4656
860.46	4550
860.592	4744
860.725	4721
860.858	4702
860.99	4618
861.123	4459
861.256	4538
861.388	4588
861.521	5322
861.653	4455
861.786	4443
861.918	4474
862.05	4512
862.183	4523
862.315	4588
862.447	4668
862.58	4569
862.712	4432
862.844	4344
862.976	4455
863.108	4421
863.24	4752
863.372	4356
863.504	4409
863.636	4421
863.768	4493
863.9	4462
864.032	4352
864.164	4409
864.296	4493
864.428	4577
864.559	4573
864.691	4550
864.823	4512
864.954	4516
865.086	4512
865.217	4470
865.349	4432
865.48	4470
865.612	4489
865.743	4596
865.875	4443
866.006	4394
866.137	4474
866.269	4409
866.4	4398
866.531	4443
866.662	4360
866.793	4379
866.924	4337
867.055	4424
867.186	4409
867.317	4413
867.448	4341
867.579	4367
867.71	4375
867.841	4371
867.972	4462
868.103	4421
868.233	4424
868.364	4474
868.495	4485
868.625	4706
868.756	4725
868.886	4531
869.017	4634
869.147	4752
869.278	4736
869.408	4618
869.539	4653
869.669	4687
869.799	4588
869.929	4714
870.06	4706
870.19	4938
870.32	4850
870.45	4972
870.58	5003
870.71	5064
870.84	5052
870.97	4953
871.1	4942
871.23	5105
871.36	5143
871.489	4946
871.619	5048
871.749	5064
871.879	5109
872.008	5185
872.138	5014
872.267	4957
872.397	4843
872.526	4828
872.656	4733
872.785	4854
872.915	4949
873.044	4999
873.173	4919
873.303	4965
873.432	4900
873.561	4953
873.69	4885
873.819	4847
873.948	4892
874.077	4809
874.206	4740
874.335	4797
874.464	4919
874.593	5041
874.722	4911
874.851	5075
874.979	5029
875.108	5018
875.237	4885
875.365	4881
875.494	4889
875.623	4972
875.751	4839
875.88	4915
876.008	4930
876.136	5056
876.265	5174
876.393	5372
876.521	5220
876.65	5223
876.778	5128
876.906	5064
877.034	5010
877.162	5010
877.29	4972
877.418	5037
877.546	5033
877.674	5045
877.802	4999
877.93	5003
878.058	4919
878.185	4862
878.313	4972
878.441	4965
878.568	4816
878.696	4885
878.824	4991
878.951	4976
879.079	5090
879.206	5277
879.333	5056
879.461	4984
879.588	5041
879.715	5075
879.842	5193
879.97	4976
880.097	4782
880.224	4710
880.351	4793
880.478	4835
880.605	4752
880.732	4767
880.859	5075
880.986	4881
881.112	4885
881.239	4759
881.366	4630
881.493	4577
881.619	4573
881.746	4626
881.872	4645
881.999	4618
882.125	4694
882.252	4774
882.378	4847
882.505	4980
882.631	4809
882.757	4691
882.883	4721
883.01	4714
883.136	4653
883.262	4558
883.388	4637
883.514	4809
883.64	4870
883.766	4782
883.892	4645
884.018	4740
884.143	4900
884.269	5003
884.395	4668
884.52	4607
884.646	4649
884.772	4565
884.897	4523
885.023	4641
885.148	4793
885.274	4858
885.399	4782
885.524	4668
885.65	4660
885.775	4767
885.9	4702
886.025	4850
886.15	4790
886.275	4702
886.4	4653
886.525	4714
886.65	4630
886.775	4694
886.9	4915
887.025	5033
887.149	4805
887.274	4668
887.399	4603
887.523	4634
887.648	4611
887.773	4592
887.897	4763
888.021	4778
888.146	4637
888.27	4786
888.395	4915
888.519	4790
888.643	4816
888.767	4850
888.891	4668
889.015	4611
889.139	4649
889.263	4596
889.387	4759
889.511	4862
889.635	4755
889.759	4618
889.883	4554
890.006	4725
890.13	4801
890.254	4618
890.377	4679
890.501	4516
890.624	4500
890.748	4615
890.871	4546
890.995	4413
891.118	4398
891.241	4500
891.364	4546
891.488	4599
891.611	4451
891.734	4538
891.857	4577
891.98	4516
892.103	4668
892.226	4584
892.349	4455
892.471	4424
892.594	4527
892.717	4573
892.839	4561
892.962	4573
893.085	4664
893.207	4558
893.33	4481
893.452	4504
893.575	4615
893.697	4527
893.819	4809
893.941	4778
894.064	4759
894.186	4527
894.308	4561
894.43	4736
894.552	4790
894.674	4782
894.796	4550
894.918	4573
895.04	4558
895.161	4702
895.283	4675
895.405	4592
895.526	4615
895.648	4672
895.769	4656
895.891	4748
896.012	4755
896.134	4683
896.255	4641
896.376	4592
896.498	4577
896.619	4702
896.74	4618
896.861	4645
896.982	4877
897.103	5041
897.224	4805
897.345	4721
897.466	4656
897.587	4702
897.708	4835
897.828	4786
897.949	4622
898.07	4550
898.19	4615
898.311	4793
898.431	4645
898.552	4691
898.672	4809
898.792	4816
898.913	4733
899.033	4588
899.153	4451
899.273	4405
899.393	4481
899.513	4497
899.633	4500
899.753	4531
899.873	4516
899.993	4603
900.113	4519
900.232	4603
900.352	4535
900.472	4466
900.591	4352
900.711	4516
900.83	4405
900.95	4546
901.069	4702
901.189	4546
901.308	4314
901.427	4333
901.546	4352
901.665	4447
901.784	4432
901.904	4428
902.023	4306
902.141	4166
902.26	4177
902.379	4333
902.498	4257
902.617	4238
902.735	4405
902.854	4390
902.973	4333
903.091	4261
903.21	4230
903.328	4284
903.446	4295
903.565	4257
903.683	4383
903.801	4322
903.919	4383
904.038	4417
904.156	4291
904.274	4375
904.392	4383
904.51	4383
904.627	4500
904.745	4573
904.863	4592
904.981	4341
905.098	4322
905.216	4333
905.334	4428
905.451	4436
905.569	4413
905.686	4565
905.803	4561
905.921	4466
906.038	4516
906.155	4497
906.272	4383
906.389	4462
906.506	4344
906.623	4363
906.74	4405
906.857	4310
906.974	4386
907.091	4538
907.208	4645
907.324	4588
907.441	4500
907.557	4344
907.674	4352
907.79	4314
907.907	4375
908.023	4523
908.139	4497
908.256	4424
908.372	4459
908.488	4386
908.604	4325
908.72	4318
908.836	4394
908.952	4352
909.068	4409
909.184	4584
909.3	4451
909.415	4596
909.531	4546
909.647	4348
909.762	4375
909.878	4325
909.993	4443
910.108	4394
910.224	4421
910.339	4443
910.454	4337
910.57	4360
910.685	4253
910.8	4618
910.915	4588
911.03	4455
911.145	4303
911.259	4280
911.374	4341
911.489	4306
911.604	4284
911.718	4169
911.833	4211
911.947	4101
912.062	4025
912.176	4234
912.291	4230
912.405	4215
912.519	4504
912.633	4531
912.748	4352
912.862	4329
912.976	4215
913.09	4105
913.204	4211
913.318	4249
913.431	4348
913.545	4341
913.659	4417
913.772	4352
913.886	4257
914	4234
914.113	4333
914.226	4428
914.34	4379
914.453	4238
914.566	4459
914.68	4325
914.793	4291
914.906	4139
915.019	4105
915.132	4112
915.245	4177
915.358	4227
915.47	4219
915.583	4272
915.696	4333
915.809	4409
915.921	4443
916.034	4265
916.146	4268
916.259	4158
916.371	4383
916.483	4360
916.595	4261
916.708	4329
916.82	4318
916.932	4314
917.044	4352
917.156	4314
917.268	4230
917.38	4291
917.491	4295
917.603	4303
917.715	4367
917.826	4402
917.938	4379
918.049	4215
918.161	4356
918.272	4573
918.384	4508
918.495	4417
918.606	4280
918.717	4215
918.828	4371
918.939	4341
919.05	4249
919.161	4291
919.272	4150
919.383	4246
919.494	4478
919.604	4630
919.715	4493
919.826	4405
919.936	4405
920.047	4462
920.157	4462
920.267	4668
920.378	4485
920.488	4523
920.598	4683
920.708	4854
920.818	4714
920.928	4752
921.038	4965
921.148	4946
921.258	4664
921.368	4531
921.477	4485
921.587	4428
921.697	4398
921.806	4550
921.916	4466
922.025	4238
922.134	4246
922.244	4238
922.353	4386
922.462	4162
922.571	4112
922.68	4006
922.789	3968
922.898	4025
923.007	3998
923.116	4090
923.224	4055
923.333	4101
923.442	4010
923.55	3994
923.659	4036
923.767	4036
923.876	3994
923.984	4051
924.092	3991
924.201	4101
924.309	4112
924.417	4128
924.525	4086
924.633	4097
924.741	4854
924.849	3945
924.956	4192
925.064	3968
925.172	3854
925.279	3968
925.387	4063
925.494	4055
925.602	4185
925.709	4192
925.816	4044
925.924	4124
926.031	4219
926.138	4211
926.245	4196
926.352	4074
926.459	4272
926.566	4348
926.673	4128
926.779	4112
926.886	4097
926.993	3964
927.099	3953
927.206	3960
927.312	3918
927.419	4093
927.525	4036
927.631	4071
927.737	3979
927.843	3896
927.95	3819
928.056	3911
928.162	3991
928.267	4082
928.373	4687
928.479	4124
928.585	3812
928.69	3998
928.796	4063
928.901	3960
929.007	3831
929.112	3941
929.218	3953
929.323	3915
929.428	3915
929.533	4116
929.638	3899
929.743	3930
929.848	4040
929.953	3983
930.058	3907
930.163	3751
930.267	3842
930.372	3956
930.477	3808
930.581	4063
930.685	3968
930.79	3823
930.894	3865
930.998	3884
931.103	3998
931.207	3652
931.311	3663
931.415	3675
931.519	3523
931.623	3561
