Data from test_V78500241_61.txt Node
Date: Fri Mar 25 16:49:25 CST 2022
User: usil
Spectrometer: V785-0024
Trigger mode: 0
Integration Time (sec): 4.000000E-1
Scans to average: 1
Nonlinearity correction enabled: false
Boxcar width: 0
Storing dark spectrum: false
XAxis mode: Wavelengths
Number of Pixels in Spectrum: 1024
>>>>>Begin Spectral Data<<<<<
801.071	8081
801.214	8054
801.356	7955
801.499	7902
801.641	7837
801.783	7868
801.926	7997
802.068	7963
802.211	8043
802.353	8088
802.496	7963
802.638	8043
802.78	7989
802.923	7944
803.065	7925
803.208	7913
803.35	8001
803.492	8107
803.635	8240
803.777	7932
803.919	8145
804.061	8412
804.204	8267
804.346	8130
804.488	7989
804.63	8138
804.773	7978
804.915	8096
805.057	8355
805.199	8157
805.341	8202
805.483	8286
805.626	8180
805.768	8191
805.91	8229
806.052	8191
806.194	8164
806.336	8366
806.478	8153
806.62	8187
806.762	8267
806.904	8298
807.046	8465
807.188	8294
807.33	8301
807.472	8419
807.614	8221
807.756	8214
807.898	8081
808.04	7944
808.182	7955
808.324	7909
808.465	7871
808.607	8016
808.749	8096
808.891	8221
809.033	8294
809.174	8244
809.316	8077
809.458	8058
809.6	8001
809.741	8065
809.883	8016
810.025	8073
810.166	8062
810.308	8058
810.45	8069
810.591	7894
810.733	7818
810.875	7708
811.016	7525
811.158	7510
811.299	7651
811.441	7746
811.582	7700
811.724	7674
811.865	7586
812.007	7674
812.148	7670
812.29	7670
812.431	7784
812.573	7970
812.714	8024
812.855	8123
812.997	8275
813.138	8328
813.279	8275
813.421	8126
813.562	8020
813.703	7947
813.845	7814
813.986	7487
814.127	7305
814.268	7244
814.41	7278
814.551	7206
814.692	7293
814.833	7133
814.974	7160
815.115	7202
815.256	7050
815.397	6951
815.539	6966
815.68	6825
815.821	6810
815.962	6920
816.103	6901
816.244	6677
816.385	6623
816.526	6688
816.666	6536
816.807	6372
816.948	6426
817.089	6475
817.23	6467
817.371	6467
817.512	6437
817.653	6414
817.793	6380
817.934	6445
818.075	6528
818.216	6445
818.356	6448
818.497	6331
818.638	6186
818.778	6197
818.919	6232
819.06	6251
819.2	6327
819.341	6395
819.481	6445
819.622	6604
819.762	6795
819.903	6715
820.043	6654
820.184	6627
820.324	6616
820.465	6719
820.605	6749
820.746	6631
820.886	6536
821.026	6707
821.167	6779
821.307	6844
821.447	6768
821.588	6700
821.728	6551
821.868	6517
822.008	6300
822.149	6460
822.289	6395
822.429	6235
822.569	6110
822.709	6133
822.849	5931
822.99	5980
823.13	5939
823.27	5946
823.41	5836
823.55	5832
823.69	5813
823.83	5821
823.97	5703
824.11	5577
824.25	5551
824.389	5581
824.529	5627
824.669	5535
824.809	5707
824.949	5741
825.089	5710
825.228	5608
825.368	5376
825.508	5410
825.648	5395
825.787	5383
825.927	5436
826.067	5330
826.206	5349
826.346	5421
826.485	5429
826.625	5440
826.765	5558
826.904	5520
827.044	5277
827.183	5246
827.323	5162
827.462	5277
827.601	5208
827.741	5284
827.88	5227
828.02	5178
828.159	5288
828.298	5353
828.437	5417
828.577	5307
828.716	5520
828.855	5349
828.994	5216
829.134	5223
829.273	5231
829.412	5143
829.551	5166
829.69	5193
829.829	5299
829.968	5387
830.107	5349
830.246	5334
830.385	5212
830.524	5147
830.663	5124
830.802	4999
830.941	4949
831.08	4957
831.219	4980
831.357	5052
831.496	5185
831.635	4957
831.774	4877
831.913	4850
832.051	4706
832.19	4782
832.329	4858
832.467	4725
832.606	4649
832.744	4786
832.883	4748
833.022	4786
833.16	4850
833.299	4831
833.437	4858
833.576	4839
833.714	4885
833.852	4923
833.991	4911
834.129	5033
834.267	4919
834.406	4938
834.544	4984
834.682	5025
834.821	4938
834.959	5181
835.097	5022
835.235	5174
835.373	5075
835.511	5166
835.65	5037
835.788	5056
835.926	4930
836.064	4923
836.202	4908
836.34	5204
836.478	5277
836.615	5159
836.753	5277
836.891	5318
837.029	5337
837.167	5216
837.305	5193
837.443	5178
837.58	5159
837.718	5277
837.856	5208
837.993	5170
838.131	5235
838.269	5201
838.406	5273
838.544	5261
838.681	5071
838.819	5075
838.956	4953
839.094	4892
839.231	5018
839.369	5086
839.506	5425
839.643	5318
839.781	5079
839.918	5041
840.055	5128
840.193	5128
840.33	5155
840.467	5151
840.604	5220
840.742	5448
840.879	5105
841.016	5102
841.153	5147
841.29	5368
841.427	5387
841.564	5322
841.701	5360
841.838	5311
841.975	5269
842.112	5318
842.249	5151
842.385	5136
842.522	5372
842.659	5189
842.796	5174
842.933	5185
843.069	5208
843.206	5189
843.343	5372
843.479	5284
843.616	5239
843.752	5056
843.889	5052
844.025	5265
844.162	5056
844.298	5227
844.435	5140
844.571	5018
844.708	5277
844.844	5315
844.98	5398
845.117	5311
845.253	5181
845.389	5064
845.525	5212
845.661	5185
845.798	5022
845.934	5178
846.07	5098
846.206	5269
846.342	5322
846.478	5212
846.614	5041
846.75	4984
846.886	5025
847.022	5159
847.158	5052
847.294	5083
847.429	5090
847.565	5041
847.701	5383
847.837	4873
847.972	4786
848.108	5029
848.244	4938
848.379	4847
848.515	4755
848.65	4736
848.786	4755
848.921	4835
849.057	4930
849.192	4953
849.328	4828
849.463	4843
849.598	4885
849.734	4744
849.869	4744
850.004	4615
850.14	4649
850.275	4656
850.41	4580
850.545	4596
850.68	4649
850.815	4691
850.95	4656
851.085	4900
851.22	4717
851.355	4683
851.49	4687
851.625	4672
851.76	4664
851.895	4542
852.03	4577
852.165	4668
852.299	4774
852.434	4835
852.569	4767
852.703	4771
852.838	4896
852.973	4930
853.107	4923
853.242	4774
853.376	4714
853.511	4596
853.645	4653
853.78	4911
853.914	4702
854.048	4683
854.183	4679
854.317	4687
854.451	4877
854.585	4687
854.72	4687
854.854	4793
854.988	4626
855.122	4641
855.256	4538
855.39	4729
855.524	4824
855.658	4752
855.792	4725
855.926	4736
856.06	4782
856.194	4870
856.327	4748
856.461	4702
856.595	4584
856.729	4672
856.862	4797
856.996	4721
857.13	4767
857.263	4797
857.397	4812
857.53	4694
857.664	4721
857.797	4797
857.931	4816
858.064	4691
858.197	4763
858.331	4675
858.464	4660
858.597	4588
858.731	4675
858.864	4687
858.997	4622
859.13	4672
859.263	4717
859.396	4710
859.529	4683
859.662	4611
859.795	4580
859.928	4668
860.061	4801
860.194	4744
860.327	4691
860.46	4584
860.592	4759
860.725	4748
860.858	4755
860.99	4630
861.123	4531
861.256	4596
861.388	4634
861.521	5269
861.653	4493
861.786	4432
861.918	4516
862.05	4577
862.183	4603
862.315	4675
862.447	4656
862.58	4637
862.712	4489
862.844	4337
862.976	4519
863.108	4474
863.24	4980
863.372	4394
863.504	4413
863.636	4443
863.768	4478
863.9	4424
864.032	4402
864.164	4428
864.296	4489
864.428	4599
864.559	4599
864.691	4584
864.823	4531
864.954	4523
865.086	4538
865.217	4459
865.349	4443
865.48	4485
865.612	4519
865.743	4656
865.875	4527
866.006	4462
866.137	4470
866.269	4462
866.4	4459
866.531	4451
866.662	4413
866.793	4432
866.924	4466
867.055	4531
867.186	4489
867.317	4443
867.448	4424
867.579	4459
867.71	4459
867.841	4394
867.972	4462
868.103	4500
868.233	4500
868.364	4481
868.495	4531
868.625	4710
868.756	4797
868.886	4611
869.017	4645
869.147	4805
869.278	4736
869.408	4729
869.539	4656
869.669	4725
869.799	4618
869.929	4809
870.06	4774
870.19	4968
870.32	4908
870.45	4957
870.58	5018
870.71	5105
870.84	5105
870.97	4991
871.1	4961
871.23	5174
871.36	5159
871.489	5064
871.619	5117
871.749	5124
871.879	5166
872.008	5189
872.138	5102
872.267	4961
872.397	4850
872.526	4847
872.656	4755
872.785	4847
872.915	4957
873.044	5048
873.173	4949
873.303	4995
873.432	4995
873.561	5014
873.69	4881
873.819	4881
873.948	4927
874.077	4900
874.206	4786
874.335	4805
874.464	4919
874.593	5094
874.722	5022
874.851	5155
874.979	5067
875.108	5071
875.237	4942
875.365	4904
875.494	4923
875.623	4991
875.751	4850
875.88	4923
876.008	4972
876.136	5086
876.265	5231
876.393	5387
876.521	5292
876.65	5258
876.778	5201
876.906	5105
877.034	5033
877.162	5033
877.29	5041
877.418	5090
877.546	5121
877.674	5075
877.802	5090
877.93	5052
878.058	5022
878.185	4873
878.313	4987
878.441	4987
878.568	4831
878.696	4892
878.824	4961
878.951	5018
879.079	5162
879.206	5341
879.333	5086
879.461	5048
879.588	5025
879.715	5128
879.842	5299
879.97	5037
880.097	4801
880.224	4801
880.351	4816
880.478	4828
880.605	4843
880.732	4793
880.859	5140
880.986	4904
881.112	4938
881.239	4839
881.366	4698
881.493	4645
881.619	4641
881.746	4679
881.872	4660
881.999	4660
882.125	4706
882.252	4828
882.378	4892
882.505	5025
882.631	4816
882.757	4710
882.883	4786
883.01	4797
883.136	4679
883.262	4653
883.388	4660
883.514	4831
883.64	4881
883.766	4862
883.892	4679
884.018	4816
884.143	4930
884.269	5010
884.395	4679
884.52	4668
884.646	4691
884.772	4653
884.897	4569
885.023	4649
885.148	4778
885.274	4911
885.399	4828
885.524	4786
885.65	4717
885.775	4797
885.9	4717
886.025	4885
886.15	4847
886.275	4744
886.4	4721
886.525	4782
886.65	4721
886.775	4721
886.9	4965
887.025	5045
887.149	4797
887.274	4687
887.399	4573
887.523	4622
887.648	4577
887.773	4565
887.897	4797
888.021	4778
888.146	4698
888.27	4835
888.395	4904
888.519	4816
888.643	4854
888.767	4892
888.891	4763
889.015	4645
889.139	4694
889.263	4630
889.387	4850
889.511	4919
889.635	4801
889.759	4683
889.883	4691
890.006	4710
890.13	4911
890.254	4618
890.377	4717
890.501	4592
890.624	4611
890.748	4698
890.871	4554
890.995	4459
891.118	4436
891.241	4546
891.364	4569
891.488	4672
891.611	4451
891.734	4603
891.857	4596
891.98	4603
892.103	4672
892.226	4630
892.349	4577
892.471	4447
892.594	4565
892.717	4656
892.839	4611
892.962	4634
893.085	4698
893.207	4660
893.33	4466
893.452	4558
893.575	4721
893.697	4561
893.819	4820
893.941	4885
894.064	4797
894.186	4615
894.308	4554
894.43	4793
894.552	4900
894.674	4782
894.796	4596
894.918	4645
895.04	4626
895.161	4714
895.283	4717
895.405	4626
895.526	4649
895.648	4702
895.769	4744
895.891	4702
896.012	4733
896.134	4736
896.255	4668
896.376	4641
896.498	4668
896.619	4675
896.74	4656
896.861	4729
896.982	4976
897.103	5151
897.224	4847
897.345	4782
897.466	4721
897.587	4740
897.708	4854
897.828	4778
897.949	4702
898.07	4596
898.19	4702
898.311	4904
898.431	4706
898.552	4717
898.672	4881
898.792	4854
898.913	4774
899.033	4641
899.153	4523
899.273	4455
899.393	4497
899.513	4542
899.633	4561
899.753	4554
899.873	4558
899.993	4611
900.113	4634
900.232	4626
900.352	4565
900.472	4554
900.591	4459
900.711	4516
900.83	4443
900.95	4626
901.069	4717
901.189	4554
901.308	4402
901.427	4356
901.546	4424
901.665	4508
901.784	4554
901.904	4390
902.023	4337
902.141	4188
902.26	4219
902.379	4318
902.498	4249
902.617	4268
902.735	4409
902.854	4443
902.973	4363
903.091	4249
903.21	4261
903.328	4314
903.446	4337
903.565	4333
903.683	4421
903.801	4344
903.919	4428
904.038	4516
904.156	4333
904.274	4519
904.392	4451
904.51	4462
904.627	4519
904.745	4599
904.863	4653
904.981	4409
905.098	4333
905.216	4409
905.334	4478
905.451	4447
905.569	4485
905.686	4634
905.803	4542
905.921	4459
906.038	4550
906.155	4523
906.272	4459
906.389	4519
906.506	4348
906.623	4348
906.74	4379
906.857	4325
906.974	4386
907.091	4584
907.208	4694
907.324	4634
907.441	4523
907.557	4348
907.674	4379
907.79	4348
907.907	4417
908.023	4481
908.139	4516
908.256	4459
908.372	4493
908.488	4493
908.604	4375
908.72	4337
908.836	4428
908.952	4394
909.068	4440
909.184	4618
909.3	4493
909.415	4603
909.531	4546
909.647	4402
909.762	4443
909.878	4386
909.993	4451
910.108	4478
910.224	4500
910.339	4500
910.454	4432
910.57	4394
910.685	4303
910.8	4702
910.915	4637
911.03	4573
911.145	4367
911.259	4402
911.374	4402
911.489	4405
911.604	4344
911.718	4211
911.833	4261
911.947	4093
912.062	4116
912.176	4230
912.291	4280
912.405	4246
912.519	4512
912.633	4588
912.748	4512
912.862	4329
912.976	4227
913.09	4147
913.204	4223
913.318	4299
913.431	4440
913.545	4417
913.659	4535
913.772	4447
913.886	4261
914	4265
914.113	4424
914.226	4432
914.34	4436
914.453	4280
914.566	4405
914.68	4379
914.793	4375
914.906	4173
915.019	4185
915.132	4124
915.245	4234
915.358	4204
915.47	4234
915.583	4325
915.696	4295
915.809	4402
915.921	4500
916.034	4287
916.146	4287
916.259	4249
916.371	4386
916.483	4360
916.595	4310
916.708	4383
916.82	4379
916.932	4360
917.044	4329
917.156	4363
917.268	4310
917.38	4325
917.491	4303
917.603	4390
917.715	4409
917.826	4424
917.938	4352
918.049	4276
918.161	4402
918.272	4527
918.384	4626
918.495	4440
918.606	4375
918.717	4314
918.828	4432
918.939	4398
919.05	4257
919.161	4356
919.272	4143
919.383	4234
919.494	4527
919.604	4683
919.715	4481
919.826	4417
919.936	4432
920.047	4561
920.157	4504
920.267	4736
920.378	4561
920.488	4554
920.598	4759
920.708	4946
920.818	4809
920.928	4793
921.038	4984
921.148	4957
921.258	4653
921.368	4592
921.477	4523
921.587	4478
921.697	4367
921.806	4580
921.916	4440
922.025	4306
922.134	4306
922.244	4249
922.353	4405
922.462	4192
922.571	4116
922.68	4006
922.789	4006
922.898	4059
923.007	4017
923.116	4139
923.224	4120
923.333	4109
923.442	4013
923.55	4067
923.659	4044
923.767	4112
923.876	4048
923.984	4181
924.092	3998
924.201	4128
924.309	4082
924.417	4173
924.525	4063
924.633	4120
924.741	5041
924.849	3915
924.956	4177
925.064	3987
925.172	3918
925.279	3949
925.387	4112
925.494	4067
925.602	4215
925.709	4223
925.816	4063
925.924	4188
926.031	4268
926.138	4173
926.245	4200
926.352	4120
926.459	4272
926.566	4329
926.673	4158
926.779	4112
926.886	4120
926.993	4002
927.099	4010
927.206	3953
927.312	3979
927.419	4101
927.525	4044
927.631	4116
927.737	3991
927.843	3994
927.95	3861
928.056	4013
928.162	3987
928.267	4032
928.373	4691
928.479	4166
928.585	3907
928.69	4086
928.796	4131
928.901	4010
929.007	3861
929.112	4055
929.218	4029
929.323	3987
929.428	3968
929.533	4090
929.638	3915
929.743	4051
929.848	4090
929.953	4006
930.058	3975
930.163	3797
930.267	3896
930.372	3983
930.477	3762
930.581	4147
930.685	3979
930.79	3857
930.894	3865
930.998	3888
931.103	4078
931.207	3759
931.311	3698
931.415	3728
931.519	3549
931.623	3580
