Data from test_V78500241_1688.txt Node
Date: Fri Mar 25 17:00:44 CST 2022
User: usil
Spectrometer: V785-0024
Trigger mode: 0
Integration Time (sec): 4.000000E-1
Scans to average: 1
Nonlinearity correction enabled: false
Boxcar width: 0
Storing dark spectrum: false
XAxis mode: Wavelengths
Number of Pixels in Spectrum: 1024
>>>>>Begin Spectral Data<<<<<
801.071	7986
801.214	8005
801.356	7864
801.499	7890
801.641	7731
801.783	7822
801.926	7955
802.068	7890
802.211	8016
802.353	7906
802.496	7841
802.638	7807
802.78	7894
802.923	7940
803.065	7841
803.208	7864
803.35	7959
803.492	8050
803.635	8111
803.777	7974
803.919	8145
804.061	8476
804.204	8134
804.346	7993
804.488	7940
804.63	8100
804.773	8024
804.915	8088
805.057	8290
805.199	8081
805.341	8130
805.483	8229
805.626	8180
805.768	8058
805.91	8191
806.052	8195
806.194	8046
806.336	8263
806.478	8012
806.62	8024
806.762	8107
806.904	8279
807.046	8499
807.188	8355
807.33	8248
807.472	8252
807.614	8180
807.756	8039
807.898	8039
808.04	7830
808.182	7856
808.324	7871
808.465	7906
808.607	8039
808.749	8100
808.891	8084
809.033	8301
809.174	8123
809.316	8016
809.458	7925
809.6	7986
809.741	8020
809.883	7978
810.025	8043
810.166	8027
810.308	8012
810.45	7970
810.591	7772
810.733	7693
810.875	7712
811.016	7525
811.158	7441
811.299	7616
811.441	7643
811.582	7655
811.724	7556
811.865	7552
812.007	7582
812.148	7567
812.29	7647
812.431	7712
812.573	7875
812.714	7925
812.855	8115
812.997	8214
813.138	8248
813.279	8191
813.421	8050
813.562	7932
813.703	7826
813.845	7712
813.986	7373
814.127	7194
814.268	7183
814.41	7190
814.551	7175
814.692	7217
814.833	7099
814.974	7110
815.115	7038
815.256	6951
815.397	6901
815.539	6966
815.68	6802
815.821	6749
815.962	6798
816.103	6798
816.244	6662
816.385	6589
816.526	6532
816.666	6483
816.807	6319
816.948	6456
817.089	6475
817.23	6448
817.371	6426
817.512	6338
817.653	6369
817.793	6334
817.934	6380
818.075	6513
818.216	6445
818.356	6391
818.497	6235
818.638	6117
818.778	6155
818.919	6190
819.06	6152
819.2	6308
819.341	6369
819.481	6399
819.622	6483
819.762	6730
819.903	6726
820.043	6612
820.184	6616
820.324	6574
820.465	6719
820.605	6757
820.746	6662
820.886	6525
821.026	6673
821.167	6757
821.307	6806
821.447	6798
821.588	6738
821.728	6650
821.868	6521
822.008	6331
822.149	6399
822.289	6380
822.429	6209
822.569	6114
822.709	6186
822.849	5942
822.99	5923
823.13	5908
823.27	5958
823.41	5817
823.55	5779
823.69	5805
823.83	5836
823.97	5703
824.11	5524
824.25	5528
824.389	5589
824.529	5570
824.669	5600
824.809	5665
824.949	5642
825.089	5604
825.228	5547
825.368	5410
825.508	5341
825.648	5334
825.787	5429
825.927	5414
826.067	5341
826.206	5318
826.346	5425
826.485	5421
826.625	5467
826.765	5547
826.904	5452
827.044	5299
827.183	5277
827.323	5155
827.462	5318
827.601	5181
827.741	5189
827.88	5269
828.02	5185
828.159	5235
828.298	5341
828.437	5417
828.577	5273
828.716	5471
828.855	5296
828.994	5220
829.134	5181
829.273	5140
829.412	5151
829.551	5159
829.69	5235
829.829	5227
829.968	5436
830.107	5280
830.246	5292
830.385	5208
830.524	5143
830.663	5124
830.802	5098
830.941	4976
831.08	4930
831.219	5010
831.357	4961
831.496	5143
831.635	4900
831.774	4847
831.913	4866
832.051	4759
832.19	4736
832.329	4904
832.467	4717
832.606	4675
832.744	4774
832.883	4752
833.022	4706
833.16	4820
833.299	4843
833.437	4839
833.576	4858
833.714	4908
833.852	4862
833.991	4904
834.129	4999
834.267	4995
834.406	4911
834.544	5045
834.682	4942
834.821	5018
834.959	5174
835.097	5006
835.235	5201
835.373	5113
835.511	5151
835.65	5033
835.788	5090
835.926	4866
836.064	4919
836.202	4915
836.34	5162
836.478	5239
836.615	5155
836.753	5231
836.891	5269
837.029	5284
837.167	5216
837.305	5193
837.443	5155
837.58	5174
837.718	5250
837.856	5239
837.993	5231
838.131	5265
838.269	5159
838.406	5201
838.544	5227
838.681	5079
838.819	5029
838.956	4908
839.094	4923
839.231	4965
839.369	5109
839.506	5474
839.643	5269
839.781	5102
839.918	5037
840.055	5075
840.193	5086
840.33	5098
840.467	5204
840.604	5189
840.742	5455
840.879	5056
841.016	5083
841.153	5143
841.29	5368
841.427	5360
841.564	5299
841.701	5368
841.838	5292
841.975	5231
842.112	5307
842.249	5208
842.385	5113
842.522	5341
842.659	5162
842.796	5193
842.933	5181
843.069	5181
843.206	5174
843.343	5322
843.479	5269
843.616	5299
843.752	5048
843.889	5003
844.025	5227
844.162	5025
844.298	5265
844.435	5102
844.571	5052
844.708	5166
844.844	5311
844.98	5364
845.117	5360
845.253	5155
845.389	5075
845.525	5227
845.661	5162
845.798	5045
845.934	5174
846.07	5102
846.206	5170
846.342	5330
846.478	5170
846.614	5022
846.75	5025
846.886	4934
847.022	5155
847.158	5033
847.294	5132
847.429	5162
847.565	5048
847.701	5322
847.837	4790
847.972	4809
848.108	5003
848.244	4930
848.379	4809
848.515	4763
848.65	4744
848.786	4771
848.921	4805
849.057	4892
849.192	4900
849.328	4805
849.463	4870
849.598	4858
849.734	4771
849.869	4714
850.004	4664
850.14	4675
850.275	4607
850.41	4558
850.545	4584
850.68	4626
850.815	4618
850.95	4675
851.085	4873
851.22	4740
851.355	4664
851.49	4653
851.625	4637
851.76	4710
851.895	4561
852.03	4523
852.165	4683
852.299	4736
852.434	4831
852.569	4736
852.703	4793
852.838	4812
852.973	4957
853.107	4911
853.242	4714
853.376	4691
853.511	4584
853.645	4626
853.78	4824
853.914	4744
854.048	4721
854.183	4668
854.317	4721
854.451	4881
854.585	4698
854.72	4660
854.854	4771
854.988	4630
855.122	4664
855.256	4569
855.39	4710
855.524	4790
855.658	4698
855.792	4729
855.926	4752
856.06	4752
856.194	4755
856.327	4729
856.461	4622
856.595	4645
856.729	4626
856.862	4774
856.996	4698
857.13	4782
857.263	4740
857.397	4831
857.53	4664
857.664	4790
857.797	4771
857.931	4866
858.064	4691
858.197	4774
858.331	4637
858.464	4645
858.597	4550
858.731	4634
858.864	4698
858.997	4672
859.13	4694
859.263	4717
859.396	4736
859.529	4618
859.662	4584
859.795	4523
859.928	4630
860.061	4809
860.194	4771
860.327	4634
860.46	4596
860.592	4771
860.725	4748
860.858	4721
860.99	4634
861.123	4519
861.256	4538
861.388	4645
861.521	5277
861.653	4500
861.786	4481
861.918	4500
862.05	4493
862.183	4565
862.315	4641
862.447	4706
862.58	4538
862.712	4363
862.844	4333
862.976	4527
863.108	4478
863.24	4957
863.372	4352
863.504	4413
863.636	4436
863.768	4462
863.9	4470
864.032	4379
864.164	4394
864.296	4470
864.428	4565
864.559	4519
864.691	4584
864.823	4558
864.954	4535
865.086	4538
865.217	4489
865.349	4409
865.48	4481
865.612	4535
865.743	4653
865.875	4470
866.006	4538
866.137	4527
866.269	4485
866.4	4470
866.531	4493
866.662	4383
866.793	4417
866.924	4474
867.055	4516
867.186	4459
867.317	4447
867.448	4390
867.579	4398
867.71	4428
867.841	4424
867.972	4462
868.103	4459
868.233	4447
868.364	4489
868.495	4440
868.625	4683
868.756	4744
868.886	4607
869.017	4641
869.147	4793
869.278	4778
869.408	4675
869.539	4664
869.669	4717
869.799	4672
869.929	4729
870.06	4778
870.19	4934
870.32	4915
870.45	4889
870.58	5075
870.71	5098
870.84	5124
870.97	4961
871.1	4911
871.23	5147
871.36	5162
871.489	5006
871.619	5117
871.749	5079
871.879	5140
872.008	5151
872.138	5060
872.267	5003
872.397	4858
872.526	4824
872.656	4702
872.785	4824
872.915	4938
873.044	5052
873.173	4923
873.303	4927
873.432	4984
873.561	4938
873.69	4930
873.819	4885
873.948	4930
874.077	4824
874.206	4752
874.335	4786
874.464	4900
874.593	5083
874.722	5025
874.851	5098
874.979	5041
875.108	5056
875.237	4938
875.365	4870
875.494	4866
875.623	4957
875.751	4790
875.88	4927
876.008	4957
876.136	5033
876.265	5208
876.393	5349
876.521	5250
876.65	5250
876.778	5162
876.906	5102
877.034	5056
877.162	5102
877.29	4976
877.418	5094
877.546	5048
877.674	5075
877.802	5079
877.93	5071
878.058	4919
878.185	4858
878.313	5014
878.441	4965
878.568	4793
878.696	4927
878.824	4961
878.951	4980
879.079	5185
879.206	5326
879.333	5102
879.461	4968
879.588	5014
879.715	5124
879.842	5227
879.97	4999
880.097	4809
880.224	4736
880.351	4828
880.478	4843
880.605	4820
880.732	4828
880.859	5140
880.986	4911
881.112	4900
881.239	4752
881.366	4714
881.493	4611
881.619	4599
881.746	4683
881.872	4694
881.999	4622
882.125	4687
882.252	4820
882.378	4835
882.505	5014
882.631	4805
882.757	4683
882.883	4733
883.01	4714
883.136	4687
883.262	4618
883.388	4641
883.514	4820
883.64	4896
883.766	4790
883.892	4702
884.018	4729
884.143	4908
884.269	4957
884.395	4637
884.52	4660
884.646	4649
884.772	4596
884.897	4523
885.023	4637
885.148	4786
885.274	4843
885.399	4809
885.524	4717
885.65	4694
885.775	4714
885.9	4717
886.025	4820
886.15	4767
886.275	4767
886.4	4668
886.525	4755
886.65	4759
886.775	4714
886.9	4877
887.025	5045
887.149	4812
887.274	4683
887.399	4554
887.523	4596
887.648	4569
887.773	4558
887.897	4812
888.021	4771
888.146	4744
888.27	4824
888.395	4900
888.519	4812
888.643	4786
888.767	4828
888.891	4675
889.015	4599
889.139	4645
889.263	4565
889.387	4744
889.511	4850
889.635	4816
889.759	4660
889.883	4622
890.006	4698
890.13	4816
890.254	4645
890.377	4733
890.501	4565
890.624	4523
890.748	4672
890.871	4546
890.995	4421
891.118	4383
891.241	4516
891.364	4542
891.488	4641
891.611	4527
891.734	4580
891.857	4645
891.98	4542
892.103	4645
892.226	4580
892.349	4538
892.471	4436
892.594	4561
892.717	4599
892.839	4542
892.962	4634
893.085	4645
893.207	4615
893.33	4459
893.452	4561
893.575	4733
893.697	4580
893.819	4801
893.941	4847
894.064	4763
894.186	4550
894.308	4588
894.43	4706
894.552	4797
894.674	4801
894.796	4535
894.918	4630
895.04	4523
895.161	4721
895.283	4675
895.405	4577
895.526	4596
895.648	4687
895.769	4755
895.891	4706
896.012	4763
896.134	4725
896.255	4698
896.376	4596
896.498	4580
896.619	4702
896.74	4630
896.861	4668
896.982	4930
897.103	5048
897.224	4797
897.345	4744
897.466	4664
897.587	4721
897.708	4889
897.828	4752
897.949	4683
898.07	4592
898.19	4653
898.311	4858
898.431	4714
898.552	4721
898.672	4835
898.792	4801
898.913	4763
899.033	4584
899.153	4523
899.273	4428
899.393	4451
899.513	4508
899.633	4527
899.753	4580
899.873	4481
899.993	4573
900.113	4535
900.232	4569
900.352	4538
900.472	4451
900.591	4367
900.711	4462
900.83	4512
900.95	4580
901.069	4675
901.189	4512
901.308	4379
901.427	4284
901.546	4363
901.665	4462
901.784	4497
901.904	4394
902.023	4325
902.141	4192
902.26	4207
902.379	4284
902.498	4253
902.617	4230
902.735	4402
902.854	4394
902.973	4341
903.091	4204
903.21	4204
903.328	4284
903.446	4284
903.565	4291
903.683	4325
903.801	4272
903.919	4409
904.038	4497
904.156	4299
904.274	4390
904.392	4428
904.51	4485
904.627	4474
904.745	4599
904.863	4656
904.981	4394
905.098	4265
905.216	4390
905.334	4409
905.451	4402
905.569	4424
905.686	4508
905.803	4565
905.921	4379
906.038	4558
906.155	4451
906.272	4440
906.389	4489
906.506	4322
906.623	4375
906.74	4432
906.857	4295
906.974	4367
907.091	4603
907.208	4653
907.324	4603
907.441	4508
907.557	4303
907.674	4383
907.79	4329
907.907	4405
908.023	4466
908.139	4459
908.256	4474
908.372	4493
908.488	4417
908.604	4341
908.72	4344
908.836	4394
908.952	4360
909.068	4432
909.184	4588
909.3	4455
909.415	4622
909.531	4596
909.647	4383
909.762	4363
909.878	4375
909.993	4459
910.108	4405
910.224	4447
910.339	4470
910.454	4386
910.57	4398
910.685	4322
910.8	4653
910.915	4596
911.03	4493
911.145	4337
911.259	4295
911.374	4367
911.489	4295
911.604	4261
911.718	4169
911.833	4246
911.947	4143
912.062	4032
912.176	4234
912.291	4284
912.405	4238
912.519	4497
912.633	4470
912.748	4348
912.862	4329
912.976	4207
913.09	4135
913.204	4169
913.318	4219
913.431	4333
913.545	4344
913.659	4470
913.772	4352
913.886	4242
914	4223
914.113	4409
914.226	4447
914.34	4386
914.453	4238
914.566	4409
914.68	4306
914.793	4360
914.906	4192
915.019	4063
915.132	4074
915.245	4207
915.358	4249
915.47	4181
915.583	4215
915.696	4299
915.809	4379
915.921	4405
916.034	4265
916.146	4261
916.259	4223
916.371	4386
916.483	4386
916.595	4276
916.708	4333
916.82	4333
916.932	4341
917.044	4337
917.156	4356
917.268	4204
917.38	4299
917.491	4299
917.603	4280
917.715	4409
917.826	4421
917.938	4325
918.049	4249
918.161	4402
918.272	4584
918.384	4565
918.495	4443
918.606	4268
918.717	4177
918.828	4344
918.939	4402
919.05	4265
919.161	4253
919.272	4120
919.383	4223
919.494	4436
919.604	4584
919.715	4402
919.826	4322
919.936	4440
920.047	4485
920.157	4424
920.267	4694
920.378	4554
920.488	4466
920.598	4740
920.708	4892
920.818	4786
920.928	4740
921.038	4911
921.148	4911
921.258	4664
921.368	4603
921.477	4512
921.587	4474
921.697	4348
921.806	4558
921.916	4386
922.025	4268
922.134	4242
922.244	4223
922.353	4325
922.462	4162
922.571	4139
922.68	3991
922.789	4002
922.898	4017
923.007	3956
923.116	4097
923.224	4067
923.333	4063
923.442	3994
923.55	3994
923.659	4029
923.767	4086
923.876	4010
923.984	4177
924.092	3998
924.201	4017
924.309	4063
924.417	4135
924.525	4010
924.633	4071
924.741	4850
924.849	3896
924.956	4124
925.064	3975
925.172	3918
925.279	3937
925.387	4036
925.494	4021
925.602	4185
925.709	4192
925.816	4013
925.924	4101
926.031	4196
926.138	4109
926.245	4215
926.352	4112
926.459	4257
926.566	4303
926.673	4124
926.779	4082
926.886	4082
926.993	3975
927.099	3956
927.206	3918
927.312	3934
927.419	4082
927.525	4025
927.631	4093
927.737	3991
927.843	3941
927.95	3831
928.056	3937
928.162	3987
928.267	4074
928.373	4641
928.479	4112
928.585	3876
928.69	4010
928.796	4093
928.901	3998
929.007	3835
929.112	4032
929.218	3968
929.323	3949
929.428	3941
929.533	4059
929.638	3937
929.743	3964
929.848	4055
929.953	4029
930.058	3930
930.163	3804
930.267	3831
930.372	3983
930.477	3789
930.581	4105
930.685	3972
930.79	3789
930.894	3854
930.998	3850
931.103	4051
931.207	3747
931.311	3705
931.415	3660
931.519	3500
931.623	3526
