Data from test_V78500241_2546.txt Node
Date: Fri Mar 25 17:06:42 CST 2022
User: usil
Spectrometer: V785-0024
Trigger mode: 0
Integration Time (sec): 4.000000E-1
Scans to average: 1
Nonlinearity correction enabled: false
Boxcar width: 0
Storing dark spectrum: false
XAxis mode: Wavelengths
Number of Pixels in Spectrum: 1024
>>>>>Begin Spectral Data<<<<<
801.071	7963
801.214	7989
801.356	7875
801.499	7845
801.641	7734
801.783	7826
801.926	7951
802.068	7955
802.211	7955
802.353	8005
802.496	7856
802.638	7841
802.78	7917
802.923	7898
803.065	7917
803.208	7860
803.35	7925
803.492	8084
803.635	8130
803.777	8058
803.919	8145
804.061	8419
804.204	8096
804.346	8054
804.488	8016
804.63	8157
804.773	8046
804.915	8024
805.057	8298
805.199	8157
805.341	8191
805.483	8256
805.626	8229
805.768	8218
805.91	8221
806.052	8180
806.194	8111
806.336	8248
806.478	8092
806.62	8054
806.762	8088
806.904	8263
807.046	8438
807.188	8377
807.33	8301
807.472	8290
807.614	8168
807.756	8145
807.898	8027
808.04	7898
808.182	7845
808.324	7845
808.465	7822
808.607	8069
808.749	8126
808.891	8183
809.033	8309
809.174	8202
809.316	8073
809.458	8039
809.6	8043
809.741	8050
809.883	8046
810.025	8142
810.166	8054
810.308	8081
810.45	7967
810.591	7849
810.733	7776
810.875	7628
811.016	7514
811.158	7491
811.299	7597
811.441	7704
811.582	7616
811.724	7525
811.865	7582
812.007	7590
812.148	7575
812.29	7639
812.431	7708
812.573	7944
812.714	7917
812.855	8126
812.997	8191
813.138	8229
813.279	8062
813.421	8054
813.562	8016
813.703	7803
813.845	7780
813.986	7460
814.127	7240
814.268	7179
814.41	7183
814.551	7129
814.692	7247
814.833	7129
814.974	7133
815.115	7118
815.256	6939
815.397	6897
815.539	6962
815.68	6814
815.821	6856
815.962	6871
816.103	6787
816.244	6730
816.385	6604
816.526	6662
816.666	6509
816.807	6258
816.948	6361
817.089	6475
817.23	6433
817.371	6388
817.512	6361
817.653	6350
817.793	6346
817.934	6422
818.075	6433
818.216	6376
818.356	6388
818.497	6254
818.638	6129
818.778	6117
818.919	6133
819.06	6194
819.2	6342
819.341	6338
819.481	6376
819.622	6578
819.762	6741
819.903	6764
820.043	6654
820.184	6642
820.324	6578
820.465	6703
820.605	6658
820.746	6684
820.886	6540
821.026	6715
821.167	6700
821.307	6802
821.447	6738
821.588	6749
821.728	6604
821.868	6498
822.008	6388
822.149	6426
822.289	6372
822.429	6155
822.569	6068
822.709	6136
822.849	5942
822.99	5923
823.13	5961
823.27	5920
823.41	5809
823.55	5863
823.69	5767
823.83	5767
823.97	5623
824.11	5543
824.25	5490
824.389	5570
824.529	5596
824.669	5516
824.809	5676
824.949	5668
825.089	5585
825.228	5539
825.368	5452
825.508	5318
825.648	5364
825.787	5379
825.927	5391
826.067	5303
826.206	5334
826.346	5383
826.485	5402
826.625	5425
826.765	5592
826.904	5528
827.044	5204
827.183	5212
827.323	5140
827.462	5197
827.601	5151
827.741	5155
827.88	5204
828.02	5105
828.159	5250
828.298	5315
828.437	5372
828.577	5311
828.716	5505
828.855	5261
828.994	5174
829.134	5174
829.273	5174
829.412	5147
829.551	5128
829.69	5223
829.829	5277
829.968	5322
830.107	5254
830.246	5261
830.385	5178
830.524	5140
830.663	5094
830.802	5006
830.941	4885
831.08	4877
831.219	4995
831.357	4949
831.496	5140
831.635	4930
831.774	4793
831.913	4896
832.051	4782
832.19	4786
832.329	4809
832.467	4664
832.606	4645
832.744	4767
832.883	4698
833.022	4691
833.16	4748
833.299	4752
833.437	4831
833.576	4850
833.714	4843
833.852	4900
833.991	4938
834.129	4946
834.267	4965
834.406	4930
834.544	4961
834.682	4953
834.821	4980
834.959	5128
835.097	5014
835.235	5140
835.373	5052
835.511	5121
835.65	5037
835.788	4991
835.926	4881
836.064	4881
836.202	4911
836.34	5178
836.478	5265
836.615	5121
836.753	5193
836.891	5261
837.029	5273
837.167	5162
837.305	5204
837.443	5083
837.58	5041
837.718	5231
837.856	5197
837.993	5181
838.131	5204
838.269	5208
838.406	5162
838.544	5166
838.681	5033
838.819	5018
838.956	4892
839.094	4862
839.231	4999
839.369	5124
839.506	5433
839.643	5242
839.781	5064
839.918	5010
840.055	5109
840.193	5147
840.33	5117
840.467	5109
840.604	5147
840.742	5444
840.879	5090
841.016	5083
841.153	5132
841.29	5391
841.427	5345
841.564	5318
841.701	5372
841.838	5296
841.975	5223
842.112	5273
842.249	5140
842.385	5067
842.522	5292
842.659	5170
842.796	5147
842.933	5155
843.069	5193
843.206	5208
843.343	5231
843.479	5242
843.616	5280
843.752	5045
843.889	5018
844.025	5254
844.162	4999
844.298	5189
844.435	5086
844.571	5048
844.708	5189
844.844	5315
844.98	5337
845.117	5284
845.253	5113
845.389	5056
845.525	5151
845.661	5086
845.798	5067
845.934	5109
846.07	5025
846.206	5193
846.342	5284
846.478	5140
846.614	5029
846.75	4946
846.886	4927
847.022	5117
847.158	5037
847.294	5083
847.429	5117
847.565	5045
847.701	5322
847.837	4828
847.972	4805
848.108	4927
848.244	4946
848.379	4805
848.515	4740
848.65	4691
848.786	4763
848.921	4748
849.057	4854
849.192	4915
849.328	4793
849.463	4812
849.598	4801
849.734	4733
849.869	4679
850.004	4641
850.14	4664
850.275	4611
850.41	4531
850.545	4573
850.68	4565
850.815	4664
850.95	4637
851.085	4824
851.22	4733
851.355	4611
851.49	4588
851.625	4588
851.76	4618
851.895	4542
852.03	4523
852.165	4672
852.299	4725
852.434	4774
852.569	4717
852.703	4805
852.838	4824
852.973	4930
853.107	4946
853.242	4729
853.376	4679
853.511	4573
853.645	4592
853.78	4824
853.914	4694
854.048	4672
854.183	4664
854.317	4710
854.451	4809
854.585	4668
854.72	4630
854.854	4763
854.988	4622
855.122	4584
855.256	4561
855.39	4622
855.524	4782
855.658	4656
855.792	4675
855.926	4721
856.06	4755
856.194	4839
856.327	4691
856.461	4622
856.595	4626
856.729	4592
856.862	4755
856.996	4694
857.13	4721
857.263	4786
857.397	4793
857.53	4622
857.664	4748
857.797	4748
857.931	4824
858.064	4653
858.197	4714
858.331	4656
858.464	4599
858.597	4542
858.731	4630
858.864	4637
858.997	4561
859.13	4679
859.263	4649
859.396	4706
859.529	4569
859.662	4599
859.795	4535
859.928	4653
860.061	4736
860.194	4816
860.327	4611
860.46	4550
860.592	4706
860.725	4694
860.858	4691
860.99	4546
861.123	4478
861.256	4584
861.388	4569
861.521	5178
861.653	4459
861.786	4432
861.918	4440
862.05	4478
862.183	4519
862.315	4580
862.447	4634
862.58	4550
862.712	4405
862.844	4322
862.976	4459
863.108	4455
863.24	4763
863.372	4325
863.504	4459
863.636	4402
863.768	4443
863.9	4455
864.032	4409
864.164	4428
864.296	4470
864.428	4538
864.559	4538
864.691	4584
864.823	4470
864.954	4485
865.086	4508
865.217	4443
865.349	4432
865.48	4451
865.612	4504
865.743	4618
865.875	4523
866.006	4417
866.137	4432
866.269	4417
866.4	4459
866.531	4459
866.662	4390
866.793	4379
866.924	4402
867.055	4489
867.186	4489
867.317	4394
867.448	4402
867.579	4363
867.71	4405
867.841	4352
867.972	4447
868.103	4447
868.233	4462
868.364	4462
868.495	4455
868.625	4691
868.756	4721
868.886	4558
869.017	4538
869.147	4805
869.278	4797
869.408	4687
869.539	4660
869.669	4653
869.799	4672
869.929	4729
870.06	4729
870.19	4953
870.32	4919
870.45	4923
870.58	5010
870.71	5136
870.84	5109
870.97	4972
871.1	4896
871.23	5124
871.36	5128
871.489	5033
871.619	5071
871.749	5102
871.879	5094
872.008	5193
872.138	5060
872.267	4972
872.397	4881
872.526	4801
872.656	4710
872.785	4824
872.915	4968
873.044	5033
873.173	4938
873.303	4949
873.432	4919
873.561	4934
873.69	4953
873.819	4828
873.948	4896
874.077	4797
874.206	4774
874.335	4812
874.464	4862
874.593	5060
874.722	4957
874.851	5124
874.979	5075
875.108	5105
875.237	4896
875.365	4896
875.494	4896
875.623	5025
875.751	4812
875.88	4892
876.008	4999
876.136	5022
876.265	5223
876.393	5318
876.521	5212
876.65	5197
876.778	5143
876.906	5113
877.034	5018
877.162	5045
877.29	4972
877.418	5041
877.546	5056
877.674	5041
877.802	5029
877.93	5045
878.058	4961
878.185	4866
878.313	4961
878.441	4968
878.568	4790
878.696	4828
878.824	4995
878.951	4987
879.079	5102
879.206	5277
879.333	5083
879.461	4984
879.588	4972
879.715	5102
879.842	5231
879.97	4961
880.097	4763
880.224	4801
880.351	4866
880.478	4797
880.605	4786
880.732	4812
880.859	5037
880.986	4915
881.112	4915
881.239	4809
881.366	4687
881.493	4622
881.619	4569
881.746	4637
881.872	4656
881.999	4641
882.125	4637
882.252	4797
882.378	4805
882.505	4972
882.631	4835
882.757	4649
882.883	4698
883.01	4717
883.136	4637
883.262	4565
883.388	4592
883.514	4812
883.64	4900
883.766	4767
883.892	4672
884.018	4714
884.143	4892
884.269	5014
884.395	4679
884.52	4656
884.646	4660
884.772	4596
884.897	4538
885.023	4710
885.148	4767
885.274	4828
885.399	4835
885.524	4736
885.65	4714
885.775	4694
885.9	4672
886.025	4892
886.15	4805
886.275	4706
886.4	4641
886.525	4702
886.65	4675
886.775	4679
886.9	4885
887.025	5033
887.149	4828
887.274	4649
887.399	4592
887.523	4607
887.648	4584
887.773	4550
887.897	4733
888.021	4828
888.146	4710
888.27	4896
888.395	4881
888.519	4748
888.643	4805
888.767	4831
888.891	4649
889.015	4603
889.139	4634
889.263	4603
889.387	4748
889.511	4858
889.635	4763
889.759	4672
889.883	4656
890.006	4721
890.13	4816
890.254	4565
890.377	4687
890.501	4542
890.624	4542
890.748	4675
890.871	4546
890.995	4443
891.118	4383
891.241	4538
891.364	4561
891.488	4634
891.611	4462
891.734	4577
891.857	4626
891.98	4519
892.103	4626
892.226	4592
892.349	4493
892.471	4394
892.594	4565
892.717	4664
892.839	4546
892.962	4580
893.085	4672
893.207	4584
893.33	4424
893.452	4519
893.575	4683
893.697	4577
893.819	4771
893.941	4790
894.064	4839
894.186	4550
894.308	4558
894.43	4725
894.552	4786
894.674	4797
894.796	4550
894.918	4588
895.04	4546
895.161	4702
895.283	4706
895.405	4607
895.526	4634
895.648	4672
895.769	4729
895.891	4706
896.012	4755
896.134	4710
896.255	4668
896.376	4592
896.498	4641
896.619	4641
896.74	4569
896.861	4672
896.982	4900
897.103	5052
897.224	4828
897.345	4710
897.466	4664
897.587	4725
897.708	4824
897.828	4774
897.949	4668
898.07	4535
898.19	4653
898.311	4790
898.431	4672
898.552	4714
898.672	4778
898.792	4812
898.913	4740
899.033	4607
899.153	4497
899.273	4428
899.393	4504
899.513	4599
899.633	4546
899.753	4516
899.873	4527
899.993	4554
900.113	4497
900.232	4588
900.352	4542
900.472	4485
900.591	4383
900.711	4497
900.83	4470
900.95	4611
901.069	4615
901.189	4550
901.308	4367
901.427	4314
901.546	4394
901.665	4474
901.784	4527
901.904	4379
902.023	4356
902.141	4227
902.26	4169
902.379	4333
902.498	4268
902.617	4207
902.735	4344
902.854	4356
902.973	4314
903.091	4162
903.21	4196
903.328	4341
903.446	4249
903.565	4230
903.683	4322
903.801	4223
903.919	4394
904.038	4455
904.156	4329
904.274	4409
904.392	4367
904.51	4436
904.627	4462
904.745	4584
904.863	4656
904.981	4375
905.098	4257
905.216	4344
905.334	4421
905.451	4447
905.569	4436
905.686	4565
905.803	4565
905.921	4379
906.038	4550
906.155	4481
906.272	4428
906.389	4470
906.506	4394
906.623	4341
906.74	4421
906.857	4310
906.974	4363
907.091	4599
907.208	4679
907.324	4599
907.441	4485
907.557	4371
907.674	4337
907.79	4329
907.907	4371
908.023	4478
908.139	4466
908.256	4432
908.372	4443
908.488	4447
908.604	4318
908.72	4299
908.836	4348
908.952	4371
909.068	4436
909.184	4573
909.3	4474
909.415	4546
909.531	4580
909.647	4356
909.762	4375
909.878	4325
909.993	4428
910.108	4383
910.224	4386
910.339	4478
910.454	4405
910.57	4337
910.685	4341
910.8	4668
910.915	4561
911.03	4512
911.145	4303
911.259	4280
911.374	4356
911.489	4287
911.604	4276
911.718	4158
911.833	4234
911.947	4051
912.062	4013
912.176	4188
912.291	4261
912.405	4268
912.519	4436
912.633	4500
912.748	4306
912.862	4272
912.976	4188
913.09	4097
913.204	4173
913.318	4234
913.431	4398
913.545	4367
913.659	4436
913.772	4390
913.886	4227
914	4227
914.113	4386
914.226	4417
914.34	4329
914.453	4211
914.566	4409
914.68	4280
914.793	4325
914.906	4188
915.019	4105
915.132	4093
915.245	4150
915.358	4227
915.47	4215
915.583	4257
915.696	4276
915.809	4440
915.921	4402
916.034	4261
916.146	4238
916.259	4234
916.371	4352
916.483	4352
916.595	4272
916.708	4314
916.82	4284
916.932	4325
917.044	4295
917.156	4363
917.268	4215
917.38	4291
917.491	4215
917.603	4318
917.715	4417
917.826	4432
917.938	4352
918.049	4227
918.161	4394
918.272	4527
918.384	4516
918.495	4451
918.606	4276
918.717	4211
918.828	4268
918.939	4390
919.05	4249
919.161	4383
919.272	4139
919.383	4207
919.494	4402
919.604	4615
919.715	4413
919.826	4322
919.936	4443
920.047	4531
920.157	4493
920.267	4717
920.378	4500
920.488	4523
920.598	4710
920.708	4873
920.818	4820
920.928	4755
921.038	4965
921.148	4870
921.258	4618
921.368	4523
921.477	4478
921.587	4470
921.697	4360
921.806	4550
921.916	4436
922.025	4246
922.134	4303
922.244	4196
922.353	4299
922.462	4135
922.571	4139
922.68	3998
922.789	3949
922.898	4017
923.007	3968
923.116	4071
923.224	4105
923.333	4048
923.442	3903
923.55	3975
923.659	3987
923.767	4109
923.876	4010
923.984	4105
924.092	4002
924.201	4013
924.309	4086
924.417	4124
924.525	4101
924.633	4078
924.741	5056
924.849	3968
924.956	4139
925.064	3926
925.172	3876
925.279	3953
925.387	4048
925.494	4063
925.602	4162
925.709	4188
925.816	4051
925.924	4131
926.031	4234
926.138	4166
926.245	4188
926.352	4074
926.459	4238
926.566	4318
926.673	4162
926.779	4082
926.886	4078
926.993	3987
927.099	4002
927.206	3941
927.312	3972
927.419	4044
927.525	4067
927.631	4131
927.737	4040
927.843	3979
927.95	3861
928.056	3964
928.162	4013
928.267	4044
928.373	4611
928.479	4173
928.585	3922
928.69	4063
928.796	4101
928.901	4002
929.007	3907
929.112	4048
929.218	4017
929.323	3968
929.428	3915
929.533	4135
929.638	3949
929.743	3960
929.848	4090
929.953	3994
930.058	3968
930.163	3789
930.267	3850
930.372	4032
930.477	3808
930.581	4120
930.685	4029
930.79	3861
930.894	3934
930.998	3899
931.103	4116
931.207	3759
931.311	3686
931.415	3736
931.519	3584
931.623	3648
