Data from test_V78500241_1630.txt Node
Date: Fri Mar 25 17:00:20 CST 2022
User: usil
Spectrometer: V785-0024
Trigger mode: 0
Integration Time (sec): 4.000000E-1
Scans to average: 1
Nonlinearity correction enabled: false
Boxcar width: 0
Storing dark spectrum: false
XAxis mode: Wavelengths
Number of Pixels in Spectrum: 1024
>>>>>Begin Spectral Data<<<<<
801.071	7986
801.214	7959
801.356	7814
801.499	7830
801.641	7830
801.783	7799
801.926	7936
802.068	7902
802.211	7993
802.353	7944
802.496	7822
802.638	7837
802.78	7902
802.923	7917
803.065	7845
803.208	7932
803.35	8054
803.492	8111
803.635	8130
803.777	8020
803.919	8119
804.061	8393
804.204	8157
804.346	8046
804.488	7970
804.63	8039
804.773	8001
804.915	8103
805.057	8275
805.199	8149
805.341	8233
805.483	8218
805.626	8103
805.768	8149
805.91	8225
806.052	8153
806.194	8065
806.336	8339
806.478	8107
806.62	8054
806.762	8077
806.904	8263
807.046	8514
807.188	8385
807.33	8320
807.472	8313
807.614	8176
807.756	8134
807.898	7986
808.04	7879
808.182	7936
808.324	7917
808.465	7902
808.607	8054
808.749	8107
808.891	8206
809.033	8271
809.174	8210
809.316	8012
809.458	8058
809.6	8035
809.741	7997
809.883	8039
810.025	8088
810.166	8065
810.308	8058
810.45	8027
810.591	7807
810.733	7769
810.875	7674
811.016	7544
811.158	7445
811.299	7616
811.441	7674
811.582	7662
811.724	7578
811.865	7468
812.007	7548
812.148	7590
812.29	7636
812.431	7753
812.573	7898
812.714	7944
812.855	8123
812.997	8191
813.138	8271
813.279	8138
813.421	8035
813.562	7989
813.703	7833
813.845	7727
813.986	7369
814.127	7278
814.268	7263
814.41	7190
814.551	7160
814.692	7194
814.833	7099
814.974	7084
815.115	7152
815.256	6962
815.397	6928
815.539	6958
815.68	6798
815.821	6810
815.962	6962
816.103	6768
816.244	6741
816.385	6635
816.526	6616
816.666	6525
816.807	6304
816.948	6403
817.089	6506
817.23	6426
817.371	6319
817.512	6350
817.653	6445
817.793	6350
817.934	6380
818.075	6483
818.216	6410
818.356	6380
818.497	6262
818.638	6068
818.778	6159
818.919	6091
819.06	6159
819.2	6308
819.341	6342
819.481	6346
819.622	6502
819.762	6707
819.903	6688
820.043	6578
820.184	6582
820.324	6582
820.465	6711
820.605	6692
820.746	6620
820.886	6483
821.026	6635
821.167	6677
821.307	6795
821.447	6802
821.588	6696
821.728	6604
821.868	6479
822.008	6266
822.149	6323
822.289	6270
822.429	6148
822.569	6076
822.709	6106
822.849	5878
822.99	5805
823.13	5859
823.27	5920
823.41	5684
823.55	5805
823.69	5718
823.83	5767
823.97	5653
824.11	5543
824.25	5490
824.389	5558
824.529	5535
824.669	5539
824.809	5600
824.949	5699
825.089	5665
825.228	5577
825.368	5387
825.508	5353
825.648	5337
825.787	5421
825.927	5364
826.067	5307
826.206	5292
826.346	5353
826.485	5398
826.625	5395
826.765	5570
826.904	5497
827.044	5204
827.183	5181
827.323	5147
827.462	5212
827.601	5178
827.741	5166
827.88	5155
828.02	5136
828.159	5227
828.298	5288
828.437	5357
828.577	5296
828.716	5444
828.855	5292
828.994	5147
829.134	5128
829.273	5147
829.412	5140
829.551	5151
829.69	5193
829.829	5250
829.968	5364
830.107	5235
830.246	5337
830.385	5124
830.524	5113
830.663	5045
830.802	4965
830.941	4889
831.08	4877
831.219	4957
831.357	4938
831.496	5170
831.635	4904
831.774	4873
831.913	4755
832.051	4694
832.19	4755
832.329	4831
832.467	4687
832.606	4618
832.744	4729
832.883	4702
833.022	4660
833.16	4740
833.299	4828
833.437	4847
833.576	4831
833.714	4881
833.852	4824
833.991	4854
834.129	4949
834.267	4885
834.406	4915
834.544	4961
834.682	4949
834.821	4972
834.959	5159
835.097	4999
835.235	5128
835.373	5094
835.511	5071
835.65	4984
835.788	5025
835.926	4862
836.064	4862
836.202	4908
836.34	5151
836.478	5174
836.615	5181
836.753	5201
836.891	5307
837.029	5242
837.167	5185
837.305	5197
837.443	5121
837.58	5025
837.718	5246
837.856	5162
837.993	5079
838.131	5277
838.269	5197
838.406	5166
838.544	5185
838.681	4968
838.819	4991
838.956	4892
839.094	4847
839.231	4980
839.369	5079
839.506	5398
839.643	5212
839.781	5025
839.918	5006
840.055	5048
840.193	5048
840.33	5079
840.467	5174
840.604	5140
840.742	5452
840.879	5083
841.016	5079
841.153	5136
841.29	5368
841.427	5292
841.564	5330
841.701	5315
841.838	5265
841.975	5223
842.112	5250
842.249	5166
842.385	5098
842.522	5277
842.659	5109
842.796	5197
842.933	5174
843.069	5166
843.206	5166
843.343	5250
843.479	5216
843.616	5235
843.752	4995
843.889	4999
844.025	5189
844.162	4961
844.298	5212
844.435	5075
844.571	5056
844.708	5204
844.844	5315
844.98	5299
845.117	5242
845.253	5159
845.389	5033
845.525	5159
845.661	5098
845.798	5037
845.934	5098
846.07	4995
846.206	5143
846.342	5239
846.478	5174
846.614	4961
846.75	4968
846.886	4862
847.022	5132
847.158	4999
847.294	5022
847.429	5052
847.565	5041
847.701	5292
847.837	4889
847.972	4812
848.108	4976
848.244	4927
848.379	4778
848.515	4721
848.65	4702
848.786	4729
848.921	4736
849.057	4877
849.192	4862
849.328	4790
849.463	4778
849.598	4759
849.734	4702
849.869	4706
850.004	4580
850.14	4664
850.275	4641
850.41	4508
850.545	4546
850.68	4558
850.815	4660
850.95	4637
851.085	4877
851.22	4755
851.355	4656
851.49	4577
851.625	4649
851.76	4618
851.895	4558
852.03	4485
852.165	4626
852.299	4656
852.434	4752
852.569	4721
852.703	4748
852.838	4786
852.973	4915
853.107	4904
853.242	4698
853.376	4630
853.511	4508
853.645	4599
853.78	4793
853.914	4694
854.048	4668
854.183	4622
854.317	4645
854.451	4828
854.585	4668
854.72	4660
854.854	4740
854.988	4542
855.122	4588
855.256	4489
855.39	4656
855.524	4812
855.658	4725
855.792	4683
855.926	4702
856.06	4763
856.194	4767
856.327	4573
856.461	4618
856.595	4538
856.729	4565
856.862	4759
856.996	4656
857.13	4660
857.263	4744
857.397	4763
857.53	4603
857.664	4675
857.797	4714
857.931	4729
858.064	4679
858.197	4748
858.331	4653
858.464	4592
858.597	4508
858.731	4592
858.864	4630
858.997	4599
859.13	4637
859.263	4603
859.396	4691
859.529	4573
859.662	4538
859.795	4523
859.928	4618
860.061	4748
860.194	4790
860.327	4611
860.46	4554
860.592	4694
860.725	4725
860.858	4725
860.99	4558
861.123	4500
861.256	4527
861.388	4611
861.521	5197
861.653	4481
861.786	4466
861.918	4478
862.05	4535
862.183	4596
862.315	4668
862.447	4660
862.58	4561
862.712	4375
862.844	4299
862.976	4440
863.108	4462
863.24	4755
863.372	4371
863.504	4443
863.636	4413
863.768	4466
863.9	4470
864.032	4390
864.164	4424
864.296	4516
864.428	4565
864.559	4554
864.691	4584
864.823	4497
864.954	4512
865.086	4508
865.217	4493
865.349	4436
865.48	4478
865.612	4561
865.743	4725
865.875	4508
866.006	4466
866.137	4493
866.269	4497
866.4	4413
866.531	4497
866.662	4398
866.793	4481
866.924	4489
867.055	4508
867.186	4516
867.317	4489
867.448	4443
867.579	4428
867.71	4375
867.841	4421
867.972	4497
868.103	4519
868.233	4535
868.364	4474
868.495	4550
868.625	4706
868.756	4809
868.886	4592
869.017	4611
869.147	4835
869.278	4828
869.408	4706
869.539	4622
869.669	4710
869.799	4687
869.929	4797
870.06	4786
870.19	5041
870.32	4961
870.45	4995
870.58	5056
870.71	5121
870.84	5147
870.97	4991
871.1	4927
871.23	5185
871.36	5140
871.489	5045
871.619	5079
871.749	5147
871.879	5151
872.008	5162
872.138	5064
872.267	5033
872.397	4892
872.526	4854
872.656	4752
872.785	4801
872.915	5006
873.044	5075
873.173	4953
873.303	5022
873.432	4976
873.561	4999
873.69	4953
873.819	4892
873.948	4949
874.077	4847
874.206	4786
874.335	4809
874.464	4949
874.593	5083
874.722	4980
874.851	5064
874.979	5098
875.108	5071
875.237	4972
875.365	4938
875.494	4911
875.623	5037
875.751	4873
875.88	4904
876.008	5014
876.136	5083
876.265	5265
876.393	5334
876.521	5299
876.65	5250
876.778	5193
876.906	5064
877.034	5041
877.162	5136
877.29	5056
877.418	5071
877.546	5060
877.674	5003
877.802	5037
877.93	5052
878.058	4934
878.185	4938
878.313	5022
878.441	4961
878.568	4839
878.696	4900
878.824	4972
878.951	5045
879.079	5128
879.206	5265
879.333	5147
879.461	5010
879.588	5022
879.715	5132
879.842	5273
879.97	5006
880.097	4793
880.224	4736
880.351	4843
880.478	4843
880.605	4854
880.732	4748
880.859	5083
880.986	4934
881.112	4946
881.239	4793
881.366	4660
881.493	4607
881.619	4618
881.746	4687
881.872	4656
881.999	4656
882.125	4752
882.252	4816
882.378	4862
882.505	4976
882.631	4805
882.757	4714
882.883	4774
883.01	4748
883.136	4706
883.262	4641
883.388	4615
883.514	4812
883.64	4900
883.766	4812
883.892	4672
884.018	4778
884.143	4915
884.269	5041
884.395	4721
884.52	4641
884.646	4611
884.772	4603
884.897	4584
885.023	4721
885.148	4816
885.274	4915
885.399	4805
885.524	4759
885.65	4744
885.775	4755
885.9	4736
886.025	4881
886.15	4809
886.275	4759
886.4	4645
886.525	4721
886.65	4710
886.775	4687
886.9	4927
887.025	5037
887.149	4816
887.274	4683
887.399	4615
887.523	4596
887.648	4599
887.773	4626
887.897	4752
888.021	4835
888.146	4721
888.27	4862
888.395	4889
888.519	4812
888.643	4843
888.767	4824
888.891	4725
889.015	4599
889.139	4683
889.263	4675
889.387	4790
889.511	4892
889.635	4801
889.759	4660
889.883	4675
890.006	4786
890.13	4881
890.254	4649
890.377	4698
890.501	4584
890.624	4558
890.748	4641
890.871	4527
890.995	4493
891.118	4424
891.241	4558
891.364	4550
891.488	4641
891.611	4523
891.734	4607
891.857	4634
891.98	4565
892.103	4664
892.226	4611
892.349	4535
892.471	4462
892.594	4569
892.717	4603
892.839	4626
892.962	4596
893.085	4694
893.207	4622
893.33	4451
893.452	4561
893.575	4660
893.697	4630
893.819	4831
893.941	4797
894.064	4782
894.186	4573
894.308	4561
894.43	4721
894.552	4782
894.674	4797
894.796	4500
894.918	4656
895.04	4569
895.161	4694
895.283	4679
895.405	4565
895.526	4641
895.648	4725
895.769	4645
895.891	4717
896.012	4744
896.134	4748
896.255	4736
896.376	4653
896.498	4634
896.619	4698
896.74	4592
896.861	4675
896.982	4911
897.103	5113
897.224	4839
897.345	4752
897.466	4687
897.587	4733
897.708	4862
897.828	4790
897.949	4687
898.07	4596
898.19	4626
898.311	4850
898.431	4706
898.552	4778
898.672	4828
898.792	4820
898.913	4755
899.033	4668
899.153	4512
899.273	4497
899.393	4531
899.513	4538
899.633	4554
899.753	4531
899.873	4527
899.993	4603
900.113	4584
900.232	4626
900.352	4527
900.472	4489
900.591	4405
900.711	4512
900.83	4478
900.95	4672
901.069	4694
901.189	4554
901.308	4371
901.427	4333
901.546	4451
901.665	4481
901.784	4535
901.904	4379
902.023	4363
902.141	4234
902.26	4207
902.379	4306
902.498	4253
902.617	4261
902.735	4394
902.854	4436
902.973	4367
903.091	4257
903.21	4249
903.328	4276
903.446	4314
903.565	4276
903.683	4375
903.801	4291
903.919	4440
904.038	4417
904.156	4329
904.274	4478
904.392	4390
904.51	4402
904.627	4470
904.745	4588
904.863	4626
904.981	4394
905.098	4329
905.216	4394
905.334	4440
905.451	4451
905.569	4516
905.686	4573
905.803	4618
905.921	4478
906.038	4542
906.155	4516
906.272	4383
906.389	4523
906.506	4451
906.623	4356
906.74	4440
906.857	4329
906.974	4424
907.091	4561
907.208	4664
907.324	4615
907.441	4535
907.557	4398
907.674	4356
907.79	4314
907.907	4394
908.023	4512
908.139	4523
908.256	4470
908.372	4516
908.488	4447
908.604	4390
908.72	4344
908.836	4402
908.952	4344
909.068	4424
909.184	4584
909.3	4508
909.415	4634
909.531	4584
909.647	4341
909.762	4375
909.878	4325
909.993	4478
910.108	4413
910.224	4451
910.339	4497
910.454	4424
910.57	4371
910.685	4333
910.8	4641
910.915	4584
911.03	4508
911.145	4352
911.259	4295
911.374	4363
911.489	4329
911.604	4265
911.718	4185
911.833	4253
911.947	4124
912.062	4063
912.176	4211
912.291	4246
912.405	4246
912.519	4481
912.633	4523
912.748	4379
912.862	4276
912.976	4268
913.09	4097
913.204	4181
913.318	4280
913.431	4367
913.545	4383
913.659	4436
913.772	4443
913.886	4272
914	4211
914.113	4375
914.226	4447
914.34	4383
914.453	4257
914.566	4481
914.68	4314
914.793	4344
914.906	4188
915.019	4158
915.132	4078
915.245	4211
915.358	4227
915.47	4215
915.583	4249
915.696	4329
915.809	4421
915.921	4436
916.034	4310
916.146	4265
916.259	4234
916.371	4402
916.483	4402
916.595	4280
916.708	4287
916.82	4386
916.932	4371
917.044	4314
917.156	4352
917.268	4276
917.38	4253
917.491	4272
917.603	4405
917.715	4447
917.826	4485
917.938	4352
918.049	4306
918.161	4428
918.272	4577
918.384	4550
918.495	4462
918.606	4352
918.717	4306
918.828	4352
918.939	4383
919.05	4268
919.161	4306
919.272	4154
919.383	4280
919.494	4447
919.604	4641
919.715	4459
919.826	4333
919.936	4398
920.047	4478
920.157	4519
920.267	4672
920.378	4500
920.488	4531
920.598	4767
920.708	4885
920.818	4755
920.928	4816
921.038	4904
921.148	4930
921.258	4645
921.368	4554
921.477	4474
921.587	4466
921.697	4424
921.806	4508
921.916	4402
922.025	4253
922.134	4291
922.244	4261
922.353	4352
922.462	4200
922.571	4139
922.68	4048
922.789	3953
922.898	4051
923.007	4021
923.116	4059
923.224	4082
923.333	4101
923.442	3998
923.55	3972
923.659	4036
923.767	4135
923.876	3953
923.984	4162
924.092	3998
924.201	4086
924.309	4120
924.417	4143
924.525	4097
924.633	4109
924.741	4847
924.849	3941
924.956	4143
925.064	3956
925.172	3892
925.279	4002
925.387	4029
925.494	4040
925.602	4234
925.709	4207
925.816	4021
925.924	4139
926.031	4158
926.138	4162
926.245	4181
926.352	4082
926.459	4234
926.566	4375
926.673	4158
926.779	4071
926.886	4090
926.993	3979
927.099	3956
927.206	4006
927.312	3972
927.419	4067
927.525	4013
927.631	4090
927.737	3956
927.843	3994
927.95	3857
928.056	3964
928.162	4010
928.267	4082
928.373	4596
928.479	4135
928.585	3873
928.69	4017
928.796	4093
928.901	3964
929.007	3884
929.112	4032
929.218	4063
929.323	3987
929.428	3987
929.533	4116
929.638	3960
929.743	3972
929.848	4105
929.953	4044
930.058	3975
930.163	3861
930.267	3899
930.372	4048
930.477	3876
930.581	4120
930.685	3991
930.79	3854
930.894	3949
930.998	3926
931.103	4048
931.207	3720
931.311	3743
931.415	3724
931.519	3538
931.623	3606
