Data from test_V78500241_2345.txt Node
Date: Fri Mar 25 17:05:18 CST 2022
User: usil
Spectrometer: V785-0024
Trigger mode: 0
Integration Time (sec): 4.000000E-1
Scans to average: 1
Nonlinearity correction enabled: false
Boxcar width: 0
Storing dark spectrum: false
XAxis mode: Wavelengths
Number of Pixels in Spectrum: 1024
>>>>>Begin Spectral Data<<<<<
801.071	7993
801.214	7936
801.356	7856
801.499	7837
801.641	7799
801.783	7845
801.926	8001
802.068	7890
802.211	7967
802.353	7932
802.496	7868
802.638	7879
802.78	7822
802.923	7898
803.065	7902
803.208	7875
803.35	7951
803.492	8100
803.635	8183
803.777	8054
803.919	8103
804.061	8454
804.204	8107
804.346	7989
804.488	7967
804.63	8088
804.773	8027
804.915	8142
805.057	8237
805.199	8191
805.341	8218
805.483	8267
805.626	8256
805.768	8149
805.91	8225
806.052	8252
806.194	8153
806.336	8214
806.478	8027
806.62	8016
806.762	8065
806.904	8202
807.046	8476
807.188	8381
807.33	8324
807.472	8328
807.614	8107
807.756	8183
807.898	7967
808.04	7898
808.182	7871
808.324	7883
808.465	7906
808.607	8123
808.749	8065
808.891	8206
809.033	8324
809.174	8183
809.316	8050
809.458	8016
809.6	7993
809.741	8035
809.883	8012
810.025	8069
810.166	8077
810.308	7970
810.45	7993
810.591	7845
810.733	7704
810.875	7639
811.016	7491
811.158	7464
811.299	7616
811.441	7700
811.582	7670
811.724	7597
811.865	7563
812.007	7601
812.148	7529
812.29	7609
812.431	7738
812.573	7909
812.714	7982
812.855	8130
812.997	8187
813.138	8320
813.279	8031
813.421	8077
813.562	7974
813.703	7833
813.845	7685
813.986	7457
814.127	7198
814.268	7179
814.41	7145
814.551	7133
814.692	7232
814.833	7114
814.974	7061
815.115	7091
815.256	6977
815.397	6935
815.539	6939
815.68	6798
815.821	6810
815.962	6894
816.103	6802
816.244	6741
816.385	6604
816.526	6639
816.666	6528
816.807	6331
816.948	6429
817.089	6429
817.23	6414
817.371	6388
817.512	6391
817.653	6372
817.793	6338
817.934	6422
818.075	6483
818.216	6456
818.356	6399
818.497	6254
818.638	6091
818.778	6178
818.919	6102
819.06	6197
819.2	6323
819.341	6315
819.481	6388
819.622	6498
819.762	6654
819.903	6707
820.043	6608
820.184	6604
820.324	6555
820.465	6745
820.605	6726
820.746	6700
820.886	6528
821.026	6719
821.167	6692
821.307	6776
821.447	6745
821.588	6719
821.728	6532
821.868	6486
822.008	6281
822.149	6372
822.289	6289
822.429	6213
822.569	6095
822.709	6114
822.849	5931
822.99	5901
823.13	5874
823.27	5931
823.41	5771
823.55	5718
823.69	5714
823.83	5748
823.97	5634
824.11	5524
824.25	5490
824.389	5551
824.529	5558
824.669	5524
824.809	5600
824.949	5688
825.089	5611
825.228	5516
825.368	5376
825.508	5353
825.648	5242
825.787	5410
825.927	5364
826.067	5303
826.206	5307
826.346	5383
826.485	5349
826.625	5383
826.765	5524
826.904	5501
827.044	5254
827.183	5239
827.323	5056
827.462	5277
827.601	5151
827.741	5223
827.88	5159
828.02	5113
828.159	5254
828.298	5288
828.437	5353
828.577	5292
828.716	5482
828.855	5246
828.994	5197
829.134	5170
829.273	5223
829.412	5166
829.551	5121
829.69	5193
829.829	5235
829.968	5433
830.107	5337
830.246	5288
830.385	5162
830.524	5140
830.663	5064
830.802	4991
830.941	4915
831.08	4889
831.219	5014
831.357	5014
831.496	5201
831.635	4911
831.774	4892
831.913	4904
832.051	4752
832.19	4824
832.329	4908
832.467	4740
832.606	4641
832.744	4816
832.883	4759
833.022	4801
833.16	4843
833.299	4850
833.437	4900
833.576	4881
833.714	4938
833.852	4915
833.991	4942
834.129	5067
834.267	4965
834.406	4968
834.544	4980
834.682	4961
834.821	5037
834.959	5242
835.097	5052
835.235	5185
835.373	5121
835.511	5132
835.65	5071
835.788	5079
835.926	4968
836.064	4881
836.202	4938
836.34	5204
836.478	5273
836.615	5193
836.753	5277
836.891	5368
837.029	5242
837.167	5235
837.305	5189
837.443	5227
837.58	5162
837.718	5288
837.856	5284
837.993	5201
838.131	5277
838.269	5254
838.406	5193
838.544	5254
838.681	5090
838.819	5025
838.956	4942
839.094	4934
839.231	5010
839.369	5143
839.506	5493
839.643	5303
839.781	5170
839.918	5067
840.055	5143
840.193	5102
840.33	5113
840.467	5178
840.604	5216
840.742	5501
840.879	5136
841.016	5098
841.153	5136
841.29	5383
841.427	5330
841.564	5421
841.701	5395
841.838	5330
841.975	5239
842.112	5337
842.249	5170
842.385	5170
842.522	5383
842.659	5166
842.796	5170
842.933	5261
843.069	5162
843.206	5174
843.343	5368
843.479	5307
843.616	5337
843.752	5060
843.889	5041
844.025	5220
844.162	5052
844.298	5193
844.435	5075
844.571	5086
844.708	5258
844.844	5330
844.98	5398
845.117	5330
845.253	5140
845.389	5136
845.525	5201
845.661	5162
845.798	5086
845.934	5185
846.07	5041
846.206	5242
846.342	5307
846.478	5204
846.614	5041
846.75	4949
846.886	4957
847.022	5178
847.158	5067
847.294	5098
847.429	5143
847.565	5094
847.701	5280
847.837	4831
847.972	4786
848.108	4976
848.244	4976
848.379	4809
848.515	4748
848.65	4759
848.786	4801
848.921	4801
849.057	4889
849.192	4881
849.328	4847
849.463	4873
849.598	4820
849.734	4801
849.869	4702
850.004	4691
850.14	4691
850.275	4630
850.41	4538
850.545	4561
850.68	4580
850.815	4653
850.95	4641
851.085	4911
851.22	4748
851.355	4706
851.49	4687
851.625	4596
851.76	4645
851.895	4596
852.03	4577
852.165	4641
852.299	4733
852.434	4877
852.569	4793
852.703	4790
852.838	4885
852.973	4942
853.107	4949
853.242	4752
853.376	4683
853.511	4588
853.645	4615
853.78	4843
853.914	4706
854.048	4721
854.183	4706
854.317	4767
854.451	4930
854.585	4725
854.72	4626
854.854	4771
854.988	4626
855.122	4729
855.256	4588
855.39	4691
855.524	4778
855.658	4740
855.792	4748
855.926	4801
856.06	4725
856.194	4862
856.327	4725
856.461	4611
856.595	4664
856.729	4679
856.862	4759
856.996	4675
857.13	4767
857.263	4809
857.397	4862
857.53	4645
857.664	4771
857.797	4759
857.931	4816
858.064	4771
858.197	4767
858.331	4679
858.464	4634
858.597	4569
858.731	4672
858.864	4649
858.997	4641
859.13	4698
859.263	4691
859.396	4736
859.529	4622
859.662	4645
859.795	4584
859.928	4626
860.061	4774
860.194	4771
860.327	4649
860.46	4596
860.592	4744
860.725	4717
860.858	4729
860.99	4630
861.123	4485
861.256	4577
861.388	4588
861.521	5273
861.653	4504
861.786	4466
861.918	4504
862.05	4573
862.183	4603
862.315	4656
862.447	4656
862.58	4584
862.712	4424
862.844	4371
862.976	4504
863.108	4481
863.24	4877
863.372	4356
863.504	4443
863.636	4440
863.768	4546
863.9	4466
864.032	4405
864.164	4417
864.296	4523
864.428	4561
864.559	4596
864.691	4569
864.823	4592
864.954	4538
865.086	4519
865.217	4455
865.349	4474
865.48	4428
865.612	4561
865.743	4653
865.875	4485
866.006	4455
866.137	4500
866.269	4504
866.4	4432
866.531	4447
866.662	4436
866.793	4443
866.924	4413
867.055	4546
867.186	4478
867.317	4466
867.448	4424
867.579	4421
867.71	4470
867.841	4379
867.972	4497
868.103	4489
868.233	4504
868.364	4497
868.495	4512
868.625	4672
868.756	4809
868.886	4618
869.017	4687
869.147	4786
869.278	4809
869.408	4702
869.539	4660
869.669	4740
869.799	4694
869.929	4828
870.06	4725
870.19	4995
870.32	4949
870.45	4961
870.58	5003
870.71	5155
870.84	5113
870.97	4976
871.1	4968
871.23	5140
871.36	5102
871.489	5029
871.619	5064
871.749	5140
871.879	5197
872.008	5201
872.138	5109
872.267	4957
872.397	4873
872.526	4847
872.656	4759
872.785	4862
872.915	4957
873.044	5022
873.173	4949
873.303	5003
873.432	5022
873.561	4972
873.69	4949
873.819	4889
873.948	4961
874.077	4809
874.206	4782
874.335	4797
874.464	4942
874.593	5124
874.722	4953
874.851	5113
874.979	5083
875.108	5064
875.237	4957
875.365	4938
875.494	4896
875.623	4980
875.751	4828
875.88	4892
876.008	4972
876.136	5064
876.265	5273
876.393	5341
876.521	5258
876.65	5296
876.778	5136
876.906	5079
877.034	5083
877.162	5067
877.29	4999
877.418	5098
877.546	5071
877.674	5048
877.802	5064
877.93	5056
878.058	4919
878.185	4892
878.313	4968
878.441	5003
878.568	4797
878.696	4847
878.824	4957
878.951	5033
879.079	5181
879.206	5280
879.333	5117
879.461	5060
879.588	5102
879.715	5124
879.842	5227
879.97	5014
880.097	4759
880.224	4805
880.351	4824
880.478	4812
880.605	4862
880.732	4820
880.859	5162
880.986	4896
881.112	4953
881.239	4778
881.366	4702
881.493	4630
881.619	4573
881.746	4649
881.872	4687
881.999	4668
882.125	4744
882.252	4816
882.378	4843
882.505	4949
882.631	4854
882.757	4691
882.883	4740
883.01	4748
883.136	4729
883.262	4615
883.388	4611
883.514	4831
883.64	4892
883.766	4805
883.892	4679
884.018	4771
884.143	4877
884.269	4999
884.395	4694
884.52	4675
884.646	4626
884.772	4588
884.897	4584
885.023	4672
885.148	4790
885.274	4892
885.399	4889
885.524	4759
885.65	4672
885.775	4782
885.9	4714
886.025	4820
886.15	4824
886.275	4691
886.4	4664
886.525	4763
886.65	4729
886.775	4675
886.9	4927
887.025	5037
887.149	4873
887.274	4687
887.399	4630
887.523	4626
887.648	4599
887.773	4577
887.897	4790
888.021	4843
888.146	4679
888.27	4862
888.395	4889
888.519	4801
888.643	4835
888.767	4858
888.891	4744
889.015	4641
889.139	4630
889.263	4626
889.387	4725
889.511	4828
889.635	4866
889.759	4622
889.883	4653
890.006	4710
890.13	4862
890.254	4580
890.377	4717
890.501	4569
890.624	4569
890.748	4622
890.871	4561
890.995	4424
891.118	4371
891.241	4527
891.364	4542
891.488	4603
891.611	4535
891.734	4565
891.857	4603
891.98	4550
892.103	4649
892.226	4599
892.349	4554
892.471	4436
892.594	4538
892.717	4603
892.839	4592
892.962	4634
893.085	4675
893.207	4679
893.33	4470
893.452	4569
893.575	4672
893.697	4596
893.819	4801
893.941	4797
894.064	4805
894.186	4546
894.308	4527
894.43	4755
894.552	4843
894.674	4805
894.796	4573
894.918	4611
895.04	4611
895.161	4714
895.283	4710
895.405	4588
895.526	4664
895.648	4702
895.769	4717
895.891	4733
896.012	4740
896.134	4790
896.255	4706
896.376	4622
896.498	4630
896.619	4710
896.74	4672
896.861	4656
896.982	4858
897.103	5022
897.224	4824
897.345	4755
897.466	4694
897.587	4710
897.708	4881
897.828	4793
897.949	4649
898.07	4596
898.19	4599
898.311	4889
898.431	4660
898.552	4752
898.672	4835
898.792	4771
898.913	4752
899.033	4603
899.153	4500
899.273	4455
899.393	4493
899.513	4535
899.633	4512
899.753	4565
899.873	4538
899.993	4573
900.113	4531
900.232	4645
900.352	4577
900.472	4485
900.591	4360
900.711	4523
900.83	4440
900.95	4611
901.069	4668
901.189	4523
901.308	4356
901.427	4299
901.546	4413
901.665	4485
901.784	4558
901.904	4398
902.023	4394
902.141	4162
902.26	4192
902.379	4306
902.498	4249
902.617	4204
902.735	4356
902.854	4360
902.973	4386
903.091	4227
903.21	4246
903.328	4318
903.446	4287
903.565	4249
903.683	4360
903.801	4265
903.919	4436
904.038	4421
904.156	4337
904.274	4466
904.392	4428
904.51	4451
904.627	4519
904.745	4550
904.863	4660
904.981	4424
905.098	4375
905.216	4398
905.334	4421
905.451	4470
905.569	4481
905.686	4611
905.803	4607
905.921	4443
906.038	4569
906.155	4508
906.272	4470
906.389	4424
906.506	4371
906.623	4447
906.74	4428
906.857	4348
906.974	4390
907.091	4573
907.208	4771
907.324	4592
907.441	4538
907.557	4390
907.674	4413
907.79	4363
907.907	4417
908.023	4504
908.139	4565
908.256	4466
908.372	4500
908.488	4523
908.604	4394
908.72	4348
908.836	4421
908.952	4417
909.068	4462
909.184	4649
909.3	4512
909.415	4630
909.531	4615
909.647	4386
909.762	4447
909.878	4394
909.993	4508
910.108	4512
910.224	4428
910.339	4512
910.454	4417
910.57	4424
910.685	4375
910.8	4675
910.915	4641
911.03	4542
911.145	4352
911.259	4386
911.374	4405
911.489	4325
911.604	4318
911.718	4215
911.833	4318
911.947	4139
912.062	4086
912.176	4276
912.291	4257
912.405	4299
912.519	4527
912.633	4561
912.748	4367
912.862	4344
912.976	4238
913.09	4131
913.204	4234
913.318	4276
913.431	4367
913.545	4451
913.659	4462
913.772	4417
913.886	4268
914	4246
914.113	4363
914.226	4489
914.34	4470
914.453	4238
914.566	4466
914.68	4402
914.793	4390
914.906	4192
915.019	4147
915.132	4112
915.245	4188
915.358	4249
915.47	4238
915.583	4314
915.696	4341
915.809	4451
915.921	4409
916.034	4325
916.146	4284
916.259	4265
916.371	4390
916.483	4417
916.595	4314
916.708	4360
916.82	4383
916.932	4325
917.044	4371
917.156	4344
917.268	4280
917.38	4280
917.491	4257
917.603	4375
917.715	4440
917.826	4481
917.938	4428
918.049	4303
918.161	4417
918.272	4577
918.384	4565
918.495	4512
918.606	4352
918.717	4249
918.828	4337
918.939	4405
919.05	4318
919.161	4390
919.272	4173
919.383	4276
919.494	4466
919.604	4687
919.715	4504
919.826	4417
919.936	4405
920.047	4546
920.157	4508
920.267	4763
920.378	4573
920.488	4531
920.598	4767
920.708	4892
920.818	4786
920.928	4786
921.038	4980
921.148	4877
921.258	4694
921.368	4637
921.477	4538
921.587	4470
921.697	4440
921.806	4561
921.916	4485
922.025	4268
922.134	4303
922.244	4291
922.353	4348
922.462	4223
922.571	4158
922.68	4036
922.789	4010
922.898	4029
923.007	4044
923.116	4143
923.224	4078
923.333	4150
923.442	3994
923.55	3994
923.659	4029
923.767	4135
923.876	4059
923.984	4169
924.092	4013
924.201	4120
924.309	4116
924.417	4192
924.525	4074
924.633	4147
924.741	5071
924.849	3949
924.956	4185
925.064	4048
925.172	3941
925.279	3968
925.387	4154
925.494	4120
925.602	4234
925.709	4238
925.816	4048
925.924	4135
926.031	4276
926.138	4188
926.245	4223
926.352	4097
926.459	4272
926.566	4371
926.673	4177
926.779	4154
926.886	4158
926.993	4044
927.099	4013
927.206	4006
927.312	3979
927.419	4078
927.525	4040
927.631	4116
927.737	3956
927.843	3983
927.95	3892
928.056	3991
928.162	4010
928.267	4067
928.373	4577
928.479	4158
928.585	3926
928.69	4067
928.796	4131
928.901	4025
929.007	3865
929.112	4021
929.218	4017
929.323	3979
929.428	4010
929.533	4131
929.638	4013
929.743	4013
929.848	4071
929.953	4021
930.058	3941
930.163	3808
930.267	3842
930.372	4006
930.477	3880
930.581	4143
930.685	3979
930.79	3884
930.894	3903
930.998	3876
931.103	4032
931.207	3781
931.311	3736
931.415	3698
931.519	3519
931.623	3576
