Data from test_V78500241_2855.txt Node
Date: Fri Mar 25 17:08:51 CST 2022
User: usil
Spectrometer: V785-0024
Trigger mode: 0
Integration Time (sec): 4.000000E-1
Scans to average: 1
Nonlinearity correction enabled: false
Boxcar width: 0
Storing dark spectrum: false
XAxis mode: Wavelengths
Number of Pixels in Spectrum: 1024
>>>>>Begin Spectral Data<<<<<
801.071	8027
801.214	8012
801.356	7951
801.499	7860
801.641	7856
801.783	7807
801.926	7993
802.068	7921
802.211	8050
802.353	8035
802.496	7837
802.638	7906
802.78	7883
802.923	7936
803.065	7875
803.208	7871
803.35	7944
803.492	8088
803.635	8164
803.777	8126
803.919	8073
804.061	8476
804.204	8221
804.346	8054
804.488	8027
804.63	8027
804.773	8062
804.915	8134
805.057	8309
805.199	8183
805.341	8195
805.483	8248
805.626	8237
805.768	8107
805.91	8145
806.052	8210
806.194	8107
806.336	8282
806.478	8111
806.62	8073
806.762	8092
806.904	8267
807.046	8473
807.188	8370
807.33	8317
807.472	8305
807.614	8145
807.756	8103
807.898	7986
808.04	7917
808.182	7917
808.324	7936
808.465	7909
808.607	8054
808.749	8153
808.891	8221
809.033	8313
809.174	8199
809.316	8050
809.458	8050
809.6	7993
809.741	7967
809.883	8073
810.025	8100
810.166	8100
810.308	8103
810.45	7917
810.591	7925
810.733	7738
810.875	7651
811.016	7552
811.158	7552
811.299	7582
811.441	7742
811.582	7639
811.724	7597
811.865	7571
812.007	7582
812.148	7575
812.29	7632
812.431	7689
812.573	7814
812.714	7986
812.855	8119
812.997	8290
813.138	8294
813.279	8199
813.421	8191
813.562	8062
813.703	7856
813.845	7746
813.986	7445
814.127	7312
814.268	7282
814.41	7236
814.551	7213
814.692	7202
814.833	7034
814.974	7141
815.115	7107
815.256	6939
815.397	6935
815.539	6951
815.68	6821
815.821	6806
815.962	6863
816.103	6810
816.244	6696
816.385	6570
816.526	6578
816.666	6513
816.807	6346
816.948	6357
817.089	6498
817.23	6445
817.371	6407
817.512	6388
817.653	6372
817.793	6414
817.934	6410
818.075	6464
818.216	6384
818.356	6479
818.497	6194
818.638	6163
818.778	6163
818.919	6171
819.06	6175
819.2	6308
819.341	6296
819.481	6327
819.622	6547
819.762	6768
819.903	6662
820.043	6589
820.184	6642
820.324	6559
820.465	6719
820.605	6658
820.746	6669
820.886	6506
821.026	6635
821.167	6715
821.307	6806
821.447	6726
821.588	6639
821.728	6551
821.868	6509
822.008	6266
822.149	6452
822.289	6380
822.429	6171
822.569	6102
822.709	6087
822.849	5988
822.99	5950
823.13	5935
823.27	5897
823.41	5748
823.55	5748
823.69	5771
823.83	5802
823.97	5668
824.11	5566
824.25	5452
824.389	5524
824.529	5581
824.669	5547
824.809	5611
824.949	5630
825.089	5619
825.228	5562
825.368	5398
825.508	5303
825.648	5334
825.787	5398
825.927	5349
826.067	5269
826.206	5284
826.346	5379
826.485	5410
826.625	5398
826.765	5547
826.904	5490
827.044	5254
827.183	5220
827.323	5170
827.462	5277
827.601	5181
827.741	5185
827.88	5181
828.02	5060
828.159	5223
828.298	5311
828.437	5357
828.577	5334
828.716	5497
828.855	5318
828.994	5151
829.134	5102
829.273	5174
829.412	5113
829.551	5151
829.69	5124
829.829	5223
829.968	5364
830.107	5254
830.246	5280
830.385	5162
830.524	5117
830.663	5079
830.802	5003
830.941	4870
831.08	4873
831.219	5022
831.357	4965
831.496	5090
831.635	4923
831.774	4847
831.913	4911
832.051	4763
832.19	4710
832.329	4786
832.467	4721
832.606	4615
832.744	4660
832.883	4721
833.022	4736
833.16	4793
833.299	4812
833.437	4847
833.576	4839
833.714	4820
833.852	4809
833.991	4927
834.129	4934
834.267	4923
834.406	4881
834.544	4927
834.682	4934
834.821	4942
834.959	5159
835.097	4999
835.235	5155
835.373	5083
835.511	5159
835.65	5014
835.788	5033
835.926	4892
836.064	4828
836.202	4900
836.34	5147
836.478	5181
836.615	5124
836.753	5159
836.891	5269
837.029	5246
837.167	5181
837.305	5170
837.443	5143
837.58	5071
837.718	5250
837.856	5151
837.993	5105
838.131	5212
838.269	5212
838.406	5189
838.544	5197
838.681	4987
838.819	5033
838.956	4870
839.094	4885
839.231	4984
839.369	5041
839.506	5414
839.643	5280
839.781	5037
839.918	5010
840.055	5105
840.193	5090
840.33	5102
840.467	5151
840.604	5136
840.742	5398
840.879	5094
841.016	5083
841.153	5128
841.29	5360
841.427	5280
841.564	5311
841.701	5269
841.838	5307
841.975	5208
842.112	5178
842.249	5170
842.385	5067
842.522	5349
842.659	5140
842.796	5155
842.933	5239
843.069	5166
843.206	5136
843.343	5322
843.479	5235
843.616	5254
843.752	5006
843.889	4980
844.025	5216
844.162	5029
844.298	5231
844.435	5128
844.571	5079
844.708	5189
844.844	5258
844.98	5337
845.117	5307
845.253	5140
845.389	5109
845.525	5185
845.661	5143
845.798	5060
845.934	5098
846.07	5010
846.206	5170
846.342	5277
846.478	5216
846.614	5010
846.75	4934
846.886	4919
847.022	5117
847.158	4980
847.294	5064
847.429	5102
847.565	5025
847.701	5277
847.837	4866
847.972	4812
848.108	4908
848.244	4919
848.379	4797
848.515	4710
848.65	4672
848.786	4755
848.921	4786
849.057	4885
849.192	4889
849.328	4778
849.463	4889
849.598	4774
849.734	4778
849.869	4721
850.004	4580
850.14	4675
850.275	4588
850.41	4527
850.545	4527
850.68	4611
850.815	4615
850.95	4630
851.085	4873
851.22	4744
851.355	4668
851.49	4561
851.625	4584
851.76	4611
851.895	4554
852.03	4554
852.165	4656
852.299	4694
852.434	4797
852.569	4698
852.703	4793
852.838	4877
852.973	4862
853.107	4900
853.242	4694
853.376	4675
853.511	4500
853.645	4641
853.78	4809
853.914	4656
854.048	4675
854.183	4618
854.317	4721
854.451	4812
854.585	4683
854.72	4656
854.854	4774
854.988	4542
855.122	4634
855.256	4489
855.39	4668
855.524	4771
855.658	4714
855.792	4649
855.926	4653
856.06	4755
856.194	4778
856.327	4698
856.461	4611
856.595	4561
856.729	4573
856.862	4740
856.996	4660
857.13	4759
857.263	4691
857.397	4797
857.53	4679
857.664	4729
857.797	4733
857.931	4748
858.064	4672
858.197	4733
858.331	4622
858.464	4622
858.597	4542
858.731	4645
858.864	4645
858.997	4611
859.13	4634
859.263	4679
859.396	4698
859.529	4558
859.662	4527
859.795	4542
859.928	4656
860.061	4767
860.194	4706
860.327	4607
860.46	4573
860.592	4714
860.725	4752
860.858	4717
860.99	4550
861.123	4535
861.256	4535
861.388	4641
861.521	5402
861.653	4481
861.786	4440
861.918	4447
862.05	4508
862.183	4538
862.315	4622
862.447	4672
862.58	4531
862.712	4375
862.844	4318
862.976	4481
863.108	4413
863.24	4748
863.372	4318
863.504	4405
863.636	4386
863.768	4512
863.9	4451
864.032	4367
864.164	4405
864.296	4508
864.428	4622
864.559	4573
864.691	4531
864.823	4500
864.954	4512
865.086	4481
865.217	4489
865.349	4409
865.48	4462
865.612	4485
865.743	4637
865.875	4497
866.006	4447
866.137	4466
866.269	4417
866.4	4421
866.531	4394
866.662	4371
866.793	4390
866.924	4421
867.055	4485
867.186	4455
867.317	4390
867.448	4383
867.579	4341
867.71	4394
867.841	4356
867.972	4474
868.103	4432
868.233	4436
868.364	4409
868.495	4451
868.625	4687
868.756	4717
868.886	4584
869.017	4630
869.147	4778
869.278	4736
869.408	4683
869.539	4573
869.669	4714
869.799	4634
869.929	4733
870.06	4725
870.19	4934
870.32	4900
870.45	4915
870.58	4980
870.71	5098
870.84	5117
870.97	4923
871.1	4911
871.23	5159
871.36	5109
871.489	5025
871.619	5052
871.749	5105
871.879	5109
872.008	5170
872.138	5064
872.267	4938
872.397	4828
872.526	4774
872.656	4660
872.785	4774
872.915	4957
873.044	5029
873.173	4911
873.303	4938
873.432	4923
873.561	4968
873.69	4831
873.819	4831
873.948	4911
874.077	4797
874.206	4721
874.335	4801
874.464	4957
874.593	5045
874.722	4938
874.851	5113
874.979	5121
875.108	5006
875.237	4881
875.365	4854
875.494	4858
875.623	4915
875.751	4824
875.88	4892
876.008	4980
876.136	5006
876.265	5201
876.393	5387
876.521	5265
876.65	5216
876.778	5178
876.906	5098
877.034	5041
877.162	5003
877.29	5003
877.418	5105
877.546	5052
877.674	5025
877.802	5056
877.93	5025
878.058	4949
878.185	4911
878.313	4961
878.441	4999
878.568	4831
878.696	4949
878.824	4987
878.951	4957
879.079	5159
879.206	5349
879.333	5166
879.461	5010
879.588	5060
879.715	5140
879.842	5280
879.97	5014
880.097	4831
880.224	4828
880.351	4820
880.478	4866
880.605	4812
880.732	4824
880.859	5143
880.986	4946
881.112	4942
881.239	4790
881.366	4694
881.493	4653
881.619	4653
881.746	4656
881.872	4664
881.999	4668
882.125	4710
882.252	4873
882.378	4854
882.505	5045
882.631	4831
882.757	4748
882.883	4801
883.01	4790
883.136	4714
883.262	4615
883.388	4664
883.514	4873
883.64	4900
883.766	4828
883.892	4729
884.018	4752
884.143	4904
884.269	5094
884.395	4729
884.52	4675
884.646	4679
884.772	4615
884.897	4569
885.023	4683
885.148	4820
885.274	4942
885.399	4900
885.524	4755
885.65	4786
885.775	4778
885.9	4759
886.025	4911
886.15	4820
886.275	4748
886.4	4691
886.525	4725
886.65	4710
886.775	4725
886.9	4930
887.025	5079
887.149	4858
887.274	4714
887.399	4668
887.523	4615
887.648	4641
887.773	4611
887.897	4793
888.021	4850
888.146	4755
888.27	4835
888.395	4930
888.519	4858
888.643	4919
888.767	4862
888.891	4702
889.015	4607
889.139	4706
889.263	4634
889.387	4793
889.511	4923
889.635	4904
889.759	4637
889.883	4702
890.006	4793
890.13	4885
890.254	4679
890.377	4721
890.501	4561
890.624	4561
890.748	4630
890.871	4596
890.995	4493
891.118	4428
891.241	4519
891.364	4561
891.488	4675
891.611	4523
891.734	4584
891.857	4611
891.98	4580
892.103	4717
892.226	4656
892.349	4599
892.471	4409
892.594	4565
892.717	4637
892.839	4626
892.962	4634
893.085	4702
893.207	4607
893.33	4512
893.452	4569
893.575	4691
893.697	4618
893.819	4850
893.941	4805
894.064	4748
894.186	4588
894.308	4584
894.43	4786
894.552	4828
894.674	4847
894.796	4611
894.918	4603
895.04	4660
895.161	4717
895.283	4702
895.405	4592
895.526	4653
895.648	4774
895.769	4691
895.891	4702
896.012	4767
896.134	4812
896.255	4725
896.376	4649
896.498	4672
896.619	4736
896.74	4721
896.861	4675
896.982	4965
897.103	5166
897.224	4854
897.345	4767
897.466	4698
897.587	4778
897.708	4873
897.828	4797
897.949	4702
898.07	4599
898.19	4691
898.311	4889
898.431	4736
898.552	4801
898.672	4870
898.792	4870
898.913	4809
899.033	4641
899.153	4519
899.273	4455
899.393	4523
899.513	4580
899.633	4523
899.753	4603
899.873	4561
899.993	4653
900.113	4569
900.232	4607
900.352	4584
900.472	4535
900.591	4417
900.711	4542
900.83	4466
900.95	4694
901.069	4744
901.189	4550
901.308	4443
901.427	4363
901.546	4436
901.665	4466
901.784	4584
901.904	4455
902.023	4363
902.141	4242
902.26	4211
902.379	4367
902.498	4299
902.617	4242
902.735	4375
902.854	4466
902.973	4413
903.091	4268
903.21	4227
903.328	4318
903.446	4299
903.565	4265
903.683	4402
903.801	4318
903.919	4447
904.038	4447
904.156	4363
904.274	4424
904.392	4428
904.51	4478
904.627	4489
904.745	4527
904.863	4691
904.981	4440
905.098	4318
905.216	4440
905.334	4409
905.451	4470
905.569	4443
905.686	4592
905.803	4615
905.921	4443
906.038	4607
906.155	4489
906.272	4390
906.389	4516
906.506	4375
906.623	4371
906.74	4432
906.857	4348
906.974	4405
907.091	4622
907.208	4740
907.324	4618
907.441	4516
907.557	4383
907.674	4383
907.79	4329
907.907	4432
908.023	4500
908.139	4516
908.256	4459
908.372	4497
908.488	4485
908.604	4367
908.72	4363
908.836	4432
908.952	4451
909.068	4398
909.184	4538
909.3	4527
909.415	4622
909.531	4573
909.647	4379
909.762	4390
909.878	4390
909.993	4500
910.108	4432
910.224	4455
910.339	4485
910.454	4417
910.57	4379
910.685	4337
910.8	4653
910.915	4569
911.03	4554
911.145	4390
911.259	4341
911.374	4413
911.489	4303
911.604	4299
911.718	4181
911.833	4257
911.947	4093
912.062	4067
912.176	4261
912.291	4257
912.405	4291
912.519	4497
912.633	4554
912.748	4379
912.862	4348
912.976	4238
913.09	4116
913.204	4181
913.318	4284
913.431	4424
913.545	4394
913.659	4459
913.772	4367
913.886	4276
914	4219
914.113	4405
914.226	4497
914.34	4421
914.453	4287
914.566	4417
914.68	4352
914.793	4363
914.906	4112
915.019	4177
915.132	4135
915.245	4234
915.358	4242
915.47	4287
915.583	4310
915.696	4306
915.809	4428
915.921	4443
916.034	4310
916.146	4257
916.259	4284
916.371	4398
916.483	4417
916.595	4291
916.708	4333
916.82	4303
916.932	4314
917.044	4363
917.156	4341
917.268	4265
917.38	4295
917.491	4314
917.603	4394
917.715	4432
917.826	4470
917.938	4379
918.049	4253
918.161	4409
918.272	4584
918.384	4535
918.495	4455
918.606	4371
918.717	4257
918.828	4367
918.939	4367
919.05	4253
919.161	4383
919.272	4147
919.383	4246
919.494	4451
919.604	4634
919.715	4478
919.826	4352
919.936	4402
920.047	4538
920.157	4527
920.267	4752
920.378	4554
920.488	4527
920.598	4714
920.708	4889
920.818	4793
920.928	4797
921.038	4957
921.148	4957
921.258	4694
921.368	4561
921.477	4546
921.587	4493
921.697	4383
921.806	4550
921.916	4478
922.025	4284
922.134	4303
922.244	4303
922.353	4341
922.462	4188
922.571	4139
922.68	4055
922.789	3972
922.898	4055
923.007	3983
923.116	4074
923.224	4131
923.333	4124
923.442	4013
923.55	3972
923.659	4025
923.767	4120
923.876	4032
923.984	4128
924.092	4013
924.201	4158
924.309	4105
924.417	4105
924.525	4055
924.633	4120
924.741	4873
924.849	3964
924.956	4143
925.064	3987
925.172	3899
925.279	3987
925.387	4074
925.494	4048
925.602	4219
925.709	4219
925.816	4059
925.924	4158
926.031	4211
926.138	4204
926.245	4238
926.352	4147
926.459	4303
926.566	4322
926.673	4173
926.779	4067
926.886	4105
926.993	3983
927.099	3953
927.206	3964
927.312	3972
927.419	4086
927.525	4059
927.631	4086
927.737	3983
927.843	3937
927.95	3831
928.056	3922
928.162	3956
928.267	4101
928.373	4584
928.479	4097
928.585	3911
928.69	4055
928.796	4082
928.901	3960
929.007	3838
929.112	4071
929.218	3975
929.323	3975
929.428	3945
929.533	4101
929.638	3922
929.743	3968
929.848	4090
929.953	4002
930.058	3956
930.163	3781
930.267	3857
930.372	4010
930.477	3835
930.581	4135
930.685	3949
930.79	3850
930.894	3861
930.998	3899
931.103	4032
931.207	3701
931.311	3656
931.415	3682
931.519	3545
931.623	3526
