Data from test_V78500241_514.txt Node
Date: Fri Mar 25 16:52:34 CST 2022
User: usil
Spectrometer: V785-0024
Trigger mode: 0
Integration Time (sec): 4.000000E-1
Scans to average: 1
Nonlinearity correction enabled: false
Boxcar width: 0
Storing dark spectrum: false
XAxis mode: Wavelengths
Number of Pixels in Spectrum: 1024
>>>>>Begin Spectral Data<<<<<
801.071	8062
801.214	7951
801.356	7890
801.499	7818
801.641	7841
801.783	7833
801.926	8046
802.068	8008
802.211	8054
802.353	7997
802.496	7799
802.638	7967
802.78	7951
802.923	7826
803.065	7814
803.208	7890
803.35	7951
803.492	8084
803.635	8084
803.777	7955
803.919	8134
804.061	8465
804.204	8115
804.346	8016
804.488	7928
804.63	8024
804.773	8005
804.915	8084
805.057	8248
805.199	8172
805.341	8244
805.483	8301
805.626	8206
805.768	8130
805.91	8180
806.052	8142
806.194	8100
806.336	8317
806.478	8084
806.62	8039
806.762	8142
806.904	8225
807.046	8454
807.188	8355
807.33	8290
807.472	8271
807.614	8119
807.756	8096
807.898	8024
808.04	7890
808.182	7883
808.324	7856
808.465	7883
808.607	7970
808.749	8126
808.891	8233
809.033	8305
809.174	8180
809.316	8020
809.458	8054
809.6	7947
809.741	8001
809.883	8024
810.025	8046
810.166	8088
810.308	8024
810.45	7989
810.591	7868
810.733	7742
810.875	7677
811.016	7533
811.158	7491
811.299	7666
811.441	7784
811.582	7677
811.724	7559
811.865	7533
812.007	7594
812.148	7582
812.29	7670
812.431	7772
812.573	7890
812.714	8012
812.855	8149
812.997	8294
813.138	8385
813.279	8202
813.421	8172
813.562	8077
813.703	7894
813.845	7792
813.986	7491
814.127	7411
814.268	7346
814.41	7301
814.551	7194
814.692	7285
814.833	7103
814.974	7141
815.115	7088
815.256	6996
815.397	6932
815.539	6973
815.68	6806
815.821	6818
815.962	6901
816.103	6833
816.244	6722
816.385	6650
816.526	6654
816.666	6490
816.807	6327
816.948	6445
817.089	6448
817.23	6388
817.371	6384
817.512	6380
817.653	6361
817.793	6369
817.934	6380
818.075	6464
818.216	6471
818.356	6429
818.497	6258
818.638	6106
818.778	6152
818.919	6117
819.06	6155
819.2	6311
819.341	6296
819.481	6342
819.622	6547
819.762	6779
819.903	6688
820.043	6612
820.184	6540
820.324	6582
820.465	6726
820.605	6616
820.746	6593
820.886	6498
821.026	6662
821.167	6753
821.307	6806
821.447	6768
821.588	6646
821.728	6582
821.868	6422
822.008	6372
822.149	6403
822.289	6353
822.429	6167
822.569	6095
822.709	6148
822.849	5965
822.99	5885
823.13	5958
823.27	5889
823.41	5775
823.55	5786
823.69	5794
823.83	5809
823.97	5653
824.11	5573
824.25	5528
824.389	5532
824.529	5577
824.669	5520
824.809	5646
824.949	5684
825.089	5623
825.228	5581
825.368	5364
825.508	5364
825.648	5376
825.787	5383
825.927	5414
826.067	5334
826.206	5303
826.346	5425
826.485	5433
826.625	5398
826.765	5539
826.904	5497
827.044	5261
827.183	5246
827.323	5170
827.462	5242
827.601	5216
827.741	5193
827.88	5181
828.02	5113
828.159	5220
828.298	5322
828.437	5349
828.577	5288
828.716	5501
828.855	5357
828.994	5155
829.134	5159
829.273	5155
829.412	5113
829.551	5147
829.69	5181
829.829	5273
829.968	5360
830.107	5261
830.246	5277
830.385	5201
830.524	5105
830.663	5075
830.802	4953
830.941	4961
831.08	4904
831.219	4972
831.357	4991
831.496	5197
831.635	4870
831.774	4896
831.913	4889
832.051	4771
832.19	4812
832.329	4816
832.467	4664
832.606	4649
832.744	4717
832.883	4714
833.022	4717
833.16	4778
833.299	4839
833.437	4824
833.576	4786
833.714	4930
833.852	4854
833.991	4839
834.129	4968
834.267	4984
834.406	4942
834.544	4976
834.682	4961
834.821	4987
834.959	5166
835.097	5022
835.235	5193
835.373	5105
835.511	5041
835.65	5018
835.788	5010
835.926	4877
836.064	4877
836.202	4930
836.34	5159
836.478	5178
836.615	5117
836.753	5193
836.891	5337
837.029	5277
837.167	5174
837.305	5212
837.443	5109
837.58	5102
837.718	5284
837.856	5189
837.993	5155
838.131	5277
838.269	5220
838.406	5220
838.544	5212
838.681	5052
838.819	4961
838.956	4908
839.094	4881
839.231	5003
839.369	5094
839.506	5455
839.643	5235
839.781	5086
839.918	5041
840.055	5098
840.193	5094
840.33	5090
840.467	5162
840.604	5193
840.742	5429
840.879	5094
841.016	5113
841.153	5147
841.29	5376
841.427	5303
841.564	5277
841.701	5341
841.838	5273
841.975	5208
842.112	5254
842.249	5109
842.385	5079
842.522	5330
842.659	5181
842.796	5170
842.933	5170
843.069	5204
843.206	5136
843.343	5311
843.479	5242
843.616	5303
843.752	5098
843.889	5045
844.025	5284
844.162	4999
844.298	5208
844.435	5086
844.571	5083
844.708	5170
844.844	5322
844.98	5330
845.117	5318
845.253	5155
845.389	5094
845.525	5201
845.661	5223
845.798	5045
845.934	5162
846.07	5045
846.206	5201
846.342	5345
846.478	5166
846.614	5006
846.75	4953
846.886	4965
847.022	5143
847.158	5037
847.294	5079
847.429	5136
847.565	5071
847.701	5299
847.837	4896
847.972	4824
848.108	4953
848.244	4930
848.379	4786
848.515	4733
848.65	4710
848.786	4767
848.921	4805
849.057	4862
849.192	4889
849.328	4767
849.463	4866
849.598	4793
849.734	4729
849.869	4664
850.004	4626
850.14	4683
850.275	4584
850.41	4546
850.545	4599
850.68	4588
850.815	4622
850.95	4664
851.085	4831
851.22	4744
851.355	4679
851.49	4603
851.625	4622
851.76	4603
851.895	4603
852.03	4569
852.165	4660
852.299	4710
852.434	4793
852.569	4729
852.703	4763
852.838	4824
852.973	4930
853.107	4892
853.242	4717
853.376	4694
853.511	4546
853.645	4637
853.78	4755
853.914	4710
854.048	4706
854.183	4611
854.317	4736
854.451	4812
854.585	4706
854.72	4664
854.854	4782
854.988	4611
855.122	4649
855.256	4508
855.39	4679
855.524	4835
855.658	4702
855.792	4702
855.926	4710
856.06	4752
856.194	4831
856.327	4767
856.461	4626
856.595	4596
856.729	4645
856.862	4744
856.996	4691
857.13	4702
857.263	4748
857.397	4793
857.53	4641
857.664	4702
857.797	4763
857.931	4847
858.064	4672
858.197	4771
858.331	4679
858.464	4618
858.597	4558
858.731	4607
858.864	4660
858.997	4588
859.13	4634
859.263	4694
859.396	4675
859.529	4618
859.662	4561
859.795	4500
859.928	4577
860.061	4774
860.194	4790
860.327	4565
860.46	4584
860.592	4733
860.725	4714
860.858	4763
860.99	4588
861.123	4500
861.256	4516
861.388	4626
861.521	5444
861.653	4497
861.786	4432
861.918	4459
862.05	4485
862.183	4561
862.315	4577
862.447	4683
862.58	4554
862.712	4383
862.844	4356
862.976	4462
863.108	4504
863.24	4919
863.372	4363
863.504	4443
863.636	4386
863.768	4478
863.9	4413
864.032	4352
864.164	4455
864.296	4432
864.428	4584
864.559	4546
864.691	4569
864.823	4561
864.954	4519
865.086	4527
865.217	4432
865.349	4455
865.48	4421
865.612	4451
865.743	4626
865.875	4459
866.006	4474
866.137	4474
866.269	4421
866.4	4459
866.531	4417
866.662	4371
866.793	4402
866.924	4436
867.055	4462
867.186	4485
867.317	4436
867.448	4447
867.579	4390
867.71	4383
867.841	4379
867.972	4462
868.103	4440
868.233	4409
868.364	4440
868.495	4546
868.625	4656
868.756	4778
868.886	4565
869.017	4675
869.147	4759
869.278	4759
869.408	4687
869.539	4630
869.669	4755
869.799	4672
869.929	4812
870.06	4778
870.19	4927
870.32	4927
870.45	4904
870.58	5064
870.71	5079
870.84	5086
870.97	4953
871.1	4896
871.23	5117
871.36	5132
871.489	5060
871.619	5071
871.749	5105
871.879	5166
872.008	5208
872.138	5025
872.267	4930
872.397	4889
872.526	4824
872.656	4717
872.785	4790
872.915	4927
873.044	5102
873.173	4934
873.303	4976
873.432	5003
873.561	4953
873.69	4892
873.819	4847
873.948	4908
874.077	4797
874.206	4733
874.335	4831
874.464	4915
874.593	5067
874.722	4911
874.851	5064
874.979	5037
875.108	5025
875.237	4870
875.365	4892
875.494	4866
875.623	4961
875.751	4809
875.88	4843
876.008	4972
876.136	5067
876.265	5128
876.393	5296
876.521	5269
876.65	5261
876.778	5117
876.906	5102
877.034	5045
877.162	5064
877.29	4991
877.418	5025
877.546	5060
877.674	5071
877.802	5045
877.93	4999
878.058	4915
878.185	4858
878.313	4995
878.441	4953
878.568	4828
878.696	4835
878.824	4968
878.951	5014
879.079	5124
879.206	5288
879.333	5121
879.461	4965
879.588	5048
879.715	5128
879.842	5296
879.97	5022
880.097	4767
880.224	4793
880.351	4786
880.478	4858
880.605	4873
880.732	4805
880.859	5052
880.986	4896
881.112	4919
881.239	4782
881.366	4645
881.493	4626
881.619	4584
881.746	4634
881.872	4698
881.999	4618
882.125	4656
882.252	4740
882.378	4786
882.505	4934
882.631	4786
882.757	4675
882.883	4729
883.01	4733
883.136	4672
883.262	4542
883.388	4653
883.514	4831
883.64	4831
883.766	4759
883.892	4675
884.018	4744
884.143	4828
884.269	4938
884.395	4660
884.52	4660
884.646	4691
884.772	4599
884.897	4599
885.023	4615
885.148	4828
885.274	4854
885.399	4839
885.524	4767
885.65	4683
885.775	4725
885.9	4717
886.025	4828
886.15	4790
886.275	4714
886.4	4656
886.525	4710
886.65	4683
886.775	4714
886.9	4980
887.025	5048
887.149	4786
887.274	4660
887.399	4596
887.523	4546
887.648	4630
887.773	4607
887.897	4759
888.021	4843
888.146	4683
888.27	4831
888.395	4839
888.519	4805
888.643	4831
888.767	4801
888.891	4641
889.015	4645
889.139	4714
889.263	4630
889.387	4752
889.511	4896
889.635	4786
889.759	4664
889.883	4584
890.006	4767
890.13	4835
890.254	4641
890.377	4706
890.501	4550
890.624	4523
890.748	4611
890.871	4497
890.995	4470
891.118	4413
891.241	4470
891.364	4535
891.488	4687
891.611	4527
891.734	4546
891.857	4592
891.98	4546
892.103	4656
892.226	4546
892.349	4508
892.471	4440
892.594	4550
892.717	4599
892.839	4599
892.962	4569
893.085	4641
893.207	4611
893.33	4455
893.452	4516
893.575	4649
893.697	4607
893.819	4847
893.941	4873
894.064	4771
894.186	4535
894.308	4596
894.43	4744
894.552	4881
894.674	4748
894.796	4603
894.918	4565
895.04	4569
895.161	4771
895.283	4702
895.405	4580
895.526	4615
895.648	4672
895.769	4755
895.891	4683
896.012	4717
896.134	4710
896.255	4660
896.376	4660
896.498	4649
896.619	4653
896.74	4637
896.861	4660
896.982	4911
897.103	5079
897.224	4824
897.345	4717
897.466	4660
897.587	4702
897.708	4877
897.828	4782
897.949	4649
898.07	4634
898.19	4615
898.311	4831
898.431	4599
898.552	4714
898.672	4744
898.792	4820
898.913	4679
899.033	4618
899.153	4512
899.273	4424
899.393	4550
899.513	4504
899.633	4489
899.753	4527
899.873	4535
899.993	4577
900.113	4531
900.232	4599
900.352	4542
900.472	4481
900.591	4402
900.711	4455
900.83	4443
900.95	4561
901.069	4668
901.189	4546
901.308	4325
901.427	4325
901.546	4386
901.665	4474
901.784	4516
901.904	4371
902.023	4375
902.141	4150
902.26	4219
902.379	4234
902.498	4200
902.617	4200
902.735	4379
902.854	4344
902.973	4386
903.091	4211
903.21	4238
903.328	4287
903.446	4238
903.565	4291
903.683	4386
903.801	4234
903.919	4402
904.038	4455
904.156	4371
904.274	4432
904.392	4443
904.51	4436
904.627	4485
904.745	4542
904.863	4615
904.981	4402
905.098	4287
905.216	4352
905.334	4428
905.451	4455
905.569	4478
905.686	4569
905.803	4546
905.921	4383
906.038	4519
906.155	4512
906.272	4428
906.389	4436
906.506	4386
906.623	4348
906.74	4363
906.857	4314
906.974	4371
907.091	4550
907.208	4656
907.324	4565
907.441	4527
907.557	4329
907.674	4375
907.79	4318
907.907	4360
908.023	4417
908.139	4497
908.256	4421
908.372	4455
908.488	4500
908.604	4318
908.72	4325
908.836	4402
908.952	4352
909.068	4413
909.184	4577
909.3	4504
909.415	4538
909.531	4535
909.647	4306
909.762	4360
909.878	4352
909.993	4455
910.108	4443
910.224	4409
910.339	4485
910.454	4417
910.57	4383
910.685	4306
910.8	4694
910.915	4565
911.03	4481
911.145	4318
911.259	4356
911.374	4344
911.489	4291
911.604	4265
911.718	4147
911.833	4200
911.947	4086
912.062	4013
912.176	4242
912.291	4234
912.405	4253
912.519	4436
912.633	4512
912.748	4413
912.862	4268
912.976	4200
913.09	4128
913.204	4215
913.318	4246
913.431	4356
913.545	4375
913.659	4443
913.772	4360
913.886	4276
914	4223
914.113	4417
914.226	4455
914.34	4402
914.453	4261
914.566	4451
914.68	4287
914.793	4344
914.906	4204
915.019	4154
915.132	4036
915.245	4207
915.358	4234
915.47	4230
915.583	4280
915.696	4329
915.809	4413
915.921	4409
916.034	4318
916.146	4211
916.259	4207
916.371	4386
916.483	4352
916.595	4249
916.708	4318
916.82	4318
916.932	4360
917.044	4367
917.156	4344
917.268	4280
917.38	4325
917.491	4265
917.603	4329
917.715	4462
917.826	4466
917.938	4348
918.049	4238
918.161	4398
918.272	4561
918.384	4546
918.495	4447
918.606	4291
918.717	4238
918.828	4325
918.939	4341
919.05	4257
919.161	4310
919.272	4185
919.383	4272
919.494	4459
919.604	4603
919.715	4451
919.826	4363
919.936	4363
920.047	4546
920.157	4497
920.267	4714
920.378	4512
920.488	4451
920.598	4706
920.708	4839
920.818	4755
920.928	4752
921.038	4991
921.148	4923
921.258	4603
921.368	4561
921.477	4493
921.587	4443
921.697	4375
921.806	4599
921.916	4481
922.025	4272
922.134	4238
922.244	4215
922.353	4303
922.462	4139
922.571	4158
922.68	4021
922.789	4006
922.898	4067
923.007	4010
923.116	4093
923.224	4017
923.333	4082
923.442	3987
923.55	3983
923.659	4048
923.767	4059
923.876	3979
923.984	4105
924.092	3998
924.201	4097
924.309	4109
924.417	4154
924.525	4086
924.633	4093
924.741	5052
924.849	3880
924.956	4124
925.064	3949
925.172	3937
925.279	3930
925.387	4044
925.494	4086
925.602	4268
925.709	4169
925.816	4074
925.924	4166
926.031	4238
926.138	4169
926.245	4192
926.352	4109
926.459	4234
926.566	4284
926.673	4116
926.779	4078
926.886	4044
926.993	3964
927.099	3964
927.206	3953
927.312	3903
927.419	4040
927.525	4017
927.631	4078
927.737	3937
927.843	3956
927.95	3835
928.056	3975
928.162	3953
928.267	4078
928.373	4729
928.479	4086
928.585	3869
928.69	4051
928.796	4048
928.901	4040
929.007	3876
929.112	4002
929.218	3975
929.323	3922
929.428	3960
929.533	4086
929.638	3880
929.743	3941
929.848	4059
929.953	3972
930.058	3903
930.163	3804
930.267	3812
930.372	3934
930.477	3827
930.581	4116
930.685	3953
930.79	3823
930.894	3903
930.998	3865
931.103	3972
931.207	3698
931.311	3701
931.415	3637
931.519	3568
931.623	3557
