Data from test_V78500241_439.txt Node
Date: Fri Mar 25 16:52:03 CST 2022
User: usil
Spectrometer: V785-0024
Trigger mode: 0
Integration Time (sec): 4.000000E-1
Scans to average: 1
Nonlinearity correction enabled: false
Boxcar width: 0
Storing dark spectrum: false
XAxis mode: Wavelengths
Number of Pixels in Spectrum: 1024
>>>>>Begin Spectral Data<<<<<
801.071	8062
801.214	8024
801.356	7963
801.499	7852
801.641	7833
801.783	7875
801.926	8031
802.068	7959
802.211	8001
802.353	8001
802.496	7856
802.638	7849
802.78	7932
802.923	7940
803.065	7928
803.208	7887
803.35	7963
803.492	8031
803.635	8096
803.777	8020
803.919	8123
804.061	8396
804.204	8145
804.346	8043
804.488	7947
804.63	8115
804.773	8016
804.915	8183
805.057	8271
805.199	8199
805.341	8244
805.483	8324
805.626	8183
805.768	8027
805.91	8115
806.052	8134
806.194	8115
806.336	8412
806.478	8183
806.62	8111
806.762	8161
806.904	8301
807.046	8457
807.188	8419
807.33	8298
807.472	8294
807.614	8202
807.756	8119
807.898	8008
808.04	7944
808.182	8001
808.324	7921
808.465	8062
808.607	8130
808.749	8187
808.891	8256
809.033	8282
809.174	8263
809.316	8111
809.458	8191
809.6	8088
809.741	8142
809.883	8058
810.025	8240
810.166	8145
810.308	8054
810.45	8046
810.591	7936
810.733	7792
810.875	7784
811.016	7590
811.158	7476
811.299	7613
811.441	7792
811.582	7795
811.724	7666
811.865	7632
812.007	7708
812.148	7666
812.29	7704
812.431	7875
812.573	7989
812.714	8115
812.855	8218
812.997	8282
813.138	8431
813.279	8275
813.421	8183
813.562	8103
813.703	7932
813.845	7849
813.986	7540
814.127	7362
814.268	7297
814.41	7228
814.551	7232
814.692	7293
814.833	7107
814.974	7133
815.115	7164
815.256	7038
815.397	6951
815.539	6970
815.68	6935
815.821	6825
815.962	6954
816.103	6909
816.244	6810
816.385	6677
816.526	6700
816.666	6555
816.807	6410
816.948	6475
817.089	6578
817.23	6464
817.371	6399
817.512	6384
817.653	6460
817.793	6414
817.934	6460
818.075	6547
818.216	6494
818.356	6445
818.497	6273
818.638	6175
818.778	6209
818.919	6159
819.06	6190
819.2	6372
819.341	6342
819.481	6399
819.622	6513
819.762	6806
819.903	6779
820.043	6642
820.184	6616
820.324	6669
820.465	6734
820.605	6703
820.746	6703
820.886	6559
821.026	6684
821.167	6741
821.307	6779
821.447	6837
821.588	6696
821.728	6612
821.868	6498
822.008	6376
822.149	6464
822.289	6433
822.429	6171
822.569	6106
822.709	6159
822.849	5946
822.99	5980
823.13	5935
823.27	5958
823.41	5817
823.55	5813
823.69	5783
823.83	5847
823.97	5718
824.11	5570
824.25	5581
824.389	5589
824.529	5615
824.669	5627
824.809	5680
824.949	5672
825.089	5653
825.228	5562
825.368	5490
825.508	5448
825.648	5417
825.787	5421
825.927	5444
826.067	5326
826.206	5334
826.346	5425
826.485	5421
826.625	5471
826.765	5539
826.904	5467
827.044	5303
827.183	5208
827.323	5136
827.462	5296
827.601	5189
827.741	5231
827.88	5227
828.02	5140
828.159	5254
828.298	5360
828.437	5429
828.577	5349
828.716	5440
828.855	5368
828.994	5220
829.134	5143
829.273	5242
829.412	5189
829.551	5155
829.69	5174
829.829	5231
829.968	5368
830.107	5334
830.246	5299
830.385	5284
830.524	5174
830.663	5113
830.802	5045
830.941	4995
831.08	4930
831.219	4980
831.357	5029
831.496	5151
831.635	4923
831.774	4873
831.913	4866
832.051	4763
832.19	4805
832.329	4934
832.467	4736
832.606	4656
832.744	4729
832.883	4759
833.022	4782
833.16	4820
833.299	4877
833.437	4873
833.576	4858
833.714	4847
833.852	4927
833.991	4942
834.129	4972
834.267	4923
834.406	4938
834.544	5014
834.682	4999
834.821	4946
834.959	5170
835.097	5033
835.235	5170
835.373	5083
835.511	5140
835.65	5048
835.788	5056
835.926	4995
836.064	4877
836.202	4991
836.34	5212
836.478	5235
836.615	5185
836.753	5231
836.891	5292
837.029	5292
837.167	5254
837.305	5170
837.443	5204
837.58	5086
837.718	5318
837.856	5208
837.993	5178
838.131	5246
838.269	5258
838.406	5227
838.544	5185
838.681	5045
838.819	5075
838.956	4904
839.094	4915
839.231	5029
839.369	5155
839.506	5429
839.643	5280
839.781	5151
839.918	5014
840.055	5086
840.193	5140
840.33	5117
840.467	5155
840.604	5185
840.742	5474
840.879	5094
841.016	5098
841.153	5204
841.29	5406
841.427	5379
841.564	5322
841.701	5406
841.838	5341
841.975	5261
842.112	5303
842.249	5170
842.385	5143
842.522	5345
842.659	5185
842.796	5185
842.933	5261
843.069	5204
843.206	5124
843.343	5315
843.479	5284
843.616	5277
843.752	5052
843.889	5060
844.025	5269
844.162	5048
844.298	5239
844.435	5121
844.571	5094
844.708	5261
844.844	5315
844.98	5383
845.117	5322
845.253	5162
845.389	5079
845.525	5185
845.661	5162
845.798	5060
845.934	5159
846.07	5075
846.206	5246
846.342	5337
846.478	5197
846.614	5071
846.75	5018
846.886	5033
847.022	5151
847.158	5022
847.294	5102
847.429	5113
847.565	5105
847.701	5379
847.837	4889
847.972	4881
848.108	4980
848.244	4957
848.379	4793
848.515	4740
848.65	4744
848.786	4763
848.921	4763
849.057	4862
849.192	4927
849.328	4820
849.463	4858
849.598	4870
849.734	4782
849.869	4763
850.004	4637
850.14	4672
850.275	4626
850.41	4546
850.545	4580
850.68	4634
850.815	4710
850.95	4660
851.085	4854
851.22	4786
851.355	4687
851.49	4641
851.625	4622
851.76	4634
851.895	4592
852.03	4527
852.165	4660
852.299	4744
852.434	4786
852.569	4790
852.703	4774
852.838	4870
852.973	4923
853.107	4953
853.242	4725
853.376	4687
853.511	4569
853.645	4592
853.78	4782
853.914	4714
854.048	4736
854.183	4668
854.317	4744
854.451	4881
854.585	4736
854.72	4656
854.854	4721
854.988	4634
855.122	4706
855.256	4592
855.39	4668
855.524	4797
855.658	4725
855.792	4748
855.926	4763
856.06	4752
856.194	4858
856.327	4721
856.461	4641
856.595	4645
856.729	4622
856.862	4793
856.996	4736
857.13	4714
857.263	4786
857.397	4850
857.53	4660
857.664	4778
857.797	4793
857.931	4831
858.064	4748
858.197	4786
858.331	4679
858.464	4641
858.597	4558
858.731	4660
858.864	4687
858.997	4637
859.13	4694
859.263	4668
859.396	4694
859.529	4637
859.662	4577
859.795	4558
859.928	4660
860.061	4774
860.194	4824
860.327	4626
860.46	4596
860.592	4740
860.725	4733
860.858	4759
860.99	4622
861.123	4500
861.256	4546
861.388	4641
861.521	5478
861.653	4504
861.786	4462
861.918	4493
862.05	4538
862.183	4588
862.315	4702
862.447	4660
862.58	4596
862.712	4432
862.844	4341
862.976	4508
863.108	4478
863.24	4850
863.372	4333
863.504	4443
863.636	4424
863.768	4538
863.9	4481
864.032	4352
864.164	4394
864.296	4512
864.428	4535
864.559	4599
864.691	4550
864.823	4535
864.954	4508
865.086	4550
865.217	4409
865.349	4436
865.48	4516
865.612	4508
865.743	4698
865.875	4516
866.006	4462
866.137	4481
866.269	4489
866.4	4462
866.531	4413
866.662	4421
866.793	4462
866.924	4470
867.055	4497
867.186	4466
867.317	4402
867.448	4386
867.579	4405
867.71	4405
867.841	4398
867.972	4489
868.103	4466
868.233	4462
868.364	4489
868.495	4481
868.625	4679
868.756	4755
868.886	4569
869.017	4615
869.147	4782
869.278	4771
869.408	4649
869.539	4649
869.669	4740
869.799	4694
869.929	4744
870.06	4717
870.19	4976
870.32	4976
870.45	4965
870.58	4957
870.71	5094
870.84	5086
870.97	4984
871.1	4889
871.23	5174
871.36	5136
871.489	4999
871.619	5060
871.749	5105
871.879	5128
872.008	5212
872.138	5041
872.267	5022
872.397	4854
872.526	4839
872.656	4767
872.785	4809
872.915	4949
873.044	5060
873.173	4980
873.303	5018
873.432	4965
873.561	4968
873.69	4881
873.819	4885
873.948	4938
874.077	4847
874.206	4805
874.335	4824
874.464	4942
874.593	5094
874.722	4987
874.851	5094
874.979	5098
875.108	5052
875.237	4915
875.365	4900
875.494	4889
875.623	4972
875.751	4831
875.88	4904
876.008	5025
876.136	5083
876.265	5220
876.393	5398
876.521	5284
876.65	5258
876.778	5174
876.906	5056
877.034	5033
877.162	5037
877.29	4972
877.418	5124
877.546	5056
877.674	5010
877.802	5029
877.93	5052
878.058	4930
878.185	4870
878.313	4942
878.441	4972
878.568	4877
878.696	4870
878.824	4957
878.951	5006
879.079	5109
879.206	5345
879.333	5124
879.461	5033
879.588	5052
879.715	5147
879.842	5254
879.97	5003
880.097	4782
880.224	4763
880.351	4748
880.478	4831
880.605	4835
880.732	4793
880.859	5052
880.986	4900
881.112	4900
881.239	4763
881.366	4694
881.493	4626
881.619	4649
881.746	4675
881.872	4668
881.999	4664
882.125	4664
882.252	4786
882.378	4812
882.505	4991
882.631	4831
882.757	4618
882.883	4744
883.01	4691
883.136	4668
883.262	4672
883.388	4672
883.514	4858
883.64	4892
883.766	4809
883.892	4660
884.018	4778
884.143	4934
884.269	5048
884.395	4675
884.52	4656
884.646	4656
884.772	4584
884.897	4569
885.023	4668
885.148	4767
885.274	4885
885.399	4847
885.524	4763
885.65	4736
885.775	4767
885.9	4755
886.025	4870
886.15	4763
886.275	4679
886.4	4645
886.525	4748
886.65	4683
886.775	4736
886.9	4889
887.025	5025
887.149	4831
887.274	4649
887.399	4596
887.523	4634
887.648	4573
887.773	4611
887.897	4736
888.021	4774
888.146	4660
888.27	4812
888.395	4904
888.519	4850
888.643	4824
888.767	4831
888.891	4645
889.015	4603
889.139	4675
889.263	4615
889.387	4782
889.511	4877
889.635	4767
889.759	4664
889.883	4611
890.006	4782
890.13	4847
890.254	4607
890.377	4721
890.501	4546
890.624	4550
890.748	4664
890.871	4508
890.995	4413
891.118	4413
891.241	4523
891.364	4550
891.488	4679
891.611	4550
891.734	4577
891.857	4622
891.98	4603
892.103	4634
892.226	4672
892.349	4527
892.471	4390
892.594	4531
892.717	4577
892.839	4588
892.962	4618
893.085	4634
893.207	4626
893.33	4481
893.452	4500
893.575	4702
893.697	4618
893.819	4812
893.941	4839
894.064	4752
894.186	4580
894.308	4558
894.43	4748
894.552	4843
894.674	4858
894.796	4535
894.918	4626
895.04	4554
895.161	4687
895.283	4694
895.405	4588
895.526	4649
895.648	4683
895.769	4691
895.891	4706
896.012	4706
896.134	4721
896.255	4679
896.376	4672
896.498	4630
896.619	4714
896.74	4599
896.861	4679
896.982	4938
897.103	5067
897.224	4812
897.345	4763
897.466	4672
897.587	4714
897.708	4850
897.828	4801
897.949	4664
898.07	4599
898.19	4634
898.311	4847
898.431	4691
898.552	4702
898.672	4835
898.792	4816
898.913	4771
899.033	4630
899.153	4531
899.273	4436
899.393	4470
899.513	4565
899.633	4489
899.753	4558
899.873	4519
899.993	4588
900.113	4573
900.232	4618
900.352	4584
900.472	4493
900.591	4409
900.711	4504
900.83	4424
900.95	4607
901.069	4694
901.189	4504
901.308	4455
901.427	4356
901.546	4367
901.665	4489
901.784	4485
901.904	4424
902.023	4329
902.141	4211
902.26	4162
902.379	4348
902.498	4207
902.617	4207
902.735	4348
902.854	4440
902.973	4344
903.091	4181
903.21	4215
903.328	4318
903.446	4306
903.565	4238
903.683	4341
903.801	4295
903.919	4413
904.038	4375
904.156	4299
904.274	4432
904.392	4371
904.51	4466
904.627	4497
904.745	4558
904.863	4698
904.981	4421
905.098	4299
905.216	4383
905.334	4421
905.451	4428
905.569	4432
905.686	4531
905.803	4561
905.921	4402
906.038	4542
906.155	4485
906.272	4409
906.389	4489
906.506	4363
906.623	4390
906.74	4390
906.857	4310
906.974	4344
907.091	4542
907.208	4721
907.324	4596
907.441	4508
907.557	4325
907.674	4322
907.79	4310
907.907	4371
908.023	4512
908.139	4462
908.256	4428
908.372	4470
908.488	4436
908.604	4363
908.72	4284
908.836	4390
908.952	4390
909.068	4462
909.184	4626
909.3	4459
909.415	4577
909.531	4577
909.647	4371
909.762	4383
909.878	4341
909.993	4398
910.108	4405
910.224	4409
910.339	4466
910.454	4447
910.57	4390
910.685	4322
910.8	4656
910.915	4679
911.03	4497
911.145	4299
911.259	4299
911.374	4424
911.489	4322
911.604	4276
911.718	4173
911.833	4219
911.947	4074
912.062	4063
912.176	4227
912.291	4249
912.405	4276
912.519	4519
912.633	4523
912.748	4386
912.862	4284
912.976	4196
913.09	4128
913.204	4181
913.318	4253
913.431	4367
913.545	4421
913.659	4413
913.772	4306
913.886	4207
914	4227
914.113	4337
914.226	4462
914.34	4386
914.453	4272
914.566	4462
914.68	4318
914.793	4299
914.906	4173
915.019	4112
915.132	4082
915.245	4173
915.358	4211
915.47	4268
915.583	4280
915.696	4299
915.809	4371
915.921	4443
916.034	4238
916.146	4238
916.259	4207
916.371	4348
916.483	4398
916.595	4276
916.708	4306
916.82	4337
916.932	4299
917.044	4314
917.156	4333
917.268	4265
917.38	4272
917.491	4325
917.603	4329
917.715	4394
917.826	4447
917.938	4363
918.049	4257
918.161	4386
918.272	4546
918.384	4531
918.495	4462
918.606	4272
918.717	4284
918.828	4337
918.939	4383
919.05	4265
919.161	4356
919.272	4097
919.383	4227
919.494	4440
919.604	4626
919.715	4405
919.826	4356
919.936	4402
920.047	4504
920.157	4485
920.267	4740
920.378	4523
920.488	4478
920.598	4740
920.708	4877
920.818	4755
920.928	4725
921.038	4991
921.148	4904
921.258	4656
921.368	4527
921.477	4489
921.587	4481
921.697	4413
921.806	4565
921.916	4455
922.025	4291
922.134	4284
922.244	4211
922.353	4375
922.462	4166
922.571	4128
922.68	4017
922.789	3994
922.898	4025
923.007	3968
923.116	4109
923.224	4032
923.333	4071
923.442	4006
923.55	3979
923.659	4017
923.767	4131
923.876	4006
923.984	4090
924.092	3998
924.201	4082
924.309	4105
924.417	4105
924.525	4090
924.633	4086
924.741	5094
924.849	3922
924.956	4101
925.064	3979
925.172	3899
925.279	3972
925.387	4032
925.494	4082
925.602	4234
925.709	4162
925.816	4059
925.924	4120
926.031	4249
926.138	4147
926.245	4238
926.352	4093
926.459	4257
926.566	4265
926.673	4124
926.779	4097
926.886	4048
926.993	3968
927.099	3975
927.206	3956
927.312	3945
927.419	4025
927.525	3983
927.631	4071
927.737	3956
927.843	3945
927.95	3823
928.056	3979
928.162	3960
928.267	4048
928.373	4736
928.479	4067
928.585	3831
928.69	4013
928.796	4036
928.901	3960
929.007	3842
929.112	3998
929.218	3960
929.323	3964
929.428	3960
929.533	4112
929.638	3945
929.743	3972
929.848	4006
929.953	4036
930.058	3922
930.163	3816
930.267	3854
930.372	3975
930.477	3846
930.581	4112
930.685	3979
930.79	3816
930.894	3869
930.998	3865
931.103	4017
931.207	3732
931.311	3759
931.415	3686
931.519	3542
931.623	3530
