Data from test_V78500241_1831.txt Node
Date: Fri Mar 25 17:01:43 CST 2022
User: usil
Spectrometer: V785-0024
Trigger mode: 0
Integration Time (sec): 4.000000E-1
Scans to average: 1
Nonlinearity correction enabled: false
Boxcar width: 0
Storing dark spectrum: false
XAxis mode: Wavelengths
Number of Pixels in Spectrum: 1024
>>>>>Begin Spectral Data<<<<<
801.071	7951
801.214	7955
801.356	7750
801.499	7860
801.641	7795
801.783	7837
801.926	7936
802.068	7917
802.211	7963
802.353	7947
802.496	7868
802.638	7799
802.78	7833
802.923	7951
803.065	7856
803.208	7841
803.35	7932
803.492	8081
803.635	8062
803.777	8005
803.919	8107
804.061	8400
804.204	8157
804.346	8107
804.488	7902
804.63	8077
804.773	7997
804.915	8058
805.057	8252
805.199	8153
805.341	8225
805.483	8279
805.626	8279
805.768	8191
805.91	8214
806.052	8149
806.194	8073
806.336	8400
806.478	8111
806.62	8016
806.762	8115
806.904	8267
807.046	8431
807.188	8374
807.33	8294
807.472	8286
807.614	8210
807.756	8130
807.898	7993
808.04	7887
808.182	7928
808.324	7795
808.465	7871
808.607	7989
808.749	8050
808.891	8244
809.033	8366
809.174	8191
809.316	8164
809.458	8050
809.6	8001
809.741	8119
809.883	8046
810.025	8020
810.166	8039
810.308	8050
810.45	7970
810.591	7849
810.733	7704
810.875	7677
811.016	7548
811.158	7426
811.299	7514
811.441	7780
811.582	7647
811.724	7613
811.865	7556
812.007	7525
812.148	7605
812.29	7624
812.431	7757
812.573	7890
812.714	7986
812.855	8100
812.997	8206
813.138	8286
813.279	8134
813.421	8084
813.562	7967
813.703	7845
813.845	7772
813.986	7362
814.127	7187
814.268	7247
814.41	7206
814.551	7126
814.692	7206
814.833	7084
814.974	7110
815.115	7091
815.256	7038
815.397	6932
815.539	6928
815.68	6791
815.821	6715
815.962	6798
816.103	6757
816.244	6738
816.385	6623
816.526	6616
816.666	6445
816.807	6311
816.948	6452
817.089	6509
817.23	6414
817.371	6384
817.512	6319
817.653	6391
817.793	6376
817.934	6391
818.075	6441
818.216	6426
818.356	6372
818.497	6296
818.638	6098
818.778	6171
818.919	6091
819.06	6167
819.2	6296
819.341	6270
819.481	6403
819.622	6490
819.762	6707
819.903	6700
820.043	6631
820.184	6601
820.324	6620
820.465	6681
820.605	6703
820.746	6646
820.886	6566
821.026	6669
821.167	6627
821.307	6768
821.447	6749
821.588	6604
821.728	6536
821.868	6483
822.008	6304
822.149	6384
822.289	6342
822.429	6110
822.569	6049
822.709	6064
822.849	5904
822.99	5878
823.13	5908
823.27	5878
823.41	5756
823.55	5775
823.69	5798
823.83	5786
823.97	5638
824.11	5558
824.25	5528
824.389	5535
824.529	5592
824.669	5520
824.809	5566
824.949	5642
825.089	5577
825.228	5547
825.368	5349
825.508	5311
825.648	5326
825.787	5341
825.927	5425
826.067	5269
826.206	5303
826.346	5402
826.485	5467
826.625	5395
826.765	5554
826.904	5490
827.044	5254
827.183	5178
827.323	5136
827.462	5277
827.601	5178
827.741	5197
827.88	5227
828.02	5136
828.159	5178
828.298	5261
828.437	5284
828.577	5254
828.716	5414
828.855	5322
828.994	5162
829.134	5193
829.273	5204
829.412	5143
829.551	5109
829.69	5189
829.829	5166
829.968	5353
830.107	5246
830.246	5246
830.385	5212
830.524	5147
830.663	5064
830.802	4953
830.941	4873
831.08	4870
831.219	4995
831.357	4946
831.496	5143
831.635	4961
831.774	4828
831.913	4767
832.051	4714
832.19	4740
832.329	4793
832.467	4660
832.606	4615
832.744	4733
832.883	4717
833.022	4733
833.16	4786
833.299	4812
833.437	4809
833.576	4828
833.714	4778
833.852	4911
833.991	4904
834.129	4972
834.267	4987
834.406	4911
834.544	4953
834.682	4980
834.821	4980
834.959	5086
835.097	4976
835.235	5189
835.373	5086
835.511	5117
835.65	5079
835.788	4968
835.926	4889
836.064	4885
836.202	4889
836.34	5178
836.478	5178
836.615	5113
836.753	5227
836.891	5201
837.029	5288
837.167	5212
837.305	5124
837.443	5105
837.58	5075
837.718	5265
837.856	5140
837.993	5155
838.131	5197
838.269	5212
838.406	5197
838.544	5174
838.681	5052
838.819	4946
838.956	4889
839.094	4889
839.231	4972
839.369	5052
839.506	5364
839.643	5250
839.781	5090
839.918	4980
840.055	5102
840.193	5071
840.33	5075
840.467	5178
840.604	5178
840.742	5425
840.879	5071
841.016	5124
841.153	5147
841.29	5391
841.427	5345
841.564	5269
841.701	5368
841.838	5250
841.975	5242
842.112	5227
842.249	5147
842.385	5052
842.522	5318
842.659	5136
842.796	5102
842.933	5220
843.069	5170
843.206	5105
843.343	5265
843.479	5208
843.616	5227
843.752	5010
843.889	5018
844.025	5151
844.162	4980
844.298	5201
844.435	5064
844.571	5025
844.708	5159
844.844	5296
844.98	5299
845.117	5223
845.253	5155
845.389	5109
845.525	5128
845.661	5124
845.798	5033
845.934	5121
846.07	5075
846.206	5174
846.342	5197
846.478	5136
846.614	4999
846.75	4949
846.886	4896
847.022	5174
847.158	5018
847.294	5025
847.429	5067
847.565	5003
847.701	5364
847.837	4862
847.972	4778
848.108	4968
848.244	4908
848.379	4740
848.515	4729
848.65	4668
848.786	4702
848.921	4763
849.057	4873
849.192	4866
849.328	4820
849.463	4839
849.598	4774
849.734	4744
849.869	4672
850.004	4611
850.14	4645
850.275	4618
850.41	4554
850.545	4580
850.68	4599
850.815	4580
850.95	4607
851.085	4828
851.22	4733
851.355	4622
851.49	4622
851.625	4603
851.76	4630
851.895	4497
852.03	4561
852.165	4618
852.299	4691
852.434	4748
852.569	4729
852.703	4744
852.838	4797
852.973	4877
853.107	4850
853.242	4736
853.376	4656
853.511	4523
853.645	4565
853.78	4809
853.914	4679
854.048	4637
854.183	4630
854.317	4683
854.451	4820
854.585	4694
854.72	4607
854.854	4717
854.988	4592
855.122	4618
855.256	4504
855.39	4637
855.524	4790
855.658	4679
855.792	4656
855.926	4672
856.06	4755
856.194	4793
856.327	4649
856.461	4611
856.595	4592
856.729	4622
856.862	4717
856.996	4702
857.13	4702
857.263	4755
857.397	4824
857.53	4634
857.664	4729
857.797	4774
857.931	4767
858.064	4664
858.197	4740
858.331	4641
858.464	4603
858.597	4481
858.731	4672
858.864	4653
858.997	4660
859.13	4649
859.263	4630
859.396	4706
859.529	4584
859.662	4561
859.795	4558
859.928	4630
860.061	4790
860.194	4786
860.327	4596
860.46	4611
860.592	4748
860.725	4748
860.858	4744
860.99	4573
861.123	4573
861.256	4558
861.388	4664
861.521	5360
861.653	4508
861.786	4493
861.918	4470
862.05	4542
862.183	4584
862.315	4656
862.447	4683
862.58	4561
862.712	4459
862.844	4394
862.976	4504
863.108	4527
863.24	4889
863.372	4341
863.504	4493
863.636	4432
863.768	4455
863.9	4485
864.032	4443
864.164	4455
864.296	4481
864.428	4554
864.559	4584
864.691	4599
864.823	4565
864.954	4497
865.086	4535
865.217	4474
865.349	4481
865.48	4516
865.612	4512
865.743	4656
865.875	4493
866.006	4497
866.137	4493
866.269	4447
866.4	4485
866.531	4493
866.662	4478
866.793	4424
866.924	4398
867.055	4531
867.186	4440
867.317	4455
867.448	4371
867.579	4428
867.71	4428
867.841	4356
867.972	4481
868.103	4489
868.233	4443
868.364	4493
868.495	4535
868.625	4729
868.756	4801
868.886	4546
869.017	4637
869.147	4778
869.278	4797
869.408	4729
869.539	4691
869.669	4748
869.799	4679
869.929	4786
870.06	4805
870.19	4980
870.32	4999
870.45	4946
870.58	5018
870.71	5117
870.84	5132
870.97	4999
871.1	4919
871.23	5170
871.36	5162
871.489	5025
871.619	5060
871.749	5086
871.879	5170
872.008	5201
872.138	5098
872.267	5060
872.397	4923
872.526	4809
872.656	4698
872.785	4839
872.915	4957
873.044	5079
873.173	4961
873.303	4987
873.432	4968
873.561	4972
873.69	4968
873.819	4858
873.948	4984
874.077	4854
874.206	4771
874.335	4839
874.464	4915
874.593	5071
874.722	4987
874.851	5155
874.979	5102
875.108	5067
875.237	4984
875.365	4908
875.494	4908
875.623	5033
875.751	4870
875.88	4904
876.008	4995
876.136	5071
876.265	5250
876.393	5406
876.521	5261
876.65	5239
876.778	5189
876.906	5102
877.034	5037
877.162	5090
877.29	4987
877.418	5105
877.546	5064
877.674	5064
877.802	5025
877.93	5071
878.058	4927
878.185	4873
878.313	4972
878.441	4972
878.568	4839
878.696	4911
878.824	4987
878.951	4999
879.079	5136
879.206	5349
879.333	5102
879.461	4957
879.588	5025
879.715	5140
879.842	5250
879.97	5037
880.097	4835
880.224	4828
880.351	4816
880.478	4843
880.605	4786
880.732	4790
880.859	5086
880.986	4927
881.112	4987
881.239	4816
881.366	4702
881.493	4664
881.619	4649
881.746	4622
881.872	4683
881.999	4698
882.125	4733
882.252	4820
882.378	4824
882.505	4987
882.631	4824
882.757	4679
882.883	4786
883.01	4816
883.136	4668
883.262	4683
883.388	4641
883.514	4866
883.64	4892
883.766	4839
883.892	4706
884.018	4740
884.143	4915
884.269	5025
884.395	4725
884.52	4656
884.646	4668
884.772	4607
884.897	4626
885.023	4733
885.148	4820
885.274	4839
885.399	4854
885.524	4725
885.65	4748
885.775	4725
885.9	4767
886.025	4923
886.15	4824
886.275	4736
886.4	4683
886.525	4752
886.65	4717
886.775	4748
886.9	4957
887.025	5083
887.149	4797
887.274	4649
887.399	4626
887.523	4618
887.648	4569
887.773	4531
887.897	4790
888.021	4797
888.146	4729
888.27	4831
888.395	4980
888.519	4801
888.643	4843
888.767	4843
888.891	4656
889.015	4615
889.139	4759
889.263	4611
889.387	4767
889.511	4877
889.635	4854
889.759	4653
889.883	4634
890.006	4752
890.13	4934
890.254	4656
890.377	4717
890.501	4580
890.624	4592
890.748	4687
890.871	4561
890.995	4447
891.118	4421
891.241	4523
891.364	4577
891.488	4668
891.611	4474
891.734	4527
891.857	4622
891.98	4580
892.103	4664
892.226	4596
892.349	4554
892.471	4440
892.594	4592
892.717	4596
892.839	4599
892.962	4653
893.085	4672
893.207	4615
893.33	4447
893.452	4523
893.575	4679
893.697	4618
893.819	4801
893.941	4839
894.064	4801
894.186	4618
894.308	4603
894.43	4763
894.552	4828
894.674	4782
894.796	4618
894.918	4596
895.04	4558
895.161	4729
895.283	4675
895.405	4618
895.526	4634
895.648	4694
895.769	4691
895.891	4801
896.012	4759
896.134	4691
896.255	4687
896.376	4645
896.498	4611
896.619	4683
896.74	4584
896.861	4653
896.982	4911
897.103	5124
897.224	4828
897.345	4771
897.466	4664
897.587	4687
897.708	4850
897.828	4774
897.949	4706
898.07	4603
898.19	4656
898.311	4828
898.431	4736
898.552	4755
898.672	4805
898.792	4847
898.913	4744
899.033	4645
899.153	4478
899.273	4428
899.393	4519
899.513	4550
899.633	4519
899.753	4527
899.873	4523
899.993	4569
900.113	4550
900.232	4592
900.352	4558
900.472	4531
900.591	4432
900.711	4504
900.83	4451
900.95	4634
901.069	4729
901.189	4611
901.308	4405
901.427	4363
901.546	4436
901.665	4485
901.784	4538
901.904	4390
902.023	4371
902.141	4188
902.26	4227
902.379	4318
902.498	4280
902.617	4207
902.735	4394
902.854	4424
902.973	4356
903.091	4253
903.21	4284
903.328	4314
903.446	4333
903.565	4249
903.683	4375
903.801	4246
903.919	4432
904.038	4489
904.156	4322
904.274	4402
904.392	4409
904.51	4470
904.627	4462
904.745	4599
904.863	4607
904.981	4424
905.098	4325
905.216	4383
905.334	4466
905.451	4466
905.569	4447
905.686	4546
905.803	4538
905.921	4375
906.038	4603
906.155	4542
906.272	4390
906.389	4455
906.506	4310
906.623	4409
906.74	4440
906.857	4360
906.974	4421
907.091	4580
907.208	4736
907.324	4596
907.441	4512
907.557	4379
907.674	4360
907.79	4337
907.907	4356
908.023	4455
908.139	4519
908.256	4470
908.372	4462
908.488	4474
908.604	4398
908.72	4367
908.836	4413
908.952	4398
909.068	4447
909.184	4611
909.3	4500
909.415	4596
909.531	4558
909.647	4417
909.762	4348
909.878	4352
909.993	4432
910.108	4424
910.224	4417
910.339	4516
910.454	4455
910.57	4371
910.685	4310
910.8	4687
910.915	4542
911.03	4512
911.145	4348
911.259	4356
911.374	4386
911.489	4306
911.604	4318
911.718	4207
911.833	4207
911.947	4116
912.062	4032
912.176	4211
912.291	4276
912.405	4280
912.519	4485
912.633	4459
912.748	4390
912.862	4314
912.976	4249
913.09	4120
913.204	4196
913.318	4253
913.431	4344
913.545	4375
913.659	4455
913.772	4360
913.886	4287
914	4249
914.113	4363
914.226	4405
914.34	4390
914.453	4291
914.566	4459
914.68	4333
914.793	4341
914.906	4150
915.019	4150
915.132	4082
915.245	4192
915.358	4200
915.47	4287
915.583	4234
915.696	4299
915.809	4428
915.921	4432
916.034	4261
916.146	4276
916.259	4215
916.371	4390
916.483	4363
916.595	4234
916.708	4344
916.82	4284
916.932	4337
917.044	4363
917.156	4344
917.268	4246
917.38	4257
917.491	4261
917.603	4341
917.715	4413
917.826	4470
917.938	4310
918.049	4219
918.161	4428
918.272	4546
918.384	4542
918.495	4478
918.606	4318
918.717	4242
918.828	4322
918.939	4386
919.05	4230
919.161	4352
919.272	4097
919.383	4211
919.494	4466
919.604	4664
919.715	4383
919.826	4386
919.936	4417
920.047	4523
920.157	4516
920.267	4736
920.378	4588
920.488	4478
920.598	4694
920.708	4892
920.818	4767
920.928	4767
921.038	4938
921.148	4965
921.258	4641
921.368	4599
921.477	4531
921.587	4470
921.697	4405
921.806	4599
921.916	4447
922.025	4280
922.134	4261
922.244	4223
922.353	4333
922.462	4223
922.571	4150
922.68	4010
922.789	3964
922.898	4048
923.007	3979
923.116	4090
923.224	4044
923.333	4055
923.442	3987
923.55	4017
923.659	4032
923.767	4120
923.876	4006
923.984	4139
924.092	4029
924.201	4036
924.309	4097
924.417	4131
924.525	4067
924.633	4135
924.741	5048
924.849	3903
924.956	4147
925.064	4017
925.172	3926
925.279	3941
925.387	4101
925.494	4109
925.602	4246
925.709	4196
925.816	4071
925.924	4162
926.031	4265
926.138	4196
926.245	4249
926.352	4101
926.459	4261
926.566	4314
926.673	4166
926.779	4139
926.886	4055
926.993	4048
927.099	3987
927.206	4010
927.312	3922
927.419	4105
927.525	4059
927.631	4173
927.737	3987
927.843	3972
927.95	3869
928.056	3972
928.162	4067
928.267	4109
928.373	4565
928.479	4128
928.585	3888
928.69	4101
928.796	4093
928.901	3956
929.007	3941
929.112	4048
929.218	4021
929.323	4013
929.428	4013
929.533	4124
929.638	3972
929.743	4025
929.848	4120
929.953	4013
930.058	3949
930.163	3888
930.267	3865
930.372	4021
930.477	3876
930.581	4143
930.685	4006
930.79	3869
930.894	3907
930.998	3903
931.103	4082
931.207	3759
931.311	3740
931.415	3728
931.519	3542
931.623	3599
