Data from test_V78500241_1486.txt Node
Date: Fri Mar 25 16:59:20 CST 2022
User: usil
Spectrometer: V785-0024
Trigger mode: 0
Integration Time (sec): 4.000000E-1
Scans to average: 1
Nonlinearity correction enabled: false
Boxcar width: 0
Storing dark spectrum: false
XAxis mode: Wavelengths
Number of Pixels in Spectrum: 1024
>>>>>Begin Spectral Data<<<<<
801.071	7944
801.214	7955
801.356	7833
801.499	7879
801.641	7784
801.783	7784
801.926	7902
802.068	7947
802.211	7944
802.353	7944
802.496	7776
802.638	7864
802.78	7890
802.923	7978
803.065	7845
803.208	7871
803.35	7947
803.492	8081
803.635	8069
803.777	8005
803.919	8176
804.061	8454
804.204	8202
804.346	8058
804.488	7978
804.63	8100
804.773	7951
804.915	8096
805.057	8252
805.199	8111
805.341	8130
805.483	8263
805.626	8161
805.768	8176
805.91	8233
806.052	8157
806.194	8115
806.336	8275
806.478	8046
806.62	8035
806.762	8115
806.904	8282
807.046	8480
807.188	8355
807.33	8305
807.472	8313
807.614	8138
807.756	8107
807.898	7883
808.04	7887
808.182	7898
808.324	7856
808.465	7909
808.607	8081
808.749	8088
808.891	8191
809.033	8282
809.174	8138
809.316	8035
809.458	8077
809.6	7970
809.741	8031
809.883	7997
810.025	8054
810.166	8046
810.308	8027
810.45	8031
810.591	7841
810.733	7708
810.875	7609
811.016	7540
811.158	7468
811.299	7575
811.441	7643
811.582	7666
811.724	7597
811.865	7499
812.007	7521
812.148	7537
812.29	7582
812.431	7712
812.573	7940
812.714	7913
812.855	8073
812.997	8176
813.138	8366
813.279	8153
813.421	8065
813.562	8065
813.703	7772
813.845	7757
813.986	7422
814.127	7236
814.268	7190
814.41	7183
814.551	7179
814.692	7247
814.833	7057
814.974	7095
815.115	7118
815.256	6962
815.397	6932
815.539	6973
815.68	6848
815.821	6798
815.962	6787
816.103	6818
816.244	6669
816.385	6612
816.526	6601
816.666	6467
816.807	6285
816.948	6369
817.089	6437
817.23	6448
817.371	6346
817.512	6426
817.653	6391
817.793	6311
817.934	6334
818.075	6399
818.216	6429
818.356	6365
818.497	6327
818.638	6140
818.778	6140
818.919	6110
819.06	6098
819.2	6372
819.341	6376
819.481	6437
819.622	6532
819.762	6741
819.903	6673
820.043	6582
820.184	6627
820.324	6578
820.465	6631
820.605	6684
820.746	6673
820.886	6566
821.026	6696
821.167	6700
821.307	6738
821.447	6730
821.588	6627
821.728	6593
821.868	6486
822.008	6304
822.149	6327
822.289	6319
822.429	6171
822.569	6053
822.709	6072
822.849	5916
822.99	5878
823.13	5878
823.27	5946
823.41	5794
823.55	5786
823.69	5760
823.83	5813
823.97	5589
824.11	5486
824.25	5539
824.389	5566
824.529	5585
824.669	5509
824.809	5573
824.949	5691
825.089	5570
825.228	5543
825.368	5364
825.508	5299
825.648	5364
825.787	5379
825.927	5322
826.067	5265
826.206	5277
826.346	5425
826.485	5417
826.625	5345
826.765	5543
826.904	5493
827.044	5235
827.183	5162
827.323	5090
827.462	5235
827.601	5223
827.741	5193
827.88	5246
828.02	5121
828.159	5250
828.298	5326
828.437	5349
828.577	5231
828.716	5497
828.855	5345
828.994	5155
829.134	5147
829.273	5155
829.412	5083
829.551	5147
829.69	5181
829.829	5273
829.968	5395
830.107	5265
830.246	5254
830.385	5216
830.524	5102
830.663	5029
830.802	4987
830.941	4919
831.08	4877
831.219	4968
831.357	4965
831.496	5121
831.635	4930
831.774	4835
831.913	4816
832.051	4717
832.19	4717
832.329	4778
832.467	4664
832.606	4641
832.744	4729
832.883	4744
833.022	4721
833.16	4767
833.299	4793
833.437	4793
833.576	4801
833.714	4870
833.852	4877
833.991	4881
834.129	4949
834.267	4923
834.406	4923
834.544	4938
834.682	4930
834.821	4976
834.959	5140
835.097	5010
835.235	5151
835.373	5041
835.511	5090
835.65	4999
835.788	4991
835.926	4866
836.064	4809
836.202	4889
836.34	5140
836.478	5212
836.615	5128
836.753	5181
836.891	5250
837.029	5265
837.167	5170
837.305	5143
837.443	5102
837.58	5075
837.718	5261
837.856	5162
837.993	5117
838.131	5227
838.269	5258
838.406	5193
838.544	5204
838.681	5041
838.819	5022
838.956	4873
839.094	4908
839.231	4953
839.369	5075
839.506	5429
839.643	5250
839.781	5086
839.918	4934
840.055	5086
840.193	5113
840.33	5064
840.467	5162
840.604	5181
840.742	5360
840.879	5098
841.016	5079
841.153	5117
841.29	5414
841.427	5303
841.564	5311
841.701	5341
841.838	5258
841.975	5258
842.112	5242
842.249	5102
842.385	5105
842.522	5322
842.659	5155
842.796	5155
842.933	5185
843.069	5147
843.206	5128
843.343	5315
843.479	5220
843.616	5284
843.752	4965
843.889	5006
844.025	5223
844.162	4976
844.298	5170
844.435	5105
844.571	5041
844.708	5197
844.844	5318
844.98	5311
845.117	5299
845.253	5132
845.389	5090
845.525	5166
845.661	5143
845.798	5025
845.934	5113
846.07	5025
846.206	5174
846.342	5227
846.478	5162
846.614	5033
846.75	4995
846.886	4908
847.022	5113
847.158	4987
847.294	5037
847.429	5143
847.565	5056
847.701	5318
847.837	4839
847.972	4824
848.108	4938
848.244	4972
848.379	4752
848.515	4714
848.65	4710
848.786	4740
848.921	4710
849.057	4862
849.192	4873
849.328	4801
849.463	4805
849.598	4809
849.734	4733
849.869	4694
850.004	4637
850.14	4637
850.275	4611
850.41	4500
850.545	4538
850.68	4622
850.815	4588
850.95	4649
851.085	4809
851.22	4736
851.355	4653
851.49	4649
851.625	4649
851.76	4618
851.895	4527
852.03	4554
852.165	4618
852.299	4706
852.434	4771
852.569	4759
852.703	4752
852.838	4835
852.973	4911
853.107	4915
853.242	4721
853.376	4615
853.511	4519
853.645	4618
853.78	4778
853.914	4675
854.048	4660
854.183	4626
854.317	4717
854.451	4835
854.585	4679
854.72	4630
854.854	4744
854.988	4569
855.122	4645
855.256	4493
855.39	4679
855.524	4793
855.658	4645
855.792	4653
855.926	4740
856.06	4755
856.194	4820
856.327	4683
856.461	4607
856.595	4611
856.729	4580
856.862	4767
856.996	4691
857.13	4698
857.263	4771
857.397	4778
857.53	4622
857.664	4664
857.797	4774
857.931	4778
858.064	4656
858.197	4755
858.331	4626
858.464	4630
858.597	4512
858.731	4615
858.864	4615
858.997	4577
859.13	4645
859.263	4634
859.396	4679
859.529	4577
859.662	4546
859.795	4569
859.928	4626
860.061	4759
860.194	4797
860.327	4603
860.46	4565
860.592	4679
860.725	4702
860.858	4668
860.99	4550
861.123	4489
861.256	4523
861.388	4569
861.521	5414
861.653	4508
861.786	4413
861.918	4443
862.05	4493
862.183	4474
862.315	4577
862.447	4664
862.58	4512
862.712	4383
862.844	4310
862.976	4447
863.108	4459
863.24	4744
863.372	4303
863.504	4421
863.636	4367
863.768	4432
863.9	4455
864.032	4402
864.164	4386
864.296	4470
864.428	4542
864.559	4508
864.691	4523
864.823	4527
864.954	4500
865.086	4466
865.217	4478
865.349	4428
865.48	4466
865.612	4462
865.743	4683
865.875	4447
866.006	4428
866.137	4455
866.269	4459
866.4	4432
866.531	4432
866.662	4344
866.793	4390
866.924	4424
867.055	4462
867.186	4428
867.317	4398
867.448	4360
867.579	4394
867.71	4333
867.841	4333
867.972	4417
868.103	4432
868.233	4402
868.364	4459
868.495	4481
868.625	4679
868.756	4744
868.886	4561
869.017	4634
869.147	4786
869.278	4752
869.408	4603
869.539	4611
869.669	4683
869.799	4630
869.929	4763
870.06	4755
870.19	4946
870.32	4923
870.45	4885
870.58	4942
870.71	5109
870.84	5022
870.97	4923
871.1	4911
871.23	5117
871.36	5128
871.489	5003
871.619	5109
871.749	5094
871.879	5147
872.008	5204
872.138	4980
872.267	4965
872.397	4847
872.526	4820
872.656	4725
872.785	4790
872.915	4987
873.044	5033
873.173	4923
873.303	4995
873.432	4900
873.561	4938
873.69	4900
873.819	4839
873.948	4862
874.077	4847
874.206	4771
874.335	4805
874.464	4885
874.593	5052
874.722	4927
874.851	5086
874.979	5025
875.108	4957
875.237	4949
875.365	4930
875.494	4885
875.623	4976
875.751	4771
875.88	4911
876.008	4946
876.136	4991
876.265	5181
876.393	5345
876.521	5223
876.65	5174
876.778	5132
876.906	5079
877.034	4999
877.162	5045
877.29	4965
877.418	5090
877.546	5006
877.674	5048
877.802	4972
877.93	4984
878.058	4987
878.185	4862
878.313	4957
878.441	4980
878.568	4816
878.696	4843
878.824	4972
878.951	4938
879.079	5083
879.206	5315
879.333	5045
879.461	4972
879.588	4976
879.715	5143
879.842	5201
879.97	4991
880.097	4771
880.224	4736
880.351	4748
880.478	4850
880.605	4771
880.732	4778
880.859	5102
880.986	4900
881.112	4942
881.239	4828
881.366	4679
881.493	4554
881.619	4561
881.746	4630
881.872	4641
881.999	4683
882.125	4660
882.252	4778
882.378	4816
882.505	4961
882.631	4752
882.757	4664
882.883	4691
883.01	4721
883.136	4664
883.262	4588
883.388	4580
883.514	4790
883.64	4801
883.766	4797
883.892	4653
884.018	4736
884.143	4904
884.269	4972
884.395	4683
884.52	4599
884.646	4588
884.772	4538
884.897	4527
885.023	4694
885.148	4812
885.274	4885
885.399	4790
885.524	4725
885.65	4675
885.775	4755
885.9	4683
886.025	4828
886.15	4759
886.275	4683
886.4	4634
886.525	4710
886.65	4641
886.775	4656
886.9	4904
887.025	5064
887.149	4793
887.274	4630
887.399	4596
887.523	4603
887.648	4577
887.773	4565
887.897	4782
888.021	4748
888.146	4592
888.27	4820
888.395	4866
888.519	4755
888.643	4858
888.767	4797
888.891	4653
889.015	4622
889.139	4592
889.263	4573
889.387	4763
889.511	4831
889.635	4782
889.759	4649
889.883	4641
890.006	4733
890.13	4782
890.254	4615
890.377	4672
890.501	4531
890.624	4550
890.748	4603
890.871	4493
890.995	4489
891.118	4333
891.241	4459
891.364	4565
891.488	4626
891.611	4504
891.734	4478
891.857	4645
891.98	4538
892.103	4641
892.226	4584
892.349	4470
892.471	4436
892.594	4558
892.717	4596
892.839	4577
892.962	4588
893.085	4687
893.207	4596
893.33	4485
893.452	4565
893.575	4675
893.697	4596
893.819	4809
893.941	4820
894.064	4755
894.186	4550
894.308	4550
894.43	4736
894.552	4805
894.674	4733
894.796	4546
894.918	4622
895.04	4519
895.161	4729
895.283	4618
895.405	4565
895.526	4649
895.648	4702
895.769	4729
895.891	4687
896.012	4672
896.134	4702
896.255	4607
896.376	4580
896.498	4645
896.619	4664
896.74	4588
896.861	4675
896.982	4923
897.103	5037
897.224	4786
897.345	4675
897.466	4672
897.587	4710
897.708	4839
897.828	4744
897.949	4668
898.07	4535
898.19	4683
898.311	4828
898.431	4672
898.552	4687
898.672	4801
898.792	4790
898.913	4771
899.033	4645
899.153	4474
899.273	4421
899.393	4432
899.513	4527
899.633	4538
899.753	4531
899.873	4500
899.993	4588
900.113	4531
900.232	4588
900.352	4550
900.472	4462
900.591	4375
900.711	4478
900.83	4424
900.95	4626
901.069	4660
901.189	4584
901.308	4367
901.427	4310
901.546	4383
901.665	4432
901.784	4504
901.904	4379
902.023	4295
902.141	4177
902.26	4169
902.379	4325
902.498	4246
902.617	4249
902.735	4352
902.854	4402
902.973	4337
903.091	4238
903.21	4219
903.328	4310
903.446	4249
903.565	4276
903.683	4363
903.801	4265
903.919	4352
904.038	4413
904.156	4303
904.274	4390
904.392	4371
904.51	4447
904.627	4474
904.745	4550
904.863	4603
904.981	4417
905.098	4276
905.216	4341
905.334	4402
905.451	4394
905.569	4459
905.686	4561
905.803	4550
905.921	4383
906.038	4558
906.155	4478
906.272	4379
906.389	4466
906.506	4344
906.623	4363
906.74	4390
906.857	4310
906.974	4360
907.091	4558
907.208	4679
907.324	4500
907.441	4405
907.557	4295
907.674	4363
907.79	4325
907.907	4424
908.023	4436
908.139	4478
908.256	4424
908.372	4474
908.488	4443
908.604	4329
908.72	4287
908.836	4383
908.952	4360
909.068	4352
909.184	4535
909.3	4428
909.415	4584
909.531	4504
909.647	4341
909.762	4413
909.878	4303
909.993	4405
910.108	4379
910.224	4451
910.339	4466
910.454	4394
910.57	4344
910.685	4261
910.8	4660
910.915	4607
911.03	4523
911.145	4352
911.259	4322
911.374	4371
911.489	4276
911.604	4291
911.718	4131
911.833	4230
911.947	4051
912.062	4093
912.176	4185
912.291	4238
912.405	4265
912.519	4462
912.633	4470
912.748	4363
912.862	4295
912.976	4200
913.09	4055
913.204	4185
913.318	4265
913.431	4360
913.545	4375
913.659	4440
913.772	4352
913.886	4227
914	4257
914.113	4375
914.226	4421
914.34	4409
914.453	4227
914.566	4451
914.68	4310
914.793	4352
914.906	4105
915.019	4105
915.132	4036
915.245	4196
915.358	4211
915.47	4219
915.583	4219
915.696	4310
915.809	4386
915.921	4379
916.034	4253
916.146	4272
916.259	4207
916.371	4344
916.483	4318
916.595	4223
916.708	4303
916.82	4303
916.932	4322
917.044	4314
917.156	4318
917.268	4219
917.38	4303
917.491	4246
917.603	4352
917.715	4436
917.826	4440
917.938	4337
918.049	4219
918.161	4390
918.272	4504
918.384	4546
918.495	4432
918.606	4253
918.717	4257
918.828	4314
918.939	4341
919.05	4188
919.161	4268
919.272	4131
919.383	4177
919.494	4386
919.604	4649
919.715	4405
919.826	4322
919.936	4447
920.047	4489
920.157	4485
920.267	4683
920.378	4523
920.488	4523
920.598	4717
920.708	4873
920.818	4698
920.928	4744
921.038	4961
921.148	4854
921.258	4607
921.368	4561
921.477	4478
921.587	4432
921.697	4379
921.806	4592
921.916	4413
922.025	4299
922.134	4280
922.244	4238
922.353	4318
922.462	4219
922.571	4116
922.68	4025
922.789	3968
922.898	4029
923.007	4051
923.116	4131
923.224	4063
923.333	4025
923.442	3972
923.55	3949
923.659	4025
923.767	4067
923.876	4017
923.984	4082
924.092	3975
924.201	4078
924.309	4067
924.417	4097
924.525	4017
924.633	4093
924.741	5079
924.849	3835
924.956	4116
925.064	3953
925.172	3926
925.279	3987
925.387	4051
925.494	4055
925.602	4177
925.709	4166
925.816	4063
925.924	4135
926.031	4200
926.138	4204
926.245	4173
926.352	4082
926.459	4200
926.566	4314
926.673	4135
926.779	4055
926.886	4055
926.993	3930
927.099	3960
927.206	3926
927.312	3975
927.419	4048
927.525	3975
927.631	4078
927.737	3983
927.843	3918
927.95	3819
928.056	3911
928.162	4017
928.267	4002
928.373	4634
928.479	4150
928.585	3884
928.69	3979
928.796	4044
928.901	3956
929.007	3827
929.112	3979
929.218	3941
929.323	3941
929.428	3915
929.533	4093
929.638	3926
929.743	3930
929.848	3983
929.953	3979
930.058	3930
930.163	3759
930.267	3873
930.372	3945
930.477	3781
930.581	4124
930.685	3949
930.79	3831
930.894	3865
930.998	3846
931.103	4040
931.207	3720
931.311	3698
931.415	3660
931.519	3507
931.623	3538
