Data from test_V78500241_1827.txt Node
Date: Fri Mar 25 17:01:42 CST 2022
User: usil
Spectrometer: V785-0024
Trigger mode: 0
Integration Time (sec): 4.000000E-1
Scans to average: 1
Nonlinearity correction enabled: false
Boxcar width: 0
Storing dark spectrum: false
XAxis mode: Wavelengths
Number of Pixels in Spectrum: 1024
>>>>>Begin Spectral Data<<<<<
801.071	7967
801.214	7982
801.356	7925
801.499	7879
801.641	7822
801.783	7845
801.926	7967
802.068	7894
802.211	7936
802.353	8012
802.496	7852
802.638	7864
802.78	7837
802.923	7871
803.065	7944
803.208	7898
803.35	7921
803.492	8084
803.635	8145
803.777	8005
803.919	8157
804.061	8454
804.204	8225
804.346	8069
804.488	7974
804.63	8164
804.773	8027
804.915	8134
805.057	8267
805.199	8153
805.341	8259
805.483	8294
805.626	8206
805.768	8142
805.91	8263
806.052	8248
806.194	8161
806.336	8320
806.478	8084
806.62	8107
806.762	8088
806.904	8256
807.046	8476
807.188	8317
807.33	8286
807.472	8370
807.614	8206
807.756	8149
807.898	8035
808.04	7944
808.182	7925
808.324	7921
808.465	7928
808.607	8103
808.749	8062
808.891	8210
809.033	8415
809.174	8229
809.316	8111
809.458	8103
809.6	8027
809.741	8149
809.883	8043
810.025	8130
810.166	8126
810.308	7978
810.45	7974
810.591	7906
810.733	7757
810.875	7727
811.016	7639
811.158	7502
811.299	7605
811.441	7757
811.582	7674
811.724	7601
811.865	7567
812.007	7636
812.148	7636
812.29	7578
812.431	7780
812.573	7947
812.714	8050
812.855	8180
812.997	8176
813.138	8362
813.279	8263
813.421	8119
813.562	7978
813.703	7799
813.845	7685
813.986	7441
814.127	7354
814.268	7213
814.41	7194
814.551	7206
814.692	7232
814.833	7133
814.974	7103
815.115	7183
815.256	7019
815.397	6901
815.539	6966
815.68	6821
815.821	6757
815.962	6947
816.103	6810
816.244	6722
816.385	6696
816.526	6627
816.666	6502
816.807	6353
816.948	6494
817.089	6547
817.23	6388
817.371	6422
817.512	6399
817.653	6422
817.793	6445
817.934	6418
818.075	6483
818.216	6532
818.356	6437
818.497	6270
818.638	6175
818.778	6140
818.919	6178
819.06	6182
819.2	6365
819.341	6292
819.481	6391
819.622	6490
819.762	6730
819.903	6688
820.043	6601
820.184	6654
820.324	6669
820.465	6662
820.605	6726
820.746	6696
820.886	6525
821.026	6703
821.167	6688
821.307	6810
821.447	6772
821.588	6749
821.728	6627
821.868	6475
822.008	6346
822.149	6391
822.289	6365
822.429	6152
822.569	6171
822.709	6098
822.849	5939
822.99	5916
823.13	5908
823.27	5904
823.41	5813
823.55	5809
823.69	5741
823.83	5783
823.97	5699
824.11	5520
824.25	5516
824.389	5581
824.529	5551
824.669	5543
824.809	5672
824.949	5657
825.089	5665
825.228	5535
825.368	5398
825.508	5345
825.648	5345
825.787	5402
825.927	5421
826.067	5334
826.206	5299
826.346	5379
826.485	5448
826.625	5463
826.765	5562
826.904	5532
827.044	5246
827.183	5220
827.323	5162
827.462	5334
827.601	5208
827.741	5212
827.88	5246
828.02	5064
828.159	5208
828.298	5277
828.437	5376
828.577	5303
828.716	5509
828.855	5326
828.994	5189
829.134	5166
829.273	5239
829.412	5140
829.551	5147
829.69	5197
829.829	5299
829.968	5398
830.107	5299
830.246	5292
830.385	5223
830.524	5162
830.663	5079
830.802	4984
830.941	4896
831.08	4877
831.219	4995
831.357	4972
831.496	5178
831.635	4938
831.774	4847
831.913	4854
832.051	4729
832.19	4790
832.329	4801
832.467	4675
832.606	4626
832.744	4736
832.883	4767
833.022	4740
833.16	4782
833.299	4877
833.437	4828
833.576	4854
833.714	4892
833.852	4908
833.991	4911
834.129	4946
834.267	4930
834.406	4911
834.544	5006
834.682	5022
834.821	4976
834.959	5178
835.097	5033
835.235	5151
835.373	5090
835.511	5083
835.65	5045
835.788	5029
835.926	4930
836.064	4862
836.202	4938
836.34	5151
836.478	5246
836.615	5185
836.753	5185
836.891	5296
837.029	5250
837.167	5254
837.305	5254
837.443	5204
837.58	5121
837.718	5227
837.856	5170
837.993	5155
838.131	5239
838.269	5216
838.406	5250
838.544	5220
838.681	5025
838.819	5010
838.956	4923
839.094	4949
839.231	4957
839.369	5094
839.506	5463
839.643	5296
839.781	5006
839.918	5033
840.055	5178
840.193	5105
840.33	5075
840.467	5136
840.604	5166
840.742	5421
840.879	5090
841.016	5121
841.153	5189
841.29	5387
841.427	5322
841.564	5307
841.701	5421
841.838	5288
841.975	5265
842.112	5258
842.249	5178
842.385	5083
842.522	5387
842.659	5189
842.796	5136
842.933	5216
843.069	5147
843.206	5174
843.343	5353
843.479	5227
843.616	5212
843.752	4972
843.889	4995
844.025	5212
844.162	5014
844.298	5280
844.435	5121
844.571	5041
844.708	5212
844.844	5376
844.98	5334
845.117	5292
845.253	5178
845.389	5083
845.525	5235
845.661	5159
845.798	5037
845.934	5147
846.07	5090
846.206	5235
846.342	5284
846.478	5178
846.614	5060
846.75	4930
846.886	4984
847.022	5132
847.158	5003
847.294	5052
847.429	5128
847.565	5113
847.701	5349
847.837	4824
847.972	4755
848.108	4980
848.244	4980
848.379	4774
848.515	4729
848.65	4733
848.786	4752
848.921	4793
849.057	4927
849.192	4892
849.328	4786
849.463	4839
849.598	4858
849.734	4790
849.869	4698
850.004	4611
850.14	4679
850.275	4656
850.41	4592
850.545	4580
850.68	4660
850.815	4656
850.95	4649
851.085	4809
851.22	4733
851.355	4675
851.49	4618
851.625	4641
851.76	4637
851.895	4596
852.03	4561
852.165	4660
852.299	4755
852.434	4801
852.569	4706
852.703	4828
852.838	4908
852.973	4946
853.107	4930
853.242	4717
853.376	4698
853.511	4599
853.645	4634
853.78	4778
853.914	4691
854.048	4755
854.183	4675
854.317	4755
854.451	4881
854.585	4748
854.72	4607
854.854	4771
854.988	4618
855.122	4622
855.256	4508
855.39	4714
855.524	4786
855.658	4740
855.792	4683
855.926	4702
856.06	4759
856.194	4831
856.327	4675
856.461	4607
856.595	4599
856.729	4660
856.862	4698
856.996	4710
857.13	4744
857.263	4767
857.397	4847
857.53	4672
857.664	4721
857.797	4752
857.931	4778
858.064	4615
858.197	4759
858.331	4653
858.464	4607
858.597	4542
858.731	4626
858.864	4664
858.997	4611
859.13	4675
859.263	4656
859.396	4649
859.529	4565
859.662	4573
859.795	4523
859.928	4675
860.061	4710
860.194	4771
860.327	4691
860.46	4584
860.592	4714
860.725	4721
860.858	4733
860.99	4607
861.123	4565
861.256	4523
861.388	4641
861.521	5360
861.653	4478
861.786	4459
861.918	4428
862.05	4504
862.183	4561
862.315	4603
862.447	4653
862.58	4523
862.712	4413
862.844	4409
862.976	4455
863.108	4432
863.24	4885
863.372	4360
863.504	4432
863.636	4398
863.768	4516
863.9	4466
864.032	4348
864.164	4466
864.296	4478
864.428	4569
864.559	4519
864.691	4599
864.823	4550
864.954	4519
865.086	4546
865.217	4466
865.349	4409
865.48	4466
865.612	4481
865.743	4641
865.875	4481
866.006	4432
866.137	4474
866.269	4455
866.4	4440
866.531	4481
866.662	4409
866.793	4424
866.924	4386
867.055	4497
867.186	4470
867.317	4424
867.448	4405
867.579	4405
867.71	4379
867.841	4390
867.972	4481
868.103	4466
868.233	4485
868.364	4493
868.495	4466
868.625	4736
868.756	4793
868.886	4531
869.017	4656
869.147	4774
869.278	4763
869.408	4668
869.539	4626
869.669	4702
869.799	4668
869.929	4812
870.06	4801
870.19	4976
870.32	4919
870.45	4953
870.58	5041
870.71	5098
870.84	5109
870.97	4946
871.1	4889
871.23	5132
871.36	5102
871.489	5006
871.619	5124
871.749	5140
871.879	5113
872.008	5151
872.138	5105
872.267	5014
872.397	4877
872.526	4778
872.656	4702
872.785	4824
872.915	5037
873.044	4976
873.173	4957
873.303	4949
873.432	4934
873.561	4968
873.69	4877
873.819	4866
873.948	4934
874.077	4831
874.206	4793
874.335	4774
874.464	4923
874.593	5056
874.722	4957
874.851	5109
874.979	5060
875.108	5041
875.237	4873
875.365	4923
875.494	4873
875.623	4972
875.751	4839
875.88	4896
876.008	4949
876.136	5052
876.265	5181
876.393	5364
876.521	5239
876.65	5227
876.778	5197
876.906	5102
877.034	5037
877.162	5029
877.29	5014
877.418	5109
877.546	5083
877.674	5029
877.802	4999
877.93	4999
878.058	4889
878.185	4885
878.313	4930
878.441	4961
878.568	4790
878.696	4847
878.824	5014
878.951	4987
879.079	5136
879.206	5326
879.333	5083
879.461	5029
879.588	4991
879.715	5113
879.842	5197
879.97	5052
880.097	4790
880.224	4771
880.351	4828
880.478	4858
880.605	4809
880.732	4812
880.859	5151
880.986	4915
881.112	4949
881.239	4831
881.366	4729
881.493	4603
881.619	4577
881.746	4611
881.872	4672
881.999	4683
882.125	4710
882.252	4767
882.378	4831
882.505	4968
882.631	4831
882.757	4672
882.883	4763
883.01	4771
883.136	4641
883.262	4615
883.388	4615
883.514	4790
883.64	4854
883.766	4816
883.892	4717
884.018	4748
884.143	4892
884.269	4976
884.395	4679
884.52	4592
884.646	4630
884.772	4569
884.897	4561
885.023	4622
885.148	4793
885.274	4854
885.399	4774
885.524	4694
885.65	4668
885.775	4733
885.9	4702
886.025	4870
886.15	4759
886.275	4710
886.4	4649
886.525	4725
886.65	4740
886.775	4675
886.9	4904
887.025	5060
887.149	4786
887.274	4660
887.399	4596
887.523	4607
887.648	4596
887.773	4615
887.897	4729
888.021	4778
888.146	4668
888.27	4831
888.395	4885
888.519	4816
888.643	4786
888.767	4816
888.891	4694
889.015	4626
889.139	4611
889.263	4584
889.387	4782
889.511	4889
889.635	4790
889.759	4649
889.883	4622
890.006	4774
890.13	4782
890.254	4588
890.377	4653
890.501	4550
890.624	4542
890.748	4584
890.871	4466
890.995	4424
891.118	4405
891.241	4500
891.364	4550
891.488	4649
891.611	4550
891.734	4519
891.857	4618
891.98	4577
892.103	4656
892.226	4573
892.349	4493
892.471	4432
892.594	4523
892.717	4588
892.839	4554
892.962	4577
893.085	4603
893.207	4596
893.33	4447
893.452	4546
893.575	4622
893.697	4584
893.819	4805
893.941	4797
894.064	4763
894.186	4599
894.308	4630
894.43	4702
894.552	4828
894.674	4778
894.796	4535
894.918	4596
895.04	4535
895.161	4672
895.283	4687
895.405	4618
895.526	4634
895.648	4706
895.769	4645
895.891	4725
896.012	4793
896.134	4691
896.255	4683
896.376	4611
896.498	4615
896.619	4710
896.74	4588
896.861	4653
896.982	4896
897.103	5056
897.224	4854
897.345	4763
897.466	4683
897.587	4759
897.708	4889
897.828	4748
897.949	4630
898.07	4584
898.19	4656
898.311	4843
898.431	4672
898.552	4752
898.672	4824
898.792	4786
898.913	4748
899.033	4615
899.153	4512
899.273	4440
899.393	4516
899.513	4527
899.633	4481
899.753	4538
899.873	4535
899.993	4554
900.113	4538
900.232	4596
900.352	4611
900.472	4504
900.591	4367
900.711	4481
900.83	4497
900.95	4588
901.069	4706
901.189	4538
901.308	4356
901.427	4325
901.546	4337
901.665	4478
901.784	4500
901.904	4375
902.023	4303
902.141	4219
902.26	4162
902.379	4261
902.498	4234
902.617	4219
902.735	4360
902.854	4409
902.973	4348
903.091	4188
903.21	4215
903.328	4329
903.446	4253
903.565	4280
903.683	4352
903.801	4272
903.919	4371
904.038	4459
904.156	4348
904.274	4436
904.392	4356
904.51	4474
904.627	4447
904.745	4535
904.863	4603
904.981	4352
905.098	4268
905.216	4337
905.334	4356
905.451	4447
905.569	4398
905.686	4516
905.803	4558
905.921	4443
906.038	4546
906.155	4466
906.272	4402
906.389	4489
906.506	4394
906.623	4383
906.74	4466
906.857	4306
906.974	4333
907.091	4523
907.208	4653
907.324	4599
907.441	4512
907.557	4363
907.674	4325
907.79	4325
907.907	4371
908.023	4508
908.139	4462
908.256	4432
908.372	4459
908.488	4417
908.604	4356
908.72	4360
908.836	4421
908.952	4314
909.068	4417
909.184	4592
909.3	4519
909.415	4565
909.531	4504
909.647	4337
909.762	4325
909.878	4348
909.993	4386
910.108	4447
910.224	4360
910.339	4516
910.454	4470
910.57	4348
910.685	4306
910.8	4710
910.915	4538
911.03	4474
911.145	4295
911.259	4303
911.374	4363
911.489	4348
911.604	4341
911.718	4158
911.833	4196
911.947	4101
912.062	4025
912.176	4207
912.291	4234
912.405	4215
912.519	4459
912.633	4508
912.748	4341
912.862	4295
912.976	4185
913.09	4101
913.204	4169
913.318	4219
913.431	4386
913.545	4383
913.659	4432
913.772	4375
913.886	4200
914	4265
914.113	4398
914.226	4440
914.34	4405
914.453	4204
914.566	4447
914.68	4325
914.793	4329
914.906	4173
915.019	4120
915.132	4105
915.245	4173
915.358	4238
915.47	4227
915.583	4303
915.696	4295
915.809	4443
915.921	4394
916.034	4276
916.146	4280
916.259	4219
916.371	4348
916.483	4360
916.595	4261
916.708	4348
916.82	4356
916.932	4314
917.044	4322
917.156	4329
917.268	4223
917.38	4322
917.491	4299
917.603	4322
917.715	4386
917.826	4447
917.938	4383
918.049	4272
918.161	4371
918.272	4531
918.384	4508
918.495	4421
918.606	4329
918.717	4234
918.828	4341
918.939	4386
919.05	4204
919.161	4325
919.272	4135
919.383	4242
919.494	4390
919.604	4641
919.715	4440
919.826	4352
919.936	4405
920.047	4561
920.157	4500
920.267	4637
920.378	4554
920.488	4459
920.598	4710
920.708	4870
920.818	4736
920.928	4752
921.038	4942
921.148	4904
921.258	4618
921.368	4592
921.477	4478
921.587	4436
921.697	4386
921.806	4531
921.916	4474
922.025	4215
922.134	4268
922.244	4219
922.353	4329
922.462	4200
922.571	4109
922.68	4025
922.789	3941
922.898	4044
923.007	3998
923.116	4071
923.224	4059
923.333	4078
923.442	4006
923.55	3968
923.659	4021
923.767	4078
923.876	4013
923.984	4051
924.092	3960
924.201	4071
924.309	4086
924.417	4150
924.525	4044
924.633	4105
924.741	5048
924.849	3903
924.956	4154
925.064	3922
925.172	3892
925.279	3945
925.387	4078
925.494	4036
925.602	4227
925.709	4234
925.816	4044
925.924	4135
926.031	4207
926.138	4169
926.245	4215
926.352	4090
926.459	4173
926.566	4238
926.673	4128
926.779	4097
926.886	4063
926.993	3937
927.099	3964
927.206	3896
927.312	3934
927.419	4032
927.525	3972
927.631	4124
927.737	3975
927.843	3915
927.95	3812
928.056	3911
928.162	3968
928.267	4017
928.373	4569
928.479	4173
928.585	3903
928.69	3979
928.796	4044
928.901	3941
929.007	3854
929.112	3956
929.218	4025
929.323	3949
929.428	3964
929.533	4051
929.638	3896
929.743	3960
929.848	4048
929.953	4010
930.058	3979
930.163	3736
930.267	3861
930.372	3979
930.477	3800
930.581	4051
930.685	3918
930.79	3842
930.894	3884
930.998	3873
931.103	4021
931.207	3743
931.311	3667
931.415	3633
931.519	3519
931.623	3568
