Data from test_V78500241_2146.txt Node
Date: Fri Mar 25 17:03:55 CST 2022
User: usil
Spectrometer: V785-0024
Trigger mode: 0
Integration Time (sec): 4.000000E-1
Scans to average: 1
Nonlinearity correction enabled: false
Boxcar width: 0
Storing dark spectrum: false
XAxis mode: Wavelengths
Number of Pixels in Spectrum: 1024
>>>>>Begin Spectral Data<<<<<
801.071	8027
801.214	7989
801.356	7795
801.499	7845
801.641	7822
801.783	7814
801.926	7936
802.068	7989
802.211	7951
802.353	7993
802.496	7845
802.638	7917
802.78	7837
802.923	7879
803.065	7860
803.208	7856
803.35	7993
803.492	8058
803.635	8111
803.777	8050
803.919	8119
804.061	8385
804.204	8142
804.346	8077
804.488	7947
804.63	8035
804.773	7963
804.915	8065
805.057	8267
805.199	8138
805.341	8176
805.483	8206
805.626	8240
805.768	8161
805.91	8191
806.052	8305
806.194	8058
806.336	8332
806.478	8054
806.62	8084
806.762	8058
806.904	8237
807.046	8438
807.188	8408
807.33	8282
807.472	8294
807.614	8084
807.756	8069
807.898	8058
808.04	7868
808.182	7845
808.324	7864
808.465	7849
808.607	8115
808.749	8065
808.891	8153
809.033	8256
809.174	8229
809.316	8039
809.458	8084
809.6	8081
809.741	8016
809.883	8058
810.025	8130
810.166	8046
810.308	8054
810.45	8008
810.591	7837
810.733	7696
810.875	7662
811.016	7575
811.158	7483
811.299	7533
811.441	7750
811.582	7677
811.724	7586
811.865	7514
812.007	7613
812.148	7616
812.29	7670
812.431	7742
812.573	7932
812.714	8005
812.855	8138
812.997	8183
813.138	8252
813.279	8126
813.421	8073
813.562	7993
813.703	7807
813.845	7719
813.986	7453
814.127	7198
814.268	7225
814.41	7202
814.551	7133
814.692	7244
814.833	7023
814.974	7065
815.115	7114
815.256	6962
815.397	6981
815.539	6913
815.68	6760
815.821	6783
815.962	6916
816.103	6772
816.244	6719
816.385	6623
816.526	6593
816.666	6460
816.807	6289
816.948	6410
817.089	6445
817.23	6403
817.371	6414
817.512	6365
817.653	6331
817.793	6353
817.934	6319
818.075	6460
818.216	6441
818.356	6372
818.497	6273
818.638	6102
818.778	6114
818.919	6129
819.06	6197
819.2	6243
819.341	6334
819.481	6327
819.622	6559
819.762	6738
819.903	6662
820.043	6566
820.184	6525
820.324	6604
820.465	6692
820.605	6700
820.746	6593
820.886	6475
821.026	6673
821.167	6711
821.307	6772
821.447	6772
821.588	6639
821.728	6547
821.868	6448
822.008	6342
822.149	6376
822.289	6289
822.429	6216
822.569	6114
822.709	6114
822.849	5912
822.99	5863
823.13	5882
823.27	5855
823.41	5813
823.55	5767
823.69	5794
823.83	5783
823.97	5680
824.11	5512
824.25	5501
824.389	5535
824.529	5562
824.669	5455
824.809	5611
824.949	5661
825.089	5630
825.228	5543
825.368	5425
825.508	5334
825.648	5330
825.787	5357
825.927	5322
826.067	5258
826.206	5242
826.346	5410
826.485	5360
826.625	5398
826.765	5524
826.904	5471
827.044	5254
827.183	5189
827.323	5098
827.462	5223
827.601	5197
827.741	5208
827.88	5170
828.02	5128
828.159	5246
828.298	5258
828.437	5379
828.577	5284
828.716	5516
828.855	5353
828.994	5170
829.134	5174
829.273	5208
829.412	5105
829.551	5124
829.69	5181
829.829	5299
829.968	5383
830.107	5303
830.246	5299
830.385	5181
830.524	5223
830.663	5067
830.802	5018
830.941	4919
831.08	4942
831.219	5010
831.357	4976
831.496	5208
831.635	4946
831.774	4873
831.913	4858
832.051	4763
832.19	4782
832.329	4866
832.467	4763
832.606	4694
832.744	4759
832.883	4786
833.022	4759
833.16	4835
833.299	4847
833.437	4873
833.576	4904
833.714	4900
833.852	4934
833.991	4915
834.129	5010
834.267	4972
834.406	4934
834.544	4984
834.682	5037
834.821	4995
834.959	5189
835.097	5006
835.235	5197
835.373	5109
835.511	5151
835.65	5045
835.788	5052
835.926	4915
836.064	4915
836.202	4968
836.34	5201
836.478	5223
836.615	5208
836.753	5292
836.891	5337
837.029	5265
837.167	5261
837.305	5220
837.443	5155
837.58	5128
837.718	5273
837.856	5162
837.993	5166
838.131	5223
838.269	5261
838.406	5258
838.544	5208
838.681	5075
838.819	5006
838.956	4919
839.094	4953
839.231	5045
839.369	5113
839.506	5379
839.643	5303
839.781	5109
839.918	5022
840.055	5143
840.193	5170
840.33	5185
840.467	5155
840.604	5185
840.742	5490
840.879	5140
841.016	5136
841.153	5189
841.29	5379
841.427	5353
841.564	5322
841.701	5402
841.838	5357
841.975	5303
842.112	5292
842.249	5212
842.385	5098
842.522	5349
842.659	5197
842.796	5155
842.933	5193
843.069	5201
843.206	5193
843.343	5318
843.479	5250
843.616	5288
843.752	5048
843.889	5048
844.025	5277
844.162	5071
844.298	5239
844.435	5105
844.571	5086
844.708	5201
844.844	5326
844.98	5372
845.117	5284
845.253	5143
845.389	5064
845.525	5197
845.661	5216
845.798	5075
845.934	5132
846.07	5086
846.206	5185
846.342	5334
846.478	5174
846.614	5052
846.75	4976
846.886	4934
847.022	5151
847.158	5029
847.294	5124
847.429	5109
847.565	5079
847.701	5349
847.837	4915
847.972	4847
848.108	4976
848.244	4984
848.379	4774
848.515	4774
848.65	4721
848.786	4767
848.921	4805
849.057	4908
849.192	4915
849.328	4839
849.463	4896
849.598	4843
849.734	4805
849.869	4683
850.004	4694
850.14	4744
850.275	4615
850.41	4527
850.545	4596
850.68	4668
850.815	4656
850.95	4672
851.085	4847
851.22	4774
851.355	4649
851.49	4637
851.625	4649
851.76	4645
851.895	4664
852.03	4580
852.165	4679
852.299	4790
852.434	4805
852.569	4801
852.703	4786
852.838	4854
852.973	4946
853.107	4908
853.242	4778
853.376	4702
853.511	4569
853.645	4630
853.78	4824
853.914	4694
854.048	4744
854.183	4660
854.317	4706
854.451	4839
854.585	4744
854.72	4653
854.854	4763
854.988	4615
855.122	4679
855.256	4592
855.39	4710
855.524	4793
855.658	4778
855.792	4782
855.926	4771
856.06	4782
856.194	4843
856.327	4717
856.461	4656
856.595	4622
856.729	4672
856.862	4790
856.996	4694
857.13	4771
857.263	4774
857.397	4778
857.53	4691
857.664	4706
857.797	4767
857.931	4801
858.064	4744
858.197	4759
858.331	4687
858.464	4607
858.597	4573
858.731	4691
858.864	4714
858.997	4603
859.13	4660
859.263	4702
859.396	4694
859.529	4569
859.662	4611
859.795	4546
859.928	4649
860.061	4740
860.194	4748
860.327	4622
860.46	4611
860.592	4752
860.725	4759
860.858	4733
860.99	4645
861.123	4577
861.256	4531
861.388	4618
861.521	5463
861.653	4531
861.786	4466
861.918	4516
862.05	4523
862.183	4588
862.315	4630
862.447	4687
862.58	4637
862.712	4417
862.844	4329
862.976	4447
863.108	4554
863.24	4820
863.372	4325
863.504	4459
863.636	4470
863.768	4512
863.9	4478
864.032	4428
864.164	4432
864.296	4474
864.428	4588
864.559	4645
864.691	4512
864.823	4580
864.954	4542
865.086	4538
865.217	4493
865.349	4398
865.48	4554
865.612	4451
865.743	4622
865.875	4436
866.006	4417
866.137	4497
866.269	4489
866.4	4409
866.531	4432
866.662	4405
866.793	4432
866.924	4447
867.055	4519
867.186	4516
867.317	4443
867.448	4386
867.579	4470
867.71	4402
867.841	4367
867.972	4451
868.103	4508
868.233	4428
868.364	4527
868.495	4523
868.625	4714
868.756	4782
868.886	4637
869.017	4653
869.147	4809
869.278	4786
869.408	4748
869.539	4664
869.669	4778
869.799	4649
869.929	4736
870.06	4748
870.19	4999
870.32	4972
870.45	4995
870.58	5041
870.71	5117
870.84	5155
870.97	4953
871.1	4946
871.23	5220
871.36	5113
871.489	5041
871.619	5094
871.749	5128
871.879	5140
872.008	5201
872.138	5056
872.267	5006
872.397	4877
872.526	4850
872.656	4687
872.785	4828
872.915	4976
873.044	5022
873.173	4919
873.303	4991
873.432	4934
873.561	4949
873.69	4885
873.819	4847
873.948	4961
874.077	4824
874.206	4812
874.335	4820
874.464	4942
874.593	5098
874.722	4987
874.851	5159
874.979	5075
875.108	5029
875.237	4938
875.365	4896
875.494	4889
875.623	5045
875.751	4889
875.88	4911
876.008	4995
876.136	5067
876.265	5246
876.393	5334
876.521	5280
876.65	5269
876.778	5159
876.906	5105
877.034	5064
877.162	5075
877.29	5018
877.418	5060
877.546	5045
877.674	5105
877.802	5090
877.93	5037
878.058	4927
878.185	4862
878.313	4946
878.441	4980
878.568	4839
878.696	4835
878.824	4987
878.951	4995
879.079	5136
879.206	5334
879.333	5143
879.461	5003
879.588	5025
879.715	5151
879.842	5261
879.97	5025
880.097	4843
880.224	4778
880.351	4820
880.478	4824
880.605	4858
880.732	4831
880.859	5086
880.986	4919
881.112	4953
881.239	4759
881.366	4672
881.493	4664
881.619	4626
881.746	4637
881.872	4672
881.999	4660
882.125	4717
882.252	4847
882.378	4854
882.505	4987
882.631	4843
882.757	4656
882.883	4744
883.01	4725
883.136	4691
883.262	4611
883.388	4679
883.514	4805
883.64	4866
883.766	4793
883.892	4683
884.018	4736
884.143	4908
884.269	5018
884.395	4668
884.52	4599
884.646	4664
884.772	4569
884.897	4554
885.023	4698
885.148	4805
885.274	4847
885.399	4858
885.524	4733
885.65	4721
885.775	4755
885.9	4782
886.025	4900
886.15	4805
886.275	4714
886.4	4664
886.525	4771
886.65	4736
886.775	4664
886.9	4889
887.025	5037
887.149	4877
887.274	4649
887.399	4607
887.523	4653
887.648	4580
887.773	4588
887.897	4740
888.021	4797
888.146	4721
888.27	4885
888.395	4991
888.519	4797
888.643	4839
888.767	4854
888.891	4698
889.015	4660
889.139	4641
889.263	4675
889.387	4767
889.511	4854
889.635	4820
889.759	4634
889.883	4656
890.006	4729
890.13	4866
890.254	4649
890.377	4694
890.501	4538
890.624	4531
890.748	4637
890.871	4504
890.995	4474
891.118	4379
891.241	4531
891.364	4550
891.488	4679
891.611	4489
891.734	4584
891.857	4603
891.98	4573
892.103	4664
892.226	4588
892.349	4538
892.471	4432
892.594	4577
892.717	4546
892.839	4611
892.962	4599
893.085	4672
893.207	4565
893.33	4447
893.452	4527
893.575	4698
893.697	4569
893.819	4793
893.941	4809
894.064	4778
894.186	4569
894.308	4626
894.43	4797
894.552	4831
894.674	4778
894.796	4596
894.918	4607
895.04	4577
895.161	4759
895.283	4660
895.405	4554
895.526	4656
895.648	4649
895.769	4668
895.891	4744
896.012	4778
896.134	4717
896.255	4672
896.376	4637
896.498	4641
896.619	4660
896.74	4607
896.861	4660
896.982	4915
897.103	5105
897.224	4778
897.345	4759
897.466	4679
897.587	4710
897.708	4801
897.828	4805
897.949	4683
898.07	4558
898.19	4626
898.311	4881
898.431	4691
898.552	4702
898.672	4854
898.792	4801
898.913	4752
899.033	4645
899.153	4489
899.273	4462
899.393	4546
899.513	4538
899.633	4558
899.753	4558
899.873	4550
899.993	4573
900.113	4554
900.232	4618
900.352	4535
900.472	4504
900.591	4379
900.711	4493
900.83	4413
900.95	4596
901.069	4687
901.189	4561
901.308	4405
901.427	4356
901.546	4405
901.665	4451
901.784	4538
901.904	4379
902.023	4325
902.141	4207
902.26	4150
902.379	4367
902.498	4284
902.617	4249
902.735	4405
902.854	4409
902.973	4363
903.091	4215
903.21	4249
903.328	4337
903.446	4322
903.565	4219
903.683	4348
903.801	4257
903.919	4421
904.038	4466
904.156	4318
904.274	4436
904.392	4447
904.51	4447
904.627	4470
904.745	4584
904.863	4660
904.981	4417
905.098	4287
905.216	4413
905.334	4413
905.451	4417
905.569	4455
905.686	4603
905.803	4523
905.921	4428
906.038	4569
906.155	4474
906.272	4371
906.389	4455
906.506	4363
906.623	4390
906.74	4390
906.857	4299
906.974	4344
907.091	4569
907.208	4721
907.324	4592
907.441	4512
907.557	4314
907.674	4329
907.79	4291
907.907	4398
908.023	4455
908.139	4519
908.256	4371
908.372	4451
908.488	4443
908.604	4371
908.72	4310
908.836	4375
908.952	4398
909.068	4455
909.184	4611
909.3	4481
909.415	4569
909.531	4561
909.647	4405
909.762	4390
909.878	4344
909.993	4394
910.108	4432
910.224	4409
910.339	4523
910.454	4383
910.57	4379
910.685	4333
910.8	4649
910.915	4550
911.03	4493
911.145	4325
911.259	4356
911.374	4394
911.489	4310
911.604	4268
911.718	4204
911.833	4204
911.947	4082
912.062	4013
912.176	4154
912.291	4272
912.405	4287
912.519	4470
912.633	4527
912.748	4356
912.862	4322
912.976	4242
913.09	4109
913.204	4207
913.318	4261
913.431	4394
913.545	4394
913.659	4470
913.772	4352
913.886	4272
914	4261
914.113	4383
914.226	4436
914.34	4367
914.453	4249
914.566	4398
914.68	4276
914.793	4356
914.906	4128
915.019	4139
915.132	4135
915.245	4207
915.358	4234
915.47	4204
915.583	4249
915.696	4337
915.809	4417
915.921	4402
916.034	4215
916.146	4230
916.259	4219
916.371	4386
916.483	4352
916.595	4211
916.708	4333
916.82	4337
916.932	4344
917.044	4379
917.156	4348
917.268	4219
917.38	4276
917.491	4272
917.603	4291
917.715	4383
917.826	4440
917.938	4348
918.049	4242
918.161	4409
918.272	4554
918.384	4546
918.495	4455
918.606	4322
918.717	4253
918.828	4303
918.939	4409
919.05	4257
919.161	4310
919.272	4135
919.383	4242
919.494	4451
919.604	4641
919.715	4413
919.826	4375
919.936	4405
920.047	4500
920.157	4497
920.267	4687
920.378	4546
920.488	4481
920.598	4729
920.708	4885
920.818	4721
920.928	4767
921.038	4919
921.148	4927
921.258	4588
921.368	4607
921.477	4500
921.587	4470
921.697	4360
921.806	4538
921.916	4440
922.025	4280
922.134	4196
922.244	4227
922.353	4367
922.462	4128
922.571	4150
922.68	4082
922.789	3983
922.898	4017
923.007	4006
923.116	4082
923.224	4120
923.333	4071
923.442	3994
923.55	3983
923.659	4002
923.767	4067
923.876	4013
923.984	4086
924.092	4002
924.201	4082
924.309	4032
924.417	4135
924.525	4063
924.633	4097
924.741	5045
924.849	3876
924.956	4116
925.064	3956
925.172	3911
925.279	3960
925.387	4013
925.494	4082
925.602	4253
925.709	4188
925.816	4063
925.924	4150
926.031	4219
926.138	4173
926.245	4223
926.352	4059
926.459	4219
926.566	4333
926.673	4147
926.779	4093
926.886	4071
926.993	3991
927.099	3937
927.206	3911
927.312	3941
927.419	4013
927.525	4025
927.631	4109
927.737	3956
927.843	3930
927.95	3842
928.056	4002
928.162	3983
928.267	4082
928.373	4626
928.479	4074
928.585	3884
928.69	4048
928.796	4059
928.901	3960
929.007	3842
929.112	3994
929.218	3953
929.323	3979
929.428	3953
929.533	4112
929.638	3915
929.743	3930
929.848	4017
929.953	4025
930.058	3926
930.163	3747
930.267	3812
930.372	3968
930.477	3819
930.581	4093
930.685	3987
930.79	3835
930.894	3888
930.998	3922
931.103	4105
931.207	3709
931.311	3682
931.415	3701
931.519	3507
931.623	3576
