Data from test_V78500241_2514.txt Node
Date: Fri Mar 25 17:06:28 CST 2022
User: usil
Spectrometer: V785-0024
Trigger mode: 0
Integration Time (sec): 4.000000E-1
Scans to average: 1
Nonlinearity correction enabled: false
Boxcar width: 0
Storing dark spectrum: false
XAxis mode: Wavelengths
Number of Pixels in Spectrum: 1024
>>>>>Begin Spectral Data<<<<<
801.071	8031
801.214	8035
801.356	7788
801.499	7811
801.641	7719
801.783	7772
801.926	7906
802.068	7894
802.211	7898
802.353	7940
802.496	7864
802.638	7852
802.78	7826
802.923	7928
803.065	7902
803.208	7906
803.35	7967
803.492	8054
803.635	8134
803.777	7963
803.919	8119
804.061	8442
804.204	8119
804.346	8073
804.488	7944
804.63	8088
804.773	7921
804.915	8043
805.057	8237
805.199	8065
805.341	8176
805.483	8225
805.626	8191
805.768	8180
805.91	8164
806.052	8180
806.194	8073
806.336	8294
806.478	8069
806.62	7978
806.762	8119
806.904	8199
807.046	8336
807.188	8336
807.33	8244
807.472	8434
807.614	8172
807.756	8134
807.898	7932
808.04	7852
808.182	7864
808.324	7849
808.465	7841
808.607	8096
808.749	8142
808.891	8275
809.033	8313
809.174	8237
809.316	8092
809.458	8065
809.6	8005
809.741	8012
809.883	8005
810.025	8100
810.166	8088
810.308	7997
810.45	7978
810.591	7830
810.733	7776
810.875	7647
811.016	7521
811.158	7472
811.299	7594
811.441	7731
811.582	7700
811.724	7548
811.865	7601
812.007	7651
812.148	7655
812.29	7616
812.431	7845
812.573	7833
812.714	8035
812.855	8161
812.997	8221
813.138	8309
813.279	8176
813.421	8077
813.562	7959
813.703	7928
813.845	7822
813.986	7396
814.127	7228
814.268	7251
814.41	7232
814.551	7209
814.692	7289
814.833	7122
814.974	7171
815.115	7122
815.256	6966
815.397	6951
815.539	6939
815.68	6829
815.821	6802
815.962	6905
816.103	6894
816.244	6749
816.385	6696
816.526	6654
816.666	6517
816.807	6365
816.948	6433
817.089	6517
817.23	6498
817.371	6426
817.512	6441
817.653	6342
817.793	6407
817.934	6414
818.075	6490
818.216	6445
818.356	6471
818.497	6327
818.638	6133
818.778	6159
818.919	6182
819.06	6182
819.2	6369
819.341	6365
819.481	6433
819.622	6547
819.762	6707
819.903	6776
820.043	6620
820.184	6627
820.324	6612
820.465	6741
820.605	6802
820.746	6719
820.886	6563
821.026	6711
821.167	6719
821.307	6867
821.447	6783
821.588	6730
821.728	6662
821.868	6574
822.008	6403
822.149	6369
822.289	6399
822.429	6194
822.569	6155
822.709	6167
822.849	5954
822.99	5954
823.13	5996
823.27	5920
823.41	5847
823.55	5840
823.69	5764
823.83	5836
823.97	5680
824.11	5539
824.25	5528
824.389	5600
824.529	5581
824.669	5535
824.809	5661
824.949	5745
825.089	5642
825.228	5592
825.368	5452
825.508	5372
825.648	5349
825.787	5421
825.927	5414
826.067	5318
826.206	5269
826.346	5444
826.485	5436
826.625	5410
826.765	5596
826.904	5486
827.044	5307
827.183	5261
827.323	5216
827.462	5288
827.601	5178
827.741	5216
827.88	5261
828.02	5124
828.159	5292
828.298	5322
828.437	5349
828.577	5288
828.716	5524
828.855	5364
828.994	5155
829.134	5174
829.273	5201
829.412	5185
829.551	5189
829.69	5178
829.829	5280
829.968	5459
830.107	5265
830.246	5254
830.385	5193
830.524	5136
830.663	5060
830.802	5010
830.941	4877
831.08	4866
831.219	4957
831.357	4984
831.496	5159
831.635	4946
831.774	4915
831.913	4858
832.051	4774
832.19	4740
832.329	4850
832.467	4729
832.606	4702
832.744	4786
832.883	4752
833.022	4774
833.16	4774
833.299	4873
833.437	4820
833.576	4885
833.714	4854
833.852	4911
833.991	4923
834.129	5014
834.267	4908
834.406	4896
834.544	5037
834.682	4980
834.821	4991
834.959	5212
835.097	5052
835.235	5208
835.373	5102
835.511	5128
835.65	5090
835.788	5041
835.926	4957
836.064	4915
836.202	4930
836.34	5227
836.478	5261
836.615	5170
836.753	5216
836.891	5330
837.029	5284
837.167	5239
837.305	5155
837.443	5242
837.58	5086
837.718	5299
837.856	5227
837.993	5204
838.131	5220
838.269	5231
838.406	5254
838.544	5185
838.681	5083
838.819	5094
838.956	4976
839.094	4930
839.231	4995
839.369	5109
839.506	5471
839.643	5353
839.781	5105
839.918	5086
840.055	5124
840.193	5105
840.33	5083
840.467	5174
840.604	5208
840.742	5471
840.879	5094
841.016	5064
841.153	5197
841.29	5376
841.427	5398
841.564	5379
841.701	5357
841.838	5315
841.975	5284
842.112	5307
842.249	5178
842.385	5155
842.522	5353
842.659	5193
842.796	5181
842.933	5220
843.069	5189
843.206	5231
843.343	5337
843.479	5246
843.616	5292
843.752	5071
843.889	5033
844.025	5254
844.162	5079
844.298	5216
844.435	5136
844.571	5079
844.708	5227
844.844	5318
844.98	5383
845.117	5326
845.253	5147
845.389	5075
845.525	5227
845.661	5178
845.798	5056
845.934	5151
846.07	5083
846.206	5216
846.342	5334
846.478	5223
846.614	5029
846.75	4995
846.886	4930
847.022	5189
847.158	5037
847.294	5067
847.429	5143
847.565	5098
847.701	5398
847.837	4870
847.972	4862
848.108	4984
848.244	5025
848.379	4774
848.515	4774
848.65	4729
848.786	4790
848.921	4809
849.057	4835
849.192	4946
849.328	4835
849.463	4828
849.598	4835
849.734	4778
849.869	4710
850.004	4672
850.14	4706
850.275	4664
850.41	4554
850.545	4592
850.68	4668
850.815	4656
850.95	4637
851.085	4904
851.22	4744
851.355	4721
851.49	4641
851.625	4656
851.76	4611
851.895	4599
852.03	4550
852.165	4717
852.299	4725
852.434	4820
852.569	4763
852.703	4801
852.838	4850
852.973	4900
853.107	4972
853.242	4733
853.376	4717
853.511	4577
853.645	4634
853.78	4793
853.914	4740
854.048	4702
854.183	4698
854.317	4733
854.451	4828
854.585	4698
854.72	4679
854.854	4744
854.988	4637
855.122	4596
855.256	4531
855.39	4637
855.524	4812
855.658	4714
855.792	4706
855.926	4717
856.06	4755
856.194	4809
856.327	4656
856.461	4634
856.595	4664
856.729	4649
856.862	4748
856.996	4656
857.13	4801
857.263	4774
857.397	4862
857.53	4645
857.664	4786
857.797	4801
857.931	4759
858.064	4725
858.197	4725
858.331	4630
858.464	4653
858.597	4558
858.731	4679
858.864	4637
858.997	4584
859.13	4675
859.263	4740
859.396	4740
859.529	4653
859.662	4603
859.795	4558
859.928	4649
860.061	4755
860.194	4767
860.327	4645
860.46	4592
860.592	4698
860.725	4771
860.858	4748
860.99	4561
861.123	4546
861.256	4554
861.388	4561
861.521	5239
861.653	4500
861.786	4428
861.918	4466
862.05	4603
862.183	4588
862.315	4653
862.447	4714
862.58	4588
862.712	4394
862.844	4405
862.976	4535
863.108	4451
863.24	4850
863.372	4386
863.504	4436
863.636	4424
863.768	4508
863.9	4386
864.032	4371
864.164	4428
864.296	4470
864.428	4550
864.559	4611
864.691	4535
864.823	4577
864.954	4516
865.086	4546
865.217	4462
865.349	4398
865.48	4462
865.612	4508
865.743	4637
865.875	4455
866.006	4489
866.137	4451
866.269	4474
866.4	4455
866.531	4451
866.662	4409
866.793	4428
866.924	4474
867.055	4527
867.186	4462
867.317	4417
867.448	4367
867.579	4451
867.71	4363
867.841	4398
867.972	4504
868.103	4508
868.233	4474
868.364	4447
868.495	4474
868.625	4668
868.756	4778
868.886	4592
869.017	4630
869.147	4831
869.278	4839
869.408	4653
869.539	4679
869.669	4752
869.799	4664
869.929	4801
870.06	4835
870.19	4972
870.32	4923
870.45	4915
870.58	5037
870.71	5079
870.84	5128
870.97	4995
871.1	4858
871.23	5132
871.36	5105
871.489	5029
871.619	5102
871.749	5109
871.879	5136
872.008	5220
872.138	5048
872.267	4984
872.397	4854
872.526	4847
872.656	4740
872.785	4809
872.915	4991
873.044	5067
873.173	4938
873.303	5025
873.432	4976
873.561	4961
873.69	4873
873.819	4870
873.948	4957
874.077	4839
874.206	4774
874.335	4835
874.464	4930
874.593	5060
874.722	4980
874.851	5170
874.979	5025
875.108	5033
875.237	4881
875.365	4847
875.494	4892
875.623	5045
875.751	4877
875.88	4896
876.008	5022
876.136	5098
876.265	5254
876.393	5330
876.521	5242
876.65	5280
876.778	5170
876.906	5094
877.034	5052
877.162	5018
877.29	4972
877.418	5109
877.546	5090
877.674	5067
877.802	5010
877.93	4961
878.058	4972
878.185	4896
878.313	4911
878.441	4965
878.568	4854
878.696	4934
878.824	4987
878.951	5018
879.079	5136
879.206	5315
879.333	5132
879.461	4984
879.588	5018
879.715	5117
879.842	5231
879.97	5006
880.097	4771
880.224	4782
880.351	4820
880.478	4820
880.605	4831
880.732	4793
880.859	5090
880.986	4919
881.112	4892
881.239	4805
881.366	4721
881.493	4634
881.619	4618
881.746	4675
881.872	4645
881.999	4649
882.125	4755
882.252	4774
882.378	4847
882.505	4972
882.631	4816
882.757	4660
882.883	4759
883.01	4767
883.136	4736
883.262	4641
883.388	4675
883.514	4870
883.64	4900
883.766	4801
883.892	4702
884.018	4771
884.143	4965
884.269	5056
884.395	4736
884.52	4664
884.646	4641
884.772	4672
884.897	4607
885.023	4748
885.148	4843
885.274	4873
885.399	4866
885.524	4729
885.65	4774
885.775	4805
885.9	4714
886.025	4885
886.15	4812
886.275	4759
886.4	4736
886.525	4812
886.65	4721
886.775	4740
886.9	4957
887.025	5075
887.149	4866
887.274	4687
887.399	4637
887.523	4645
887.648	4611
887.773	4630
887.897	4793
888.021	4816
888.146	4725
888.27	4885
888.395	4919
888.519	4816
888.643	4820
888.767	4866
888.891	4729
889.015	4660
889.139	4660
889.263	4649
889.387	4809
889.511	4877
889.635	4854
889.759	4664
889.883	4702
890.006	4771
890.13	4820
890.254	4691
890.377	4687
890.501	4577
890.624	4615
890.748	4698
890.871	4493
890.995	4470
891.118	4390
891.241	4523
891.364	4599
891.488	4679
891.611	4550
891.734	4573
891.857	4653
891.98	4603
892.103	4694
892.226	4683
892.349	4588
892.471	4436
892.594	4577
892.717	4668
892.839	4599
892.962	4599
893.085	4736
893.207	4660
893.33	4497
893.452	4577
893.575	4725
893.697	4592
893.819	4843
893.941	4854
894.064	4839
894.186	4611
894.308	4637
894.43	4740
894.552	4908
894.674	4786
894.796	4618
894.918	4634
895.04	4622
895.161	4755
895.283	4710
895.405	4569
895.526	4668
895.648	4725
895.769	4698
895.891	4752
896.012	4748
896.134	4812
896.255	4717
896.376	4664
896.498	4656
896.619	4793
896.74	4656
896.861	4675
896.982	4980
897.103	5109
897.224	4896
897.345	4763
897.466	4691
897.587	4702
897.708	4877
897.828	4809
897.949	4694
898.07	4580
898.19	4637
898.311	4835
898.431	4744
898.552	4759
898.672	4885
898.792	4881
898.913	4820
899.033	4675
899.153	4527
899.273	4440
899.393	4523
899.513	4558
899.633	4550
899.753	4634
899.873	4558
899.993	4641
900.113	4519
900.232	4668
900.352	4565
900.472	4516
900.591	4413
900.711	4508
900.83	4421
900.95	4653
901.069	4744
901.189	4584
901.308	4402
901.427	4371
901.546	4386
901.665	4493
901.784	4516
901.904	4398
902.023	4398
902.141	4265
902.26	4196
902.379	4348
902.498	4284
902.617	4257
902.735	4383
902.854	4386
902.973	4386
903.091	4276
903.21	4234
903.328	4329
903.446	4303
903.565	4295
903.683	4447
903.801	4284
903.919	4413
904.038	4478
904.156	4360
904.274	4459
904.392	4447
904.51	4470
904.627	4504
904.745	4599
904.863	4660
904.981	4421
905.098	4310
905.216	4424
905.334	4462
905.451	4470
905.569	4470
905.686	4645
905.803	4611
905.921	4402
906.038	4626
906.155	4550
906.272	4440
906.389	4546
906.506	4360
906.623	4421
906.74	4421
906.857	4314
906.974	4421
907.091	4550
907.208	4706
907.324	4634
907.441	4535
907.557	4394
907.674	4360
907.79	4360
907.907	4405
908.023	4523
908.139	4500
908.256	4440
908.372	4493
908.488	4478
908.604	4363
908.72	4379
908.836	4409
908.952	4402
909.068	4421
909.184	4573
909.3	4481
909.415	4584
909.531	4527
909.647	4398
909.762	4405
909.878	4375
909.993	4436
910.108	4417
910.224	4470
910.339	4531
910.454	4478
910.57	4356
910.685	4333
910.8	4672
910.915	4588
911.03	4489
911.145	4379
911.259	4379
911.374	4436
911.489	4375
911.604	4333
911.718	4215
911.833	4261
911.947	4112
912.062	4044
912.176	4246
912.291	4276
912.405	4280
912.519	4500
912.633	4493
912.748	4421
912.862	4363
912.976	4223
913.09	4135
913.204	4196
913.318	4265
913.431	4348
913.545	4417
913.659	4447
913.772	4367
913.886	4303
914	4227
914.113	4417
914.226	4489
914.34	4470
914.453	4295
914.566	4470
914.68	4360
914.793	4329
914.906	4166
915.019	4200
915.132	4109
915.245	4253
915.358	4249
915.47	4272
915.583	4291
915.696	4348
915.809	4432
915.921	4447
916.034	4344
916.146	4276
916.259	4234
916.371	4398
916.483	4360
916.595	4314
916.708	4287
916.82	4341
916.932	4318
917.044	4367
917.156	4356
917.268	4284
917.38	4284
917.491	4322
917.603	4322
917.715	4493
917.826	4451
917.938	4329
918.049	4249
918.161	4436
918.272	4569
918.384	4558
918.495	4493
918.606	4348
918.717	4238
918.828	4341
918.939	4390
919.05	4329
919.161	4314
919.272	4162
919.383	4268
919.494	4485
919.604	4653
919.715	4432
919.826	4360
919.936	4421
920.047	4516
920.157	4512
920.267	4755
920.378	4565
920.488	4523
920.598	4649
920.708	4892
920.818	4790
920.928	4767
921.038	4961
921.148	4957
921.258	4664
921.368	4538
921.477	4535
921.587	4428
921.697	4390
921.806	4523
921.916	4485
922.025	4322
922.134	4322
922.244	4200
922.353	4394
922.462	4185
922.571	4139
922.68	4010
922.789	4025
922.898	4124
923.007	3991
923.116	4135
923.224	4135
923.333	4063
923.442	4021
923.55	3972
923.659	4063
923.767	4093
923.876	4013
923.984	4105
924.092	4010
924.201	4139
924.309	4131
924.417	4120
924.525	4025
924.633	4120
924.741	5052
924.849	3941
924.956	4120
925.064	4010
925.172	3903
925.279	4025
925.387	4093
925.494	4040
925.602	4242
925.709	4188
925.816	4086
925.924	4169
926.031	4211
926.138	4204
926.245	4185
926.352	4071
926.459	4287
926.566	4348
926.673	4177
926.779	4124
926.886	4067
926.993	4010
927.099	3994
927.206	3979
927.312	3987
927.419	4090
927.525	4063
927.631	4131
927.737	3964
927.843	3964
927.95	3819
928.056	3937
928.162	3968
928.267	4097
928.373	4630
928.479	4181
928.585	3899
928.69	4063
928.796	4044
928.901	3998
929.007	3861
929.112	3994
929.218	4013
929.323	3979
929.428	3994
929.533	4067
929.638	3907
929.743	3994
929.848	4025
929.953	4036
930.058	3922
930.163	3823
930.267	3892
930.372	3998
930.477	3804
930.581	4105
930.685	3956
930.79	3846
930.894	3869
930.998	3880
931.103	4036
931.207	3717
931.311	3728
931.415	3755
931.519	3542
931.623	3587
