Data from test_V78500241_1790.txt Node
Date: Fri Mar 25 17:01:26 CST 2022
User: usil
Spectrometer: V785-0024
Trigger mode: 0
Integration Time (sec): 4.000000E-1
Scans to average: 1
Nonlinearity correction enabled: false
Boxcar width: 0
Storing dark spectrum: false
XAxis mode: Wavelengths
Number of Pixels in Spectrum: 1024
>>>>>Begin Spectral Data<<<<<
801.071	8020
801.214	8020
801.356	7944
801.499	7830
801.641	7845
801.783	7788
801.926	8024
802.068	7936
802.211	7936
802.353	8035
802.496	7887
802.638	7860
802.78	7879
802.923	7890
803.065	7833
803.208	7822
803.35	7940
803.492	8081
803.635	8111
803.777	7982
803.919	8077
804.061	8423
804.204	8168
804.346	8016
804.488	7989
804.63	8046
804.773	7978
804.915	8172
805.057	8244
805.199	8199
805.341	8218
805.483	8218
805.626	8240
805.768	8115
805.91	8168
806.052	8229
806.194	8168
806.336	8290
806.478	8100
806.62	8077
806.762	8092
806.904	8279
807.046	8454
807.188	8309
807.33	8282
807.472	8320
807.614	8145
807.756	8161
807.898	7959
808.04	7944
808.182	7852
808.324	7898
808.465	7928
808.607	8092
808.749	8157
808.891	8202
809.033	8298
809.174	8225
809.316	8111
809.458	8069
809.6	8073
809.741	8073
809.883	8031
810.025	8096
810.166	8054
810.308	8050
810.45	7951
810.591	7780
810.733	7715
810.875	7590
811.016	7556
811.158	7476
811.299	7559
811.441	7715
811.582	7666
811.724	7563
811.865	7491
812.007	7559
812.148	7624
812.29	7620
812.431	7738
812.573	7887
812.714	7997
812.855	8069
812.997	8279
813.138	8332
813.279	8164
813.421	8062
813.562	7989
813.703	7830
813.845	7712
813.986	7373
814.127	7232
814.268	7255
814.41	7228
814.551	7091
814.692	7179
814.833	7129
814.974	7133
815.115	7099
815.256	6989
815.397	6890
815.539	6894
815.68	6825
815.821	6711
815.962	6802
816.103	6772
816.244	6700
816.385	6593
816.526	6563
816.666	6479
816.807	6342
816.948	6388
817.089	6494
817.23	6414
817.371	6353
817.512	6391
817.653	6441
817.793	6361
817.934	6422
818.075	6429
818.216	6422
818.356	6388
818.497	6209
818.638	6117
818.778	6133
818.919	6175
819.06	6155
819.2	6300
819.341	6346
819.481	6418
819.622	6544
819.762	6749
819.903	6684
820.043	6547
820.184	6532
820.324	6521
820.465	6707
820.605	6711
820.746	6665
820.886	6498
821.026	6662
821.167	6620
821.307	6787
821.447	6779
821.588	6730
821.728	6578
821.868	6544
822.008	6315
822.149	6308
822.289	6369
822.429	6205
822.569	6079
822.709	6114
822.849	5920
822.99	5912
823.13	5931
823.27	5958
823.41	5752
823.55	5817
823.69	5786
823.83	5802
823.97	5710
824.11	5566
824.25	5551
824.389	5615
824.529	5570
824.669	5577
824.809	5657
824.949	5710
825.089	5646
825.228	5577
825.368	5429
825.508	5383
825.648	5379
825.787	5395
825.927	5410
826.067	5337
826.206	5322
826.346	5429
826.485	5444
826.625	5440
826.765	5592
826.904	5478
827.044	5239
827.183	5265
827.323	5193
827.462	5227
827.601	5258
827.741	5242
827.88	5235
828.02	5189
828.159	5280
828.298	5303
828.437	5425
828.577	5322
828.716	5490
828.855	5364
828.994	5181
829.134	5132
829.273	5250
829.412	5178
829.551	5155
829.69	5208
829.829	5303
829.968	5452
830.107	5326
830.246	5349
830.385	5151
830.524	5216
830.663	5151
830.802	5022
830.941	4881
831.08	4965
831.219	4991
831.357	4991
831.496	5193
831.635	4972
831.774	4911
831.913	4919
832.051	4740
832.19	4774
832.329	4847
832.467	4714
832.606	4679
832.744	4755
832.883	4771
833.022	4744
833.16	4759
833.299	4824
833.437	4892
833.576	4862
833.714	4881
833.852	4877
833.991	4927
834.129	5014
834.267	4995
834.406	4938
834.544	5056
834.682	5052
834.821	4946
834.959	5220
835.097	5018
835.235	5170
835.373	5117
835.511	5166
835.65	5010
835.788	5041
835.926	4911
836.064	4911
836.202	4927
836.34	5193
836.478	5284
836.615	5113
836.753	5204
836.891	5330
837.029	5292
837.167	5261
837.305	5193
837.443	5143
837.58	5064
837.718	5273
837.856	5239
837.993	5151
838.131	5231
838.269	5227
838.406	5296
838.544	5246
838.681	5079
838.819	5037
838.956	4938
839.094	4980
839.231	5018
839.369	5094
839.506	5482
839.643	5345
839.781	5136
839.918	5079
840.055	5128
840.193	5140
840.33	5128
840.467	5151
840.604	5246
840.742	5440
840.879	5067
841.016	5121
841.153	5178
841.29	5448
841.427	5372
841.564	5402
841.701	5391
841.838	5296
841.975	5258
842.112	5284
842.249	5128
842.385	5140
842.522	5383
842.659	5216
842.796	5147
842.933	5250
843.069	5174
843.206	5105
843.343	5387
843.479	5337
843.616	5288
843.752	5086
843.889	5075
844.025	5239
844.162	4987
844.298	5258
844.435	5090
844.571	5067
844.708	5250
844.844	5292
844.98	5345
845.117	5258
845.253	5155
845.389	5094
845.525	5201
845.661	5201
845.798	5056
845.934	5162
846.07	5067
846.206	5269
846.342	5277
846.478	5212
846.614	5090
846.75	5014
846.886	4949
847.022	5113
847.158	5071
847.294	5086
847.429	5147
847.565	5064
847.701	5299
847.837	4881
847.972	4816
848.108	4957
848.244	4915
848.379	4797
848.515	4733
848.65	4752
848.786	4740
848.921	4812
849.057	4908
849.192	4942
849.328	4831
849.463	4801
849.598	4793
849.734	4759
849.869	4733
850.004	4645
850.14	4691
850.275	4630
850.41	4550
850.545	4550
850.68	4683
850.815	4672
850.95	4672
851.085	4904
851.22	4797
851.355	4714
851.49	4679
851.625	4725
851.76	4694
851.895	4584
852.03	4558
852.165	4721
852.299	4683
852.434	4828
852.569	4736
852.703	4740
852.838	4854
852.973	4999
853.107	4938
853.242	4717
853.376	4714
853.511	4618
853.645	4630
853.78	4816
853.914	4702
854.048	4710
854.183	4660
854.317	4736
854.451	4911
854.585	4691
854.72	4626
854.854	4767
854.988	4634
855.122	4641
855.256	4554
855.39	4687
855.524	4790
855.658	4816
855.792	4744
855.926	4691
856.06	4816
856.194	4824
856.327	4694
856.461	4607
856.595	4618
856.729	4653
856.862	4748
856.996	4729
857.13	4725
857.263	4790
857.397	4805
857.53	4672
857.664	4733
857.797	4870
857.931	4835
858.064	4725
858.197	4786
858.331	4668
858.464	4675
858.597	4523
858.731	4683
858.864	4668
858.997	4626
859.13	4714
859.263	4706
859.396	4740
859.529	4607
859.662	4531
859.795	4516
859.928	4641
860.061	4774
860.194	4805
860.327	4596
860.46	4577
860.592	4748
860.725	4733
860.858	4736
860.99	4603
861.123	4535
861.256	4550
861.388	4615
861.521	5299
861.653	4546
861.786	4424
861.918	4493
862.05	4531
862.183	4573
862.315	4626
862.447	4622
862.58	4573
862.712	4386
862.844	4337
862.976	4508
863.108	4443
863.24	4877
863.372	4352
863.504	4424
863.636	4440
863.768	4523
863.9	4451
864.032	4371
864.164	4394
864.296	4516
864.428	4550
864.559	4577
864.691	4573
864.823	4580
864.954	4538
865.086	4531
865.217	4443
865.349	4447
865.48	4489
865.612	4512
865.743	4630
865.875	4550
866.006	4417
866.137	4497
866.269	4481
866.4	4459
866.531	4440
866.662	4436
866.793	4421
866.924	4451
867.055	4478
867.186	4447
867.317	4432
867.448	4398
867.579	4405
867.71	4409
867.841	4413
867.972	4493
868.103	4508
868.233	4474
868.364	4443
868.495	4508
868.625	4649
868.756	4744
868.886	4607
869.017	4660
869.147	4782
869.278	4763
869.408	4679
869.539	4626
869.669	4702
869.799	4637
869.929	4740
870.06	4698
870.19	4953
870.32	4892
870.45	4965
870.58	5045
870.71	5185
870.84	5121
870.97	4972
871.1	4904
871.23	5128
871.36	5204
871.489	5052
871.619	5067
871.749	5098
871.879	5216
872.008	5147
872.138	5048
872.267	5025
872.397	4854
872.526	4828
872.656	4733
872.785	4790
872.915	4991
873.044	5064
873.173	4938
873.303	4965
873.432	4984
873.561	5029
873.69	4908
873.819	4942
873.948	4942
874.077	4816
874.206	4767
874.335	4782
874.464	4930
874.593	5079
874.722	4961
874.851	5117
874.979	5022
875.108	5010
875.237	4972
875.365	4915
875.494	4911
875.623	4934
875.751	4839
875.88	4862
876.008	4976
876.136	5041
876.265	5166
876.393	5376
876.521	5261
876.65	5204
876.778	5162
876.906	5090
877.034	5052
877.162	5029
877.29	5003
877.418	5159
877.546	5041
877.674	5006
877.802	5025
877.93	5033
878.058	4980
878.185	4866
878.313	4953
878.441	4942
878.568	4816
878.696	4889
878.824	4938
878.951	5029
879.079	5121
879.206	5311
879.333	5113
879.461	5033
879.588	5018
879.715	5124
879.842	5277
879.97	5018
880.097	4809
880.224	4759
880.351	4824
880.478	4824
880.605	4843
880.732	4831
880.859	5102
880.986	4892
881.112	4968
881.239	4797
881.366	4683
881.493	4626
881.619	4611
881.746	4641
881.872	4660
881.999	4656
882.125	4740
882.252	4839
882.378	4816
882.505	4968
882.631	4839
882.757	4729
882.883	4736
883.01	4721
883.136	4672
883.262	4637
883.388	4561
883.514	4843
883.64	4870
883.766	4786
883.892	4691
884.018	4694
884.143	4892
884.269	5086
884.395	4714
884.52	4672
884.646	4637
884.772	4588
884.897	4546
885.023	4694
885.148	4778
885.274	4858
885.399	4824
885.524	4771
885.65	4786
885.775	4740
885.9	4778
886.025	4866
886.15	4771
886.275	4687
886.4	4668
886.525	4744
886.65	4679
886.775	4721
886.9	4892
887.025	5086
887.149	4862
887.274	4649
887.399	4603
887.523	4550
887.648	4622
887.773	4569
887.897	4786
888.021	4786
888.146	4694
888.27	4801
888.395	4885
888.519	4786
888.643	4820
888.767	4816
888.891	4675
889.015	4603
889.139	4702
889.263	4577
889.387	4752
889.511	4908
889.635	4881
889.759	4599
889.883	4626
890.006	4752
890.13	4786
890.254	4607
890.377	4733
890.501	4504
890.624	4516
890.748	4637
890.871	4516
890.995	4443
891.118	4394
891.241	4554
891.364	4538
891.488	4611
891.611	4497
891.734	4500
891.857	4645
891.98	4577
892.103	4656
892.226	4626
892.349	4519
892.471	4386
892.594	4535
892.717	4618
892.839	4554
892.962	4634
893.085	4668
893.207	4603
893.33	4508
893.452	4516
893.575	4641
893.697	4558
893.819	4820
893.941	4877
894.064	4790
894.186	4607
894.308	4580
894.43	4759
894.552	4812
894.674	4698
894.796	4565
894.918	4626
895.04	4599
895.161	4748
895.283	4649
895.405	4584
895.526	4630
895.648	4694
895.769	4694
895.891	4721
896.012	4786
896.134	4714
896.255	4698
896.376	4645
896.498	4618
896.619	4679
896.74	4668
896.861	4653
896.982	4961
897.103	5090
897.224	4866
897.345	4759
897.466	4691
897.587	4740
897.708	4885
897.828	4759
897.949	4630
898.07	4584
898.19	4637
898.311	4873
898.431	4698
898.552	4729
898.672	4778
898.792	4793
898.913	4786
899.033	4607
899.153	4538
899.273	4421
899.393	4474
899.513	4485
899.633	4481
899.753	4542
899.873	4500
899.993	4596
900.113	4542
900.232	4599
900.352	4558
900.472	4523
900.591	4348
900.711	4519
900.83	4409
900.95	4599
901.069	4733
901.189	4493
901.308	4333
901.427	4314
901.546	4344
901.665	4485
901.784	4527
901.904	4405
902.023	4337
902.141	4192
902.26	4192
902.379	4314
902.498	4238
902.617	4242
902.735	4367
902.854	4409
902.973	4329
903.091	4188
903.21	4227
903.328	4303
903.446	4253
903.565	4287
903.683	4367
903.801	4246
903.919	4413
904.038	4398
904.156	4329
904.274	4421
904.392	4394
904.51	4413
904.627	4443
904.745	4603
904.863	4656
904.981	4390
905.098	4249
905.216	4329
905.334	4443
905.451	4405
905.569	4436
905.686	4558
905.803	4554
905.921	4432
906.038	4542
906.155	4516
906.272	4390
906.389	4504
906.506	4394
906.623	4333
906.74	4356
906.857	4310
906.974	4390
907.091	4550
907.208	4687
907.324	4618
907.441	4516
907.557	4344
907.674	4363
907.79	4306
907.907	4405
908.023	4489
908.139	4512
908.256	4417
908.372	4481
908.488	4459
908.604	4363
908.72	4344
908.836	4363
908.952	4371
909.068	4360
909.184	4577
909.3	4455
909.415	4599
909.531	4542
909.647	4390
909.762	4371
909.878	4337
909.993	4436
910.108	4402
910.224	4432
910.339	4451
910.454	4428
910.57	4344
910.685	4344
910.8	4668
910.915	4645
911.03	4493
911.145	4344
911.259	4341
911.374	4417
911.489	4306
911.604	4303
911.718	4166
911.833	4211
911.947	4082
912.062	4013
912.176	4215
912.291	4249
912.405	4253
912.519	4466
912.633	4455
912.748	4375
912.862	4329
912.976	4242
913.09	4093
913.204	4181
913.318	4249
913.431	4352
913.545	4356
913.659	4459
913.772	4363
913.886	4280
914	4249
914.113	4306
914.226	4428
914.34	4363
914.453	4215
914.566	4455
914.68	4306
914.793	4318
914.906	4162
915.019	4131
915.132	4097
915.245	4166
915.358	4215
915.47	4177
915.583	4287
915.696	4322
915.809	4413
915.921	4451
916.034	4291
916.146	4192
916.259	4257
916.371	4402
916.483	4383
916.595	4234
916.708	4348
916.82	4356
916.932	4344
917.044	4333
917.156	4295
917.268	4238
917.38	4261
917.491	4253
917.603	4348
917.715	4432
917.826	4440
917.938	4356
918.049	4238
918.161	4356
918.272	4542
918.384	4558
918.495	4432
918.606	4257
918.717	4230
918.828	4333
918.939	4390
919.05	4253
919.161	4367
919.272	4135
919.383	4196
919.494	4440
919.604	4630
919.715	4447
919.826	4352
919.936	4462
920.047	4516
920.157	4474
920.267	4725
920.378	4573
920.488	4535
920.598	4687
920.708	4877
920.818	4740
920.928	4812
921.038	4930
921.148	4919
921.258	4599
921.368	4542
921.477	4508
921.587	4474
921.697	4367
921.806	4519
921.916	4421
922.025	4257
922.134	4238
922.244	4204
922.353	4318
922.462	4139
922.571	4082
922.68	4013
922.789	3994
922.898	4051
923.007	4017
923.116	4063
923.224	4109
923.333	4078
923.442	3991
923.55	3960
923.659	4059
923.767	4074
923.876	4002
923.984	4139
924.092	3994
924.201	4097
924.309	4097
924.417	4086
924.525	4017
924.633	4059
924.741	5010
924.849	3907
924.956	4059
925.064	3945
925.172	3896
925.279	3968
925.387	4078
925.494	4040
925.602	4188
925.709	4200
925.816	4067
925.924	4120
926.031	4230
926.138	4192
926.245	4192
926.352	4093
926.459	4272
926.566	4322
926.673	4143
926.779	4063
926.886	4063
926.993	3979
927.099	3960
927.206	3953
927.312	3911
927.419	4051
927.525	4036
927.631	4147
927.737	3968
927.843	3934
927.95	3831
928.056	3949
928.162	4021
928.267	4078
928.373	4611
928.479	4112
928.585	3918
928.69	4010
928.796	4074
928.901	3975
929.007	3835
929.112	4010
929.218	3915
929.323	3915
929.428	3941
929.533	4082
929.638	3903
929.743	3998
929.848	4036
929.953	4002
930.058	3915
930.163	3766
930.267	3819
930.372	4006
930.477	3808
930.581	4120
930.685	3953
930.79	3800
930.894	3854
930.998	3846
931.103	4010
931.207	3732
931.311	3717
931.415	3633
931.519	3557
931.623	3523
