Data from test_V78500241_1734.txt Node
Date: Fri Mar 25 17:01:03 CST 2022
User: usil
Spectrometer: V785-0024
Trigger mode: 0
Integration Time (sec): 4.000000E-1
Scans to average: 1
Nonlinearity correction enabled: false
Boxcar width: 0
Storing dark spectrum: false
XAxis mode: Wavelengths
Number of Pixels in Spectrum: 1024
>>>>>Begin Spectral Data<<<<<
801.071	8077
801.214	8065
801.356	7898
801.499	7909
801.641	7769
801.783	7776
801.926	7963
802.068	7970
802.211	7982
802.353	8058
802.496	7860
802.638	7928
802.78	7898
802.923	7917
803.065	7841
803.208	7879
803.35	8016
803.492	8024
803.635	8081
803.777	8043
803.919	8088
804.061	8454
804.204	8202
804.346	8115
804.488	8039
804.63	8046
804.773	7932
804.915	8161
805.057	8309
805.199	8180
805.341	8199
805.483	8240
805.626	8199
805.768	8130
805.91	8237
806.052	8229
806.194	8115
806.336	8305
806.478	8050
806.62	8031
806.762	8161
806.904	8221
807.046	8526
807.188	8358
807.33	8336
807.472	8385
807.614	8096
807.756	8096
807.898	8001
808.04	7822
808.182	7871
808.324	7845
808.465	7906
808.607	8043
808.749	8077
808.891	8202
809.033	8347
809.174	8183
809.316	8046
809.458	8027
809.6	8031
809.741	8050
809.883	7993
810.025	8077
810.166	8043
810.308	8020
810.45	7993
810.591	7871
810.733	7776
810.875	7674
811.016	7510
811.158	7468
811.299	7575
811.441	7696
811.582	7742
811.724	7586
811.865	7548
812.007	7636
812.148	7616
812.29	7556
812.431	7746
812.573	7887
812.714	7944
812.855	8123
812.997	8176
813.138	8279
813.279	8172
813.421	8119
813.562	8005
813.703	7780
813.845	7727
813.986	7419
814.127	7198
814.268	7198
814.41	7198
814.551	7202
814.692	7175
814.833	7133
814.974	7107
815.115	7091
815.256	7057
815.397	6970
815.539	6878
815.68	6840
815.821	6787
815.962	6856
816.103	6795
816.244	6703
816.385	6627
816.526	6585
816.666	6490
816.807	6331
816.948	6407
817.089	6464
817.23	6475
817.371	6342
817.512	6372
817.653	6437
817.793	6342
817.934	6372
818.075	6418
818.216	6422
818.356	6403
818.497	6232
818.638	6083
818.778	6152
818.919	6148
819.06	6144
819.2	6319
819.341	6315
819.481	6338
819.622	6555
819.762	6768
819.903	6772
820.043	6631
820.184	6570
820.324	6582
820.465	6662
820.605	6722
820.746	6662
820.886	6532
821.026	6673
821.167	6669
821.307	6783
821.447	6760
821.588	6612
821.728	6578
821.868	6517
822.008	6258
822.149	6365
822.289	6327
822.429	6125
822.569	6114
822.709	6091
822.849	5901
822.99	5885
823.13	5939
823.27	5935
823.41	5752
823.55	5786
823.69	5802
823.83	5798
823.97	5668
824.11	5554
824.25	5509
824.389	5585
824.529	5551
824.669	5482
824.809	5638
824.949	5707
825.089	5665
825.228	5547
825.368	5383
825.508	5360
825.648	5368
825.787	5360
825.927	5368
826.067	5288
826.206	5357
826.346	5322
826.485	5398
826.625	5379
826.765	5570
826.904	5467
827.044	5265
827.183	5185
827.323	5136
827.462	5242
827.601	5181
827.741	5174
827.88	5235
828.02	5102
828.159	5204
828.298	5239
828.437	5322
828.577	5299
828.716	5471
828.855	5315
828.994	5170
829.134	5162
829.273	5231
829.412	5201
829.551	5159
829.69	5178
829.829	5242
829.968	5357
830.107	5227
830.246	5284
830.385	5166
830.524	5147
830.663	5060
830.802	4976
830.941	4870
831.08	4870
831.219	5045
831.357	4961
831.496	5151
831.635	4896
831.774	4809
831.913	4790
832.051	4740
832.19	4740
832.329	4820
832.467	4733
832.606	4649
832.744	4736
832.883	4736
833.022	4721
833.16	4812
833.299	4763
833.437	4801
833.576	4812
833.714	4812
833.852	4854
833.991	4881
834.129	4946
834.267	4915
834.406	4923
834.544	4976
834.682	4930
834.821	4999
834.959	5121
835.097	5037
835.235	5079
835.373	5105
835.511	5124
835.65	5006
835.788	4942
835.926	4900
836.064	4862
836.202	4889
836.34	5166
836.478	5220
836.615	5109
836.753	5178
836.891	5299
837.029	5269
837.167	5189
837.305	5151
837.443	5136
837.58	5056
837.718	5181
837.856	5109
837.993	5132
838.131	5201
838.269	5239
838.406	5174
838.544	5185
838.681	5037
838.819	4968
838.956	4942
839.094	4885
839.231	4995
839.369	5090
839.506	5402
839.643	5277
839.781	5041
839.918	4995
840.055	5071
840.193	5098
840.33	5170
840.467	5117
840.604	5197
840.742	5410
840.879	5056
841.016	5128
841.153	5117
841.29	5368
841.427	5341
841.564	5337
841.701	5341
841.838	5303
841.975	5250
842.112	5277
842.249	5128
842.385	5140
842.522	5303
842.659	5178
842.796	5220
842.933	5174
843.069	5136
843.206	5159
843.343	5311
843.479	5181
843.616	5235
843.752	5003
843.889	5025
844.025	5204
844.162	5045
844.298	5208
844.435	5079
844.571	5064
844.708	5208
844.844	5273
844.98	5326
845.117	5299
845.253	5170
845.389	5037
845.525	5159
845.661	5113
845.798	5037
845.934	5113
846.07	5048
846.206	5220
846.342	5311
846.478	5162
846.614	5029
846.75	4961
846.886	4904
847.022	5166
847.158	5025
847.294	5060
847.429	5113
847.565	5064
847.701	5296
847.837	4839
847.972	4771
848.108	4999
848.244	4908
848.379	4831
848.515	4714
848.65	4698
848.786	4706
848.921	4786
849.057	4866
849.192	4881
849.328	4816
849.463	4824
849.598	4793
849.734	4733
849.869	4717
850.004	4668
850.14	4645
850.275	4622
850.41	4546
850.545	4588
850.68	4615
850.815	4611
850.95	4615
851.085	4858
851.22	4740
851.355	4656
851.49	4649
851.625	4618
851.76	4630
851.895	4546
852.03	4535
852.165	4664
852.299	4706
852.434	4782
852.569	4782
852.703	4820
852.838	4854
852.973	4961
853.107	4927
853.242	4729
853.376	4683
853.511	4577
853.645	4577
853.78	4812
853.914	4725
854.048	4672
854.183	4588
854.317	4687
854.451	4801
854.585	4668
854.72	4641
854.854	4736
854.988	4580
855.122	4653
855.256	4558
855.39	4664
855.524	4736
855.658	4675
855.792	4721
855.926	4721
856.06	4740
856.194	4797
856.327	4626
856.461	4607
856.595	4626
856.729	4588
856.862	4752
856.996	4717
857.13	4706
857.263	4721
857.397	4820
857.53	4641
857.664	4717
857.797	4782
857.931	4733
858.064	4698
858.197	4694
858.331	4565
858.464	4618
858.597	4474
858.731	4634
858.864	4645
858.997	4596
859.13	4637
859.263	4664
859.396	4641
859.529	4599
859.662	4538
859.795	4554
859.928	4599
860.061	4771
860.194	4805
860.327	4596
860.46	4588
860.592	4687
860.725	4687
860.858	4771
860.99	4561
861.123	4470
861.256	4550
861.388	4592
861.521	5341
861.653	4462
861.786	4440
861.918	4417
862.05	4485
862.183	4516
862.315	4618
862.447	4675
862.58	4554
862.712	4405
862.844	4322
862.976	4462
863.108	4489
863.24	4843
863.372	4337
863.504	4402
863.636	4402
863.768	4512
863.9	4428
864.032	4329
864.164	4459
864.296	4512
864.428	4527
864.559	4546
864.691	4516
864.823	4500
864.954	4462
865.086	4527
865.217	4459
865.349	4390
865.48	4436
865.612	4497
865.743	4607
865.875	4466
866.006	4398
866.137	4436
866.269	4421
866.4	4451
866.531	4436
866.662	4379
866.793	4432
866.924	4405
867.055	4447
867.186	4455
867.317	4413
867.448	4402
867.579	4402
867.71	4390
867.841	4348
867.972	4462
868.103	4421
868.233	4409
868.364	4489
868.495	4443
868.625	4630
868.756	4721
868.886	4580
869.017	4668
869.147	4706
869.278	4733
869.408	4717
869.539	4622
869.669	4710
869.799	4630
869.929	4729
870.06	4782
870.19	4930
870.32	4889
870.45	4965
870.58	5003
870.71	5018
870.84	5052
870.97	4904
871.1	4896
871.23	5151
871.36	5121
871.489	5014
871.619	5124
871.749	5060
871.879	5128
872.008	5197
872.138	5045
872.267	4980
872.397	4828
872.526	4839
872.656	4736
872.785	4786
872.915	4930
873.044	4991
873.173	4957
873.303	5014
873.432	4965
873.561	4976
873.69	4900
873.819	4850
873.948	4938
874.077	4809
874.206	4767
874.335	4790
874.464	4908
874.593	5060
874.722	4946
874.851	5094
874.979	4995
875.108	5022
875.237	4927
875.365	4877
875.494	4908
875.623	4972
875.751	4790
875.88	4896
876.008	4949
876.136	5060
876.265	5208
876.393	5345
876.521	5212
876.65	5197
876.778	5155
876.906	5064
877.034	4995
877.162	5048
877.29	5025
877.418	5025
877.546	5018
877.674	5006
877.802	5029
877.93	4987
878.058	4930
878.185	4911
878.313	4927
878.441	4946
878.568	4786
878.696	4877
878.824	4980
878.951	4991
879.079	5071
879.206	5235
879.333	5124
879.461	5033
879.588	4972
879.715	5094
879.842	5201
879.97	4938
880.097	4782
880.224	4744
880.351	4790
880.478	4793
880.605	4839
880.732	4759
880.859	5075
880.986	4949
881.112	4904
881.239	4748
881.366	4649
881.493	4626
881.619	4527
881.746	4668
881.872	4645
881.999	4649
882.125	4733
882.252	4790
882.378	4805
882.505	4934
882.631	4816
882.757	4649
882.883	4740
883.01	4782
883.136	4679
883.262	4592
883.388	4584
883.514	4812
883.64	4896
883.766	4752
883.892	4694
884.018	4725
884.143	4904
884.269	5041
884.395	4592
884.52	4584
884.646	4611
884.772	4558
884.897	4523
885.023	4653
885.148	4801
885.274	4870
885.399	4831
885.524	4706
885.65	4679
885.775	4736
885.9	4691
886.025	4847
886.15	4790
886.275	4714
886.4	4607
886.525	4736
886.65	4694
886.775	4687
886.9	4877
887.025	5067
887.149	4816
887.274	4641
887.399	4618
887.523	4573
887.648	4569
887.773	4565
887.897	4771
888.021	4759
888.146	4691
888.27	4774
888.395	4885
888.519	4812
888.643	4812
888.767	4839
888.891	4672
889.015	4630
889.139	4607
889.263	4592
889.387	4733
889.511	4885
889.635	4828
889.759	4668
889.883	4641
890.006	4759
890.13	4790
890.254	4607
890.377	4698
890.501	4573
890.624	4497
890.748	4588
890.871	4493
890.995	4424
891.118	4375
891.241	4516
891.364	4554
891.488	4622
891.611	4527
891.734	4558
891.857	4584
891.98	4519
892.103	4672
892.226	4596
892.349	4512
892.471	4443
892.594	4603
892.717	4603
892.839	4558
892.962	4580
893.085	4645
893.207	4596
893.33	4497
893.452	4500
893.575	4641
893.697	4527
893.819	4786
893.941	4839
894.064	4755
894.186	4542
894.308	4538
894.43	4736
894.552	4820
894.674	4733
894.796	4504
894.918	4592
895.04	4626
895.161	4694
895.283	4664
895.405	4569
895.526	4637
895.648	4717
895.769	4653
895.891	4702
896.012	4740
896.134	4733
896.255	4634
896.376	4630
896.498	4626
896.619	4622
896.74	4588
896.861	4626
896.982	4927
897.103	5098
897.224	4824
897.345	4774
897.466	4683
897.587	4721
897.708	4782
897.828	4767
897.949	4615
898.07	4558
898.19	4622
898.311	4793
898.431	4683
898.552	4733
898.672	4820
898.792	4809
898.913	4710
899.033	4596
899.153	4508
899.273	4462
899.393	4519
899.513	4577
899.633	4508
899.753	4531
899.873	4512
899.993	4550
900.113	4565
900.232	4596
900.352	4512
900.472	4489
900.591	4386
900.711	4432
900.83	4375
900.95	4592
901.069	4687
901.189	4599
901.308	4344
901.427	4291
901.546	4371
901.665	4440
901.784	4527
901.904	4344
902.023	4284
902.141	4196
902.26	4200
902.379	4257
902.498	4242
902.617	4223
902.735	4375
902.854	4394
902.973	4375
903.091	4230
903.21	4227
903.328	4287
903.446	4230
903.565	4234
903.683	4367
903.801	4306
903.919	4356
904.038	4402
904.156	4333
904.274	4409
904.392	4409
904.51	4421
904.627	4500
904.745	4611
904.863	4679
904.981	4318
905.098	4352
905.216	4371
905.334	4436
905.451	4413
905.569	4481
905.686	4554
905.803	4573
905.921	4371
906.038	4554
906.155	4455
906.272	4363
906.389	4432
906.506	4322
906.623	4344
906.74	4409
906.857	4306
906.974	4367
907.091	4538
907.208	4733
907.324	4588
907.441	4485
907.557	4341
907.674	4329
907.79	4333
907.907	4352
908.023	4466
908.139	4459
908.256	4402
908.372	4489
908.488	4443
908.604	4348
908.72	4314
908.836	4379
908.952	4383
909.068	4424
909.184	4550
909.3	4455
909.415	4622
909.531	4577
909.647	4325
909.762	4367
909.878	4318
909.993	4413
910.108	4405
910.224	4356
910.339	4447
910.454	4421
910.57	4371
910.685	4295
910.8	4649
910.915	4561
911.03	4462
911.145	4287
911.259	4310
911.374	4325
911.489	4249
911.604	4276
911.718	4147
911.833	4234
911.947	4078
912.062	4071
912.176	4211
912.291	4265
912.405	4223
912.519	4436
912.633	4474
912.748	4383
912.862	4238
912.976	4211
913.09	4105
913.204	4147
913.318	4230
913.431	4375
913.545	4398
913.659	4424
913.772	4337
913.886	4238
914	4204
914.113	4379
914.226	4440
914.34	4421
914.453	4265
914.566	4409
914.68	4337
914.793	4287
914.906	4169
915.019	4131
915.132	4059
915.245	4196
915.358	4223
915.47	4238
915.583	4257
915.696	4318
915.809	4375
915.921	4436
916.034	4265
916.146	4227
916.259	4166
916.371	4341
916.483	4344
916.595	4234
916.708	4356
916.82	4303
916.932	4329
917.044	4284
917.156	4329
917.268	4253
917.38	4272
917.491	4265
917.603	4344
917.715	4447
917.826	4394
917.938	4348
918.049	4230
918.161	4383
918.272	4561
918.384	4508
918.495	4443
918.606	4261
918.717	4234
918.828	4329
918.939	4356
919.05	4265
919.161	4284
919.272	4135
919.383	4249
919.494	4474
919.604	4584
919.715	4417
919.826	4337
919.936	4363
920.047	4466
920.157	4481
920.267	4752
920.378	4550
920.488	4538
920.598	4721
920.708	4850
920.818	4782
920.928	4782
921.038	4930
921.148	4938
921.258	4641
921.368	4558
921.477	4500
921.587	4413
921.697	4375
921.806	4538
921.916	4489
922.025	4257
922.134	4253
922.244	4177
922.353	4325
922.462	4154
922.571	4109
922.68	4040
922.789	3968
922.898	4059
923.007	4032
923.116	4112
923.224	4090
923.333	4086
923.442	3975
923.55	3979
923.659	4036
923.767	4059
923.876	4029
923.984	4086
924.092	4021
924.201	4040
924.309	4109
924.417	4078
924.525	4074
924.633	4143
924.741	4839
924.849	3945
924.956	4112
925.064	3918
925.172	3915
925.279	3937
925.387	4002
925.494	4040
925.602	4227
925.709	4188
925.816	4006
925.924	4082
926.031	4227
926.138	4150
926.245	4177
926.352	4090
926.459	4249
926.566	4379
926.673	4131
926.779	4063
926.886	4021
926.993	3937
927.099	3930
927.206	3964
927.312	3903
927.419	4071
927.525	4074
927.631	4116
927.737	3991
927.843	3941
927.95	3827
928.056	3994
928.162	4017
928.267	4074
928.373	4645
928.479	4124
928.585	3854
928.69	4021
928.796	4067
928.901	3941
929.007	3846
929.112	3994
929.218	3960
929.323	3949
929.428	3956
929.533	4044
929.638	3953
929.743	3930
929.848	4010
929.953	3998
930.058	3880
930.163	3793
930.267	3846
930.372	3964
930.477	3800
930.581	4093
930.685	3915
930.79	3804
930.894	3903
930.998	3842
931.103	4040
931.207	3717
931.311	3705
931.415	3679
931.519	3523
931.623	3572
