Data from test_V78500241_1868.txt Node
Date: Fri Mar 25 17:01:59 CST 2022
User: usil
Spectrometer: V785-0024
Trigger mode: 0
Integration Time (sec): 4.000000E-1
Scans to average: 1
Nonlinearity correction enabled: false
Boxcar width: 0
Storing dark spectrum: false
XAxis mode: Wavelengths
Number of Pixels in Spectrum: 1024
>>>>>Begin Spectral Data<<<<<
801.071	7982
801.214	8016
801.356	7864
801.499	7856
801.641	7822
801.783	7807
801.926	7970
802.068	7925
802.211	7982
802.353	8054
802.496	7830
802.638	7807
802.78	7841
802.923	7906
803.065	7890
803.208	7822
803.35	7982
803.492	8046
803.635	8214
803.777	8115
803.919	8065
804.061	8423
804.204	8077
804.346	8100
804.488	7925
804.63	8069
804.773	7955
804.915	8077
805.057	8282
805.199	8229
805.341	8263
805.483	8199
805.626	8191
805.768	8138
805.91	8164
806.052	8271
806.194	8096
806.336	8286
806.478	8073
806.62	8039
806.762	8138
806.904	8210
807.046	8537
807.188	8415
807.33	8244
807.472	8389
807.614	8191
807.756	8206
807.898	7997
808.04	7906
808.182	7887
808.324	7864
808.465	7902
808.607	8084
808.749	8130
808.891	8202
809.033	8317
809.174	8225
809.316	8103
809.458	8050
809.6	7951
809.741	8016
809.883	8035
810.025	8153
810.166	8043
810.308	8012
810.45	8024
810.591	7818
810.733	7750
810.875	7658
811.016	7556
811.158	7472
811.299	7567
811.441	7662
811.582	7700
811.724	7529
811.865	7502
812.007	7506
812.148	7540
812.29	7647
812.431	7792
812.573	7913
812.714	7959
812.855	8149
812.997	8210
813.138	8252
813.279	8202
813.421	8073
813.562	7963
813.703	7803
813.845	7689
813.986	7468
814.127	7240
814.268	7221
814.41	7198
814.551	7209
814.692	7141
814.833	7107
814.974	7076
815.115	7118
815.256	6943
815.397	6928
815.539	6901
815.68	6806
815.821	6749
815.962	6852
816.103	6848
816.244	6662
816.385	6593
816.526	6662
816.666	6475
816.807	6300
816.948	6452
817.089	6437
817.23	6452
817.371	6308
817.512	6346
817.653	6380
817.793	6346
817.934	6365
818.075	6426
818.216	6429
818.356	6327
818.497	6331
818.638	6182
818.778	6102
818.919	6098
819.06	6117
819.2	6353
819.341	6327
819.481	6342
819.622	6544
819.762	6707
819.903	6696
820.043	6547
820.184	6597
820.324	6559
820.465	6703
820.605	6726
820.746	6711
820.886	6532
821.026	6608
821.167	6692
821.307	6726
821.447	6738
821.588	6604
821.728	6566
821.868	6509
822.008	6331
822.149	6315
822.289	6296
822.429	6136
822.569	6152
822.709	6064
822.849	5920
822.99	5973
823.13	5889
823.27	5908
823.41	5805
823.55	5786
823.69	5779
823.83	5726
823.97	5646
824.11	5471
824.25	5467
824.389	5509
824.529	5547
824.669	5512
824.809	5619
824.949	5649
825.089	5604
825.228	5532
825.368	5357
825.508	5326
825.648	5376
825.787	5349
825.927	5395
826.067	5292
826.206	5299
826.346	5376
826.485	5455
826.625	5414
826.765	5573
826.904	5543
827.044	5239
827.183	5181
827.323	5151
827.462	5239
827.601	5159
827.741	5220
827.88	5208
828.02	5174
828.159	5258
828.298	5318
828.437	5364
828.577	5296
828.716	5493
828.855	5345
828.994	5166
829.134	5197
829.273	5193
829.412	5155
829.551	5159
829.69	5197
829.829	5288
829.968	5398
830.107	5277
830.246	5326
830.385	5303
830.524	5216
830.663	5083
830.802	4946
830.941	4949
831.08	4911
831.219	5037
831.357	4934
831.496	5208
831.635	4999
831.774	4934
831.913	4881
832.051	4763
832.19	4778
832.329	4930
832.467	4771
832.606	4725
832.744	4721
832.883	4797
833.022	4740
833.16	4824
833.299	4816
833.437	4896
833.576	4866
833.714	4908
833.852	4892
833.991	4938
834.129	5014
834.267	4957
834.406	4984
834.544	5003
834.682	5003
834.821	4991
834.959	5159
835.097	5029
835.235	5147
835.373	5117
835.511	5117
835.65	5079
835.788	5067
835.926	4927
836.064	4961
836.202	4980
836.34	5174
836.478	5227
836.615	5143
836.753	5254
836.891	5261
837.029	5337
837.167	5235
837.305	5181
837.443	5193
837.58	5113
837.718	5296
837.856	5216
837.993	5155
838.131	5261
838.269	5216
838.406	5269
838.544	5212
838.681	5098
838.819	5060
838.956	4911
839.094	4911
839.231	5003
839.369	5124
839.506	5490
839.643	5273
839.781	5132
839.918	5075
840.055	5121
840.193	5086
840.33	5098
840.467	5151
840.604	5212
840.742	5467
840.879	5143
841.016	5090
841.153	5220
841.29	5429
841.427	5311
841.564	5330
841.701	5395
841.838	5337
841.975	5296
842.112	5303
842.249	5117
842.385	5083
842.522	5357
842.659	5197
842.796	5204
842.933	5204
843.069	5204
843.206	5208
843.343	5326
843.479	5303
843.616	5311
843.752	5052
843.889	5071
844.025	5269
844.162	5037
844.298	5231
844.435	5079
844.571	5124
844.708	5246
844.844	5307
844.98	5391
845.117	5307
845.253	5201
845.389	5147
845.525	5155
845.661	5197
845.798	5094
845.934	5140
846.07	5113
846.206	5227
846.342	5337
846.478	5204
846.614	5033
846.75	4976
846.886	5003
847.022	5185
847.158	5086
847.294	5117
847.429	5185
847.565	5064
847.701	5357
847.837	4889
847.972	4790
848.108	5006
848.244	4984
848.379	4797
848.515	4782
848.65	4820
848.786	4714
848.921	4843
849.057	4892
849.192	4934
849.328	4839
849.463	4889
849.598	4759
849.734	4805
849.869	4710
850.004	4656
850.14	4656
850.275	4660
850.41	4558
850.545	4611
850.68	4656
850.815	4660
850.95	4645
851.085	4900
851.22	4774
851.355	4653
851.49	4634
851.625	4660
851.76	4664
851.895	4611
852.03	4538
852.165	4672
852.299	4717
852.434	4782
852.569	4752
852.703	4744
852.838	4877
852.973	4991
853.107	4870
853.242	4755
853.376	4694
853.511	4599
853.645	4618
853.78	4835
853.914	4733
854.048	4721
854.183	4710
854.317	4733
854.451	4908
854.585	4721
854.72	4683
854.854	4828
854.988	4615
855.122	4725
855.256	4561
855.39	4702
855.524	4793
855.658	4714
855.792	4733
855.926	4782
856.06	4809
856.194	4843
856.327	4679
856.461	4660
856.595	4618
856.729	4626
856.862	4767
856.996	4714
857.13	4733
857.263	4771
857.397	4774
857.53	4687
857.664	4717
857.797	4755
857.931	4797
858.064	4736
858.197	4740
858.331	4660
858.464	4603
858.597	4580
858.731	4694
858.864	4645
858.997	4592
859.13	4702
859.263	4691
859.396	4694
859.529	4584
859.662	4554
859.795	4592
859.928	4675
860.061	4809
860.194	4797
860.327	4637
860.46	4607
860.592	4771
860.725	4786
860.858	4721
860.99	4584
861.123	4577
861.256	4508
861.388	4637
861.521	5341
861.653	4569
861.786	4459
861.918	4489
862.05	4577
862.183	4611
862.315	4558
862.447	4694
862.58	4565
862.712	4455
862.844	4352
862.976	4538
863.108	4478
863.24	4873
863.372	4310
863.504	4436
863.636	4398
863.768	4500
863.9	4443
864.032	4371
864.164	4383
864.296	4512
864.428	4584
864.559	4558
864.691	4573
864.823	4550
864.954	4519
865.086	4504
865.217	4459
865.349	4459
865.48	4466
865.612	4485
865.743	4596
865.875	4512
866.006	4417
866.137	4512
866.269	4504
866.4	4462
866.531	4466
866.662	4466
866.793	4466
866.924	4455
867.055	4504
867.186	4481
867.317	4481
867.448	4390
867.579	4394
867.71	4417
867.841	4409
867.972	4493
868.103	4481
868.233	4474
868.364	4478
868.495	4478
868.625	4641
868.756	4725
868.886	4596
869.017	4687
869.147	4790
869.278	4812
869.408	4660
869.539	4641
869.669	4740
869.799	4675
869.929	4809
870.06	4793
870.19	4987
870.32	4930
870.45	4965
870.58	4930
870.71	5094
870.84	5067
870.97	4968
871.1	4934
871.23	5162
871.36	5113
871.489	5075
871.619	5098
871.749	5098
871.879	5197
872.008	5197
872.138	5033
872.267	5010
872.397	4877
872.526	4752
872.656	4710
872.785	4847
872.915	4938
873.044	5048
873.173	4930
873.303	4984
873.432	5014
873.561	4976
873.69	4885
873.819	4885
873.948	4934
874.077	4854
874.206	4759
874.335	4854
874.464	4942
874.593	5117
874.722	5006
874.851	5105
874.979	5064
875.108	5052
875.237	4961
875.365	4850
875.494	4930
875.623	4984
875.751	4828
875.88	4885
876.008	4991
876.136	5056
876.265	5147
876.393	5334
876.521	5269
876.65	5239
876.778	5170
876.906	5090
877.034	5056
877.162	5079
877.29	4995
877.418	5064
877.546	4995
877.674	5045
877.802	5014
877.93	5022
878.058	4930
878.185	4908
878.313	4995
878.441	4957
878.568	4847
878.696	4854
878.824	5025
878.951	5006
879.079	5140
879.206	5280
879.333	5090
879.461	5010
879.588	4999
879.715	5151
879.842	5265
879.97	5025
880.097	4790
880.224	4740
880.351	4854
880.478	4873
880.605	4782
880.732	4805
880.859	5071
880.986	4892
881.112	4900
881.239	4782
881.366	4653
881.493	4618
881.619	4615
881.746	4683
881.872	4698
881.999	4649
882.125	4782
882.252	4809
882.378	4839
882.505	5006
882.631	4843
882.757	4664
882.883	4736
883.01	4767
883.136	4637
883.262	4618
883.388	4618
883.514	4812
883.64	4854
883.766	4797
883.892	4683
884.018	4755
884.143	4923
884.269	5006
884.395	4687
884.52	4653
884.646	4637
884.772	4577
884.897	4584
885.023	4615
885.148	4812
885.274	4904
885.399	4812
885.524	4755
885.65	4721
885.775	4786
885.9	4736
886.025	4866
886.15	4786
886.275	4694
886.4	4668
886.525	4714
886.65	4687
886.775	4683
886.9	4919
887.025	5037
887.149	4824
887.274	4634
887.399	4603
887.523	4618
887.648	4618
887.773	4596
887.897	4820
888.021	4797
888.146	4717
888.27	4816
888.395	4930
888.519	4809
888.643	4831
888.767	4801
888.891	4694
889.015	4641
889.139	4641
889.263	4626
889.387	4698
889.511	4915
889.635	4797
889.759	4653
889.883	4698
890.006	4744
890.13	4824
890.254	4630
890.377	4672
890.501	4531
890.624	4527
890.748	4649
890.871	4573
890.995	4485
891.118	4409
891.241	4546
891.364	4523
891.488	4618
891.611	4504
891.734	4538
891.857	4618
891.98	4554
892.103	4672
892.226	4637
892.349	4519
892.471	4470
892.594	4550
892.717	4607
892.839	4569
892.962	4599
893.085	4668
893.207	4588
893.33	4481
893.452	4489
893.575	4672
893.697	4618
893.819	4774
893.941	4889
894.064	4809
894.186	4626
894.308	4588
894.43	4755
894.552	4839
894.674	4733
894.796	4592
894.918	4653
895.04	4603
895.161	4675
895.283	4687
895.405	4588
895.526	4618
895.648	4714
895.769	4744
895.891	4679
896.012	4759
896.134	4702
896.255	4645
896.376	4664
896.498	4618
896.619	4649
896.74	4607
896.861	4615
896.982	4942
897.103	5128
897.224	4835
897.345	4755
897.466	4694
897.587	4736
897.708	4889
897.828	4797
897.949	4660
898.07	4603
898.19	4649
898.311	4873
898.431	4683
898.552	4771
898.672	4790
898.792	4812
898.913	4717
899.033	4645
899.153	4542
899.273	4451
899.393	4478
899.513	4565
899.633	4550
899.753	4542
899.873	4527
899.993	4580
900.113	4592
900.232	4588
900.352	4523
900.472	4481
900.591	4417
900.711	4512
900.83	4405
900.95	4660
901.069	4721
901.189	4527
901.308	4367
901.427	4303
901.546	4436
901.665	4466
901.784	4504
901.904	4390
902.023	4303
902.141	4177
902.26	4162
902.379	4306
902.498	4257
902.617	4249
902.735	4341
902.854	4440
902.973	4352
903.091	4219
903.21	4261
903.328	4371
903.446	4287
903.565	4295
903.683	4367
903.801	4265
903.919	4363
904.038	4459
904.156	4322
904.274	4443
904.392	4386
904.51	4402
904.627	4500
904.745	4554
904.863	4660
904.981	4466
905.098	4333
905.216	4405
905.334	4417
905.451	4443
905.569	4470
905.686	4561
905.803	4584
905.921	4432
906.038	4542
906.155	4493
906.272	4421
906.389	4459
906.506	4371
906.623	4409
906.74	4421
906.857	4314
906.974	4402
907.091	4565
907.208	4672
907.324	4577
907.441	4485
907.557	4363
907.674	4356
907.79	4337
907.907	4394
908.023	4478
908.139	4474
908.256	4443
908.372	4497
908.488	4474
908.604	4341
908.72	4303
908.836	4379
908.952	4360
909.068	4428
909.184	4584
909.3	4474
909.415	4637
909.531	4550
909.647	4333
909.762	4413
909.878	4394
909.993	4489
910.108	4413
910.224	4428
910.339	4478
910.454	4436
910.57	4341
910.685	4272
910.8	4656
910.915	4603
911.03	4489
911.145	4333
911.259	4280
911.374	4341
911.489	4348
911.604	4265
911.718	4185
911.833	4204
911.947	4074
912.062	4051
912.176	4196
912.291	4227
912.405	4325
912.519	4440
912.633	4493
912.748	4386
912.862	4306
912.976	4177
913.09	4109
913.204	4135
913.318	4261
913.431	4367
913.545	4379
913.659	4424
913.772	4379
913.886	4230
914	4249
914.113	4383
914.226	4417
914.34	4424
914.453	4242
914.566	4421
914.68	4314
914.793	4322
914.906	4185
915.019	4131
915.132	4109
915.245	4211
915.358	4211
915.47	4234
915.583	4261
915.696	4325
915.809	4413
915.921	4428
916.034	4272
916.146	4238
916.259	4204
916.371	4409
916.483	4363
916.595	4242
916.708	4363
916.82	4325
916.932	4303
917.044	4337
917.156	4325
917.268	4230
917.38	4257
917.491	4249
917.603	4367
917.715	4424
917.826	4470
917.938	4310
918.049	4223
918.161	4390
918.272	4500
918.384	4527
918.495	4470
918.606	4310
918.717	4188
918.828	4356
918.939	4375
919.05	4207
919.161	4306
919.272	4120
919.383	4207
919.494	4443
919.604	4607
919.715	4409
919.826	4363
919.936	4417
920.047	4535
920.157	4504
920.267	4683
920.378	4523
920.488	4462
920.598	4683
920.708	4892
920.818	4729
920.928	4729
921.038	4953
921.148	4915
921.258	4599
921.368	4592
921.477	4497
921.587	4443
921.697	4409
921.806	4565
921.916	4451
922.025	4234
922.134	4299
922.244	4230
922.353	4344
922.462	4177
922.571	4135
922.68	3964
922.789	3956
922.898	4036
923.007	3964
923.116	4093
923.224	4029
923.333	4109
923.442	3979
923.55	4002
923.659	4048
923.767	4154
923.876	3998
923.984	4112
924.092	3975
924.201	4036
924.309	4105
924.417	4128
924.525	4032
924.633	4131
924.741	5037
924.849	3915
924.956	4120
925.064	3941
925.172	3937
925.279	3907
925.387	4071
925.494	4078
925.602	4246
925.709	4154
925.816	4029
925.924	4150
926.031	4261
926.138	4177
926.245	4265
926.352	4116
926.459	4249
926.566	4284
926.673	4147
926.779	4067
926.886	4071
926.993	4002
927.099	4013
927.206	3934
927.312	3941
927.419	4086
927.525	4017
927.631	4074
927.737	3987
927.843	3956
927.95	3838
928.056	3956
928.162	4006
928.267	4078
928.373	4577
928.479	4135
928.585	3861
928.69	3983
928.796	4116
928.901	3941
929.007	3861
929.112	4029
929.218	3941
929.323	3972
929.428	3945
929.533	4078
929.638	3884
929.743	3968
929.848	4025
929.953	4013
930.058	3918
930.163	3770
930.267	3804
930.372	3975
930.477	3812
930.581	4093
930.685	3968
930.79	3800
930.894	3926
930.998	3861
931.103	4017
931.207	3701
931.311	3660
931.415	3660
931.519	3542
931.623	3580
