Data from test_V78500241_2800.txt Node
Date: Fri Mar 25 17:08:28 CST 2022
User: usil
Spectrometer: V785-0024
Trigger mode: 0
Integration Time (sec): 4.000000E-1
Scans to average: 1
Nonlinearity correction enabled: false
Boxcar width: 0
Storing dark spectrum: false
XAxis mode: Wavelengths
Number of Pixels in Spectrum: 1024
>>>>>Begin Spectral Data<<<<<
801.071	7921
801.214	8020
801.356	7875
801.499	7936
801.641	7822
801.783	7845
801.926	7997
802.068	7936
802.211	7921
802.353	8073
802.496	7868
802.638	7898
802.78	8001
802.923	7986
803.065	7871
803.208	7830
803.35	7963
803.492	8138
803.635	8164
803.777	8088
803.919	8172
804.061	8495
804.204	8138
804.346	8008
804.488	7947
804.63	8077
804.773	8111
804.915	8161
805.057	8256
805.199	8088
805.341	8176
805.483	8252
805.626	8206
805.768	8145
805.91	8233
806.052	8206
806.194	8088
806.336	8298
806.478	8164
806.62	8084
806.762	8130
806.904	8191
807.046	8408
807.188	8351
807.33	8271
807.472	8343
807.614	8191
807.756	8210
807.898	8020
808.04	7833
808.182	7955
808.324	7887
808.465	7974
808.607	8073
808.749	8172
808.891	8214
809.033	8324
809.174	8225
809.316	8134
809.458	8081
809.6	7997
809.741	8065
809.883	8096
810.025	8111
810.166	8130
810.308	8031
810.45	8031
810.591	7887
810.733	7769
810.875	7677
811.016	7613
811.158	7594
811.299	7643
811.441	7731
811.582	7677
811.724	7582
811.865	7601
812.007	7628
812.148	7609
812.29	7719
812.431	7753
812.573	7890
812.714	7944
812.855	8157
812.997	8267
813.138	8343
813.279	8195
813.421	8046
813.562	8062
813.703	7879
813.845	7738
813.986	7434
814.127	7274
814.268	7240
814.41	7198
814.551	7278
814.692	7164
814.833	7069
814.974	7107
815.115	7110
815.256	6939
815.397	6894
815.539	7000
815.68	6837
815.821	6875
815.962	6939
816.103	6886
816.244	6753
816.385	6585
816.526	6639
816.666	6494
816.807	6331
816.948	6460
817.089	6528
817.23	6445
817.371	6369
817.512	6346
817.653	6281
817.793	6315
817.934	6395
818.075	6467
818.216	6460
818.356	6464
818.497	6228
818.638	6060
818.778	6125
818.919	6175
819.06	6194
819.2	6357
819.341	6304
819.481	6353
819.622	6536
819.762	6715
819.903	6707
820.043	6623
820.184	6582
820.324	6566
820.465	6703
820.605	6745
820.746	6642
820.886	6547
821.026	6604
821.167	6738
821.307	6825
821.447	6818
821.588	6642
821.728	6593
821.868	6544
822.008	6346
822.149	6380
822.289	6338
822.429	6209
822.569	6087
822.709	6155
822.849	5961
822.99	5927
823.13	5923
823.27	5916
823.41	5817
823.55	5771
823.69	5760
823.83	5737
823.97	5718
824.11	5547
824.25	5516
824.389	5566
824.529	5615
824.669	5539
824.809	5634
824.949	5676
825.089	5649
825.228	5562
825.368	5436
825.508	5334
825.648	5372
825.787	5406
825.927	5395
826.067	5318
826.206	5337
826.346	5315
826.485	5459
826.625	5444
826.765	5581
826.904	5558
827.044	5242
827.183	5201
827.323	5124
827.462	5246
827.601	5117
827.741	5239
827.88	5204
828.02	5128
828.159	5242
828.298	5299
828.437	5353
828.577	5326
828.716	5490
828.855	5307
828.994	5170
829.134	5170
829.273	5197
829.412	5105
829.551	5193
829.69	5159
829.829	5201
829.968	5383
830.107	5254
830.246	5273
830.385	5212
830.524	5117
830.663	5102
830.802	4968
830.941	4889
831.08	4900
831.219	4965
831.357	4957
831.496	5151
831.635	4934
831.774	4881
831.913	4805
832.051	4793
832.19	4763
832.329	4835
832.467	4725
832.606	4603
832.744	4755
832.883	4717
833.022	4675
833.16	4782
833.299	4847
833.437	4831
833.576	4801
833.714	4870
833.852	4870
833.991	4919
834.129	4961
834.267	4938
834.406	4892
834.544	4968
834.682	4957
834.821	4949
834.959	5155
835.097	5010
835.235	5121
835.373	5132
835.511	5128
835.65	5003
835.788	5060
835.926	4946
836.064	4877
836.202	4957
836.34	5189
836.478	5269
836.615	5132
836.753	5208
836.891	5303
837.029	5220
837.167	5181
837.305	5166
837.443	5124
837.58	5098
837.718	5258
837.856	5250
837.993	5162
838.131	5201
838.269	5231
838.406	5242
838.544	5128
838.681	5029
838.819	5003
838.956	4896
839.094	4930
839.231	4946
839.369	5041
839.506	5459
839.643	5303
839.781	5048
839.918	4980
840.055	5109
840.193	5113
840.33	5075
840.467	5151
840.604	5178
840.742	5433
840.879	5102
841.016	5094
841.153	5098
841.29	5334
841.427	5334
841.564	5288
841.701	5410
841.838	5277
841.975	5250
842.112	5292
842.249	5143
842.385	5117
842.522	5299
842.659	5193
842.796	5170
842.933	5216
843.069	5109
843.206	5155
843.343	5334
843.479	5246
843.616	5315
843.752	5037
843.889	4976
844.025	5254
844.162	5022
844.298	5254
844.435	5098
844.571	5090
844.708	5242
844.844	5265
844.98	5326
845.117	5372
845.253	5121
845.389	5083
845.525	5121
845.661	5174
845.798	5041
845.934	5117
846.07	5060
846.206	5193
846.342	5227
846.478	5231
846.614	5025
846.75	5025
846.886	4972
847.022	5121
847.158	5037
847.294	5083
847.429	5105
847.565	5090
847.701	5299
847.837	4862
847.972	4847
848.108	4927
848.244	4946
848.379	4854
848.515	4801
848.65	4721
848.786	4797
848.921	4759
849.057	4809
849.192	4965
849.328	4839
849.463	4831
849.598	4774
849.734	4786
849.869	4664
850.004	4645
850.14	4694
850.275	4653
850.41	4504
850.545	4584
850.68	4584
850.815	4645
850.95	4615
851.085	4866
851.22	4752
851.355	4675
851.49	4573
851.625	4653
851.76	4607
851.895	4542
852.03	4577
852.165	4691
852.299	4725
852.434	4805
852.569	4767
852.703	4824
852.838	4877
852.973	4957
853.107	4957
853.242	4714
853.376	4672
853.511	4535
853.645	4584
853.78	4805
853.914	4702
854.048	4698
854.183	4683
854.317	4721
854.451	4843
854.585	4653
854.72	4634
854.854	4755
854.988	4592
855.122	4641
855.256	4512
855.39	4687
855.524	4809
855.658	4725
855.792	4641
855.926	4782
856.06	4706
856.194	4835
856.327	4691
856.461	4607
856.595	4645
856.729	4596
856.862	4778
856.996	4702
857.13	4717
857.263	4771
857.397	4835
857.53	4664
857.664	4721
857.797	4805
857.931	4797
858.064	4683
858.197	4740
858.331	4649
858.464	4637
858.597	4481
858.731	4645
858.864	4664
858.997	4599
859.13	4637
859.263	4622
859.396	4694
859.529	4516
859.662	4573
859.795	4561
859.928	4596
860.061	4744
860.194	4698
860.327	4592
860.46	4592
860.592	4702
860.725	4721
860.858	4687
860.99	4577
861.123	4493
861.256	4542
861.388	4599
861.521	5299
861.653	4497
861.786	4459
861.918	4443
862.05	4523
862.183	4603
862.315	4649
862.447	4641
862.58	4508
862.712	4447
862.844	4344
862.976	4478
863.108	4478
863.24	4759
863.372	4314
863.504	4402
863.636	4409
863.768	4424
863.9	4474
864.032	4352
864.164	4352
864.296	4489
864.428	4573
864.559	4596
864.691	4561
864.823	4512
864.954	4466
865.086	4497
865.217	4459
865.349	4409
865.48	4459
865.612	4500
865.743	4592
865.875	4455
866.006	4417
866.137	4478
866.269	4451
866.4	4443
866.531	4455
866.662	4390
866.793	4398
866.924	4440
867.055	4504
867.186	4424
867.317	4436
867.448	4360
867.579	4417
867.71	4413
867.841	4371
867.972	4424
868.103	4500
868.233	4474
868.364	4432
868.495	4493
868.625	4611
868.756	4774
868.886	4599
869.017	4607
869.147	4725
869.278	4812
869.408	4645
869.539	4645
869.669	4706
869.799	4630
869.929	4790
870.06	4812
870.19	5003
870.32	4968
870.45	4892
870.58	4991
870.71	5117
870.84	5105
870.97	4995
871.1	4900
871.23	5155
871.36	5124
871.489	5064
871.619	5052
871.749	5083
871.879	5124
872.008	5193
872.138	5083
872.267	4961
872.397	4858
872.526	4809
872.656	4714
872.785	4828
872.915	5018
873.044	5037
873.173	4915
873.303	5006
873.432	4942
873.561	4980
873.69	4870
873.819	4900
873.948	4923
874.077	4816
874.206	4740
874.335	4790
874.464	4995
874.593	5094
874.722	4968
874.851	5121
874.979	5041
875.108	4987
875.237	4896
875.365	4946
875.494	4828
875.623	4995
875.751	4854
875.88	4889
876.008	4961
876.136	5064
876.265	5201
876.393	5349
876.521	5299
876.65	5216
876.778	5162
876.906	5132
877.034	5022
877.162	5079
877.29	4942
877.418	5037
877.546	5048
877.674	5041
877.802	5006
877.93	5052
878.058	4938
878.185	4889
878.313	4987
878.441	4965
878.568	4801
878.696	4866
878.824	4957
878.951	5025
879.079	5132
879.206	5280
879.333	5128
879.461	4968
879.588	5006
879.715	5113
879.842	5239
879.97	5014
880.097	4771
880.224	4717
880.351	4831
880.478	4801
880.605	4786
880.732	4843
880.859	5113
880.986	4892
881.112	4919
881.239	4805
881.366	4660
881.493	4599
881.619	4592
881.746	4607
881.872	4653
881.999	4626
882.125	4729
882.252	4820
882.378	4797
882.505	4915
882.631	4820
882.757	4679
882.883	4778
883.01	4717
883.136	4687
883.262	4664
883.388	4618
883.514	4786
883.64	4877
883.766	4809
883.892	4721
884.018	4714
884.143	4835
884.269	4991
884.395	4622
884.52	4607
884.646	4653
884.772	4546
884.897	4573
885.023	4698
885.148	4736
885.274	4843
885.399	4771
885.524	4710
885.65	4694
885.775	4733
885.9	4694
886.025	4839
886.15	4812
886.275	4733
886.4	4694
886.525	4736
886.65	4675
886.775	4668
886.9	4904
887.025	5041
887.149	4790
887.274	4630
887.399	4573
887.523	4607
887.648	4569
887.773	4622
887.897	4767
888.021	4786
888.146	4694
888.27	4801
888.395	4881
888.519	4793
888.643	4862
888.767	4881
888.891	4660
889.015	4592
889.139	4615
889.263	4584
889.387	4763
889.511	4885
889.635	4782
889.759	4649
889.883	4645
890.006	4744
890.13	4828
890.254	4626
890.377	4664
890.501	4565
890.624	4508
890.748	4653
890.871	4497
890.995	4390
891.118	4360
891.241	4508
891.364	4611
891.488	4645
891.611	4512
891.734	4516
891.857	4615
891.98	4626
892.103	4615
892.226	4634
892.349	4516
892.471	4443
892.594	4596
892.717	4603
892.839	4561
892.962	4637
893.085	4706
893.207	4634
893.33	4405
893.452	4508
893.575	4664
893.697	4615
893.819	4763
893.941	4790
894.064	4797
894.186	4569
894.308	4603
894.43	4687
894.552	4820
894.674	4721
894.796	4573
894.918	4584
895.04	4558
895.161	4748
895.283	4683
895.405	4573
895.526	4630
895.648	4725
895.769	4622
895.891	4653
896.012	4759
896.134	4736
896.255	4656
896.376	4649
896.498	4599
896.619	4679
896.74	4634
896.861	4626
896.982	4927
897.103	5075
897.224	4816
897.345	4748
897.466	4622
897.587	4675
897.708	4854
897.828	4797
897.949	4645
898.07	4558
898.19	4653
898.311	4824
898.431	4694
898.552	4736
898.672	4847
898.792	4828
898.913	4714
899.033	4622
899.153	4500
899.273	4466
899.393	4500
899.513	4504
899.633	4554
899.753	4531
899.873	4531
899.993	4558
900.113	4558
900.232	4592
900.352	4546
900.472	4478
900.591	4417
900.711	4519
900.83	4459
900.95	4546
901.069	4675
901.189	4599
901.308	4333
901.427	4276
901.546	4367
901.665	4500
901.784	4504
901.904	4371
902.023	4341
902.141	4207
902.26	4230
902.379	4310
902.498	4295
902.617	4249
902.735	4394
902.854	4440
902.973	4356
903.091	4242
903.21	4242
903.328	4280
903.446	4280
903.565	4265
903.683	4348
903.801	4272
903.919	4421
904.038	4436
904.156	4402
904.274	4443
904.392	4371
904.51	4417
904.627	4485
904.745	4584
904.863	4687
904.981	4413
905.098	4295
905.216	4398
905.334	4409
905.451	4462
905.569	4424
905.686	4588
905.803	4542
905.921	4390
906.038	4561
906.155	4508
906.272	4402
906.389	4443
906.506	4325
906.623	4356
906.74	4394
906.857	4325
906.974	4367
907.091	4573
907.208	4702
907.324	4577
907.441	4508
907.557	4341
907.674	4367
907.79	4295
907.907	4329
908.023	4474
908.139	4443
908.256	4462
908.372	4470
908.488	4443
908.604	4386
908.72	4344
908.836	4390
908.952	4325
909.068	4398
909.184	4573
909.3	4523
909.415	4611
909.531	4577
909.647	4371
909.762	4322
909.878	4363
909.993	4470
910.108	4417
910.224	4394
910.339	4500
910.454	4402
910.57	4360
910.685	4287
910.8	4675
910.915	4596
911.03	4493
911.145	4295
911.259	4360
911.374	4371
911.489	4306
911.604	4303
911.718	4188
911.833	4192
911.947	4090
912.062	4044
912.176	4185
912.291	4253
912.405	4242
912.519	4500
912.633	4504
912.748	4383
912.862	4325
912.976	4249
913.09	4105
913.204	4192
913.318	4253
913.431	4394
913.545	4394
913.659	4462
913.772	4356
913.886	4227
914	4242
914.113	4405
914.226	4489
914.34	4367
914.453	4246
914.566	4455
914.68	4329
914.793	4341
914.906	4166
915.019	4173
915.132	4116
915.245	4181
915.358	4234
915.47	4272
915.583	4268
915.696	4230
915.809	4436
915.921	4428
916.034	4249
916.146	4291
916.259	4242
916.371	4428
916.483	4383
916.595	4253
916.708	4310
916.82	4306
916.932	4306
917.044	4329
917.156	4344
917.268	4253
917.38	4280
917.491	4276
917.603	4333
917.715	4390
917.826	4493
917.938	4363
918.049	4257
918.161	4455
918.272	4538
918.384	4592
918.495	4417
918.606	4325
918.717	4295
918.828	4413
918.939	4405
919.05	4215
919.161	4348
919.272	4120
919.383	4219
919.494	4462
919.604	4626
919.715	4443
919.826	4363
919.936	4363
920.047	4550
920.157	4519
920.267	4729
920.378	4546
920.488	4504
920.598	4748
920.708	4938
920.818	4755
920.928	4778
921.038	4984
921.148	4900
921.258	4675
921.368	4542
921.477	4527
921.587	4443
921.697	4409
921.806	4531
921.916	4421
922.025	4287
922.134	4280
922.244	4246
922.353	4356
922.462	4177
922.571	4112
922.68	4051
922.789	3972
922.898	4063
923.007	3968
923.116	4124
923.224	4082
923.333	4078
923.442	4029
923.55	4002
923.659	4116
923.767	4059
923.876	4029
923.984	4162
924.092	4006
924.201	4067
924.309	4082
924.417	4147
924.525	4040
924.633	4147
924.741	4911
924.849	3907
924.956	4147
925.064	3922
925.172	3945
925.279	3968
925.387	4055
925.494	4101
925.602	4257
925.709	4215
925.816	4032
925.924	4116
926.031	4253
926.138	4196
926.245	4207
926.352	4112
926.459	4242
926.566	4348
926.673	4207
926.779	4120
926.886	4097
926.993	3972
927.099	3964
927.206	3953
927.312	3956
927.419	4040
927.525	4051
927.631	4120
927.737	3941
927.843	4010
927.95	3823
928.056	3987
928.162	3979
928.267	4063
928.373	4714
928.479	4177
928.585	3892
928.69	4032
928.796	4120
928.901	4002
929.007	3854
929.112	4017
929.218	3994
929.323	3964
929.428	3911
929.533	4150
929.638	3907
929.743	3968
929.848	4059
929.953	3987
930.058	3960
930.163	3778
930.267	3880
930.372	4010
930.477	3816
930.581	4101
930.685	3941
930.79	3789
930.894	3869
930.998	3876
931.103	4059
931.207	3690
931.311	3698
931.415	3679
931.519	3561
931.623	3587
