Data from test_V78500241_2835.txt Node
Date: Fri Mar 25 17:08:42 CST 2022
User: usil
Spectrometer: V785-0024
Trigger mode: 0
Integration Time (sec): 4.000000E-1
Scans to average: 1
Nonlinearity correction enabled: false
Boxcar width: 0
Storing dark spectrum: false
XAxis mode: Wavelengths
Number of Pixels in Spectrum: 1024
>>>>>Begin Spectral Data<<<<<
801.071	8008
801.214	8062
801.356	7925
801.499	7913
801.641	7814
801.783	7856
801.926	8008
802.068	7978
802.211	7967
802.353	8020
802.496	7928
802.638	7906
802.78	8001
802.923	7970
803.065	7841
803.208	7883
803.35	8012
803.492	8142
803.635	8161
803.777	8031
803.919	8168
804.061	8526
804.204	8134
804.346	8088
804.488	8016
804.63	8199
804.773	7993
804.915	8145
805.057	8328
805.199	8199
805.341	8218
805.483	8275
805.626	8279
805.768	8138
805.91	8256
806.052	8271
806.194	8103
806.336	8290
806.478	8149
806.62	8084
806.762	8142
806.904	8248
807.046	8560
807.188	8427
807.33	8328
807.472	8381
807.614	8256
807.756	8240
807.898	8058
808.04	7864
808.182	7917
808.324	7970
808.465	7925
808.607	8084
808.749	8161
808.891	8214
809.033	8434
809.174	8206
809.316	8119
809.458	8088
809.6	8001
809.741	8043
809.883	8111
810.025	8103
810.166	8134
810.308	8054
810.45	7986
810.591	8020
810.733	7765
810.875	7765
811.016	7616
811.158	7521
811.299	7674
811.441	7746
811.582	7731
811.724	7601
811.865	7594
812.007	7620
812.148	7613
812.29	7670
812.431	7769
812.573	7906
812.714	8043
812.855	8183
812.997	8263
813.138	8332
813.279	8237
813.421	8142
813.562	8043
813.703	7928
813.845	7757
813.986	7476
814.127	7282
814.268	7274
814.41	7225
814.551	7209
814.692	7282
814.833	7053
814.974	7129
815.115	7099
815.256	6962
815.397	6935
815.539	6985
815.68	6882
815.821	6882
815.962	6909
816.103	6829
816.244	6753
816.385	6635
816.526	6700
816.666	6563
816.807	6327
816.948	6414
817.089	6483
817.23	6471
817.371	6410
817.512	6426
817.653	6418
817.793	6399
817.934	6448
818.075	6521
818.216	6426
818.356	6494
818.497	6273
818.638	6171
818.778	6178
818.919	6159
819.06	6159
819.2	6319
819.341	6304
819.481	6429
819.622	6544
819.762	6757
819.903	6787
820.043	6650
820.184	6612
820.324	6631
820.465	6722
820.605	6677
820.746	6681
820.886	6525
821.026	6757
821.167	6703
821.307	6814
821.447	6829
821.588	6688
821.728	6623
821.868	6506
822.008	6327
822.149	6422
822.289	6369
822.429	6220
822.569	6140
822.709	6197
822.849	5935
822.99	5931
823.13	5920
823.27	5908
823.41	5805
823.55	5798
823.69	5794
823.83	5805
823.97	5703
824.11	5581
824.25	5535
824.389	5573
824.529	5592
824.669	5554
824.809	5604
824.949	5649
825.089	5630
825.228	5573
825.368	5433
825.508	5326
825.648	5414
825.787	5410
825.927	5341
826.067	5326
826.206	5379
826.346	5372
826.485	5406
826.625	5433
826.765	5520
826.904	5551
827.044	5284
827.183	5227
827.323	5155
827.462	5258
827.601	5250
827.741	5204
827.88	5227
828.02	5155
828.159	5231
828.298	5322
828.437	5353
828.577	5353
828.716	5493
828.855	5368
828.994	5159
829.134	5197
829.273	5189
829.412	5147
829.551	5117
829.69	5193
829.829	5258
829.968	5417
830.107	5280
830.246	5307
830.385	5201
830.524	5151
830.663	5098
830.802	4968
830.941	4866
831.08	4915
831.219	4991
831.357	5014
831.496	5197
831.635	4957
831.774	4870
831.913	4854
832.051	4725
832.19	4744
832.329	4858
832.467	4733
832.606	4694
832.744	4755
832.883	4812
833.022	4767
833.16	4782
833.299	4911
833.437	4828
833.576	4786
833.714	4870
833.852	4858
833.991	4915
834.129	4976
834.267	4934
834.406	4908
834.544	4991
834.682	4968
834.821	5003
834.959	5140
835.097	4995
835.235	5189
835.373	5155
835.511	5121
835.65	5075
835.788	5075
835.926	4892
836.064	4900
836.202	4957
836.34	5166
836.478	5261
836.615	5132
836.753	5208
836.891	5277
837.029	5265
837.167	5166
837.305	5189
837.443	5094
837.58	5064
837.718	5254
837.856	5220
837.993	5189
838.131	5208
838.269	5132
838.406	5189
838.544	5204
838.681	5037
838.819	4999
838.956	4934
839.094	4919
839.231	4984
839.369	5083
839.506	5433
839.643	5280
839.781	5109
839.918	5022
840.055	5121
840.193	5102
840.33	5174
840.467	5124
840.604	5181
840.742	5463
840.879	5010
841.016	5060
841.153	5113
841.29	5364
841.427	5311
841.564	5334
841.701	5360
841.838	5265
841.975	5265
842.112	5280
842.249	5136
842.385	5079
842.522	5311
842.659	5128
842.796	5193
842.933	5250
843.069	5162
843.206	5147
843.343	5315
843.479	5250
843.616	5292
843.752	4991
843.889	5014
844.025	5216
844.162	5022
844.298	5227
844.435	5083
844.571	5018
844.708	5242
844.844	5315
844.98	5387
845.117	5296
845.253	5094
845.389	5147
845.525	5204
845.661	5140
845.798	5025
845.934	5143
846.07	5022
846.206	5178
846.342	5250
846.478	5185
846.614	5079
846.75	4953
846.886	4968
847.022	5147
847.158	5033
847.294	5041
847.429	5128
847.565	5109
847.701	5341
847.837	4862
847.972	4767
848.108	4976
848.244	4976
848.379	4763
848.515	4755
848.65	4698
848.786	4774
848.921	4774
849.057	4877
849.192	4972
849.328	4854
849.463	4835
849.598	4809
849.734	4801
849.869	4691
850.004	4573
850.14	4660
850.275	4603
850.41	4527
850.545	4615
850.68	4637
850.815	4653
850.95	4649
851.085	4835
851.22	4805
851.355	4687
851.49	4626
851.625	4656
851.76	4637
851.895	4641
852.03	4580
852.165	4717
852.299	4733
852.434	4835
852.569	4759
852.703	4812
852.838	4904
852.973	4987
853.107	4942
853.242	4752
853.376	4694
853.511	4573
853.645	4649
853.78	4862
853.914	4740
854.048	4698
854.183	4683
854.317	4786
854.451	4904
854.585	4736
854.72	4733
854.854	4812
854.988	4634
855.122	4618
855.256	4607
855.39	4702
855.524	4801
855.658	4820
855.792	4740
855.926	4820
856.06	4771
856.194	4805
856.327	4733
856.461	4668
856.595	4691
856.729	4675
856.862	4831
856.996	4790
857.13	4748
857.263	4782
857.397	4881
857.53	4721
857.664	4763
857.797	4824
857.931	4828
858.064	4710
858.197	4759
858.331	4698
858.464	4660
858.597	4558
858.731	4675
858.864	4675
858.997	4645
859.13	4740
859.263	4687
859.396	4740
859.529	4630
859.662	4573
859.795	4615
859.928	4672
860.061	4786
860.194	4805
860.327	4706
860.46	4622
860.592	4725
860.725	4740
860.858	4729
860.99	4611
861.123	4569
861.256	4611
861.388	4706
861.521	5326
861.653	4531
861.786	4466
861.918	4466
862.05	4497
862.183	4588
862.315	4679
862.447	4717
862.58	4535
862.712	4455
862.844	4375
862.976	4497
863.108	4500
863.24	4828
863.372	4333
863.504	4451
863.636	4409
863.768	4512
863.9	4462
864.032	4405
864.164	4447
864.296	4478
864.428	4592
864.559	4577
864.691	4554
864.823	4580
864.954	4516
865.086	4569
865.217	4527
865.349	4459
865.48	4493
865.612	4516
865.743	4634
865.875	4485
866.006	4451
866.137	4455
866.269	4485
866.4	4459
866.531	4470
866.662	4459
866.793	4428
866.924	4485
867.055	4558
867.186	4466
867.317	4451
867.448	4436
867.579	4409
867.71	4440
867.841	4417
867.972	4481
868.103	4504
868.233	4500
868.364	4489
868.495	4565
868.625	4721
868.756	4809
868.886	4675
869.017	4672
869.147	4820
869.278	4812
869.408	4694
869.539	4687
869.669	4755
869.799	4706
869.929	4809
870.06	4755
870.19	4980
870.32	4976
870.45	5003
870.58	5041
870.71	5140
870.84	5132
870.97	4972
871.1	4946
871.23	5140
871.36	5151
871.489	5037
871.619	5090
871.749	5109
871.879	5102
872.008	5239
872.138	5086
872.267	5014
872.397	4900
872.526	4805
872.656	4778
872.785	4839
872.915	4949
873.044	5109
873.173	4984
873.303	5006
873.432	4987
873.561	5041
873.69	4942
873.819	4889
873.948	4953
874.077	4854
874.206	4748
874.335	4866
874.464	4965
874.593	5090
874.722	5025
874.851	5136
874.979	5109
875.108	5045
875.237	4953
875.365	4949
875.494	4923
875.623	5010
875.751	4885
875.88	4930
876.008	4995
876.136	5113
876.265	5216
876.393	5368
876.521	5311
876.65	5288
876.778	5223
876.906	5064
877.034	5033
877.162	5079
877.29	5033
877.418	5117
877.546	5071
877.674	5105
877.802	5064
877.93	5083
878.058	5003
878.185	4923
878.313	4934
878.441	4972
878.568	4786
878.696	4919
878.824	4957
878.951	5018
879.079	5174
879.206	5307
879.333	5170
879.461	5033
879.588	5037
879.715	5159
879.842	5269
879.97	5048
880.097	4862
880.224	4752
880.351	4820
880.478	4862
880.605	4828
880.732	4809
880.859	5189
880.986	4949
881.112	4946
881.239	4854
881.366	4645
881.493	4630
881.619	4630
881.746	4672
881.872	4626
881.999	4725
882.125	4782
882.252	4812
882.378	4854
882.505	5018
882.631	4824
882.757	4721
882.883	4736
883.01	4752
883.136	4706
883.262	4634
883.388	4664
883.514	4854
883.64	4968
883.766	4812
883.892	4721
884.018	4786
884.143	4946
884.269	5064
884.395	4698
884.52	4630
884.646	4668
884.772	4618
884.897	4569
885.023	4744
885.148	4854
885.274	4949
885.399	4828
885.524	4752
885.65	4725
885.775	4786
885.9	4767
886.025	4934
886.15	4805
886.275	4752
886.4	4691
886.525	4748
886.65	4725
886.775	4702
886.9	4946
887.025	5067
887.149	4767
887.274	4698
887.399	4611
887.523	4649
887.648	4637
887.773	4675
887.897	4778
888.021	4843
888.146	4721
888.27	4847
888.395	4930
888.519	4809
888.643	4835
888.767	4854
888.891	4710
889.015	4653
889.139	4649
889.263	4653
889.387	4809
889.511	4847
889.635	4816
889.759	4668
889.883	4683
890.006	4759
890.13	4843
890.254	4664
890.377	4664
890.501	4550
890.624	4573
890.748	4698
890.871	4497
890.995	4481
891.118	4383
891.241	4588
891.364	4554
891.488	4622
891.611	4523
891.734	4573
891.857	4626
891.98	4565
892.103	4687
892.226	4641
892.349	4573
892.471	4493
892.594	4607
892.717	4622
892.839	4611
892.962	4611
893.085	4687
893.207	4668
893.33	4523
893.452	4542
893.575	4691
893.697	4611
893.819	4793
893.941	4835
894.064	4774
894.186	4618
894.308	4596
894.43	4748
894.552	4858
894.674	4786
894.796	4592
894.918	4622
895.04	4599
895.161	4771
895.283	4691
895.405	4569
895.526	4596
895.648	4656
895.769	4683
895.891	4710
896.012	4782
896.134	4740
896.255	4687
896.376	4672
896.498	4683
896.619	4660
896.74	4569
896.861	4672
896.982	4961
897.103	5113
897.224	4805
897.345	4759
897.466	4710
897.587	4748
897.708	4900
897.828	4812
897.949	4687
898.07	4584
898.19	4664
898.311	4812
898.431	4702
898.552	4786
898.672	4839
898.792	4790
898.913	4809
899.033	4653
899.153	4558
899.273	4462
899.393	4516
899.513	4546
899.633	4561
899.753	4596
899.873	4546
899.993	4634
900.113	4538
900.232	4580
900.352	4565
900.472	4485
900.591	4402
900.711	4478
900.83	4436
900.95	4675
901.069	4721
901.189	4538
901.308	4436
901.427	4421
901.546	4440
901.665	4500
901.784	4508
901.904	4466
902.023	4375
902.141	4200
902.26	4185
902.379	4257
902.498	4284
902.617	4299
902.735	4375
902.854	4402
902.973	4367
903.091	4265
903.21	4253
903.328	4318
903.446	4299
903.565	4295
903.683	4337
903.801	4356
903.919	4455
904.038	4462
904.156	4348
904.274	4459
904.392	4466
904.51	4417
904.627	4527
904.745	4599
904.863	4611
904.981	4409
905.098	4303
905.216	4383
905.334	4436
905.451	4447
905.569	4481
905.686	4573
905.803	4603
905.921	4451
906.038	4596
906.155	4519
906.272	4466
906.389	4485
906.506	4352
906.623	4360
906.74	4398
906.857	4360
906.974	4383
907.091	4607
907.208	4710
907.324	4622
907.441	4493
907.557	4344
907.674	4402
907.79	4318
907.907	4413
908.023	4546
908.139	4546
908.256	4470
908.372	4516
908.488	4436
908.604	4363
908.72	4295
908.836	4402
908.952	4367
909.068	4466
909.184	4573
909.3	4462
909.415	4599
909.531	4645
909.647	4379
909.762	4402
909.878	4375
909.993	4474
910.108	4462
910.224	4428
910.339	4455
910.454	4413
910.57	4440
910.685	4356
910.8	4668
910.915	4630
911.03	4462
911.145	4379
911.259	4379
911.374	4383
911.489	4314
911.604	4325
911.718	4215
911.833	4200
911.947	4147
912.062	4040
912.176	4162
912.291	4242
912.405	4257
912.519	4489
912.633	4459
912.748	4405
912.862	4303
912.976	4238
913.09	4109
913.204	4227
913.318	4219
913.431	4421
913.545	4443
913.659	4466
913.772	4394
913.886	4268
914	4253
914.113	4367
914.226	4459
914.34	4424
914.453	4299
914.566	4455
914.68	4303
914.793	4333
914.906	4192
915.019	4128
915.132	4109
915.245	4211
915.358	4268
915.47	4223
915.583	4295
915.696	4284
915.809	4455
915.921	4402
916.034	4284
916.146	4265
916.259	4257
916.371	4405
916.483	4390
916.595	4268
916.708	4375
916.82	4363
916.932	4318
917.044	4337
917.156	4318
917.268	4303
917.38	4310
917.491	4299
917.603	4386
917.715	4447
917.826	4489
917.938	4390
918.049	4272
918.161	4402
918.272	4535
918.384	4588
918.495	4497
918.606	4337
918.717	4234
918.828	4344
918.939	4394
919.05	4257
919.161	4341
919.272	4154
919.383	4295
919.494	4478
919.604	4599
919.715	4390
919.826	4360
919.936	4417
920.047	4588
920.157	4500
920.267	4733
920.378	4561
920.488	4558
920.598	4698
920.708	4923
920.818	4725
920.928	4793
921.038	4908
921.148	4934
921.258	4615
921.368	4535
921.477	4573
921.587	4447
921.697	4348
921.806	4615
921.916	4417
922.025	4272
922.134	4314
922.244	4204
922.353	4379
922.462	4188
922.571	4166
922.68	3979
922.789	4006
922.898	4025
923.007	4029
923.116	4166
923.224	4090
923.333	4082
923.442	3994
923.55	3979
923.659	4017
923.767	4147
923.876	4021
923.984	4109
924.092	3998
924.201	4105
924.309	4109
924.417	4166
924.525	4071
924.633	4116
924.741	4919
924.849	3941
924.956	4128
925.064	3972
925.172	3941
925.279	3994
925.387	4048
925.494	4071
925.602	4204
925.709	4227
925.816	4002
925.924	4143
926.031	4265
926.138	4215
926.245	4238
926.352	4078
926.459	4253
926.566	4295
926.673	4158
926.779	4082
926.886	4112
926.993	4006
927.099	3994
927.206	3953
927.312	3979
927.419	4063
927.525	4032
927.631	4109
927.737	3987
927.843	4006
927.95	3846
928.056	3896
928.162	3975
928.267	4086
928.373	4611
928.479	4124
928.585	3899
928.69	4025
928.796	4105
928.901	3964
929.007	3838
929.112	4021
929.218	3979
929.323	3991
929.428	3968
929.533	4116
929.638	3876
929.743	3926
929.848	4029
929.953	4029
930.058	4013
930.163	3797
930.267	3827
930.372	3998
930.477	3804
930.581	4116
930.685	3918
930.79	3850
930.894	3861
930.998	3846
931.103	4040
931.207	3789
931.311	3686
931.415	3679
931.519	3526
931.623	3549
