Data from test_V78500241_2264.txt Node
Date: Fri Mar 25 17:04:44 CST 2022
User: usil
Spectrometer: V785-0024
Trigger mode: 0
Integration Time (sec): 4.000000E-1
Scans to average: 1
Nonlinearity correction enabled: false
Boxcar width: 0
Storing dark spectrum: false
XAxis mode: Wavelengths
Number of Pixels in Spectrum: 1024
>>>>>Begin Spectral Data<<<<<
801.071	8001
801.214	7989
801.356	7788
801.499	7852
801.641	7772
801.783	7852
801.926	7986
802.068	7944
802.211	7978
802.353	7989
802.496	7837
802.638	7868
802.78	7879
802.923	7906
803.065	7887
803.208	7856
803.35	7959
803.492	8069
803.635	8126
803.777	7936
803.919	8134
804.061	8476
804.204	8191
804.346	8180
804.488	7955
804.63	8092
804.773	7989
804.915	8084
805.057	8317
805.199	8161
805.341	8172
805.483	8206
805.626	8134
805.768	8164
805.91	8259
806.052	8172
806.194	8088
806.336	8309
806.478	8039
806.62	8077
806.762	8206
806.904	8263
807.046	8457
807.188	8355
807.33	8305
807.472	8317
807.614	8244
807.756	8149
807.898	7993
808.04	7864
808.182	7837
808.324	7921
808.465	7940
808.607	7986
808.749	8130
808.891	8259
809.033	8282
809.174	8210
809.316	7997
809.458	8039
809.6	8069
809.741	8020
809.883	7997
810.025	8062
810.166	8111
810.308	8031
810.45	7986
810.591	7837
810.733	7780
810.875	7639
811.016	7529
811.158	7400
811.299	7586
811.441	7658
811.582	7636
811.724	7590
811.865	7502
812.007	7529
812.148	7578
812.29	7647
812.431	7734
812.573	7845
812.714	7898
812.855	8195
812.997	8248
813.138	8256
813.279	8123
813.421	8050
813.562	7925
813.703	7830
813.845	7712
813.986	7441
814.127	7198
814.268	7168
814.41	7225
814.551	7118
814.692	7213
814.833	7110
814.974	7091
815.115	7103
815.256	6989
815.397	6897
815.539	6924
815.68	6821
815.821	6776
815.962	6779
816.103	6806
816.244	6688
816.385	6604
816.526	6604
816.666	6486
816.807	6285
816.948	6403
817.089	6448
817.23	6437
817.371	6361
817.512	6357
817.653	6414
817.793	6350
817.934	6380
818.075	6426
818.216	6376
818.356	6414
818.497	6273
818.638	6072
818.778	6186
818.919	6155
819.06	6159
819.2	6277
819.341	6327
819.481	6395
819.622	6525
819.762	6776
819.903	6719
820.043	6604
820.184	6604
820.324	6650
820.465	6669
820.605	6669
820.746	6623
820.886	6528
821.026	6681
821.167	6677
821.307	6821
821.447	6741
821.588	6616
821.728	6574
821.868	6525
822.008	6315
822.149	6361
822.289	6369
822.429	6136
822.569	6076
822.709	6110
822.849	5958
822.99	5885
823.13	5889
823.27	5942
823.41	5775
823.55	5802
823.69	5733
823.83	5794
823.97	5611
824.11	5524
824.25	5490
824.389	5516
824.529	5608
824.669	5478
824.809	5668
824.949	5665
825.089	5600
825.228	5528
825.368	5410
825.508	5341
825.648	5368
825.787	5410
825.927	5421
826.067	5261
826.206	5296
826.346	5357
826.485	5406
826.625	5410
826.765	5535
826.904	5486
827.044	5239
827.183	5174
827.323	5151
827.462	5235
827.601	5212
827.741	5193
827.88	5189
828.02	5094
828.159	5258
828.298	5315
828.437	5334
828.577	5265
828.716	5459
828.855	5360
828.994	5166
829.134	5109
829.273	5193
829.412	5151
829.551	5124
829.69	5140
829.829	5250
829.968	5398
830.107	5273
830.246	5326
830.385	5170
830.524	5132
830.663	5086
830.802	4965
830.941	4866
831.08	4854
831.219	4999
831.357	4995
831.496	5155
831.635	4919
831.774	4885
831.913	4790
832.051	4729
832.19	4740
832.329	4866
832.467	4679
832.606	4618
832.744	4672
832.883	4672
833.022	4740
833.16	4771
833.299	4873
833.437	4790
833.576	4850
833.714	4774
833.852	4843
833.991	4889
834.129	4946
834.267	4965
834.406	4946
834.544	4976
834.682	4976
834.821	4915
834.959	5147
835.097	4999
835.235	5143
835.373	5086
835.511	5102
835.65	4995
835.788	5060
835.926	4915
836.064	4862
836.202	4911
836.34	5132
836.478	5185
836.615	5113
836.753	5242
836.891	5288
837.029	5216
837.167	5239
837.305	5162
837.443	5174
837.58	5052
837.718	5292
837.856	5102
837.993	5113
838.131	5261
838.269	5216
838.406	5174
838.544	5143
838.681	5071
838.819	4995
838.956	4900
839.094	4892
839.231	4965
839.369	5048
839.506	5417
839.643	5284
839.781	5048
839.918	5003
840.055	5121
840.193	5105
840.33	5140
840.467	5147
840.604	5185
840.742	5452
840.879	5025
841.016	5090
841.153	5132
841.29	5398
841.427	5311
841.564	5322
841.701	5379
841.838	5318
841.975	5204
842.112	5235
842.249	5113
842.385	5086
842.522	5330
842.659	5162
842.796	5147
842.933	5174
843.069	5185
843.206	5178
843.343	5303
843.479	5208
843.616	5208
843.752	5022
843.889	4957
844.025	5239
844.162	5006
844.298	5208
844.435	5064
844.571	5014
844.708	5174
844.844	5277
844.98	5296
845.117	5322
845.253	5121
845.389	5105
845.525	5136
845.661	5181
845.798	5064
845.934	5117
846.07	4976
846.206	5159
846.342	5288
846.478	5216
846.614	4980
846.75	4934
846.886	4972
847.022	5117
847.158	4984
847.294	5067
847.429	5086
847.565	5041
847.701	5280
847.837	4835
847.972	4812
848.108	4915
848.244	4942
848.379	4752
848.515	4710
848.65	4740
848.786	4801
848.921	4793
849.057	4843
849.192	4927
849.328	4839
849.463	4809
849.598	4793
849.734	4733
849.869	4660
850.004	4645
850.14	4653
850.275	4596
850.41	4508
850.545	4573
850.68	4546
850.815	4611
850.95	4607
851.085	4862
851.22	4748
851.355	4679
851.49	4565
851.625	4641
851.76	4607
851.895	4558
852.03	4523
852.165	4660
852.299	4763
852.434	4786
852.569	4763
852.703	4774
852.838	4782
852.973	4908
853.107	4885
853.242	4698
853.376	4668
853.511	4565
853.645	4615
853.78	4797
853.914	4653
854.048	4641
854.183	4630
854.317	4683
854.451	4843
854.585	4664
854.72	4607
854.854	4717
854.988	4607
855.122	4675
855.256	4485
855.39	4675
855.524	4767
855.658	4729
855.792	4683
855.926	4767
856.06	4744
856.194	4816
856.327	4702
856.461	4588
856.595	4592
856.729	4596
856.862	4748
856.996	4683
857.13	4748
857.263	4759
857.397	4752
857.53	4679
857.664	4710
857.797	4736
857.931	4759
858.064	4664
858.197	4744
858.331	4649
858.464	4588
858.597	4497
858.731	4611
858.864	4660
858.997	4615
859.13	4664
859.263	4656
859.396	4691
859.529	4599
859.662	4558
859.795	4497
859.928	4656
860.061	4767
860.194	4752
860.327	4599
860.46	4523
860.592	4759
860.725	4763
860.858	4740
860.99	4542
861.123	4504
861.256	4512
861.388	4618
861.521	5334
861.653	4508
861.786	4466
861.918	4459
862.05	4519
862.183	4527
862.315	4603
862.447	4653
862.58	4546
862.712	4398
862.844	4329
862.976	4474
863.108	4470
863.24	4892
863.372	4303
863.504	4417
863.636	4409
863.768	4485
863.9	4462
864.032	4352
864.164	4360
864.296	4489
864.428	4538
864.559	4599
864.691	4558
864.823	4489
864.954	4466
865.086	4497
865.217	4451
865.349	4440
865.48	4485
865.612	4455
865.743	4649
865.875	4489
866.006	4440
866.137	4447
866.269	4443
866.4	4470
866.531	4409
866.662	4421
866.793	4443
866.924	4409
867.055	4474
867.186	4493
867.317	4409
867.448	4405
867.579	4379
867.71	4390
867.841	4371
867.972	4417
868.103	4481
868.233	4493
868.364	4440
868.495	4500
868.625	4675
868.756	4759
868.886	4577
869.017	4618
869.147	4752
869.278	4733
869.408	4653
869.539	4660
869.669	4668
869.799	4653
869.929	4752
870.06	4679
870.19	4927
870.32	4900
870.45	4900
870.58	4953
870.71	5041
870.84	5079
870.97	5003
871.1	4900
871.23	5102
871.36	5136
871.489	4972
871.619	5094
871.749	5140
871.879	5136
872.008	5166
872.138	5052
872.267	4938
872.397	4835
872.526	4725
872.656	4714
872.785	4801
872.915	4968
873.044	5006
873.173	4915
873.303	4991
873.432	4934
873.561	4972
873.69	4873
873.819	4885
873.948	4881
874.077	4824
874.206	4763
874.335	4843
874.464	4919
874.593	5067
874.722	4953
874.851	5045
874.979	5052
875.108	4980
875.237	4892
875.365	4923
875.494	4934
875.623	4961
875.751	4809
875.88	4843
876.008	4999
876.136	5003
876.265	5201
876.393	5337
876.521	5185
876.65	5239
876.778	5113
876.906	5060
877.034	5037
877.162	5029
877.29	5010
877.418	5022
877.546	5045
877.674	5105
877.802	5037
877.93	4984
878.058	4919
878.185	4911
878.313	5025
878.441	4919
878.568	4774
878.696	4908
878.824	5010
878.951	4991
879.079	5128
879.206	5254
879.333	5098
879.461	4991
879.588	4995
879.715	5102
879.842	5220
879.97	5014
880.097	4752
880.224	4759
880.351	4835
880.478	4835
880.605	4801
880.732	4786
880.859	5121
880.986	4873
881.112	4870
881.239	4805
881.366	4702
881.493	4626
881.619	4577
881.746	4653
881.872	4672
881.999	4645
882.125	4649
882.252	4801
882.378	4801
882.505	4896
882.631	4839
882.757	4679
882.883	4759
883.01	4771
883.136	4687
883.262	4615
883.388	4618
883.514	4797
883.64	4904
883.766	4820
883.892	4641
884.018	4702
884.143	4870
884.269	5029
884.395	4641
884.52	4660
884.646	4645
884.772	4584
884.897	4512
885.023	4679
885.148	4805
885.274	4858
885.399	4771
885.524	4698
885.65	4664
885.775	4755
885.9	4714
886.025	4843
886.15	4778
886.275	4725
886.4	4641
886.525	4672
886.65	4717
886.775	4645
886.9	4873
887.025	5025
887.149	4774
887.274	4721
887.399	4550
887.523	4588
887.648	4573
887.773	4615
887.897	4744
888.021	4820
888.146	4683
888.27	4801
888.395	4908
888.519	4805
888.643	4797
888.767	4790
888.891	4660
889.015	4618
889.139	4649
889.263	4573
889.387	4759
889.511	4828
889.635	4831
889.759	4584
889.883	4660
890.006	4729
890.13	4820
890.254	4615
890.377	4656
890.501	4519
890.624	4523
890.748	4607
890.871	4512
890.995	4432
891.118	4367
891.241	4504
891.364	4531
891.488	4641
891.611	4500
891.734	4474
891.857	4649
891.98	4550
892.103	4675
892.226	4611
892.349	4523
892.471	4432
892.594	4554
892.717	4588
892.839	4531
892.962	4546
893.085	4687
893.207	4615
893.33	4455
893.452	4504
893.575	4698
893.697	4561
893.819	4771
893.941	4854
894.064	4767
894.186	4569
894.308	4577
894.43	4710
894.552	4774
894.674	4736
894.796	4542
894.918	4603
895.04	4538
895.161	4694
895.283	4603
895.405	4561
895.526	4645
895.648	4679
895.769	4660
895.891	4733
896.012	4691
896.134	4729
896.255	4649
896.376	4622
896.498	4599
896.619	4672
896.74	4607
896.861	4611
896.982	4923
897.103	5067
897.224	4858
897.345	4740
897.466	4672
897.587	4717
897.708	4885
897.828	4771
897.949	4672
898.07	4577
898.19	4637
898.311	4843
898.431	4645
898.552	4786
898.672	4771
898.792	4778
898.913	4790
899.033	4592
899.153	4462
899.273	4474
899.393	4493
899.513	4508
899.633	4546
899.753	4546
899.873	4500
899.993	4569
900.113	4546
900.232	4577
900.352	4531
900.472	4470
900.591	4417
900.711	4531
900.83	4436
900.95	4592
901.069	4668
901.189	4580
901.308	4386
901.427	4363
901.546	4417
901.665	4489
901.784	4519
901.904	4405
902.023	4306
902.141	4162
902.26	4158
902.379	4306
902.498	4223
902.617	4177
902.735	4367
902.854	4413
902.973	4344
903.091	4246
903.21	4246
903.328	4310
903.446	4234
903.565	4268
903.683	4329
903.801	4295
903.919	4356
904.038	4394
904.156	4348
904.274	4478
904.392	4390
904.51	4428
904.627	4470
904.745	4573
904.863	4626
904.981	4398
905.098	4322
905.216	4344
905.334	4421
905.451	4462
905.569	4405
905.686	4550
905.803	4580
905.921	4421
906.038	4603
906.155	4428
906.272	4405
906.389	4508
906.506	4314
906.623	4413
906.74	4394
906.857	4299
906.974	4344
907.091	4504
907.208	4694
907.324	4565
907.441	4493
907.557	4383
907.674	4344
907.79	4344
907.907	4348
908.023	4451
908.139	4542
908.256	4455
908.372	4455
908.488	4459
908.604	4367
908.72	4367
908.836	4383
908.952	4379
909.068	4432
909.184	4580
909.3	4466
909.415	4580
909.531	4538
909.647	4352
909.762	4363
909.878	4318
909.993	4424
910.108	4363
910.224	4421
910.339	4497
910.454	4409
910.57	4299
910.685	4306
910.8	4599
910.915	4554
911.03	4493
911.145	4329
911.259	4344
911.374	4337
911.489	4306
911.604	4291
911.718	4158
911.833	4200
911.947	4074
912.062	3983
912.176	4219
912.291	4211
912.405	4246
912.519	4462
912.633	4470
912.748	4356
912.862	4284
912.976	4200
913.09	4101
913.204	4173
913.318	4238
913.431	4363
913.545	4337
913.659	4405
913.772	4360
913.886	4227
914	4249
914.113	4367
914.226	4424
914.34	4375
914.453	4257
914.566	4383
914.68	4322
914.793	4287
914.906	4173
915.019	4112
915.132	4036
915.245	4154
915.358	4192
915.47	4253
915.583	4306
915.696	4314
915.809	4386
915.921	4394
916.034	4291
916.146	4272
916.259	4173
916.371	4394
916.483	4341
916.595	4261
916.708	4329
916.82	4383
916.932	4314
917.044	4322
917.156	4348
917.268	4204
917.38	4261
917.491	4249
917.603	4325
917.715	4421
917.826	4470
917.938	4318
918.049	4242
918.161	4367
918.272	4489
918.384	4512
918.495	4428
918.606	4295
918.717	4268
918.828	4367
918.939	4402
919.05	4306
919.161	4322
919.272	4147
919.383	4249
919.494	4421
919.604	4596
919.715	4413
919.826	4314
919.936	4394
920.047	4519
920.157	4523
920.267	4717
920.378	4561
920.488	4489
920.598	4706
920.708	4881
920.818	4733
920.928	4729
921.038	4968
921.148	4934
921.258	4588
921.368	4558
921.477	4489
921.587	4432
921.697	4322
921.806	4504
921.916	4440
922.025	4249
922.134	4272
922.244	4238
922.353	4325
922.462	4162
922.571	4105
922.68	3994
922.789	3998
922.898	4013
923.007	3979
923.116	4074
923.224	4051
923.333	4109
923.442	4029
923.55	3941
923.659	4044
923.767	4074
923.876	3991
923.984	4124
924.092	4036
924.201	4032
924.309	4128
924.417	4116
924.525	4059
924.633	4116
924.741	5052
924.849	3888
924.956	4101
925.064	3937
925.172	3896
925.279	3915
925.387	4036
925.494	4063
925.602	4188
925.709	4154
925.816	4032
925.924	4154
926.031	4211
926.138	4162
926.245	4158
926.352	4109
926.459	4257
926.566	4284
926.673	4162
926.779	4090
926.886	4074
926.993	3941
927.099	3968
927.206	3941
927.312	3934
927.419	3991
927.525	4013
927.631	4116
927.737	3979
927.843	3892
927.95	3873
928.056	3956
928.162	3972
928.267	4082
928.373	4687
928.479	4135
928.585	3835
928.69	4010
928.796	4067
928.901	3937
929.007	3816
929.112	3979
929.218	3956
929.323	3949
929.428	3899
929.533	4116
929.638	3903
929.743	3937
929.848	4055
929.953	4029
930.058	3861
930.163	3736
930.267	3857
930.372	3979
930.477	3797
930.581	4116
930.685	3937
930.79	3800
930.894	3876
930.998	3873
931.103	4025
931.207	3717
931.311	3713
931.415	3679
931.519	3519
931.623	3572
