Data from test_V78500241_1532.txt Node
Date: Fri Mar 25 16:59:39 CST 2022
User: usil
Spectrometer: V785-0024
Trigger mode: 0
Integration Time (sec): 4.000000E-1
Scans to average: 1
Nonlinearity correction enabled: false
Boxcar width: 0
Storing dark spectrum: false
XAxis mode: Wavelengths
Number of Pixels in Spectrum: 1024
>>>>>Begin Spectral Data<<<<<
801.071	8008
801.214	7951
801.356	7909
801.499	7909
801.641	7814
801.783	7826
801.926	7993
802.068	7951
802.211	7997
802.353	7940
802.496	7879
802.638	7909
802.78	8008
802.923	7970
803.065	7868
803.208	7837
803.35	8016
803.492	8039
803.635	8145
803.777	7936
803.919	8142
804.061	8503
804.204	8153
804.346	8020
804.488	7947
804.63	8119
804.773	8084
804.915	8115
805.057	8313
805.199	8153
805.341	8218
805.483	8221
805.626	8244
805.768	8126
805.91	8123
806.052	8275
806.194	8081
806.336	8256
806.478	8024
806.62	8001
806.762	8164
806.904	8324
807.046	8461
807.188	8374
807.33	8336
807.472	8362
807.614	8138
807.756	8081
807.898	7894
808.04	7921
808.182	7947
808.324	7826
808.465	7875
808.607	8062
808.749	8168
808.891	8119
809.033	8290
809.174	8161
809.316	8115
809.458	8054
809.6	8020
809.741	8065
809.883	8031
810.025	8138
810.166	8031
810.308	8065
810.45	7993
810.591	7906
810.733	7750
810.875	7670
811.016	7537
811.158	7468
811.299	7605
811.441	7765
811.582	7700
811.724	7518
811.865	7525
812.007	7575
812.148	7567
812.29	7571
812.431	7738
812.573	7947
812.714	8020
812.855	8172
812.997	8210
813.138	8267
813.279	8191
813.421	8107
813.562	7921
813.703	7845
813.845	7757
813.986	7411
814.127	7190
814.268	7236
814.41	7206
814.551	7171
814.692	7240
814.833	7122
814.974	7149
815.115	7103
815.256	6878
815.397	6951
815.539	7008
815.68	6791
815.821	6798
815.962	6848
816.103	6802
816.244	6715
816.385	6639
816.526	6585
816.666	6509
816.807	6266
816.948	6426
817.089	6475
817.23	6456
817.371	6357
817.512	6403
817.653	6380
817.793	6395
817.934	6426
818.075	6414
818.216	6376
818.356	6429
818.497	6292
818.638	6121
818.778	6175
818.919	6140
819.06	6190
819.2	6315
819.341	6270
819.481	6391
819.622	6517
819.762	6677
819.903	6684
820.043	6544
820.184	6525
820.324	6608
820.465	6711
820.605	6711
820.746	6627
820.886	6521
821.026	6620
821.167	6757
821.307	6802
821.447	6749
821.588	6669
821.728	6544
821.868	6513
822.008	6323
822.149	6407
822.289	6361
822.429	6114
822.569	6106
822.709	6095
822.849	5912
822.99	5977
823.13	5942
823.27	5923
823.41	5783
823.55	5760
823.69	5737
823.83	5817
823.97	5627
824.11	5562
824.25	5463
824.389	5528
824.529	5604
824.669	5478
824.809	5657
824.949	5665
825.089	5619
825.228	5600
825.368	5387
825.508	5345
825.648	5288
825.787	5429
825.927	5406
826.067	5239
826.206	5318
826.346	5318
826.485	5429
826.625	5425
826.765	5600
826.904	5482
827.044	5239
827.183	5242
827.323	5223
827.462	5303
827.601	5162
827.741	5166
827.88	5185
828.02	5121
828.159	5254
828.298	5258
828.437	5357
828.577	5284
828.716	5486
828.855	5334
828.994	5113
829.134	5140
829.273	5166
829.412	5102
829.551	5121
829.69	5197
829.829	5239
829.968	5345
830.107	5242
830.246	5235
830.385	5204
830.524	5140
830.663	5140
830.802	5010
830.941	4885
831.08	4877
831.219	4953
831.357	4972
831.496	5147
831.635	4870
831.774	4854
831.913	4824
832.051	4725
832.19	4763
832.329	4839
832.467	4683
832.606	4710
832.744	4702
832.883	4710
833.022	4691
833.16	4786
833.299	4843
833.437	4717
833.576	4824
833.714	4854
833.852	4904
833.991	4866
834.129	4991
834.267	4965
834.406	4900
834.544	5018
834.682	4984
834.821	4919
834.959	5166
835.097	4953
835.235	5143
835.373	5105
835.511	5136
835.65	5048
835.788	5067
835.926	4877
836.064	4873
836.202	4915
836.34	5174
836.478	5223
836.615	5124
836.753	5166
836.891	5296
837.029	5246
837.167	5189
837.305	5162
837.443	5128
837.58	5102
837.718	5178
837.856	5242
837.993	5143
838.131	5212
838.269	5216
838.406	5193
838.544	5170
838.681	5006
838.819	4938
838.956	4927
839.094	4828
839.231	4987
839.369	5075
839.506	5387
839.643	5250
839.781	5075
839.918	5006
840.055	5094
840.193	5060
840.33	5037
840.467	5121
840.604	5216
840.742	5478
840.879	5071
841.016	5018
841.153	5117
841.29	5372
841.427	5376
841.564	5231
841.701	5318
841.838	5250
841.975	5208
842.112	5277
842.249	5174
842.385	5143
842.522	5326
842.659	5170
842.796	5143
842.933	5185
843.069	5143
843.206	5151
843.343	5330
843.479	5250
843.616	5330
843.752	5041
843.889	5045
844.025	5250
844.162	4972
844.298	5246
844.435	5102
844.571	5022
844.708	5151
844.844	5273
844.98	5353
845.117	5231
845.253	5132
845.389	5071
845.525	5105
845.661	5147
845.798	5048
845.934	5140
846.07	5064
846.206	5197
846.342	5288
846.478	5128
846.614	5029
846.75	4923
846.886	4900
847.022	5121
847.158	5018
847.294	5029
847.429	5086
847.565	5033
847.701	5284
847.837	4809
847.972	4782
848.108	4953
848.244	4957
848.379	4714
848.515	4759
848.65	4679
848.786	4736
848.921	4771
849.057	4809
849.192	4911
849.328	4801
849.463	4850
849.598	4755
849.734	4748
849.869	4744
850.004	4626
850.14	4656
850.275	4584
850.41	4554
850.545	4584
850.68	4573
850.815	4637
850.95	4656
851.085	4858
851.22	4752
851.355	4694
851.49	4622
851.625	4694
851.76	4634
851.895	4535
852.03	4554
852.165	4672
852.299	4714
852.434	4763
852.569	4744
852.703	4801
852.838	4824
852.973	4934
853.107	4927
853.242	4733
853.376	4694
853.511	4519
853.645	4588
853.78	4782
853.914	4672
854.048	4698
854.183	4622
854.317	4694
854.451	4870
854.585	4630
854.72	4649
854.854	4771
854.988	4569
855.122	4634
855.256	4535
855.39	4656
855.524	4771
855.658	4725
855.792	4694
855.926	4748
856.06	4759
856.194	4809
856.327	4714
856.461	4592
856.595	4641
856.729	4611
856.862	4771
856.996	4660
857.13	4710
857.263	4786
857.397	4805
857.53	4641
857.664	4664
857.797	4763
857.931	4740
858.064	4660
858.197	4706
858.331	4664
858.464	4618
858.597	4527
858.731	4607
858.864	4656
858.997	4580
859.13	4596
859.263	4630
859.396	4721
859.529	4580
859.662	4504
859.795	4573
859.928	4634
860.061	4721
860.194	4782
860.327	4649
860.46	4607
860.592	4675
860.725	4672
860.858	4706
860.99	4596
861.123	4470
861.256	4538
861.388	4622
861.521	5303
861.653	4481
861.786	4413
861.918	4459
862.05	4493
862.183	4569
862.315	4622
862.447	4622
862.58	4584
862.712	4398
862.844	4352
862.976	4478
863.108	4470
863.24	4801
863.372	4329
863.504	4322
863.636	4440
863.768	4512
863.9	4466
864.032	4337
864.164	4443
864.296	4497
864.428	4558
864.559	4542
864.691	4485
864.823	4535
864.954	4478
865.086	4451
865.217	4436
865.349	4394
865.48	4436
865.612	4459
865.743	4649
865.875	4462
866.006	4413
866.137	4417
866.269	4436
866.4	4405
866.531	4413
866.662	4375
866.793	4390
866.924	4394
867.055	4485
867.186	4512
867.317	4398
867.448	4371
867.579	4383
867.71	4394
867.841	4344
867.972	4413
868.103	4447
868.233	4440
868.364	4424
868.495	4493
868.625	4675
868.756	4717
868.886	4531
869.017	4611
869.147	4740
869.278	4755
869.408	4615
869.539	4611
869.669	4656
869.799	4634
869.929	4752
870.06	4755
870.19	4923
870.32	4927
870.45	4968
870.58	4991
870.71	5098
870.84	5075
870.97	4999
871.1	4911
871.23	5117
871.36	5094
871.489	5018
871.619	5086
871.749	5060
871.879	5083
872.008	5151
872.138	5067
872.267	4961
872.397	4873
872.526	4809
872.656	4736
872.785	4820
872.915	4930
873.044	4995
873.173	4900
873.303	4999
873.432	4946
873.561	4908
873.69	4885
873.819	4862
873.948	4927
874.077	4809
874.206	4736
874.335	4790
874.464	4900
874.593	5006
874.722	4930
874.851	5109
874.979	5045
875.108	4968
875.237	4927
875.365	4889
875.494	4889
875.623	4995
875.751	4809
875.88	4881
876.008	4984
876.136	5022
876.265	5246
876.393	5341
876.521	5254
876.65	5140
876.778	5181
876.906	5025
877.034	5010
877.162	5079
877.29	4961
877.418	5029
877.546	5056
877.674	5048
877.802	4976
877.93	5014
878.058	4889
878.185	4896
878.313	4968
878.441	4949
878.568	4812
878.696	4885
878.824	4968
878.951	4972
879.079	5140
879.206	5311
879.333	5075
879.461	4930
879.588	4980
879.715	5117
879.842	5181
879.97	4987
880.097	4774
880.224	4767
880.351	4755
880.478	4873
880.605	4793
880.732	4801
880.859	5071
880.986	4908
881.112	4946
881.239	4790
881.366	4634
881.493	4637
881.619	4611
881.746	4592
881.872	4626
881.999	4664
882.125	4637
882.252	4752
882.378	4824
882.505	4900
882.631	4748
882.757	4645
882.883	4694
883.01	4721
883.136	4683
883.262	4577
883.388	4618
883.514	4809
883.64	4866
883.766	4847
883.892	4717
884.018	4759
884.143	4930
884.269	4972
884.395	4691
884.52	4641
884.646	4626
884.772	4607
884.897	4546
885.023	4615
885.148	4805
885.274	4866
885.399	4774
885.524	4675
885.65	4721
885.775	4774
885.9	4672
886.025	4824
886.15	4774
886.275	4687
886.4	4645
886.525	4721
886.65	4656
886.775	4660
886.9	4866
887.025	5029
887.149	4812
887.274	4645
887.399	4611
887.523	4599
887.648	4603
887.773	4603
887.897	4763
888.021	4801
888.146	4611
888.27	4839
888.395	4892
888.519	4816
888.643	4843
888.767	4767
888.891	4656
889.015	4561
889.139	4641
889.263	4611
889.387	4725
889.511	4847
889.635	4797
889.759	4634
889.883	4603
890.006	4744
890.13	4801
890.254	4645
890.377	4649
890.501	4584
890.624	4516
890.748	4630
890.871	4546
890.995	4451
891.118	4348
891.241	4538
891.364	4519
891.488	4622
891.611	4527
891.734	4531
891.857	4596
891.98	4580
892.103	4668
892.226	4538
892.349	4493
892.471	4413
892.594	4577
892.717	4596
892.839	4542
892.962	4630
893.085	4664
893.207	4588
893.33	4451
893.452	4523
893.575	4634
893.697	4561
893.819	4755
893.941	4828
894.064	4759
894.186	4565
894.308	4523
894.43	4721
894.552	4816
894.674	4752
894.796	4527
894.918	4607
895.04	4573
895.161	4691
895.283	4668
895.405	4577
895.526	4660
895.648	4717
895.769	4649
895.891	4714
896.012	4752
896.134	4767
896.255	4706
896.376	4622
896.498	4615
896.619	4698
896.74	4626
896.861	4660
896.982	4900
897.103	5090
897.224	4850
897.345	4714
897.466	4694
897.587	4752
897.708	4858
897.828	4755
897.949	4687
898.07	4577
898.19	4603
898.311	4839
898.431	4637
898.552	4752
898.672	4828
898.792	4831
898.913	4725
899.033	4611
899.153	4459
899.273	4390
899.393	4497
899.513	4561
899.633	4512
899.753	4497
899.873	4447
899.993	4596
900.113	4504
900.232	4599
900.352	4561
900.472	4481
900.591	4390
900.711	4512
900.83	4436
900.95	4561
901.069	4698
901.189	4546
901.308	4348
901.427	4295
901.546	4360
901.665	4447
901.784	4485
901.904	4417
902.023	4287
902.141	4162
902.26	4215
902.379	4306
902.498	4261
902.617	4249
902.735	4318
902.854	4402
902.973	4337
903.091	4185
903.21	4196
903.328	4276
903.446	4272
903.565	4246
903.683	4337
903.801	4303
903.919	4390
904.038	4436
904.156	4344
904.274	4451
904.392	4390
904.51	4481
904.627	4478
904.745	4546
904.863	4596
904.981	4405
905.098	4329
905.216	4363
905.334	4405
905.451	4417
905.569	4409
905.686	4538
905.803	4565
905.921	4421
906.038	4577
906.155	4481
906.272	4394
906.389	4497
906.506	4310
906.623	4352
906.74	4413
906.857	4268
906.974	4405
907.091	4523
907.208	4694
907.324	4607
907.441	4493
907.557	4318
907.674	4371
907.79	4318
907.907	4379
908.023	4443
908.139	4428
908.256	4432
908.372	4443
908.488	4466
908.604	4356
908.72	4314
908.836	4383
908.952	4344
909.068	4371
909.184	4538
909.3	4428
909.415	4596
909.531	4561
909.647	4341
909.762	4306
909.878	4314
909.993	4440
910.108	4405
910.224	4436
910.339	4466
910.454	4417
910.57	4348
910.685	4272
910.8	4672
910.915	4588
911.03	4519
911.145	4299
911.259	4352
911.374	4322
911.489	4306
911.604	4299
911.718	4131
911.833	4242
911.947	4116
912.062	4048
912.176	4200
912.291	4242
912.405	4284
912.519	4440
912.633	4466
912.748	4367
912.862	4295
912.976	4188
913.09	4109
913.204	4128
913.318	4230
913.431	4337
913.545	4337
913.659	4447
913.772	4322
913.886	4234
914	4219
914.113	4360
914.226	4424
914.34	4413
914.453	4227
914.566	4443
914.68	4337
914.793	4280
914.906	4120
915.019	4120
915.132	4082
915.245	4181
915.358	4234
915.47	4242
915.583	4246
915.696	4329
915.809	4375
915.921	4383
916.034	4242
916.146	4253
916.259	4204
916.371	4383
916.483	4333
916.595	4280
916.708	4287
916.82	4299
916.932	4360
917.044	4284
917.156	4272
917.268	4211
917.38	4272
917.491	4318
917.603	4333
917.715	4432
917.826	4375
917.938	4329
918.049	4253
918.161	4379
918.272	4519
918.384	4542
918.495	4455
918.606	4314
918.717	4223
918.828	4276
918.939	4356
919.05	4230
919.161	4348
919.272	4063
919.383	4219
919.494	4436
919.604	4630
919.715	4462
919.826	4337
919.936	4390
920.047	4481
920.157	4493
920.267	4717
920.378	4527
920.488	4504
920.598	4771
920.708	4889
920.818	4763
920.928	4740
921.038	4965
921.148	4866
921.258	4607
921.368	4519
921.477	4527
921.587	4451
921.697	4386
921.806	4531
921.916	4474
922.025	4303
922.134	4249
922.244	4215
922.353	4318
922.462	4139
922.571	4131
922.68	3968
922.789	3983
922.898	4055
923.007	3983
923.116	4112
923.224	4086
923.333	4090
923.442	4010
923.55	3956
923.659	4032
923.767	4109
923.876	3983
923.984	4135
924.092	4013
924.201	4040
924.309	4086
924.417	4131
924.525	4074
924.633	4120
924.741	4870
924.849	3876
924.956	4143
925.064	3937
925.172	3869
925.279	3960
925.387	4078
925.494	4021
925.602	4246
925.709	4196
925.816	4048
925.924	4169
926.031	4230
926.138	4185
926.245	4200
926.352	4090
926.459	4242
926.566	4265
926.673	4147
926.779	4055
926.886	4086
926.993	3983
927.099	3949
927.206	3934
927.312	3949
927.419	4093
927.525	3983
927.631	4059
927.737	3979
927.843	3918
927.95	3812
928.056	3956
928.162	3975
928.267	4116
928.373	4599
928.479	4120
928.585	3876
928.69	3994
928.796	4101
928.901	4002
929.007	3846
929.112	4002
929.218	3941
929.323	3945
929.428	3953
929.533	4116
929.638	3918
929.743	3945
929.848	4021
929.953	3972
930.058	3907
930.163	3778
930.267	3831
930.372	3991
930.477	3838
930.581	4112
930.685	3949
930.79	3831
930.894	3880
930.998	3884
931.103	4055
931.207	3717
931.311	3690
931.415	3679
931.519	3557
931.623	3580
