Data from test_V78500241_2229.txt Node
Date: Fri Mar 25 17:04:30 CST 2022
User: usil
Spectrometer: V785-0024
Trigger mode: 0
Integration Time (sec): 4.000000E-1
Scans to average: 1
Nonlinearity correction enabled: false
Boxcar width: 0
Storing dark spectrum: false
XAxis mode: Wavelengths
Number of Pixels in Spectrum: 1024
>>>>>Begin Spectral Data<<<<<
801.071	8077
801.214	7993
801.356	7856
801.499	7864
801.641	7803
801.783	7845
801.926	7967
802.068	7894
802.211	7997
802.353	7989
802.496	7830
802.638	7902
802.78	7921
802.923	7868
803.065	7776
803.208	7814
803.35	7986
803.492	8027
803.635	8202
803.777	7936
803.919	8043
804.061	8469
804.204	8195
804.346	8043
804.488	7993
804.63	8107
804.773	7970
804.915	8043
805.057	8259
805.199	8187
805.341	8134
805.483	8218
805.626	8187
805.768	8111
805.91	8168
806.052	8221
806.194	8073
806.336	8237
806.478	8039
806.62	8027
806.762	8134
806.904	8237
807.046	8415
807.188	8320
807.33	8305
807.472	8366
807.614	8134
807.756	8111
807.898	7974
808.04	7780
808.182	7860
808.324	7944
808.465	7890
808.607	8062
808.749	8092
808.891	8214
809.033	8229
809.174	8202
809.316	8069
809.458	8107
809.6	8039
809.741	7997
809.883	8005
810.025	8130
810.166	7997
810.308	8024
810.45	7997
810.591	7856
810.733	7734
810.875	7647
811.016	7476
811.158	7506
811.299	7521
811.441	7693
811.582	7639
811.724	7525
811.865	7529
812.007	7556
812.148	7636
812.29	7643
812.431	7776
812.573	7837
812.714	7947
812.855	8103
812.997	8149
813.138	8225
813.279	8180
813.421	8115
813.562	8008
813.703	7860
813.845	7807
813.986	7426
814.127	7225
814.268	7240
814.41	7175
814.551	7198
814.692	7175
814.833	7057
814.974	7103
815.115	7080
815.256	6981
815.397	6943
815.539	6970
815.68	6783
815.821	6768
815.962	6859
816.103	6776
816.244	6692
816.385	6593
816.526	6597
816.666	6502
816.807	6342
816.948	6426
817.089	6418
817.23	6395
817.371	6376
817.512	6342
817.653	6369
817.793	6407
817.934	6418
818.075	6471
818.216	6452
818.356	6429
818.497	6243
818.638	6133
818.778	6194
818.919	6125
819.06	6213
819.2	6369
819.341	6323
819.481	6304
819.622	6525
819.762	6745
819.903	6787
820.043	6631
820.184	6559
820.324	6574
820.465	6692
820.605	6658
820.746	6665
820.886	6525
821.026	6662
821.167	6696
821.307	6810
821.447	6791
821.588	6620
821.728	6627
821.868	6445
822.008	6281
822.149	6361
822.289	6338
822.429	6159
822.569	6110
822.709	6167
822.849	5935
822.99	5863
823.13	5920
823.27	5950
823.41	5809
823.55	5748
823.69	5741
823.83	5779
823.97	5710
824.11	5539
824.25	5493
824.389	5547
824.529	5551
824.669	5566
824.809	5634
824.949	5646
825.089	5562
825.228	5577
825.368	5425
825.508	5349
825.648	5364
825.787	5391
825.927	5368
826.067	5250
826.206	5288
826.346	5406
826.485	5398
826.625	5421
826.765	5558
826.904	5471
827.044	5299
827.183	5239
827.323	5174
827.462	5265
827.601	5159
827.741	5181
827.88	5258
828.02	5094
828.159	5220
828.298	5311
828.437	5337
828.577	5334
828.716	5562
828.855	5318
828.994	5159
829.134	5159
829.273	5220
829.412	5121
829.551	5151
829.69	5242
829.829	5261
829.968	5383
830.107	5330
830.246	5246
830.385	5204
830.524	5170
830.663	5052
830.802	4976
830.941	4930
831.08	4915
831.219	5029
831.357	4995
831.496	5220
831.635	4942
831.774	4885
831.913	4877
832.051	4744
832.19	4729
832.329	4870
832.467	4725
832.606	4675
832.744	4763
832.883	4797
833.022	4778
833.16	4824
833.299	4889
833.437	4885
833.576	4847
833.714	4889
833.852	4911
833.991	4919
834.129	4953
834.267	4980
834.406	5003
834.544	4999
834.682	4995
834.821	4980
834.959	5212
835.097	5075
835.235	5162
835.373	5109
835.511	5140
835.65	5045
835.788	5048
835.926	4961
836.064	4927
836.202	4980
836.34	5140
836.478	5288
836.615	5174
836.753	5292
836.891	5364
837.029	5280
837.167	5216
837.305	5250
837.443	5197
837.58	5170
837.718	5357
837.856	5239
837.993	5189
838.131	5254
838.269	5246
838.406	5239
838.544	5250
838.681	5117
838.819	5029
838.956	4976
839.094	4919
839.231	5014
839.369	5075
839.506	5452
839.643	5315
839.781	5117
839.918	5006
840.055	5090
840.193	5105
840.33	5102
840.467	5159
840.604	5193
840.742	5448
840.879	5166
841.016	5166
841.153	5143
841.29	5387
841.427	5322
841.564	5383
841.701	5395
841.838	5318
841.975	5334
842.112	5318
842.249	5193
842.385	5102
842.522	5364
842.659	5216
842.796	5193
842.933	5185
843.069	5189
843.206	5140
843.343	5368
843.479	5261
843.616	5318
843.752	5109
843.889	5086
844.025	5277
844.162	5041
844.298	5277
844.435	5083
844.571	5071
844.708	5269
844.844	5379
844.98	5357
845.117	5311
845.253	5166
845.389	5124
845.525	5223
845.661	5098
845.798	5075
845.934	5143
846.07	5113
846.206	5212
846.342	5277
846.478	5204
846.614	5079
846.75	4999
846.886	4957
847.022	5170
847.158	5075
847.294	5113
847.429	5140
847.565	5117
847.701	5288
847.837	4915
847.972	4877
848.108	4980
848.244	5003
848.379	4820
848.515	4771
848.65	4714
848.786	4763
848.921	4790
849.057	4885
849.192	4911
849.328	4889
849.463	4850
849.598	4820
849.734	4801
849.869	4691
850.004	4637
850.14	4668
850.275	4596
850.41	4592
850.545	4634
850.68	4645
850.815	4615
850.95	4683
851.085	4870
851.22	4755
851.355	4706
851.49	4660
851.625	4645
851.76	4645
851.895	4634
852.03	4573
852.165	4702
852.299	4820
852.434	4835
852.569	4759
852.703	4752
852.838	4835
852.973	4980
853.107	4984
853.242	4752
853.376	4691
853.511	4592
853.645	4611
853.78	4824
853.914	4706
854.048	4729
854.183	4668
854.317	4706
854.451	4866
854.585	4725
854.72	4694
854.854	4805
854.988	4580
855.122	4668
855.256	4546
855.39	4672
855.524	4854
855.658	4790
855.792	4714
855.926	4710
856.06	4805
856.194	4816
856.327	4736
856.461	4672
856.595	4607
856.729	4615
856.862	4782
856.996	4714
857.13	4736
857.263	4740
857.397	4812
857.53	4683
857.664	4740
857.797	4786
857.931	4748
858.064	4714
858.197	4778
858.331	4691
858.464	4622
858.597	4546
858.731	4645
858.864	4615
858.997	4584
859.13	4675
859.263	4710
859.396	4729
859.529	4599
859.662	4599
859.795	4603
859.928	4653
860.061	4847
860.194	4854
860.327	4615
860.46	4599
860.592	4774
860.725	4710
860.858	4767
860.99	4645
861.123	4508
861.256	4558
861.388	4607
861.521	5322
861.653	4500
861.786	4459
861.918	4474
862.05	4573
862.183	4565
862.315	4603
862.447	4672
862.58	4577
862.712	4405
862.844	4356
862.976	4516
863.108	4466
863.24	4904
863.372	4341
863.504	4417
863.636	4428
863.768	4504
863.9	4440
864.032	4367
864.164	4443
864.296	4504
864.428	4538
864.559	4599
864.691	4561
864.823	4546
864.954	4523
865.086	4546
865.217	4527
865.349	4508
865.48	4481
865.612	4508
865.743	4637
865.875	4493
866.006	4455
866.137	4500
866.269	4459
866.4	4462
866.531	4447
866.662	4421
866.793	4470
866.924	4443
867.055	4531
867.186	4504
867.317	4424
867.448	4417
867.579	4428
867.71	4390
867.841	4424
867.972	4478
868.103	4500
868.233	4478
868.364	4474
868.495	4497
868.625	4717
868.756	4778
868.886	4622
869.017	4641
869.147	4763
869.278	4771
869.408	4672
869.539	4630
869.669	4702
869.799	4691
869.929	4752
870.06	4759
870.19	4999
870.32	4949
870.45	4938
870.58	5083
870.71	5124
870.84	5102
870.97	4968
871.1	4885
871.23	5155
871.36	5208
871.489	5003
871.619	5079
871.749	5128
871.879	5105
872.008	5220
872.138	5102
872.267	4995
872.397	4877
872.526	4824
872.656	4729
872.785	4843
872.915	4976
873.044	5052
873.173	4946
873.303	4957
873.432	5014
873.561	4987
873.69	4892
873.819	4896
873.948	4911
874.077	4812
874.206	4736
874.335	4793
874.464	4957
874.593	5105
874.722	4984
874.851	5128
874.979	5102
875.108	5014
875.237	4911
875.365	4892
875.494	4915
875.623	5025
875.751	4854
875.88	4862
876.008	5006
876.136	5098
876.265	5201
876.393	5341
876.521	5337
876.65	5265
876.778	5159
876.906	5113
877.034	5033
877.162	5052
877.29	5064
877.418	5113
877.546	5075
877.674	5029
877.802	5067
877.93	4995
878.058	4915
878.185	4923
878.313	5010
878.441	4984
878.568	4774
878.696	4881
878.824	4972
878.951	5045
879.079	5128
879.206	5307
879.333	5166
879.461	5006
879.588	5029
879.715	5178
879.842	5261
879.97	5003
880.097	4763
880.224	4714
880.351	4782
880.478	4877
880.605	4873
880.732	4835
880.859	5117
880.986	4904
881.112	4961
881.239	4767
881.366	4702
881.493	4641
881.619	4577
881.746	4656
881.872	4630
881.999	4675
882.125	4717
882.252	4752
882.378	4877
882.505	4961
882.631	4828
882.757	4694
882.883	4733
883.01	4736
883.136	4687
883.262	4573
883.388	4599
883.514	4847
883.64	4889
883.766	4850
883.892	4668
884.018	4744
884.143	4911
884.269	5025
884.395	4694
884.52	4668
884.646	4630
884.772	4607
884.897	4588
885.023	4710
885.148	4835
885.274	4824
885.399	4854
885.524	4740
885.65	4725
885.775	4778
885.9	4740
886.025	4873
886.15	4820
886.275	4767
886.4	4641
886.525	4805
886.65	4672
886.775	4717
886.9	4942
887.025	5060
887.149	4797
887.274	4702
887.399	4592
887.523	4615
887.648	4622
887.773	4558
887.897	4778
888.021	4778
888.146	4691
888.27	4805
888.395	4923
888.519	4847
888.643	4835
888.767	4839
888.891	4710
889.015	4630
889.139	4656
889.263	4588
889.387	4733
889.511	4843
889.635	4805
889.759	4653
889.883	4637
890.006	4725
890.13	4858
890.254	4611
890.377	4626
890.501	4550
890.624	4588
890.748	4618
890.871	4573
890.995	4497
891.118	4398
891.241	4542
891.364	4527
891.488	4675
891.611	4535
891.734	4500
891.857	4596
891.98	4584
892.103	4637
892.226	4603
892.349	4573
892.471	4428
892.594	4584
892.717	4615
892.839	4596
892.962	4611
893.085	4717
893.207	4622
893.33	4489
893.452	4550
893.575	4698
893.697	4630
893.819	4816
893.941	4805
894.064	4790
894.186	4634
894.308	4607
894.43	4702
894.552	4870
894.674	4782
894.796	4592
894.918	4607
895.04	4592
895.161	4759
895.283	4622
895.405	4561
895.526	4702
895.648	4683
895.769	4702
895.891	4710
896.012	4786
896.134	4759
896.255	4691
896.376	4668
896.498	4592
896.619	4725
896.74	4607
896.861	4698
896.982	4942
897.103	5056
897.224	4843
897.345	4786
897.466	4615
897.587	4759
897.708	4824
897.828	4793
897.949	4698
898.07	4603
898.19	4626
898.311	4835
898.431	4717
898.552	4714
898.672	4793
898.792	4801
898.913	4706
899.033	4672
899.153	4519
899.273	4508
899.393	4489
899.513	4569
899.633	4577
899.753	4565
899.873	4436
899.993	4565
900.113	4550
900.232	4607
900.352	4508
900.472	4485
900.591	4421
900.711	4459
900.83	4481
900.95	4561
901.069	4725
901.189	4577
901.308	4383
901.427	4322
901.546	4428
901.665	4474
901.784	4542
901.904	4440
902.023	4341
902.141	4207
902.26	4173
902.379	4310
902.498	4265
902.617	4303
902.735	4405
902.854	4394
902.973	4310
903.091	4234
903.21	4257
903.328	4280
903.446	4284
903.565	4280
903.683	4333
903.801	4253
903.919	4413
904.038	4443
904.156	4291
904.274	4428
904.392	4390
904.51	4440
904.627	4474
904.745	4550
904.863	4649
904.981	4383
905.098	4318
905.216	4363
905.334	4402
905.451	4428
905.569	4390
905.686	4577
905.803	4554
905.921	4405
906.038	4546
906.155	4474
906.272	4360
906.389	4489
906.506	4337
906.623	4413
906.74	4394
906.857	4333
906.974	4344
907.091	4546
907.208	4710
907.324	4592
907.441	4527
907.557	4333
907.674	4352
907.79	4337
907.907	4386
908.023	4519
908.139	4451
908.256	4478
908.372	4470
908.488	4466
908.604	4352
908.72	4363
908.836	4352
908.952	4394
909.068	4474
909.184	4550
909.3	4542
909.415	4611
909.531	4558
909.647	4333
909.762	4398
909.878	4314
909.993	4424
910.108	4409
910.224	4432
910.339	4459
910.454	4417
910.57	4352
910.685	4341
910.8	4618
910.915	4611
911.03	4508
911.145	4314
911.259	4352
911.374	4432
911.489	4322
911.604	4253
911.718	4154
911.833	4204
911.947	4139
912.062	4040
912.176	4215
912.291	4230
912.405	4299
912.519	4485
912.633	4508
912.748	4386
912.862	4291
912.976	4234
913.09	4120
913.204	4177
913.318	4242
913.431	4405
913.545	4386
913.659	4402
913.772	4356
913.886	4261
914	4219
914.113	4398
914.226	4462
914.34	4443
914.453	4276
914.566	4421
914.68	4322
914.793	4329
914.906	4128
915.019	4147
915.132	4093
915.245	4207
915.358	4185
915.47	4261
915.583	4265
915.696	4268
915.809	4402
915.921	4428
916.034	4227
916.146	4253
916.259	4242
916.371	4402
916.483	4383
916.595	4284
916.708	4325
916.82	4341
916.932	4280
917.044	4337
917.156	4341
917.268	4219
917.38	4291
917.491	4261
917.603	4314
917.715	4375
917.826	4421
917.938	4287
918.049	4223
918.161	4443
918.272	4508
918.384	4531
918.495	4451
918.606	4329
918.717	4246
918.828	4280
918.939	4352
919.05	4249
919.161	4299
919.272	4139
919.383	4265
919.494	4447
919.604	4649
919.715	4466
919.826	4348
919.936	4386
920.047	4554
920.157	4546
920.267	4702
920.378	4558
920.488	4569
920.598	4714
920.708	4889
920.818	4755
920.928	4752
921.038	4968
921.148	4946
921.258	4634
921.368	4558
921.477	4519
921.587	4462
921.697	4367
921.806	4580
921.916	4405
922.025	4280
922.134	4272
922.244	4246
922.353	4375
922.462	4177
922.571	4162
922.68	3998
922.789	3968
922.898	4055
923.007	4006
923.116	4082
923.224	4059
923.333	4097
923.442	3979
923.55	3941
923.659	4040
923.767	4097
923.876	3991
923.984	4101
924.092	4017
924.201	4063
924.309	4105
924.417	4139
924.525	4071
924.633	4109
924.741	5052
924.849	3937
924.956	4116
925.064	4010
925.172	3854
925.279	3983
925.387	4017
925.494	4017
925.602	4177
925.709	4150
925.816	4067
925.924	4147
926.031	4181
926.138	4188
926.245	4181
926.352	4116
926.459	4215
926.566	4352
926.673	4135
926.779	4040
926.886	4074
926.993	3998
927.099	3956
927.206	3960
927.312	3896
927.419	4029
927.525	4074
927.631	4135
927.737	3945
927.843	3953
927.95	3865
928.056	3960
928.162	4006
928.267	4051
928.373	4691
928.479	4128
928.585	3899
928.69	4040
928.796	4040
928.901	4002
929.007	3804
929.112	4029
929.218	3987
929.323	4006
929.428	3922
929.533	4097
929.638	3903
929.743	3975
929.848	4074
929.953	3945
930.058	3926
930.163	3766
930.267	3869
930.372	3949
930.477	3869
930.581	4055
930.685	3975
930.79	3838
930.894	3888
930.998	3838
931.103	4025
931.207	3701
931.311	3682
931.415	3682
931.519	3526
931.623	3553
