Data from test_V78500241_1674.txt Node
Date: Fri Mar 25 17:00:38 CST 2022
User: usil
Spectrometer: V785-0024
Trigger mode: 0
Integration Time (sec): 4.000000E-1
Scans to average: 1
Nonlinearity correction enabled: false
Boxcar width: 0
Storing dark spectrum: false
XAxis mode: Wavelengths
Number of Pixels in Spectrum: 1024
>>>>>Begin Spectral Data<<<<<
801.071	8039
801.214	8001
801.356	7860
801.499	7894
801.641	7788
801.783	7868
801.926	7944
802.068	7974
802.211	7963
802.353	8073
802.496	7841
802.638	7936
802.78	7856
802.923	7932
803.065	7856
803.208	7837
803.35	7970
803.492	8096
803.635	8172
803.777	7989
803.919	8161
804.061	8457
804.204	8145
804.346	8016
804.488	7963
804.63	8153
804.773	8043
804.915	8088
805.057	8282
805.199	8202
805.341	8210
805.483	8286
805.626	8244
805.768	8092
805.91	8248
806.052	8214
806.194	8111
806.336	8305
806.478	8149
806.62	8008
806.762	8119
806.904	8339
807.046	8484
807.188	8370
807.33	8419
807.472	8328
807.614	8214
807.756	8107
807.898	7947
808.04	7917
808.182	7921
808.324	7887
808.465	7959
808.607	8077
808.749	8084
808.891	8195
809.033	8328
809.174	8248
809.316	8073
809.458	8031
809.6	7978
809.741	8001
809.883	8058
810.025	8142
810.166	8024
810.308	7978
810.45	7997
810.591	7769
810.733	7700
810.875	7677
811.016	7518
811.158	7457
811.299	7597
811.441	7738
811.582	7723
811.724	7575
811.865	7499
812.007	7578
812.148	7616
812.29	7616
812.431	7742
812.573	7936
812.714	7955
812.855	8111
812.997	8210
813.138	8351
813.279	8164
813.421	8164
813.562	7974
813.703	7814
813.845	7693
813.986	7392
814.127	7305
814.268	7213
814.41	7228
814.551	7141
814.692	7232
814.833	7114
814.974	7076
815.115	7137
815.256	6958
815.397	6951
815.539	6932
815.68	6844
815.821	6802
815.962	6837
816.103	6791
816.244	6745
816.385	6585
816.526	6612
816.666	6475
816.807	6334
816.948	6502
817.089	6494
817.23	6403
817.371	6319
817.512	6308
817.653	6433
817.793	6346
817.934	6338
818.075	6471
818.216	6437
818.356	6391
818.497	6258
818.638	6095
818.778	6175
818.919	6178
819.06	6159
819.2	6270
819.341	6369
819.481	6296
819.622	6540
819.762	6745
819.903	6738
820.043	6623
820.184	6578
820.324	6563
820.465	6738
820.605	6654
820.746	6646
820.886	6570
821.026	6703
821.167	6654
821.307	6848
821.447	6787
821.588	6711
821.728	6563
821.868	6479
822.008	6315
822.149	6391
822.289	6311
822.429	6163
822.569	6136
822.709	6163
822.849	5958
822.99	5901
823.13	5908
823.27	5889
823.41	5786
823.55	5760
823.69	5794
823.83	5764
823.97	5668
824.11	5547
824.25	5467
824.389	5501
824.529	5570
824.669	5566
824.809	5653
824.949	5668
825.089	5627
825.228	5577
825.368	5440
825.508	5318
825.648	5311
825.787	5349
825.927	5429
826.067	5303
826.206	5326
826.346	5391
826.485	5376
826.625	5417
826.765	5551
826.904	5509
827.044	5216
827.183	5193
827.323	5166
827.462	5235
827.601	5143
827.741	5162
827.88	5231
828.02	5090
828.159	5155
828.298	5307
828.437	5357
828.577	5303
828.716	5497
828.855	5330
828.994	5193
829.134	5159
829.273	5204
829.412	5121
829.551	5181
829.69	5162
829.829	5265
829.968	5360
830.107	5288
830.246	5299
830.385	5235
830.524	5143
830.663	5018
830.802	4987
830.941	4965
831.08	4862
831.219	5006
831.357	4980
831.496	5231
831.635	4930
831.774	4873
831.913	4870
832.051	4725
832.19	4714
832.329	4892
832.467	4664
832.606	4664
832.744	4767
832.883	4752
833.022	4740
833.16	4771
833.299	4801
833.437	4793
833.576	4858
833.714	4896
833.852	4850
833.991	4892
834.129	4915
834.267	4999
834.406	4911
834.544	4965
834.682	5025
834.821	4968
834.959	5136
835.097	5010
835.235	5136
835.373	5098
835.511	5079
835.65	5094
835.788	5022
835.926	4881
836.064	4881
836.202	4896
836.34	5204
836.478	5185
836.615	5143
836.753	5208
836.891	5235
837.029	5258
837.167	5223
837.305	5193
837.443	5117
837.58	5086
837.718	5166
837.856	5147
837.993	5159
838.131	5220
838.269	5197
838.406	5193
838.544	5174
838.681	5067
838.819	5003
838.956	4866
839.094	4953
839.231	5025
839.369	5105
839.506	5467
839.643	5299
839.781	5056
839.918	5083
840.055	5136
840.193	5052
840.33	5067
840.467	5079
840.604	5170
840.742	5467
840.879	5109
841.016	5048
841.153	5166
841.29	5391
841.427	5383
841.564	5360
841.701	5315
841.838	5292
841.975	5212
842.112	5303
842.249	5170
842.385	5117
842.522	5307
842.659	5162
842.796	5166
842.933	5193
843.069	5181
843.206	5151
843.343	5292
843.479	5239
843.616	5265
843.752	4991
843.889	5003
844.025	5235
844.162	5052
844.298	5220
844.435	5056
844.571	5048
844.708	5178
844.844	5315
844.98	5387
845.117	5258
845.253	5166
845.389	5117
845.525	5128
845.661	5105
845.798	5048
845.934	5162
846.07	5041
846.206	5220
846.342	5284
846.478	5220
846.614	5014
846.75	4949
846.886	4942
847.022	5136
847.158	5029
847.294	5029
847.429	5124
847.565	5064
847.701	5303
847.837	4862
847.972	4763
848.108	4946
848.244	4923
848.379	4782
848.515	4733
848.65	4717
848.786	4698
848.921	4782
849.057	4870
849.192	4873
849.328	4847
849.463	4877
849.598	4786
849.734	4755
849.869	4725
850.004	4664
850.14	4668
850.275	4626
850.41	4478
850.545	4588
850.68	4611
850.815	4607
850.95	4599
851.085	4873
851.22	4755
851.355	4668
851.49	4573
851.625	4580
851.76	4656
851.895	4573
852.03	4561
852.165	4645
852.299	4698
852.434	4809
852.569	4744
852.703	4778
852.838	4824
852.973	4908
853.107	4862
853.242	4717
853.376	4622
853.511	4618
853.645	4615
853.78	4831
853.914	4668
854.048	4679
854.183	4649
854.317	4683
854.451	4835
854.585	4717
854.72	4672
854.854	4774
854.988	4580
855.122	4641
855.256	4516
855.39	4656
855.524	4755
855.658	4714
855.792	4664
855.926	4736
856.06	4793
856.194	4809
856.327	4706
856.461	4588
856.595	4615
856.729	4672
856.862	4729
856.996	4637
857.13	4733
857.263	4740
857.397	4820
857.53	4668
857.664	4733
857.797	4729
857.931	4820
858.064	4672
858.197	4774
858.331	4618
858.464	4607
858.597	4527
858.731	4603
858.864	4615
858.997	4565
859.13	4668
859.263	4694
859.396	4656
859.529	4561
859.662	4523
859.795	4558
859.928	4592
860.061	4748
860.194	4736
860.327	4611
860.46	4538
860.592	4717
860.725	4729
860.858	4702
860.99	4592
861.123	4516
861.256	4516
861.388	4630
861.521	5357
861.653	4440
861.786	4432
861.918	4466
862.05	4523
862.183	4542
862.315	4599
862.447	4653
862.58	4565
862.712	4390
862.844	4341
862.976	4459
863.108	4451
863.24	4755
863.372	4367
863.504	4424
863.636	4413
863.768	4440
863.9	4455
864.032	4337
864.164	4428
864.296	4440
864.428	4542
864.559	4535
864.691	4546
864.823	4497
864.954	4493
865.086	4447
865.217	4428
865.349	4451
865.48	4447
865.612	4474
865.743	4641
865.875	4478
866.006	4462
866.137	4443
866.269	4462
866.4	4459
866.531	4421
866.662	4398
866.793	4383
866.924	4394
867.055	4485
867.186	4451
867.317	4394
867.448	4352
867.579	4371
867.71	4390
867.841	4352
867.972	4485
868.103	4504
868.233	4451
868.364	4455
868.495	4436
868.625	4664
868.756	4786
868.886	4592
869.017	4664
869.147	4729
869.278	4793
869.408	4683
869.539	4660
869.669	4683
869.799	4664
869.929	4786
870.06	4744
870.19	4957
870.32	4953
870.45	4927
870.58	5052
870.71	5060
870.84	5140
870.97	4942
871.1	4873
871.23	5071
871.36	5109
871.489	5014
871.619	5098
871.749	5067
871.879	5109
872.008	5174
872.138	5056
872.267	4968
872.397	4835
872.526	4763
872.656	4694
872.785	4839
872.915	4934
873.044	4987
873.173	4889
873.303	4991
873.432	4984
873.561	4927
873.69	4892
873.819	4850
873.948	4911
874.077	4839
874.206	4752
874.335	4778
874.464	4934
874.593	5048
874.722	4961
874.851	5064
874.979	5098
875.108	5003
875.237	4889
875.365	4889
875.494	4870
875.623	4976
875.751	4828
875.88	4854
876.008	5010
876.136	4995
876.265	5128
876.393	5341
876.521	5288
876.65	5246
876.778	5178
876.906	5064
877.034	5018
877.162	5006
877.29	5025
877.418	5033
877.546	5045
877.674	5052
877.802	5029
877.93	4999
878.058	4953
878.185	4870
878.313	4953
878.441	4946
878.568	4778
878.696	4862
878.824	4915
878.951	5025
879.079	5147
879.206	5292
879.333	5094
879.461	4946
879.588	4995
879.715	5121
879.842	5166
879.97	4976
880.097	4790
880.224	4752
880.351	4843
880.478	4824
880.605	4778
880.732	4801
880.859	5090
880.986	4850
881.112	4949
881.239	4755
881.366	4645
881.493	4641
881.619	4569
881.746	4691
881.872	4599
881.999	4653
882.125	4706
882.252	4778
882.378	4774
882.505	4968
882.631	4809
882.757	4683
882.883	4679
883.01	4748
883.136	4649
883.262	4588
883.388	4603
883.514	4824
883.64	4881
883.766	4744
883.892	4664
884.018	4702
884.143	4877
884.269	5003
884.395	4656
884.52	4675
884.646	4649
884.772	4584
884.897	4535
885.023	4645
885.148	4748
885.274	4831
885.399	4831
885.524	4694
885.65	4691
885.775	4717
885.9	4698
886.025	4866
886.15	4752
886.275	4733
886.4	4660
886.525	4729
886.65	4675
886.775	4725
886.9	4930
887.025	5071
887.149	4771
887.274	4702
887.399	4580
887.523	4596
887.648	4584
887.773	4558
887.897	4710
888.021	4782
888.146	4645
888.27	4820
888.395	4892
888.519	4805
888.643	4786
888.767	4828
888.891	4664
889.015	4618
889.139	4672
889.263	4611
889.387	4679
889.511	4923
889.635	4763
889.759	4596
889.883	4698
890.006	4725
890.13	4816
890.254	4641
890.377	4637
890.501	4538
890.624	4546
890.748	4641
890.871	4546
890.995	4424
891.118	4436
891.241	4527
891.364	4550
891.488	4622
891.611	4481
891.734	4500
891.857	4641
891.98	4565
892.103	4588
892.226	4561
892.349	4542
892.471	4432
892.594	4542
892.717	4603
892.839	4558
892.962	4580
893.085	4656
893.207	4626
893.33	4440
893.452	4542
893.575	4675
893.697	4573
893.819	4828
893.941	4816
894.064	4816
894.186	4561
894.308	4519
894.43	4694
894.552	4805
894.674	4714
894.796	4542
894.918	4607
895.04	4577
895.161	4679
895.283	4683
895.405	4577
895.526	4603
895.648	4702
895.769	4668
895.891	4694
896.012	4786
896.134	4672
896.255	4641
896.376	4607
896.498	4645
896.619	4691
896.74	4630
896.861	4599
896.982	4862
897.103	5022
897.224	4824
897.345	4729
897.466	4626
897.587	4736
897.708	4831
897.828	4767
897.949	4656
898.07	4538
898.19	4618
898.311	4831
898.431	4660
898.552	4706
898.672	4771
898.792	4767
898.913	4714
899.033	4561
899.153	4497
899.273	4398
899.393	4470
899.513	4489
899.633	4470
899.753	4538
899.873	4497
899.993	4607
900.113	4523
900.232	4554
900.352	4523
900.472	4489
900.591	4379
900.711	4462
900.83	4417
900.95	4588
901.069	4683
901.189	4550
901.308	4383
901.427	4325
901.546	4371
901.665	4478
901.784	4497
901.904	4333
902.023	4322
902.141	4204
902.26	4131
902.379	4272
902.498	4246
902.617	4234
902.735	4352
902.854	4352
902.973	4329
903.091	4169
903.21	4227
903.328	4329
903.446	4280
903.565	4253
903.683	4329
903.801	4265
903.919	4421
904.038	4386
904.156	4284
904.274	4398
904.392	4409
904.51	4394
904.627	4470
904.745	4607
904.863	4577
904.981	4383
905.098	4257
905.216	4379
905.334	4443
905.451	4436
905.569	4428
905.686	4546
905.803	4538
905.921	4394
906.038	4554
906.155	4466
906.272	4413
906.389	4466
906.506	4341
906.623	4375
906.74	4402
906.857	4329
906.974	4363
907.091	4550
907.208	4687
907.324	4535
907.441	4481
907.557	4310
907.674	4314
907.79	4306
907.907	4352
908.023	4485
908.139	4459
908.256	4394
908.372	4519
908.488	4451
908.604	4394
908.72	4295
908.836	4348
908.952	4344
909.068	4432
909.184	4580
909.3	4466
909.415	4565
909.531	4588
909.647	4310
909.762	4367
909.878	4398
909.993	4402
910.108	4394
910.224	4462
910.339	4493
910.454	4405
910.57	4325
910.685	4306
910.8	4637
910.915	4599
911.03	4466
911.145	4299
911.259	4299
911.374	4348
911.489	4261
911.604	4276
911.718	4128
911.833	4242
911.947	4082
912.062	4010
912.176	4181
912.291	4246
912.405	4303
912.519	4462
912.633	4447
912.748	4337
912.862	4360
912.976	4207
913.09	4040
913.204	4204
913.318	4223
913.431	4363
913.545	4386
913.659	4398
913.772	4409
913.886	4219
914	4238
914.113	4348
914.226	4428
914.34	4398
914.453	4192
914.566	4417
914.68	4265
914.793	4333
914.906	4162
915.019	4135
915.132	4086
915.245	4177
915.358	4200
915.47	4242
915.583	4265
915.696	4242
915.809	4402
915.921	4383
916.034	4261
916.146	4215
916.259	4223
916.371	4352
916.483	4371
916.595	4234
916.708	4360
916.82	4337
916.932	4344
917.044	4314
917.156	4325
917.268	4200
917.38	4284
917.491	4280
917.603	4310
917.715	4421
917.826	4424
917.938	4329
918.049	4230
918.161	4341
918.272	4561
918.384	4538
918.495	4470
918.606	4303
918.717	4204
918.828	4333
918.939	4379
919.05	4246
919.161	4306
919.272	4101
919.383	4249
919.494	4462
919.604	4584
919.715	4394
919.826	4371
919.936	4432
920.047	4508
920.157	4527
920.267	4725
920.378	4546
920.488	4478
920.598	4687
920.708	4877
920.818	4778
920.928	4778
921.038	4900
921.148	4911
921.258	4554
921.368	4565
921.477	4523
921.587	4470
921.697	4386
921.806	4531
921.916	4428
922.025	4257
922.134	4299
922.244	4249
922.353	4322
922.462	4188
922.571	4139
922.68	4021
922.789	3968
922.898	4021
923.007	4029
923.116	4097
923.224	4074
923.333	4040
923.442	4032
923.55	3972
923.659	4048
923.767	4139
923.876	3998
923.984	4105
924.092	3972
924.201	4067
924.309	4128
924.417	4143
924.525	4044
924.633	4082
924.741	4896
924.849	3888
924.956	4116
925.064	4017
925.172	3915
925.279	3922
925.387	4071
925.494	4048
925.602	4207
925.709	4200
925.816	4029
925.924	4120
926.031	4215
926.138	4166
926.245	4207
926.352	4093
926.459	4223
926.566	4310
926.673	4150
926.779	4097
926.886	4097
926.993	3979
927.099	3953
927.206	3892
927.312	3922
927.419	4036
927.525	3991
927.631	4036
927.737	3960
927.843	3934
927.95	3846
928.056	3907
928.162	3987
928.267	4025
928.373	4714
928.479	4112
928.585	3884
928.69	4021
928.796	4051
928.901	3991
929.007	3827
929.112	4017
929.218	3930
929.323	3918
929.428	3934
929.533	4131
929.638	3922
929.743	3972
929.848	4021
929.953	3975
930.058	3922
930.163	3762
930.267	3827
930.372	3945
930.477	3781
930.581	4055
930.685	3960
930.79	3819
930.894	3861
930.998	3861
931.103	4006
931.207	3732
931.311	3694
931.415	3667
931.519	3549
931.623	3519
