Data from test_V78500241_535.txt Node
Date: Fri Mar 25 16:52:43 CST 2022
User: usil
Spectrometer: V785-0024
Trigger mode: 0
Integration Time (sec): 4.000000E-1
Scans to average: 1
Nonlinearity correction enabled: false
Boxcar width: 0
Storing dark spectrum: false
XAxis mode: Wavelengths
Number of Pixels in Spectrum: 1024
>>>>>Begin Spectral Data<<<<<
801.071	8073
801.214	8008
801.356	7906
801.499	7906
801.641	7769
801.783	7772
801.926	7955
802.068	8005
802.211	8024
802.353	8123
802.496	7921
802.638	7917
802.78	7928
802.923	7875
803.065	7860
803.208	7856
803.35	7967
803.492	8039
803.635	8142
803.777	7986
803.919	8107
804.061	8457
804.204	8123
804.346	7993
804.488	7940
804.63	8134
804.773	7959
804.915	8100
805.057	8317
805.199	8183
805.341	8195
805.483	8290
805.626	8149
805.768	8035
805.91	8130
806.052	8168
806.194	8084
806.336	8267
806.478	8157
806.62	8123
806.762	8115
806.904	8271
807.046	8374
807.188	8328
807.33	8206
807.472	8305
807.614	8168
807.756	8107
807.898	7986
808.04	7871
808.182	7944
808.324	7871
808.465	7860
808.607	8107
808.749	8081
808.891	8252
809.033	8275
809.174	8149
809.316	7997
809.458	8115
809.6	7986
809.741	7959
809.883	8005
810.025	8092
810.166	7986
810.308	7963
810.45	8039
810.591	7814
810.733	7719
810.875	7693
811.016	7502
811.158	7499
811.299	7636
811.441	7712
811.582	7685
811.724	7567
811.865	7548
812.007	7605
812.148	7571
812.29	7597
812.431	7750
812.573	7814
812.714	7913
812.855	8168
812.997	8279
813.138	8362
813.279	8225
813.421	8168
813.562	8088
813.703	7890
813.845	7830
813.986	7457
814.127	7369
814.268	7240
814.41	7266
814.551	7156
814.692	7217
814.833	7046
814.974	7118
815.115	7107
815.256	6939
815.397	6932
815.539	6958
815.68	6810
815.821	6730
815.962	6856
816.103	6875
816.244	6745
816.385	6635
816.526	6662
816.666	6513
816.807	6304
816.948	6498
817.089	6490
817.23	6437
817.371	6308
817.512	6407
817.653	6292
817.793	6365
817.934	6376
818.075	6460
818.216	6372
818.356	6414
818.497	6266
818.638	6110
818.778	6125
818.919	6114
819.06	6136
819.2	6247
819.341	6300
819.481	6319
819.622	6509
819.762	6749
819.903	6700
820.043	6528
820.184	6585
820.324	6521
820.465	6673
820.605	6646
820.746	6589
820.886	6467
821.026	6601
821.167	6662
821.307	6776
821.447	6734
821.588	6677
821.728	6574
821.868	6498
822.008	6346
822.149	6380
822.289	6338
822.429	6129
822.569	6041
822.709	6117
822.849	5939
822.99	5920
823.13	5904
823.27	5916
823.41	5824
823.55	5821
823.69	5779
823.83	5783
823.97	5657
824.11	5539
824.25	5539
824.389	5592
824.529	5554
824.669	5501
824.809	5627
824.949	5684
825.089	5634
825.228	5554
825.368	5444
825.508	5318
825.648	5383
825.787	5372
825.927	5307
826.067	5280
826.206	5337
826.346	5391
826.485	5406
826.625	5429
826.765	5543
826.904	5444
827.044	5239
827.183	5189
827.323	5151
827.462	5235
827.601	5242
827.741	5220
827.88	5220
828.02	5124
828.159	5273
828.298	5299
828.437	5402
828.577	5280
828.716	5520
828.855	5349
828.994	5208
829.134	5143
829.273	5201
829.412	5105
829.551	5220
829.69	5216
829.829	5277
829.968	5376
830.107	5235
830.246	5261
830.385	5212
830.524	5151
830.663	5121
830.802	4999
830.941	4919
831.08	4946
831.219	5033
831.357	4980
831.496	5189
831.635	4961
831.774	4877
831.913	4930
832.051	4752
832.19	4790
832.329	4843
832.467	4710
832.606	4687
832.744	4763
832.883	4755
833.022	4759
833.16	4786
833.299	4892
833.437	4870
833.576	4885
833.714	4870
833.852	4858
833.991	4930
834.129	5033
834.267	4968
834.406	4911
834.544	5006
834.682	4976
834.821	4991
834.959	5166
835.097	5022
835.235	5197
835.373	5128
835.511	5102
835.65	5064
835.788	5060
835.926	4881
836.064	4930
836.202	4972
836.34	5201
836.478	5250
836.615	5128
836.753	5242
836.891	5322
837.029	5273
837.167	5185
837.305	5166
837.443	5208
837.58	5109
837.718	5284
837.856	5178
837.993	5208
838.131	5250
838.269	5258
838.406	5227
838.544	5231
838.681	5067
838.819	5041
838.956	4934
839.094	4938
839.231	5067
839.369	5113
839.506	5429
839.643	5318
839.781	5060
839.918	5067
840.055	5086
840.193	5067
840.33	5162
840.467	5174
840.604	5185
840.742	5482
840.879	5147
841.016	5090
841.153	5143
841.29	5421
841.427	5372
841.564	5303
841.701	5357
841.838	5326
841.975	5273
842.112	5273
842.249	5193
842.385	5151
842.522	5345
842.659	5193
842.796	5121
842.933	5216
843.069	5143
843.206	5162
843.343	5330
843.479	5254
843.616	5322
843.752	5060
843.889	5014
844.025	5239
844.162	5052
844.298	5231
844.435	5132
844.571	5075
844.708	5208
844.844	5372
844.98	5345
845.117	5307
845.253	5140
845.389	5124
845.525	5201
845.661	5181
845.798	5094
845.934	5147
846.07	5041
846.206	5250
846.342	5303
846.478	5147
846.614	5052
846.75	4987
846.886	5014
847.022	5117
847.158	5052
847.294	5121
847.429	5166
847.565	5075
847.701	5345
847.837	4862
847.972	4862
848.108	4984
848.244	4957
848.379	4805
848.515	4755
848.65	4721
848.786	4801
848.921	4847
849.057	4877
849.192	4889
849.328	4850
849.463	4915
849.598	4858
849.734	4797
849.869	4710
850.004	4645
850.14	4672
850.275	4664
850.41	4561
850.545	4584
850.68	4641
850.815	4645
850.95	4653
851.085	4889
851.22	4778
851.355	4702
851.49	4626
851.625	4683
851.76	4698
851.895	4573
852.03	4535
852.165	4706
852.299	4763
852.434	4847
852.569	4717
852.703	4774
852.838	4900
852.973	4965
853.107	4968
853.242	4782
853.376	4706
853.511	4569
853.645	4607
853.78	4824
853.914	4710
854.048	4698
854.183	4660
854.317	4725
854.451	4904
854.585	4710
854.72	4630
854.854	4786
854.988	4656
855.122	4653
855.256	4500
855.39	4691
855.524	4786
855.658	4763
855.792	4725
855.926	4736
856.06	4774
856.194	4824
856.327	4664
856.461	4626
856.595	4702
856.729	4672
856.862	4824
856.996	4710
857.13	4736
857.263	4786
857.397	4820
857.53	4691
857.664	4736
857.797	4763
857.931	4843
858.064	4706
858.197	4759
858.331	4664
858.464	4637
858.597	4500
858.731	4626
858.864	4672
858.997	4592
859.13	4694
859.263	4736
859.396	4733
859.529	4622
859.662	4558
859.795	4599
859.928	4660
860.061	4797
860.194	4805
860.327	4630
860.46	4626
860.592	4752
860.725	4778
860.858	4778
860.99	4519
861.123	4493
861.256	4588
861.388	4618
861.521	5433
861.653	4497
861.786	4504
861.918	4580
862.05	4573
862.183	4573
862.315	4649
862.447	4611
862.58	4599
862.712	4409
862.844	4371
862.976	4512
863.108	4489
863.24	4930
863.372	4375
863.504	4421
863.636	4428
863.768	4493
863.9	4455
864.032	4375
864.164	4443
864.296	4516
864.428	4531
864.559	4615
864.691	4542
864.823	4497
864.954	4485
865.086	4508
865.217	4443
865.349	4424
865.48	4508
865.612	4516
865.743	4649
865.875	4485
866.006	4405
866.137	4550
866.269	4481
866.4	4462
866.531	4447
866.662	4402
866.793	4481
866.924	4481
867.055	4535
867.186	4459
867.317	4478
867.448	4428
867.579	4417
867.71	4455
867.841	4398
867.972	4512
868.103	4470
868.233	4451
868.364	4481
868.495	4516
868.625	4679
868.756	4759
868.886	4607
869.017	4649
869.147	4812
869.278	4862
869.408	4672
869.539	4656
869.669	4774
869.799	4714
869.929	4790
870.06	4748
870.19	4953
870.32	4961
870.45	4957
870.58	5067
870.71	5117
870.84	5162
870.97	4984
871.1	4946
871.23	5212
871.36	5181
871.489	5052
871.619	5090
871.749	5121
871.879	5136
872.008	5216
872.138	5117
872.267	5045
872.397	4877
872.526	4816
872.656	4744
872.785	4843
872.915	4980
873.044	5083
873.173	5014
873.303	4946
873.432	4965
873.561	4991
873.69	4896
873.819	4866
873.948	4915
874.077	4828
874.206	4790
874.335	4786
874.464	4991
874.593	5090
874.722	4957
874.851	5128
874.979	5083
875.108	5121
875.237	4908
875.365	4896
875.494	4923
875.623	4987
875.751	4847
875.88	4896
876.008	5006
876.136	5079
876.265	5280
876.393	5341
876.521	5250
876.65	5242
876.778	5178
876.906	5018
877.034	5060
877.162	5075
877.29	5018
877.418	5048
877.546	5086
877.674	5048
877.802	5025
877.93	5056
878.058	5048
878.185	4908
878.313	5003
878.441	4995
878.568	4843
878.696	4923
878.824	4976
878.951	5018
879.079	5155
879.206	5280
879.333	5170
879.461	5003
879.588	4995
879.715	5151
879.842	5220
879.97	5048
880.097	4835
880.224	4725
880.351	4862
880.478	4870
880.605	4847
880.732	4816
880.859	5170
880.986	4908
881.112	4946
881.239	4763
881.366	4736
881.493	4641
881.619	4580
881.746	4668
881.872	4634
881.999	4675
882.125	4710
882.252	4820
882.378	4835
882.505	4999
882.631	4801
882.757	4687
882.883	4774
883.01	4759
883.136	4736
883.262	4599
883.388	4660
883.514	4881
883.64	4896
883.766	4820
883.892	4702
884.018	4710
884.143	4946
884.269	5010
884.395	4729
884.52	4660
884.646	4717
884.772	4569
884.897	4577
885.023	4710
885.148	4839
885.274	4900
885.399	4801
885.524	4710
885.65	4752
885.775	4752
885.9	4748
886.025	4904
886.15	4831
886.275	4702
886.4	4694
886.525	4774
886.65	4736
886.775	4725
886.9	4942
887.025	5052
887.149	4873
887.274	4691
887.399	4531
887.523	4641
887.648	4538
887.773	4588
887.897	4767
888.021	4793
888.146	4679
888.27	4847
888.395	4961
888.519	4850
888.643	4812
888.767	4809
888.891	4668
889.015	4596
889.139	4672
889.263	4622
889.387	4774
889.511	4828
889.635	4790
889.759	4672
889.883	4687
890.006	4748
890.13	4854
890.254	4653
890.377	4687
890.501	4577
890.624	4535
890.748	4637
890.871	4535
890.995	4451
891.118	4436
891.241	4497
891.364	4588
891.488	4672
891.611	4538
891.734	4531
891.857	4622
891.98	4569
892.103	4687
892.226	4588
892.349	4546
892.471	4474
892.594	4497
892.717	4599
892.839	4588
892.962	4615
893.085	4637
893.207	4618
893.33	4462
893.452	4573
893.575	4717
893.697	4634
893.819	4831
893.941	4870
894.064	4793
894.186	4592
894.308	4573
894.43	4793
894.552	4812
894.674	4759
894.796	4512
894.918	4618
895.04	4577
895.161	4744
895.283	4694
895.405	4634
895.526	4634
895.648	4733
895.769	4710
895.891	4740
896.012	4778
896.134	4752
896.255	4714
896.376	4683
896.498	4592
896.619	4668
896.74	4607
896.861	4626
896.982	4915
897.103	5090
897.224	4866
897.345	4755
897.466	4679
897.587	4729
897.708	4889
897.828	4820
897.949	4702
898.07	4618
898.19	4694
898.311	4854
898.431	4710
898.552	4767
898.672	4809
898.792	4835
898.913	4797
899.033	4637
899.153	4519
899.273	4451
899.393	4504
899.513	4558
899.633	4516
899.753	4554
899.873	4573
899.993	4584
900.113	4519
900.232	4573
900.352	4512
900.472	4451
900.591	4428
900.711	4470
900.83	4432
900.95	4615
901.069	4672
901.189	4546
901.308	4363
901.427	4333
901.546	4390
901.665	4459
901.784	4508
901.904	4360
902.023	4337
902.141	4200
902.26	4166
902.379	4306
902.498	4207
902.617	4238
902.735	4379
902.854	4440
902.973	4337
903.091	4230
903.21	4207
903.328	4325
903.446	4318
903.565	4234
903.683	4352
903.801	4268
903.919	4402
904.038	4508
904.156	4337
904.274	4436
904.392	4424
904.51	4459
904.627	4481
904.745	4580
904.863	4675
904.981	4432
905.098	4299
905.216	4394
905.334	4481
905.451	4440
905.569	4443
905.686	4588
905.803	4596
905.921	4402
906.038	4573
906.155	4538
906.272	4405
906.389	4432
906.506	4371
906.623	4436
906.74	4386
906.857	4344
906.974	4436
907.091	4596
907.208	4672
907.324	4618
907.441	4504
907.557	4360
907.674	4352
907.79	4367
907.907	4436
908.023	4504
908.139	4455
908.256	4451
908.372	4500
908.488	4451
908.604	4379
908.72	4314
908.836	4428
908.952	4402
909.068	4428
909.184	4592
909.3	4481
909.415	4588
909.531	4580
909.647	4375
909.762	4398
909.878	4360
909.993	4504
910.108	4421
910.224	4474
910.339	4542
910.454	4402
910.57	4383
910.685	4280
910.8	4645
910.915	4618
911.03	4512
911.145	4409
911.259	4325
911.374	4398
911.489	4314
911.604	4303
911.718	4215
911.833	4219
911.947	4105
912.062	3994
912.176	4268
912.291	4265
912.405	4261
912.519	4512
912.633	4497
912.748	4402
912.862	4303
912.976	4234
913.09	4105
913.204	4143
913.318	4314
913.431	4383
913.545	4352
913.659	4417
913.772	4386
913.886	4291
914	4207
914.113	4348
914.226	4405
914.34	4390
914.453	4234
914.566	4485
914.68	4291
914.793	4337
914.906	4158
915.019	4128
915.132	4078
915.245	4215
915.358	4253
915.47	4253
915.583	4234
915.696	4325
915.809	4428
915.921	4455
916.034	4265
916.146	4257
916.259	4253
916.371	4341
916.483	4386
916.595	4303
916.708	4341
916.82	4383
916.932	4280
917.044	4344
917.156	4329
917.268	4268
917.38	4284
917.491	4299
917.603	4341
917.715	4481
917.826	4424
917.938	4383
918.049	4238
918.161	4451
918.272	4550
918.384	4550
918.495	4432
918.606	4329
918.717	4196
918.828	4344
918.939	4375
919.05	4272
919.161	4394
919.272	4147
919.383	4253
919.494	4409
919.604	4634
919.715	4447
919.826	4375
919.936	4436
920.047	4535
920.157	4535
920.267	4641
920.378	4550
920.488	4474
920.598	4733
920.708	4847
920.818	4759
920.928	4740
921.038	4904
921.148	4968
921.258	4603
921.368	4558
921.477	4485
921.587	4462
921.697	4379
921.806	4546
921.916	4428
922.025	4268
922.134	4234
922.244	4207
922.353	4344
922.462	4200
922.571	4154
922.68	4029
922.789	3979
922.898	4067
923.007	4048
923.116	4177
923.224	4131
923.333	4078
923.442	3983
923.55	4002
923.659	4040
923.767	4109
923.876	4025
923.984	4147
924.092	4017
924.201	4055
924.309	4082
924.417	4131
924.525	4055
924.633	4116
924.741	5083
924.849	3949
924.956	4177
925.064	3968
925.172	3926
925.279	3937
925.387	4032
925.494	4044
925.602	4200
925.709	4192
925.816	4048
925.924	4135
926.031	4234
926.138	4162
926.245	4215
926.352	4090
926.459	4280
926.566	4325
926.673	4131
926.779	4101
926.886	4116
926.993	3953
927.099	3960
927.206	3975
927.312	3964
927.419	4067
927.525	4063
927.631	4124
927.737	3968
927.843	3968
927.95	3854
928.056	3956
928.162	3983
928.267	4097
928.373	4694
928.479	4109
928.585	3861
928.69	4025
928.796	4097
928.901	4006
929.007	3842
929.112	4010
929.218	4021
929.323	3941
929.428	3926
929.533	4128
929.638	3926
929.743	3975
929.848	4067
929.953	4044
930.058	3975
930.163	3770
930.267	3823
930.372	3964
930.477	3800
930.581	4131
930.685	3964
930.79	3835
930.894	3873
930.998	3831
931.103	4071
931.207	3724
931.311	3686
931.415	3656
931.519	3576
931.623	3549
