Data from test_V78500241_1936.txt Node
Date: Fri Mar 25 17:02:27 CST 2022
User: usil
Spectrometer: V785-0024
Trigger mode: 0
Integration Time (sec): 4.000000E-1
Scans to average: 1
Nonlinearity correction enabled: false
Boxcar width: 0
Storing dark spectrum: false
XAxis mode: Wavelengths
Number of Pixels in Spectrum: 1024
>>>>>Begin Spectral Data<<<<<
801.071	8088
801.214	7932
801.356	7814
801.499	7807
801.641	7750
801.783	7769
801.926	7936
802.068	7936
802.211	7944
802.353	7978
802.496	7864
802.638	7799
802.78	7852
802.923	7913
803.065	7871
803.208	7879
803.35	7932
803.492	8088
803.635	8062
803.777	7906
803.919	8100
804.061	8442
804.204	8157
804.346	8001
804.488	7883
804.63	8062
804.773	7997
804.915	8134
805.057	8286
805.199	8145
805.341	8161
805.483	8240
805.626	8240
805.768	8092
805.91	8176
806.052	8153
806.194	8084
806.336	8294
806.478	8103
806.62	8100
806.762	8157
806.904	8237
807.046	8442
807.188	8320
807.33	8290
807.472	8298
807.614	8115
807.756	8183
807.898	8024
808.04	7883
808.182	7852
808.324	7833
808.465	7833
808.607	8046
808.749	8046
808.891	8195
809.033	8263
809.174	8210
809.316	8054
809.458	8016
809.6	8008
809.741	8058
809.883	8046
810.025	8092
810.166	8024
810.308	8100
810.45	7925
810.591	7837
810.733	7731
810.875	7628
811.016	7472
811.158	7434
811.299	7613
811.441	7643
811.582	7704
811.724	7590
811.865	7483
812.007	7571
812.148	7567
812.29	7620
812.431	7742
812.573	7852
812.714	8012
812.855	8088
812.997	8210
813.138	8301
813.279	8168
813.421	8050
813.562	7970
813.703	7833
813.845	7742
813.986	7453
814.127	7228
814.268	7190
814.41	7179
814.551	7141
814.692	7244
814.833	7050
814.974	7114
815.115	7065
815.256	7000
815.397	6913
815.539	6947
815.68	6806
815.821	6711
815.962	6852
816.103	6833
816.244	6673
816.385	6665
816.526	6642
816.666	6517
816.807	6372
816.948	6460
817.089	6467
817.23	6414
817.371	6376
817.512	6357
817.653	6395
817.793	6311
817.934	6407
818.075	6437
818.216	6479
818.356	6407
818.497	6190
818.638	6060
818.778	6125
818.919	6125
819.06	6163
819.2	6338
819.341	6281
819.481	6376
819.622	6544
819.762	6703
819.903	6646
820.043	6604
820.184	6563
820.324	6551
820.465	6692
820.605	6681
820.746	6612
820.886	6479
821.026	6608
821.167	6707
821.307	6818
821.447	6749
821.588	6688
821.728	6540
821.868	6547
822.008	6277
822.149	6315
822.289	6323
822.429	6133
822.569	6110
822.709	6148
822.849	5870
822.99	5927
823.13	5923
823.27	5885
823.41	5783
823.55	5775
823.69	5764
823.83	5737
823.97	5630
824.11	5493
824.25	5505
824.389	5528
824.529	5554
824.669	5482
824.809	5615
824.949	5661
825.089	5623
825.228	5524
825.368	5360
825.508	5337
825.648	5341
825.787	5376
825.927	5364
826.067	5315
826.206	5258
826.346	5349
826.485	5383
826.625	5334
826.765	5532
826.904	5433
827.044	5261
827.183	5231
827.323	5105
827.462	5201
827.601	5170
827.741	5166
827.88	5231
828.02	5075
828.159	5235
828.298	5284
828.437	5360
828.577	5292
828.716	5497
828.855	5296
828.994	5117
829.134	5170
829.273	5159
829.412	5067
829.551	5117
829.69	5170
829.829	5201
829.968	5341
830.107	5242
830.246	5265
830.385	5159
830.524	5121
830.663	5090
830.802	4953
830.941	4885
831.08	4870
831.219	4934
831.357	4946
831.496	5128
831.635	4908
831.774	4858
831.913	4835
832.051	4683
832.19	4729
832.329	4812
832.467	4656
832.606	4645
832.744	4702
832.883	4736
833.022	4748
833.16	4801
833.299	4805
833.437	4809
833.576	4839
833.714	4854
833.852	4900
833.991	4877
834.129	4938
834.267	4919
834.406	4896
834.544	4946
834.682	4957
834.821	5006
834.959	5155
835.097	4984
835.235	5151
835.373	5033
835.511	5105
835.65	5018
835.788	5006
835.926	4900
836.064	4877
836.202	4873
836.34	5140
836.478	5136
836.615	5090
836.753	5159
836.891	5239
837.029	5212
837.167	5181
837.305	5174
837.443	5178
837.58	5083
837.718	5250
837.856	5159
837.993	5132
838.131	5174
838.269	5193
838.406	5212
838.544	5174
838.681	5010
838.819	5022
838.956	4843
839.094	4858
839.231	4961
839.369	5045
839.506	5337
839.643	5212
839.781	5022
839.918	4991
840.055	5090
840.193	5113
840.33	5060
840.467	5124
840.604	5197
840.742	5448
840.879	5022
841.016	5121
841.153	5147
841.29	5398
841.427	5330
841.564	5311
841.701	5345
841.838	5273
841.975	5204
842.112	5223
842.249	5117
842.385	5128
842.522	5334
842.659	5140
842.796	5113
842.933	5208
843.069	5170
843.206	5132
843.343	5337
843.479	5166
843.616	5239
843.752	5037
843.889	5018
844.025	5220
844.162	4995
844.298	5208
844.435	5102
844.571	5056
844.708	5193
844.844	5341
844.98	5280
845.117	5261
845.253	5159
845.389	5105
845.525	5128
845.661	5128
845.798	5052
845.934	5140
846.07	5052
846.206	5208
846.342	5223
846.478	5159
846.614	5056
846.75	4976
846.886	4934
847.022	5124
847.158	5022
847.294	5045
847.429	5075
847.565	5071
847.701	5345
847.837	4870
847.972	4801
848.108	4976
848.244	4949
848.379	4767
848.515	4736
848.65	4694
848.786	4740
848.921	4790
849.057	4835
849.192	4889
849.328	4839
849.463	4828
849.598	4736
849.734	4759
849.869	4622
850.004	4622
850.14	4660
850.275	4641
850.41	4554
850.545	4550
850.68	4618
850.815	4645
850.95	4588
851.085	4877
851.22	4744
851.355	4641
851.49	4626
851.625	4588
851.76	4599
851.895	4580
852.03	4508
852.165	4588
852.299	4698
852.434	4820
852.569	4759
852.703	4755
852.838	4801
852.973	4873
853.107	4938
853.242	4694
853.376	4656
853.511	4561
853.645	4565
853.78	4774
853.914	4683
854.048	4630
854.183	4653
854.317	4672
854.451	4835
854.585	4656
854.72	4618
854.854	4782
854.988	4569
855.122	4622
855.256	4554
855.39	4622
855.524	4763
855.658	4698
855.792	4702
855.926	4733
856.06	4763
856.194	4843
856.327	4668
856.461	4592
856.595	4603
856.729	4603
856.862	4740
856.996	4683
857.13	4687
857.263	4702
857.397	4774
857.53	4634
857.664	4687
857.797	4714
857.931	4710
858.064	4668
858.197	4736
858.331	4618
858.464	4592
858.597	4523
858.731	4580
858.864	4637
858.997	4558
859.13	4675
859.263	4664
859.396	4668
859.529	4565
859.662	4577
859.795	4504
859.928	4656
860.061	4748
860.194	4721
860.327	4592
860.46	4478
860.592	4694
860.725	4717
860.858	4717
860.99	4607
861.123	4580
861.256	4493
861.388	4565
861.521	5284
861.653	4459
861.786	4440
861.918	4440
862.05	4497
862.183	4527
862.315	4554
862.447	4626
862.58	4531
862.712	4398
862.844	4348
862.976	4440
863.108	4459
863.24	4809
863.372	4295
863.504	4424
863.636	4394
863.768	4474
863.9	4409
864.032	4386
864.164	4394
864.296	4500
864.428	4527
864.559	4500
864.691	4538
864.823	4531
864.954	4500
865.086	4519
865.217	4432
865.349	4417
865.48	4447
865.612	4470
865.743	4630
865.875	4447
866.006	4459
866.137	4466
866.269	4459
866.4	4440
866.531	4440
866.662	4409
866.793	4432
866.924	4459
867.055	4550
867.186	4455
867.317	4455
867.448	4379
867.579	4421
867.71	4436
867.841	4375
867.972	4512
868.103	4466
868.233	4474
868.364	4508
868.495	4523
868.625	4698
868.756	4759
868.886	4641
869.017	4630
869.147	4744
869.278	4790
869.408	4733
869.539	4679
869.669	4755
869.799	4687
869.929	4820
870.06	4782
870.19	4968
870.32	4953
870.45	4961
870.58	5029
870.71	5132
870.84	5109
870.97	5033
871.1	4942
871.23	5124
871.36	5159
871.489	5056
871.619	5094
871.749	5159
871.879	5174
872.008	5223
872.138	5102
872.267	5006
872.397	4885
872.526	4877
872.656	4786
872.785	4866
872.915	5014
873.044	5090
873.173	4995
873.303	4972
873.432	4957
873.561	4991
873.69	4953
873.819	4873
873.948	4908
874.077	4839
874.206	4759
874.335	4809
874.464	4911
874.593	5052
874.722	4991
874.851	5132
874.979	5136
875.108	5064
875.237	4968
875.365	4961
875.494	4908
875.623	5048
875.751	4889
875.88	4927
876.008	4999
876.136	5060
876.265	5197
876.393	5383
876.521	5280
876.65	5250
876.778	5208
876.906	5037
877.034	5052
877.162	5064
877.29	5052
877.418	5113
877.546	5083
877.674	5045
877.802	5075
877.93	5018
878.058	5025
878.185	4904
878.313	5025
878.441	4976
878.568	4824
878.696	4862
878.824	4987
878.951	4961
879.079	5162
879.206	5322
879.333	5064
879.461	5006
879.588	5025
879.715	5128
879.842	5223
879.97	5025
880.097	4824
880.224	4755
880.351	4828
880.478	4881
880.605	4839
880.732	4801
880.859	5117
880.986	4942
881.112	4946
881.239	4793
881.366	4752
881.493	4622
881.619	4634
881.746	4637
881.872	4637
881.999	4706
882.125	4687
882.252	4850
882.378	4904
882.505	4965
882.631	4866
882.757	4702
882.883	4809
883.01	4725
883.136	4664
883.262	4679
883.388	4679
883.514	4805
883.64	4900
883.766	4866
883.892	4672
884.018	4736
884.143	4915
884.269	5052
884.395	4702
884.52	4664
884.646	4714
884.772	4588
884.897	4596
885.023	4694
885.148	4820
885.274	4896
885.399	4797
885.524	4767
885.65	4672
885.775	4752
885.9	4721
886.025	4866
886.15	4820
886.275	4740
886.4	4687
886.525	4767
886.65	4702
886.775	4691
886.9	4934
887.025	5041
887.149	4870
887.274	4660
887.399	4599
887.523	4637
887.648	4607
887.773	4664
887.897	4767
888.021	4793
888.146	4672
888.27	4801
888.395	4900
888.519	4820
888.643	4812
888.767	4877
888.891	4710
889.015	4637
889.139	4679
889.263	4653
889.387	4835
889.511	4877
889.635	4847
889.759	4672
889.883	4683
890.006	4717
890.13	4850
890.254	4672
890.377	4717
890.501	4618
890.624	4569
890.748	4672
890.871	4577
890.995	4508
891.118	4402
891.241	4558
891.364	4580
891.488	4653
891.611	4527
891.734	4592
891.857	4580
891.98	4565
892.103	4660
892.226	4656
892.349	4561
892.471	4470
892.594	4622
892.717	4630
892.839	4626
892.962	4649
893.085	4694
893.207	4668
893.33	4550
893.452	4554
893.575	4729
893.697	4603
893.819	4790
893.941	4782
894.064	4752
894.186	4592
894.308	4580
894.43	4763
894.552	4839
894.674	4752
894.796	4615
894.918	4637
895.04	4573
895.161	4736
895.283	4729
895.405	4607
895.526	4656
895.648	4691
895.769	4729
895.891	4748
896.012	4733
896.134	4755
896.255	4706
896.376	4672
896.498	4622
896.619	4702
896.74	4668
896.861	4694
896.982	4980
897.103	5151
897.224	4854
897.345	4782
897.466	4710
897.587	4717
897.708	4904
897.828	4843
897.949	4622
898.07	4569
898.19	4645
898.311	4866
898.431	4672
898.552	4710
898.672	4839
898.792	4889
898.913	4744
899.033	4649
899.153	4565
899.273	4455
899.393	4527
899.513	4569
899.633	4577
899.753	4554
899.873	4500
899.993	4653
900.113	4588
900.232	4637
900.352	4596
900.472	4550
900.591	4424
900.711	4554
900.83	4443
900.95	4637
901.069	4691
901.189	4584
901.308	4356
901.427	4360
901.546	4386
901.665	4489
901.784	4516
901.904	4428
902.023	4367
902.141	4257
902.26	4196
902.379	4325
902.498	4265
902.617	4249
902.735	4394
902.854	4417
902.973	4402
903.091	4211
903.21	4238
903.328	4291
903.446	4318
903.565	4261
903.683	4367
903.801	4329
903.919	4443
904.038	4481
904.156	4337
904.274	4428
904.392	4402
904.51	4409
904.627	4432
904.745	4611
904.863	4634
904.981	4390
905.098	4306
905.216	4390
905.334	4485
905.451	4470
905.569	4436
905.686	4535
905.803	4588
905.921	4428
906.038	4561
906.155	4512
906.272	4413
906.389	4474
906.506	4379
906.623	4390
906.74	4440
906.857	4379
906.974	4371
907.091	4580
907.208	4725
907.324	4615
907.441	4542
907.557	4379
907.674	4352
907.79	4363
907.907	4432
908.023	4497
908.139	4489
908.256	4394
908.372	4519
908.488	4428
908.604	4371
908.72	4352
908.836	4405
908.952	4424
909.068	4428
909.184	4599
909.3	4519
909.415	4615
909.531	4573
909.647	4421
909.762	4398
909.878	4409
909.993	4466
910.108	4481
910.224	4394
910.339	4485
910.454	4363
910.57	4443
910.685	4375
910.8	4626
910.915	4615
911.03	4512
911.145	4310
911.259	4341
911.374	4390
911.489	4310
911.604	4295
911.718	4150
911.833	4215
911.947	4090
912.062	4051
912.176	4215
912.291	4230
912.405	4272
912.519	4481
912.633	4535
912.748	4375
912.862	4375
912.976	4185
913.09	4112
913.204	4211
913.318	4257
913.431	4417
913.545	4386
913.659	4474
913.772	4360
913.886	4261
914	4242
914.113	4390
914.226	4417
914.34	4409
914.453	4295
914.566	4432
914.68	4295
914.793	4360
914.906	4166
915.019	4147
915.132	4135
915.245	4166
915.358	4215
915.47	4261
915.583	4310
915.696	4318
915.809	4428
915.921	4451
916.034	4234
916.146	4272
916.259	4211
916.371	4394
916.483	4394
916.595	4253
916.708	4341
916.82	4356
916.932	4341
917.044	4329
917.156	4325
917.268	4219
917.38	4287
917.491	4341
917.603	4337
917.715	4470
917.826	4451
917.938	4333
918.049	4280
918.161	4398
918.272	4561
918.384	4538
918.495	4459
918.606	4314
918.717	4242
918.828	4295
918.939	4375
919.05	4303
919.161	4322
919.272	4154
919.383	4242
919.494	4424
919.604	4740
919.715	4455
919.826	4352
919.936	4436
920.047	4550
920.157	4478
920.267	4717
920.378	4565
920.488	4550
920.598	4721
920.708	4900
920.818	4755
920.928	4752
921.038	4957
921.148	4942
921.258	4653
921.368	4558
921.477	4546
921.587	4538
921.697	4360
921.806	4538
921.916	4485
922.025	4284
922.134	4272
922.244	4211
922.353	4363
922.462	4173
922.571	4120
922.68	4044
922.789	3994
922.898	4059
923.007	4021
923.116	4139
923.224	4131
923.333	4082
923.442	3994
923.55	3968
923.659	4044
923.767	4131
923.876	4032
923.984	4143
924.092	3975
924.201	4071
924.309	4139
924.417	4135
924.525	4059
924.633	4086
924.741	5045
924.849	3956
924.956	4074
925.064	3975
925.172	3960
925.279	3964
925.387	4082
925.494	4059
925.602	4268
925.709	4211
925.816	4048
925.924	4120
926.031	4310
926.138	4173
926.245	4196
926.352	4116
926.459	4287
926.566	4318
926.673	4169
926.779	4109
926.886	4071
926.993	4025
927.099	3964
927.206	3926
927.312	3964
927.419	4032
927.525	4029
927.631	4112
927.737	4010
927.843	3949
927.95	3873
928.056	3926
928.162	3960
928.267	4059
928.373	4588
928.479	4124
928.585	3884
928.69	4006
928.796	4036
928.901	3953
929.007	3781
929.112	4021
929.218	3949
929.323	3922
929.428	3956
929.533	4120
929.638	3930
929.743	3956
929.848	4059
929.953	4006
930.058	3896
930.163	3778
930.267	3812
930.372	3994
930.477	3892
930.581	4093
930.685	3949
930.79	3789
930.894	3869
930.998	3903
931.103	4109
931.207	3713
931.311	3679
931.415	3660
931.519	3530
931.623	3564
