Data from test_V78500241_2285.txt Node
Date: Fri Mar 25 17:04:53 CST 2022
User: usil
Spectrometer: V785-0024
Trigger mode: 0
Integration Time (sec): 4.000000E-1
Scans to average: 1
Nonlinearity correction enabled: false
Boxcar width: 0
Storing dark spectrum: false
XAxis mode: Wavelengths
Number of Pixels in Spectrum: 1024
>>>>>Begin Spectral Data<<<<<
801.071	7978
801.214	7951
801.356	7860
801.499	7784
801.641	7807
801.783	7883
801.926	7906
802.068	7947
802.211	7951
802.353	7978
802.496	7814
802.638	7883
802.78	7902
802.923	7906
803.065	7894
803.208	7837
803.35	7917
803.492	8138
803.635	8202
803.777	7963
803.919	8145
804.061	8393
804.204	8187
804.346	8081
804.488	7982
804.63	8119
804.773	8024
804.915	8123
805.057	8237
805.199	8187
805.341	8130
805.483	8233
805.626	8248
805.768	8157
805.91	8180
806.052	8183
806.194	8084
806.336	8309
806.478	8096
806.62	8107
806.762	8206
806.904	8233
807.046	8396
807.188	8362
807.33	8290
807.472	8313
807.614	8126
807.756	8168
807.898	8005
808.04	7902
808.182	7909
808.324	7887
808.465	7955
808.607	8084
808.749	8096
808.891	8199
809.033	8240
809.174	8233
809.316	8183
809.458	8024
809.6	8043
809.741	8031
809.883	7986
810.025	8069
810.166	8001
810.308	8043
810.45	7974
810.591	7860
810.733	7685
810.875	7700
811.016	7525
811.158	7434
811.299	7571
811.441	7788
811.582	7700
811.724	7594
811.865	7548
812.007	7594
812.148	7533
812.29	7594
812.431	7757
812.573	7902
812.714	7970
812.855	8084
812.997	8248
813.138	8305
813.279	8176
813.421	8103
813.562	7906
813.703	7898
813.845	7731
813.986	7362
814.127	7270
814.268	7206
814.41	7187
814.551	7187
814.692	7244
814.833	7103
814.974	7156
815.115	7129
815.256	6973
815.397	6943
815.539	6928
815.68	6837
815.821	6783
815.962	6886
816.103	6859
816.244	6681
816.385	6578
816.526	6589
816.666	6559
816.807	6369
816.948	6471
817.089	6486
817.23	6433
817.371	6429
817.512	6414
817.653	6460
817.793	6346
817.934	6407
818.075	6456
818.216	6460
818.356	6353
818.497	6270
818.638	6114
818.778	6114
818.919	6136
819.06	6167
819.2	6338
819.341	6338
819.481	6395
819.622	6578
819.762	6757
819.903	6707
820.043	6620
820.184	6551
820.324	6620
820.465	6700
820.605	6658
820.746	6662
820.886	6509
821.026	6696
821.167	6757
821.307	6818
821.447	6798
821.588	6631
821.728	6620
821.868	6494
822.008	6323
822.149	6407
822.289	6315
822.429	6163
822.569	6072
822.709	6110
822.849	5992
822.99	5923
823.13	5893
823.27	5908
823.41	5817
823.55	5790
823.69	5726
823.83	5802
823.97	5661
824.11	5497
824.25	5490
824.389	5604
824.529	5573
824.669	5478
824.809	5699
824.949	5695
825.089	5581
825.228	5577
825.368	5372
825.508	5315
825.648	5357
825.787	5334
825.927	5364
826.067	5303
826.206	5288
826.346	5391
826.485	5459
826.625	5402
826.765	5600
826.904	5490
827.044	5288
827.183	5201
827.323	5086
827.462	5201
827.601	5151
827.741	5151
827.88	5216
828.02	5098
828.159	5265
828.298	5326
828.437	5364
828.577	5239
828.716	5459
828.855	5345
828.994	5185
829.134	5117
829.273	5159
829.412	5185
829.551	5128
829.69	5170
829.829	5204
829.968	5330
830.107	5239
830.246	5307
830.385	5124
830.524	5166
830.663	5075
830.802	4987
830.941	4892
831.08	4915
831.219	4934
831.357	5022
831.496	5143
831.635	4915
831.774	4843
831.913	4805
832.051	4706
832.19	4721
832.329	4820
832.467	4683
832.606	4653
832.744	4767
832.883	4702
833.022	4702
833.16	4767
833.299	4805
833.437	4828
833.576	4805
833.714	4873
833.852	4831
833.991	4908
834.129	4930
834.267	4953
834.406	4877
834.544	5003
834.682	4961
834.821	5018
834.959	5151
835.097	4961
835.235	5140
835.373	5045
835.511	5075
835.65	5037
835.788	5060
835.926	4873
836.064	4847
836.202	4930
836.34	5178
836.478	5204
836.615	5086
836.753	5269
836.891	5277
837.029	5231
837.167	5212
837.305	5140
837.443	5162
837.58	5094
837.718	5261
837.856	5166
837.993	5227
838.131	5174
838.269	5223
838.406	5227
838.544	5140
838.681	5045
838.819	5029
838.956	4892
839.094	4919
839.231	4923
839.369	5064
839.506	5444
839.643	5239
839.781	5083
839.918	5003
840.055	5113
840.193	5083
840.33	5098
840.467	5140
840.604	5181
840.742	5376
840.879	5067
841.016	5075
841.153	5132
841.29	5334
841.427	5364
841.564	5273
841.701	5353
841.838	5246
841.975	5231
842.112	5254
842.249	5121
842.385	5094
842.522	5322
842.659	5159
842.796	5132
842.933	5166
843.069	5113
843.206	5140
843.343	5292
843.479	5212
843.616	5201
843.752	5010
843.889	5064
844.025	5162
844.162	5022
844.298	5239
844.435	5052
844.571	5079
844.708	5174
844.844	5265
844.98	5303
845.117	5296
845.253	5079
845.389	5083
845.525	5113
845.661	5162
845.798	5064
845.934	5193
846.07	4987
846.206	5220
846.342	5311
846.478	5174
846.614	4957
846.75	4957
846.886	4953
847.022	5105
847.158	5033
847.294	5037
847.429	5098
847.565	5079
847.701	5303
847.837	4843
847.972	4771
848.108	4946
848.244	4968
848.379	4847
848.515	4736
848.65	4710
848.786	4714
848.921	4839
849.057	4858
849.192	4896
849.328	4763
849.463	4866
849.598	4797
849.734	4752
849.869	4645
850.004	4596
850.14	4656
850.275	4550
850.41	4573
850.545	4580
850.68	4592
850.815	4634
850.95	4611
851.085	4828
851.22	4694
851.355	4634
851.49	4611
851.625	4569
851.76	4637
851.895	4542
852.03	4527
852.165	4653
852.299	4691
852.434	4809
852.569	4733
852.703	4782
852.838	4805
852.973	4984
853.107	4919
853.242	4755
853.376	4630
853.511	4542
853.645	4626
853.78	4816
853.914	4706
854.048	4672
854.183	4630
854.317	4675
854.451	4889
854.585	4649
854.72	4634
854.854	4725
854.988	4584
855.122	4615
855.256	4546
855.39	4630
855.524	4733
855.658	4691
855.792	4641
855.926	4714
856.06	4755
856.194	4759
856.327	4763
856.461	4577
856.595	4607
856.729	4618
856.862	4755
856.996	4683
857.13	4691
857.263	4714
857.397	4843
857.53	4630
857.664	4714
857.797	4763
857.931	4763
858.064	4649
858.197	4767
858.331	4637
858.464	4573
858.597	4535
858.731	4645
858.864	4649
858.997	4599
859.13	4634
859.263	4641
859.396	4637
859.529	4588
859.662	4573
859.795	4527
859.928	4592
860.061	4759
860.194	4771
860.327	4565
860.46	4538
860.592	4752
860.725	4736
860.858	4679
860.99	4573
861.123	4538
861.256	4508
861.388	4565
861.521	5280
861.653	4519
861.786	4459
861.918	4440
862.05	4489
862.183	4546
862.315	4618
862.447	4637
862.58	4546
862.712	4390
862.844	4306
862.976	4485
863.108	4455
863.24	4858
863.372	4375
863.504	4440
863.636	4363
863.768	4523
863.9	4375
864.032	4337
864.164	4421
864.296	4489
864.428	4592
864.559	4497
864.691	4523
864.823	4489
864.954	4462
865.086	4546
865.217	4447
865.349	4402
865.48	4470
865.612	4485
865.743	4660
865.875	4440
866.006	4402
866.137	4470
866.269	4417
866.4	4394
866.531	4432
866.662	4409
866.793	4421
866.924	4413
867.055	4485
867.186	4466
867.317	4363
867.448	4379
867.579	4432
867.71	4424
867.841	4379
867.972	4474
868.103	4424
868.233	4421
868.364	4451
868.495	4485
868.625	4641
868.756	4752
868.886	4550
869.017	4622
869.147	4744
869.278	4763
869.408	4679
869.539	4664
869.669	4725
869.799	4668
869.929	4733
870.06	4702
870.19	4938
870.32	4889
870.45	4938
870.58	4995
870.71	5033
870.84	5075
870.97	4972
871.1	4900
871.23	5117
871.36	5155
871.489	5022
871.619	5033
871.749	5140
871.879	5113
872.008	5189
872.138	5045
872.267	4930
872.397	4843
872.526	4839
872.656	4717
872.785	4824
872.915	4949
873.044	4999
873.173	4919
873.303	4942
873.432	4942
873.561	4949
873.69	4843
873.819	4900
873.948	4889
874.077	4793
874.206	4744
874.335	4816
874.464	4915
874.593	5025
874.722	4946
874.851	5105
874.979	5060
875.108	5025
875.237	4968
875.365	4904
875.494	4854
875.623	4927
875.751	4843
875.88	4908
876.008	4995
876.136	5041
876.265	5189
876.393	5307
876.521	5242
876.65	5216
876.778	5151
876.906	5079
877.034	5045
877.162	5132
877.29	4995
877.418	5071
877.546	5060
877.674	5067
877.802	4984
877.93	5029
878.058	4961
878.185	4919
878.313	4957
878.441	4961
878.568	4767
878.696	4866
878.824	4930
878.951	5025
879.079	5166
879.206	5284
879.333	5041
879.461	4991
879.588	5003
879.715	5090
879.842	5242
879.97	4995
880.097	4748
880.224	4740
880.351	4816
880.478	4782
880.605	4767
880.732	4774
880.859	5105
880.986	4889
881.112	4873
881.239	4805
881.366	4683
881.493	4618
881.619	4588
881.746	4611
881.872	4634
881.999	4649
882.125	4721
882.252	4736
882.378	4824
882.505	4900
882.631	4805
882.757	4660
882.883	4702
883.01	4736
883.136	4645
883.262	4558
883.388	4565
883.514	4831
883.64	4862
883.766	4793
883.892	4672
884.018	4740
884.143	4870
884.269	4968
884.395	4675
884.52	4634
884.646	4611
884.772	4592
884.897	4531
885.023	4683
885.148	4771
885.274	4828
885.399	4824
885.524	4752
885.65	4736
885.775	4759
885.9	4687
886.025	4824
886.15	4809
886.275	4714
886.4	4634
886.525	4694
886.65	4698
886.775	4630
886.9	4919
887.025	5018
887.149	4824
887.274	4634
887.399	4603
887.523	4577
887.648	4592
887.773	4588
887.897	4736
888.021	4786
888.146	4618
888.27	4786
888.395	4957
888.519	4774
888.643	4870
888.767	4786
888.891	4706
889.015	4592
889.139	4618
889.263	4618
889.387	4774
889.511	4850
889.635	4778
889.759	4603
889.883	4645
890.006	4725
890.13	4801
890.254	4645
890.377	4706
890.501	4531
890.624	4527
890.748	4584
890.871	4485
890.995	4432
891.118	4371
891.241	4527
891.364	4531
891.488	4622
891.611	4508
891.734	4519
891.857	4554
891.98	4523
892.103	4656
892.226	4558
892.349	4489
892.471	4413
892.594	4577
892.717	4584
892.839	4550
892.962	4596
893.085	4649
893.207	4558
893.33	4428
893.452	4542
893.575	4618
893.697	4558
893.819	4740
893.941	4816
894.064	4752
894.186	4554
894.308	4527
894.43	4702
894.552	4843
894.674	4752
894.796	4512
894.918	4580
895.04	4554
895.161	4733
895.283	4664
895.405	4565
895.526	4618
895.648	4679
895.769	4687
895.891	4717
896.012	4744
896.134	4740
896.255	4721
896.376	4592
896.498	4607
896.619	4660
896.74	4618
896.861	4653
896.982	4919
897.103	5033
897.224	4835
897.345	4729
897.466	4672
897.587	4740
897.708	4843
897.828	4790
897.949	4687
898.07	4500
898.19	4630
898.311	4862
898.431	4675
898.552	4706
898.672	4778
898.792	4736
898.913	4736
899.033	4641
899.153	4455
899.273	4402
899.393	4512
899.513	4535
899.633	4493
899.753	4523
899.873	4550
899.993	4607
900.113	4538
900.232	4565
900.352	4584
900.472	4504
900.591	4421
900.711	4478
900.83	4440
900.95	4603
901.069	4683
901.189	4542
901.308	4356
901.427	4306
901.546	4322
901.665	4462
901.784	4512
901.904	4478
902.023	4329
902.141	4204
902.26	4150
902.379	4306
902.498	4261
902.617	4257
902.735	4371
902.854	4341
902.973	4375
903.091	4211
903.21	4219
903.328	4295
903.446	4276
903.565	4268
903.683	4333
903.801	4284
903.919	4371
904.038	4451
904.156	4322
904.274	4417
904.392	4405
904.51	4443
904.627	4474
904.745	4630
904.863	4615
904.981	4383
905.098	4310
905.216	4333
905.334	4417
905.451	4398
905.569	4428
905.686	4569
905.803	4565
905.921	4394
906.038	4546
906.155	4455
906.272	4379
906.389	4413
906.506	4329
906.623	4383
906.74	4352
906.857	4299
906.974	4348
907.091	4561
907.208	4656
907.324	4611
907.441	4527
907.557	4356
907.674	4386
907.79	4344
907.907	4398
908.023	4474
908.139	4489
908.256	4462
908.372	4485
908.488	4447
908.604	4356
908.72	4299
908.836	4348
908.952	4375
909.068	4371
909.184	4558
909.3	4535
909.415	4550
909.531	4538
909.647	4360
909.762	4386
909.878	4348
909.993	4402
910.108	4348
910.224	4398
910.339	4527
910.454	4402
910.57	4375
910.685	4303
910.8	4637
910.915	4561
911.03	4443
911.145	4314
911.259	4318
911.374	4348
911.489	4303
911.604	4268
911.718	4169
911.833	4200
911.947	4086
912.062	4044
912.176	4185
912.291	4242
912.405	4200
912.519	4481
912.633	4481
912.748	4398
912.862	4322
912.976	4166
913.09	4071
913.204	4173
913.318	4219
913.431	4405
913.545	4325
913.659	4409
913.772	4348
913.886	4246
914	4215
914.113	4367
914.226	4375
914.34	4379
914.453	4253
914.566	4383
914.68	4272
914.793	4348
914.906	4158
915.019	4101
915.132	4082
915.245	4131
915.358	4207
915.47	4238
915.583	4276
915.696	4280
915.809	4436
915.921	4417
916.034	4253
916.146	4265
916.259	4211
916.371	4360
916.483	4356
916.595	4272
916.708	4299
916.82	4299
916.932	4337
917.044	4303
917.156	4325
917.268	4234
917.38	4295
917.491	4272
917.603	4284
917.715	4455
917.826	4436
917.938	4303
918.049	4257
918.161	4383
918.272	4500
918.384	4542
918.495	4440
918.606	4306
918.717	4188
918.828	4329
918.939	4337
919.05	4242
919.161	4344
919.272	4135
919.383	4230
919.494	4436
919.604	4603
919.715	4402
919.826	4363
919.936	4417
920.047	4516
920.157	4451
920.267	4668
920.378	4462
920.488	4512
920.598	4672
920.708	4866
920.818	4744
920.928	4717
921.038	4927
921.148	4885
921.258	4626
921.368	4531
921.477	4466
921.587	4440
921.697	4383
921.806	4512
921.916	4428
922.025	4234
922.134	4295
922.244	4200
922.353	4352
922.462	4166
922.571	4112
922.68	3998
922.789	3979
922.898	4006
923.007	3994
923.116	4063
923.224	4097
923.333	4067
923.442	3983
923.55	3911
923.659	4032
923.767	4086
923.876	3972
923.984	4120
924.092	3987
924.201	4051
924.309	4093
924.417	4128
924.525	4048
924.633	4059
924.741	5037
924.849	3915
924.956	4162
925.064	3975
925.172	3907
925.279	3937
925.387	4021
925.494	4010
925.602	4223
925.709	4196
925.816	4017
925.924	4093
926.031	4188
926.138	4158
926.245	4185
926.352	4048
926.459	4230
926.566	4287
926.673	4120
926.779	4105
926.886	4097
926.993	3956
927.099	3956
927.206	3937
927.312	3953
927.419	4067
927.525	4025
927.631	4078
927.737	3953
927.843	3915
927.95	3823
928.056	3960
928.162	3956
928.267	4082
928.373	4660
928.479	4097
928.585	3846
928.69	4074
928.796	4067
928.901	3975
929.007	3922
929.112	3968
929.218	3968
929.323	3934
929.428	3903
929.533	4124
929.638	3861
929.743	3949
929.848	4021
929.953	3964
930.058	3991
930.163	3785
930.267	3819
930.372	3956
930.477	3797
930.581	4021
930.685	3911
930.79	3797
930.894	3915
930.998	3846
931.103	3983
931.207	3709
931.311	3652
931.415	3660
931.519	3530
931.623	3549
