Data from test_V78500241_1870.txt Node
Date: Fri Mar 25 17:02:00 CST 2022
User: usil
Spectrometer: V785-0024
Trigger mode: 0
Integration Time (sec): 4.000000E-1
Scans to average: 1
Nonlinearity correction enabled: false
Boxcar width: 0
Storing dark spectrum: false
XAxis mode: Wavelengths
Number of Pixels in Spectrum: 1024
>>>>>Begin Spectral Data<<<<<
801.071	7974
801.214	7947
801.356	7814
801.499	7803
801.641	7856
801.783	7868
801.926	7967
802.068	7925
802.211	7986
802.353	8020
802.496	7845
802.638	7864
802.78	7887
802.923	7925
803.065	7841
803.208	7936
803.35	7970
803.492	8043
803.635	8164
803.777	7989
803.919	8077
804.061	8396
804.204	8187
804.346	8100
804.488	7982
804.63	8016
804.773	8016
804.915	8012
805.057	8305
805.199	8237
805.341	8252
805.483	8282
805.626	8119
805.768	8069
805.91	8233
806.052	8279
806.194	8088
806.336	8271
806.478	8134
806.62	8046
806.762	8157
806.904	8259
807.046	8476
807.188	8351
807.33	8343
807.472	8358
807.614	8119
807.756	8149
807.898	8046
808.04	7928
808.182	7852
808.324	7879
808.465	7890
808.607	8100
808.749	8077
808.891	8107
809.033	8301
809.174	8176
809.316	8024
809.458	8096
809.6	8035
809.741	7978
809.883	8065
810.025	8115
810.166	8088
810.308	7959
810.45	7986
810.591	7830
810.733	7719
810.875	7681
811.016	7449
811.158	7495
811.299	7594
811.441	7719
811.582	7639
811.724	7628
811.865	7556
812.007	7582
812.148	7578
812.29	7643
812.431	7696
812.573	7894
812.714	7967
812.855	8183
812.997	8145
813.138	8343
813.279	8244
813.421	8096
813.562	7928
813.703	7837
813.845	7776
813.986	7430
814.127	7221
814.268	7194
814.41	7221
814.551	7171
814.692	7240
814.833	7110
814.974	7179
815.115	7133
815.256	6905
815.397	6928
815.539	6943
815.68	6798
815.821	6711
815.962	6859
816.103	6829
816.244	6692
816.385	6566
816.526	6532
816.666	6521
816.807	6270
816.948	6361
817.089	6380
817.23	6388
817.371	6365
817.512	6422
817.653	6403
817.793	6350
817.934	6361
818.075	6410
818.216	6452
818.356	6426
818.497	6289
818.638	6091
818.778	6213
818.919	6129
819.06	6102
819.2	6346
819.341	6304
819.481	6342
819.622	6437
819.762	6684
819.903	6719
820.043	6532
820.184	6604
820.324	6566
820.465	6646
820.605	6612
820.746	6650
820.886	6502
821.026	6635
821.167	6627
821.307	6810
821.447	6722
821.588	6642
821.728	6547
821.868	6490
822.008	6285
822.149	6346
822.289	6331
822.429	6095
822.569	6087
822.709	6098
822.849	5942
822.99	5863
823.13	5923
823.27	5878
823.41	5745
823.55	5771
823.69	5760
823.83	5790
823.97	5627
824.11	5474
824.25	5482
824.389	5570
824.529	5615
824.669	5474
824.809	5627
824.949	5608
825.089	5608
825.228	5551
825.368	5391
825.508	5345
825.648	5364
825.787	5360
825.927	5372
826.067	5254
826.206	5261
826.346	5379
826.485	5387
826.625	5383
826.765	5497
826.904	5497
827.044	5231
827.183	5212
827.323	5090
827.462	5250
827.601	5147
827.741	5155
827.88	5216
828.02	5143
828.159	5242
828.298	5261
828.437	5349
828.577	5284
828.716	5474
828.855	5353
828.994	5140
829.134	5132
829.273	5181
829.412	5170
829.551	5105
829.69	5212
829.829	5204
829.968	5322
830.107	5239
830.246	5235
830.385	5132
830.524	5109
830.663	5109
830.802	4930
830.941	4946
831.08	4900
831.219	4976
831.357	4972
831.496	5162
831.635	4972
831.774	4850
831.913	4801
832.051	4767
832.19	4717
832.329	4835
832.467	4683
832.606	4675
832.744	4717
832.883	4721
833.022	4691
833.16	4831
833.299	4759
833.437	4835
833.576	4774
833.714	4786
833.852	4889
833.991	4862
834.129	4938
834.267	4923
834.406	4892
834.544	4987
834.682	4934
834.821	4938
834.959	5155
835.097	4995
835.235	5151
835.373	5121
835.511	5075
835.65	5018
835.788	5003
835.926	4850
836.064	4870
836.202	4953
836.34	5155
836.478	5239
836.615	5109
836.753	5178
836.891	5273
837.029	5235
837.167	5181
837.305	5151
837.443	5113
837.58	5071
837.718	5201
837.856	5170
837.993	5151
838.131	5242
838.269	5220
838.406	5174
838.544	5170
838.681	5033
838.819	5018
838.956	4930
839.094	4831
839.231	4881
839.369	5067
839.506	5402
839.643	5174
839.781	5060
839.918	4999
840.055	5052
840.193	5079
840.33	5067
840.467	5124
840.604	5143
840.742	5421
840.879	5086
841.016	5086
841.153	5136
841.29	5330
841.427	5337
841.564	5322
841.701	5349
841.838	5258
841.975	5265
842.112	5273
842.249	5151
842.385	5083
842.522	5349
842.659	5189
842.796	5155
842.933	5181
843.069	5128
843.206	5155
843.343	5292
843.479	5235
843.616	5269
843.752	5029
843.889	5064
844.025	5212
844.162	5045
844.298	5178
844.435	5045
844.571	5052
844.708	5208
844.844	5258
844.98	5330
845.117	5273
845.253	5128
845.389	5098
845.525	5151
845.661	5098
845.798	5052
845.934	5136
846.07	5045
846.206	5185
846.342	5223
846.478	5143
846.614	4968
846.75	4987
846.886	4911
847.022	5109
847.158	4987
847.294	5003
847.429	5083
847.565	5071
847.701	5330
847.837	4820
847.972	4797
848.108	4942
848.244	4949
848.379	4736
848.515	4694
848.65	4740
848.786	4721
848.921	4740
849.057	4885
849.192	4923
849.328	4782
849.463	4824
849.598	4801
849.734	4748
849.869	4729
850.004	4592
850.14	4656
850.275	4645
850.41	4493
850.545	4599
850.68	4603
850.815	4599
850.95	4622
851.085	4831
851.22	4755
851.355	4698
851.49	4588
851.625	4653
851.76	4611
851.895	4550
852.03	4508
852.165	4649
852.299	4645
852.434	4801
852.569	4725
852.703	4790
852.838	4812
852.973	4976
853.107	4911
853.242	4733
853.376	4656
853.511	4531
853.645	4615
853.78	4835
853.914	4721
854.048	4691
854.183	4653
854.317	4706
854.451	4839
854.585	4641
854.72	4584
854.854	4786
854.988	4592
855.122	4653
855.256	4508
855.39	4660
855.524	4714
855.658	4714
855.792	4668
855.926	4683
856.06	4778
856.194	4786
856.327	4698
856.461	4565
856.595	4626
856.729	4584
856.862	4736
856.996	4706
857.13	4714
857.263	4721
857.397	4774
857.53	4641
857.664	4687
857.797	4752
857.931	4774
858.064	4622
858.197	4767
858.331	4622
858.464	4565
858.597	4516
858.731	4611
858.864	4603
858.997	4577
859.13	4622
859.263	4668
859.396	4645
859.529	4500
859.662	4542
859.795	4512
859.928	4607
860.061	4733
860.194	4782
860.327	4611
860.46	4565
860.592	4694
860.725	4683
860.858	4725
860.99	4584
861.123	4493
861.256	4462
861.388	4630
861.521	5326
861.653	4485
861.786	4440
861.918	4417
862.05	4535
862.183	4508
862.315	4611
862.447	4607
862.58	4527
862.712	4371
862.844	4329
862.976	4474
863.108	4436
863.24	4870
863.372	4337
863.504	4421
863.636	4394
863.768	4466
863.9	4428
864.032	4337
864.164	4409
864.296	4447
864.428	4573
864.559	4542
864.691	4546
864.823	4500
864.954	4436
865.086	4535
865.217	4424
865.349	4383
865.48	4432
865.612	4493
865.743	4653
865.875	4432
866.006	4405
866.137	4436
866.269	4447
866.4	4470
866.531	4402
866.662	4352
866.793	4383
866.924	4417
867.055	4500
867.186	4451
867.317	4424
867.448	4344
867.579	4352
867.71	4409
867.841	4363
867.972	4402
868.103	4459
868.233	4405
868.364	4394
868.495	4527
868.625	4649
868.756	4752
868.886	4588
869.017	4615
869.147	4767
869.278	4778
869.408	4714
869.539	4634
869.669	4729
869.799	4702
869.929	4694
870.06	4755
870.19	4915
870.32	4908
870.45	4942
870.58	5022
870.71	5075
870.84	5132
870.97	4927
871.1	4942
871.23	5181
871.36	5079
871.489	5006
871.619	5109
871.749	5102
871.879	5124
872.008	5201
872.138	5052
872.267	4949
872.397	4831
872.526	4866
872.656	4801
872.785	4831
872.915	4991
873.044	5006
873.173	4946
873.303	5022
873.432	4984
873.561	4999
873.69	4896
873.819	4930
873.948	4927
874.077	4850
874.206	4782
874.335	4752
874.464	4980
874.593	5052
874.722	4980
874.851	5128
874.979	5094
875.108	5045
875.237	4934
875.365	4904
875.494	4927
875.623	5048
875.751	4870
875.88	4877
876.008	5029
876.136	5056
876.265	5231
876.393	5345
876.521	5303
876.65	5258
876.778	5170
876.906	5155
877.034	5094
877.162	5067
877.29	5041
877.418	5098
877.546	5083
877.674	5121
877.802	5067
877.93	5018
878.058	4995
878.185	4930
878.313	5003
878.441	4957
878.568	4828
878.696	4873
878.824	5067
878.951	5067
879.079	5162
879.206	5288
879.333	5128
879.461	5045
879.588	5025
879.715	5121
879.842	5296
879.97	5022
880.097	4889
880.224	4771
880.351	4831
880.478	4835
880.605	4801
880.732	4824
880.859	5124
880.986	4934
881.112	4934
881.239	4801
881.366	4744
881.493	4588
881.619	4630
881.746	4656
881.872	4641
881.999	4698
882.125	4672
882.252	4778
882.378	4831
882.505	4987
882.631	4828
882.757	4698
882.883	4755
883.01	4774
883.136	4675
883.262	4656
883.388	4634
883.514	4862
883.64	4877
883.766	4828
883.892	4706
884.018	4778
884.143	4911
884.269	5037
884.395	4675
884.52	4645
884.646	4668
884.772	4615
884.897	4622
885.023	4706
885.148	4850
885.274	4927
885.399	4828
885.524	4755
885.65	4702
885.775	4786
885.9	4710
886.025	4881
886.15	4782
886.275	4759
886.4	4683
886.525	4763
886.65	4687
886.775	4698
886.9	4904
887.025	5067
887.149	4809
887.274	4668
887.399	4618
887.523	4626
887.648	4599
887.773	4611
887.897	4740
888.021	4778
888.146	4706
888.27	4839
888.395	4911
888.519	4771
888.643	4843
888.767	4831
888.891	4694
889.015	4626
889.139	4668
889.263	4637
889.387	4778
889.511	4896
889.635	4782
889.759	4645
889.883	4664
890.006	4782
890.13	4831
890.254	4691
890.377	4706
890.501	4561
890.624	4554
890.748	4634
890.871	4546
890.995	4489
891.118	4405
891.241	4561
891.364	4584
891.488	4630
891.611	4554
891.734	4588
891.857	4641
891.98	4592
892.103	4679
892.226	4611
892.349	4512
892.471	4409
892.594	4558
892.717	4626
892.839	4561
892.962	4637
893.085	4714
893.207	4668
893.33	4455
893.452	4573
893.575	4656
893.697	4603
893.819	4816
893.941	4812
894.064	4812
894.186	4630
894.308	4561
894.43	4782
894.552	4828
894.674	4801
894.796	4584
894.918	4653
895.04	4592
895.161	4725
895.283	4683
895.405	4634
895.526	4679
895.648	4683
895.769	4698
895.891	4706
896.012	4721
896.134	4717
896.255	4721
896.376	4675
896.498	4668
896.619	4710
896.74	4607
896.861	4702
896.982	4987
897.103	5098
897.224	4919
897.345	4752
897.466	4714
897.587	4771
897.708	4866
897.828	4828
897.949	4694
898.07	4569
898.19	4664
898.311	4866
898.431	4683
898.552	4748
898.672	4839
898.792	4843
898.913	4740
899.033	4618
899.153	4546
899.273	4500
899.393	4519
899.513	4550
899.633	4558
899.753	4592
899.873	4554
899.993	4592
900.113	4580
900.232	4599
900.352	4592
900.472	4565
900.591	4405
900.711	4550
900.83	4531
900.95	4656
901.069	4702
901.189	4538
901.308	4421
901.427	4390
901.546	4409
901.665	4493
901.784	4519
901.904	4417
902.023	4363
902.141	4173
902.26	4249
902.379	4295
902.498	4238
902.617	4268
902.735	4417
902.854	4428
902.973	4375
903.091	4227
903.21	4230
903.328	4337
903.446	4280
903.565	4276
903.683	4379
903.801	4348
903.919	4394
904.038	4489
904.156	4276
904.274	4470
904.392	4398
904.51	4428
904.627	4443
904.745	4603
904.863	4668
904.981	4405
905.098	4295
905.216	4375
905.334	4424
905.451	4489
905.569	4455
905.686	4607
905.803	4588
905.921	4390
906.038	4561
906.155	4516
906.272	4398
906.389	4500
906.506	4363
906.623	4402
906.74	4398
906.857	4325
906.974	4371
907.091	4588
907.208	4660
907.324	4596
907.441	4531
907.557	4390
907.674	4352
907.79	4344
907.907	4375
908.023	4466
908.139	4523
908.256	4485
908.372	4497
908.488	4459
908.604	4367
908.72	4322
908.836	4375
908.952	4367
909.068	4413
909.184	4538
909.3	4470
909.415	4630
909.531	4588
909.647	4402
909.762	4394
909.878	4329
909.993	4455
910.108	4436
910.224	4455
910.339	4459
910.454	4459
910.57	4424
910.685	4322
910.8	4668
910.915	4664
911.03	4546
911.145	4337
911.259	4344
911.374	4398
911.489	4287
911.604	4280
911.718	4166
911.833	4211
911.947	4090
912.062	4055
912.176	4230
912.291	4249
912.405	4207
912.519	4470
912.633	4527
912.748	4421
912.862	4329
912.976	4219
913.09	4131
913.204	4188
913.318	4253
913.431	4413
913.545	4367
913.659	4504
913.772	4390
913.886	4268
914	4227
914.113	4417
914.226	4470
914.34	4432
914.453	4242
914.566	4440
914.68	4318
914.793	4306
914.906	4181
915.019	4166
915.132	4086
915.245	4185
915.358	4265
915.47	4261
915.583	4291
915.696	4303
915.809	4459
915.921	4409
916.034	4318
916.146	4306
916.259	4246
916.371	4398
916.483	4375
916.595	4306
916.708	4341
916.82	4318
916.932	4314
917.044	4287
917.156	4344
917.268	4261
917.38	4287
917.491	4306
917.603	4341
917.715	4421
917.826	4440
917.938	4344
918.049	4318
918.161	4432
918.272	4516
918.384	4516
918.495	4440
918.606	4280
918.717	4276
918.828	4367
918.939	4352
919.05	4325
919.161	4352
919.272	4154
919.383	4234
919.494	4508
919.604	4637
919.715	4432
919.826	4348
919.936	4402
920.047	4504
920.157	4504
920.267	4725
920.378	4531
920.488	4474
920.598	4683
920.708	4904
920.818	4717
920.928	4809
921.038	4987
921.148	4961
921.258	4641
921.368	4573
921.477	4504
921.587	4481
921.697	4394
921.806	4554
921.916	4474
922.025	4257
922.134	4333
922.244	4261
922.353	4356
922.462	4185
922.571	4128
922.68	4032
922.789	3987
922.898	4044
923.007	4040
923.116	4135
923.224	4059
923.333	4067
923.442	3994
923.55	3994
923.659	4097
923.767	4150
923.876	4006
923.984	4150
924.092	4002
924.201	4120
924.309	4105
924.417	4158
924.525	4063
924.633	4131
924.741	5037
924.849	3945
924.956	4200
925.064	3975
925.172	3869
925.279	3960
925.387	4063
925.494	4067
925.602	4249
925.709	4166
925.816	4044
925.924	4135
926.031	4261
926.138	4147
926.245	4238
926.352	4135
926.459	4242
926.566	4344
926.673	4154
926.779	4090
926.886	4135
926.993	3972
927.099	3975
927.206	3994
927.312	3907
927.419	4082
927.525	4071
927.631	4139
927.737	3972
927.843	3956
927.95	3819
928.056	3941
928.162	3987
928.267	4063
928.373	4596
928.479	4150
928.585	3911
928.69	4063
928.796	4051
928.901	3987
929.007	3873
929.112	3987
929.218	3998
929.323	3975
929.428	3983
929.533	4120
929.638	3964
929.743	3953
929.848	4006
929.953	3991
930.058	3953
930.163	3793
930.267	3857
930.372	3991
930.477	3789
930.581	4093
930.685	3960
930.79	3812
930.894	3937
930.998	3884
931.103	4013
931.207	3720
931.311	3724
931.415	3705
931.519	3519
931.623	3564
