Data from test_V78500241_2168.txt Node
Date: Fri Mar 25 17:04:04 CST 2022
User: usil
Spectrometer: V785-0024
Trigger mode: 0
Integration Time (sec): 4.000000E-1
Scans to average: 1
Nonlinearity correction enabled: false
Boxcar width: 0
Storing dark spectrum: false
XAxis mode: Wavelengths
Number of Pixels in Spectrum: 1024
>>>>>Begin Spectral Data<<<<<
801.071	8035
801.214	8031
801.356	7864
801.499	7856
801.641	7875
801.783	7803
801.926	8016
802.068	7951
802.211	8027
802.353	8065
802.496	7928
802.638	7936
802.78	7909
802.923	7906
803.065	7841
803.208	7852
803.35	7997
803.492	8077
803.635	8142
803.777	8043
803.919	8130
804.061	8495
804.204	8172
804.346	8035
804.488	7974
804.63	8126
804.773	8039
804.915	8130
805.057	8313
805.199	8202
805.341	8180
805.483	8317
805.626	8195
805.768	8180
805.91	8199
806.052	8157
806.194	8145
806.336	8282
806.478	8100
806.62	8096
806.762	8081
806.904	8256
807.046	8484
807.188	8343
807.33	8351
807.472	8339
807.614	8180
807.756	8161
807.898	7997
808.04	7944
808.182	7845
808.324	7921
808.465	7906
808.607	8046
808.749	8145
808.891	8214
809.033	8389
809.174	8164
809.316	8107
809.458	8024
809.6	8073
809.741	8062
809.883	8039
810.025	8092
810.166	8111
810.308	8020
810.45	8058
810.591	7917
810.733	7685
810.875	7666
811.016	7495
811.158	7487
811.299	7483
811.441	7712
811.582	7772
811.724	7594
811.865	7518
812.007	7636
812.148	7567
812.29	7582
812.431	7727
812.573	7925
812.714	7978
812.855	8145
812.997	8172
813.138	8259
813.279	8164
813.421	8065
813.562	7917
813.703	7864
813.845	7719
813.986	7377
814.127	7228
814.268	7217
814.41	7179
814.551	7164
814.692	7236
814.833	7103
814.974	7088
815.115	7118
815.256	7004
815.397	6882
815.539	6913
815.68	6787
815.821	6703
815.962	6821
816.103	6783
816.244	6658
816.385	6642
816.526	6612
816.666	6486
816.807	6327
816.948	6429
817.089	6490
817.23	6460
817.371	6384
817.512	6304
817.653	6331
817.793	6376
817.934	6410
818.075	6464
818.216	6441
818.356	6372
818.497	6216
818.638	6114
818.778	6163
818.919	6125
819.06	6186
819.2	6331
819.341	6350
819.481	6391
819.622	6536
819.762	6738
819.903	6730
820.043	6642
820.184	6559
820.324	6547
820.465	6703
820.605	6673
820.746	6654
820.886	6555
821.026	6639
821.167	6677
821.307	6791
821.447	6711
821.588	6627
821.728	6593
821.868	6521
822.008	6292
822.149	6346
822.289	6300
822.429	6155
822.569	6060
822.709	6098
822.849	5916
822.99	5901
823.13	5874
823.27	5950
823.41	5783
823.55	5764
823.69	5737
823.83	5729
823.97	5676
824.11	5554
824.25	5493
824.389	5539
824.529	5585
824.669	5528
824.809	5615
824.949	5638
825.089	5600
825.228	5547
825.368	5383
825.508	5345
825.648	5311
825.787	5349
825.927	5364
826.067	5303
826.206	5277
826.346	5345
826.485	5379
826.625	5421
826.765	5562
826.904	5459
827.044	5231
827.183	5212
827.323	5109
827.462	5284
827.601	5162
827.741	5181
827.88	5181
828.02	5098
828.159	5246
828.298	5345
828.437	5341
828.577	5246
828.716	5474
828.855	5277
828.994	5178
829.134	5136
829.273	5227
829.412	5105
829.551	5136
829.69	5143
829.829	5231
829.968	5337
830.107	5299
830.246	5227
830.385	5181
830.524	5132
830.663	5048
830.802	4915
830.941	4889
831.08	4904
831.219	5003
831.357	4976
831.496	5185
831.635	4911
831.774	4873
831.913	4831
832.051	4698
832.19	4797
832.329	4843
832.467	4691
832.606	4584
832.744	4778
832.883	4710
833.022	4774
833.16	4778
833.299	4820
833.437	4858
833.576	4828
833.714	4828
833.852	4854
833.991	4896
834.129	4972
834.267	4995
834.406	4904
834.544	4953
834.682	5010
834.821	4968
834.959	5162
835.097	4980
835.235	5140
835.373	5098
835.511	5155
835.65	5018
835.788	5025
835.926	4911
836.064	4854
836.202	4938
836.34	5147
836.478	5250
836.615	5121
836.753	5185
836.891	5277
837.029	5227
837.167	5181
837.305	5162
837.443	5132
837.58	5022
837.718	5250
837.856	5159
837.993	5155
838.131	5239
838.269	5178
838.406	5193
838.544	5197
838.681	5045
838.819	5022
838.956	4866
839.094	4885
839.231	4927
839.369	5067
839.506	5402
839.643	5280
839.781	5079
839.918	4942
840.055	5143
840.193	5037
840.33	5102
840.467	5113
840.604	5170
840.742	5444
840.879	5083
841.016	5098
841.153	5155
841.29	5391
841.427	5280
841.564	5326
841.701	5398
841.838	5288
841.975	5277
842.112	5311
842.249	5136
842.385	5041
842.522	5292
842.659	5143
842.796	5124
842.933	5155
843.069	5109
843.206	5178
843.343	5239
843.479	5223
843.616	5239
843.752	4987
843.889	5010
844.025	5223
844.162	5022
844.298	5204
844.435	5105
844.571	5052
844.708	5166
844.844	5299
844.98	5292
845.117	5284
845.253	5136
845.389	5102
845.525	5174
845.661	5132
845.798	5037
845.934	5124
846.07	5045
846.206	5204
846.342	5223
846.478	5185
846.614	5025
846.75	4984
846.886	4908
847.022	5102
847.158	4972
847.294	5033
847.429	5060
847.565	5045
847.701	5284
847.837	4831
847.972	4793
848.108	4911
848.244	4904
848.379	4801
848.515	4717
848.65	4725
848.786	4744
848.921	4782
849.057	4850
849.192	4896
849.328	4797
849.463	4858
849.598	4801
849.734	4717
849.869	4694
850.004	4653
850.14	4637
850.275	4558
850.41	4546
850.545	4550
850.68	4611
850.815	4611
850.95	4637
851.085	4816
851.22	4714
851.355	4626
851.49	4626
851.625	4615
851.76	4596
851.895	4550
852.03	4573
852.165	4603
852.299	4660
852.434	4793
852.569	4729
852.703	4740
852.838	4835
852.973	4908
853.107	4927
853.242	4721
853.376	4653
853.511	4580
853.645	4641
853.78	4771
853.914	4675
854.048	4645
854.183	4641
854.317	4668
854.451	4816
854.585	4649
854.72	4596
854.854	4771
854.988	4592
855.122	4565
855.256	4516
855.39	4675
855.524	4786
855.658	4717
855.792	4675
855.926	4710
856.06	4755
856.194	4809
856.327	4675
856.461	4588
856.595	4637
856.729	4618
856.862	4744
856.996	4721
857.13	4687
857.263	4733
857.397	4801
857.53	4634
857.664	4706
857.797	4729
857.931	4793
858.064	4691
858.197	4725
858.331	4626
858.464	4649
858.597	4504
858.731	4607
858.864	4660
858.997	4584
859.13	4607
859.263	4656
859.396	4645
859.529	4580
859.662	4580
859.795	4558
859.928	4634
860.061	4710
860.194	4702
860.327	4573
860.46	4550
860.592	4717
860.725	4691
860.858	4710
860.99	4569
861.123	4523
861.256	4493
861.388	4615
861.521	5372
861.653	4493
861.786	4402
861.918	4394
862.05	4504
862.183	4512
862.315	4535
862.447	4637
862.58	4500
862.712	4371
862.844	4348
862.976	4459
863.108	4405
863.24	4736
863.372	4291
863.504	4394
863.636	4386
863.768	4443
863.9	4436
864.032	4367
864.164	4402
864.296	4519
864.428	4554
864.559	4561
864.691	4489
864.823	4485
864.954	4481
865.086	4478
865.217	4462
865.349	4447
865.48	4417
865.612	4436
865.743	4596
865.875	4443
866.006	4443
866.137	4398
866.269	4409
866.4	4375
866.531	4424
866.662	4322
866.793	4421
866.924	4428
867.055	4470
867.186	4440
867.317	4409
867.448	4379
867.579	4360
867.71	4352
867.841	4363
867.972	4436
868.103	4497
868.233	4470
868.364	4409
868.495	4474
868.625	4634
868.756	4774
868.886	4569
869.017	4626
869.147	4733
869.278	4702
869.408	4668
869.539	4645
869.669	4691
869.799	4637
869.929	4752
870.06	4717
870.19	4984
870.32	4889
870.45	4934
870.58	4995
870.71	5067
870.84	5079
870.97	4957
871.1	4873
871.23	5155
871.36	5155
871.489	5056
871.619	5102
871.749	5109
871.879	5124
872.008	5166
872.138	5098
872.267	4980
872.397	4873
872.526	4870
872.656	4736
872.785	4828
872.915	4968
873.044	5056
873.173	4976
873.303	4987
873.432	4949
873.561	4930
873.69	4881
873.819	4919
873.948	4938
874.077	4824
874.206	4782
874.335	4850
874.464	4953
874.593	5105
874.722	4995
874.851	5143
874.979	5083
875.108	5075
875.237	4976
875.365	4904
875.494	4904
875.623	5048
875.751	4881
875.88	4946
876.008	5025
876.136	5025
876.265	5242
876.393	5387
876.521	5296
876.65	5288
876.778	5204
876.906	5136
877.034	5018
877.162	5079
877.29	5056
877.418	5075
877.546	5090
877.674	5155
877.802	5048
877.93	5045
878.058	4987
878.185	4934
878.313	5006
878.441	4972
878.568	4831
878.696	4885
878.824	4984
878.951	5052
879.079	5166
879.206	5326
879.333	5185
879.461	5041
879.588	5117
879.715	5140
879.842	5254
879.97	5060
880.097	4824
880.224	4793
880.351	4839
880.478	4911
880.605	4835
880.732	4862
880.859	5117
880.986	4908
881.112	4991
881.239	4854
881.366	4668
881.493	4668
881.619	4656
881.746	4664
881.872	4691
881.999	4691
882.125	4759
882.252	4812
882.378	4816
882.505	4980
882.631	4824
882.757	4736
882.883	4748
883.01	4778
883.136	4675
883.262	4656
883.388	4618
883.514	4831
883.64	4877
883.766	4790
883.892	4683
884.018	4698
884.143	4965
884.269	5052
884.395	4725
884.52	4694
884.646	4679
884.772	4641
884.897	4615
885.023	4714
885.148	4801
885.274	4934
885.399	4858
885.524	4721
885.65	4748
885.775	4752
885.9	4778
886.025	4896
886.15	4793
886.275	4744
886.4	4679
886.525	4721
886.65	4759
886.775	4740
886.9	4923
887.025	5048
887.149	4847
887.274	4668
887.399	4618
887.523	4683
887.648	4588
887.773	4577
887.897	4763
888.021	4763
888.146	4679
888.27	4877
888.395	4911
888.519	4801
888.643	4824
888.767	4816
888.891	4683
889.015	4611
889.139	4694
889.263	4637
889.387	4793
889.511	4908
889.635	4866
889.759	4672
889.883	4706
890.006	4744
890.13	4812
890.254	4649
890.377	4679
890.501	4565
890.624	4531
890.748	4733
890.871	4512
890.995	4466
891.118	4398
891.241	4558
891.364	4569
891.488	4649
891.611	4512
891.734	4569
891.857	4618
891.98	4535
892.103	4653
892.226	4618
892.349	4512
892.471	4413
892.594	4603
892.717	4615
892.839	4603
892.962	4592
893.085	4679
893.207	4603
893.33	4485
893.452	4538
893.575	4672
893.697	4603
893.819	4786
893.941	4843
894.064	4831
894.186	4550
894.308	4653
894.43	4733
894.552	4831
894.674	4736
894.796	4645
894.918	4618
895.04	4569
895.161	4717
895.283	4649
895.405	4599
895.526	4668
895.648	4702
895.769	4721
895.891	4748
896.012	4740
896.134	4740
896.255	4694
896.376	4641
896.498	4592
896.619	4744
896.74	4656
896.861	4645
896.982	4942
897.103	5048
897.224	4839
897.345	4733
897.466	4752
897.587	4805
897.708	4896
897.828	4824
897.949	4702
898.07	4622
898.19	4679
898.311	4873
898.431	4702
898.552	4767
898.672	4843
898.792	4801
898.913	4721
899.033	4645
899.153	4538
899.273	4466
899.393	4500
899.513	4542
899.633	4573
899.753	4592
899.873	4527
899.993	4630
900.113	4596
900.232	4645
900.352	4550
900.472	4466
900.591	4478
900.711	4512
900.83	4451
900.95	4649
901.069	4702
901.189	4584
901.308	4413
901.427	4337
901.546	4398
901.665	4531
901.784	4550
901.904	4432
902.023	4337
902.141	4242
902.26	4181
902.379	4337
902.498	4261
902.617	4268
902.735	4409
902.854	4432
902.973	4421
903.091	4227
903.21	4230
903.328	4310
903.446	4284
903.565	4295
903.683	4413
903.801	4291
903.919	4428
904.038	4421
904.156	4329
904.274	4504
904.392	4421
904.51	4489
904.627	4523
904.745	4649
904.863	4660
904.981	4417
905.098	4337
905.216	4383
905.334	4504
905.451	4527
905.569	4459
905.686	4599
905.803	4554
905.921	4432
906.038	4592
906.155	4459
906.272	4447
906.389	4497
906.506	4383
906.623	4390
906.74	4493
906.857	4352
906.974	4375
907.091	4577
907.208	4706
907.324	4573
907.441	4535
907.557	4394
907.674	4383
907.79	4318
907.907	4409
908.023	4523
908.139	4462
908.256	4428
908.372	4466
908.488	4470
908.604	4348
908.72	4379
908.836	4363
908.952	4371
909.068	4466
909.184	4550
909.3	4531
909.415	4588
909.531	4538
909.647	4363
909.762	4413
909.878	4306
909.993	4459
910.108	4462
910.224	4447
910.339	4500
910.454	4390
910.57	4375
910.685	4306
910.8	4645
910.915	4584
911.03	4504
911.145	4325
911.259	4337
911.374	4443
911.489	4295
911.604	4318
911.718	4147
911.833	4227
911.947	4154
912.062	4044
912.176	4238
912.291	4211
912.405	4287
912.519	4443
912.633	4527
912.748	4417
912.862	4314
912.976	4219
913.09	4154
913.204	4219
913.318	4242
913.431	4440
913.545	4409
913.659	4466
913.772	4329
913.886	4223
914	4234
914.113	4375
914.226	4462
914.34	4421
914.453	4268
914.566	4481
914.68	4337
914.793	4390
914.906	4173
915.019	4128
915.132	4105
915.245	4150
915.358	4169
915.47	4227
915.583	4341
915.696	4352
915.809	4432
915.921	4485
916.034	4280
916.146	4257
916.259	4238
916.371	4390
916.483	4363
916.595	4284
916.708	4390
916.82	4360
916.932	4360
917.044	4375
917.156	4371
917.268	4268
917.38	4322
917.491	4314
917.603	4337
917.715	4432
917.826	4436
917.938	4348
918.049	4284
918.161	4405
918.272	4569
918.384	4531
918.495	4443
918.606	4284
918.717	4238
918.828	4344
918.939	4371
919.05	4322
919.161	4295
919.272	4188
919.383	4215
919.494	4459
919.604	4634
919.715	4451
919.826	4390
919.936	4440
920.047	4512
920.157	4512
920.267	4729
920.378	4523
920.488	4500
920.598	4702
920.708	4866
920.818	4778
920.928	4805
921.038	4984
921.148	4927
921.258	4599
921.368	4577
921.477	4466
921.587	4478
921.697	4451
921.806	4569
921.916	4436
922.025	4287
922.134	4246
922.244	4253
922.353	4379
922.462	4200
922.571	4181
922.68	4021
922.789	4025
922.898	4032
923.007	3991
923.116	4147
923.224	4128
923.333	4097
923.442	4002
923.55	3994
923.659	4036
923.767	4093
923.876	4017
923.984	4128
924.092	3983
924.201	4097
924.309	4116
924.417	4131
924.525	4082
924.633	4135
924.741	5067
924.849	3911
924.956	4185
925.064	4002
925.172	3888
925.279	3953
925.387	4036
925.494	4082
925.602	4234
925.709	4166
925.816	4090
925.924	4135
926.031	4234
926.138	4204
926.245	4234
926.352	4105
926.459	4268
926.566	4314
926.673	4162
926.779	4097
926.886	4074
926.993	3968
927.099	3987
927.206	3949
927.312	3941
927.419	4055
927.525	3979
927.631	4120
927.737	3994
927.843	3994
927.95	3869
928.056	3956
928.162	4002
928.267	4036
928.373	4679
928.479	4150
928.585	3865
928.69	3998
928.796	4086
928.901	3968
929.007	3865
929.112	4025
929.218	3964
929.323	3960
929.428	3964
929.533	4143
929.638	3930
929.743	3983
929.848	4040
929.953	3987
930.058	3949
930.163	3808
930.267	3838
930.372	3983
930.477	3827
930.581	4135
930.685	3956
930.79	3846
930.894	3888
930.998	3888
931.103	4082
931.207	3728
931.311	3705
931.415	3686
931.519	3549
931.623	3572
