Data from test_V78500241_1950.txt Node
Date: Fri Mar 25 17:02:33 CST 2022
User: usil
Spectrometer: V785-0024
Trigger mode: 0
Integration Time (sec): 4.000000E-1
Scans to average: 1
Nonlinearity correction enabled: false
Boxcar width: 0
Storing dark spectrum: false
XAxis mode: Wavelengths
Number of Pixels in Spectrum: 1024
>>>>>Begin Spectral Data<<<<<
801.071	7997
801.214	7986
801.356	7746
801.499	7757
801.641	7822
801.783	7696
801.926	7997
802.068	7868
802.211	8008
802.353	8043
802.496	7845
802.638	7811
802.78	7822
802.923	7978
803.065	7860
803.208	7803
803.35	7967
803.492	8043
803.635	8130
803.777	7955
803.919	8168
804.061	8446
804.204	8183
804.346	8012
804.488	7959
804.63	8073
804.773	8046
804.915	8119
805.057	8195
805.199	8195
805.341	8195
805.483	8263
805.626	8233
805.768	8084
805.91	8210
806.052	8202
806.194	8157
806.336	8240
806.478	8103
806.62	7982
806.762	8088
806.904	8256
807.046	8450
807.188	8396
807.33	8267
807.472	8279
807.614	8153
807.756	8107
807.898	8012
808.04	7902
808.182	7906
808.324	7925
808.465	7906
808.607	8046
808.749	8039
808.891	8153
809.033	8267
809.174	8176
809.316	8077
809.458	8062
809.6	8012
809.741	8031
809.883	8012
810.025	8107
810.166	8039
810.308	8001
810.45	7997
810.591	7822
810.733	7799
810.875	7632
811.016	7499
811.158	7441
811.299	7632
811.441	7662
811.582	7651
811.724	7521
811.865	7491
812.007	7559
812.148	7620
812.29	7609
812.431	7769
812.573	7898
812.714	7890
812.855	8103
812.997	8180
813.138	8328
813.279	8115
813.421	8027
813.562	7921
813.703	7841
813.845	7677
813.986	7415
814.127	7149
814.268	7217
814.41	7187
814.551	7156
814.692	7209
814.833	7126
814.974	7046
815.115	7118
815.256	6973
815.397	6920
815.539	6935
815.68	6783
815.821	6757
815.962	6871
816.103	6818
816.244	6719
816.385	6608
816.526	6559
816.666	6437
816.807	6323
816.948	6391
817.089	6452
817.23	6380
817.371	6357
817.512	6380
817.653	6323
817.793	6361
817.934	6403
818.075	6448
818.216	6391
818.356	6429
818.497	6251
818.638	6095
818.778	6144
818.919	6190
819.06	6163
819.2	6327
819.341	6262
819.481	6388
819.622	6547
819.762	6684
819.903	6677
820.043	6551
820.184	6574
820.324	6582
820.465	6715
820.605	6696
820.746	6642
820.886	6563
821.026	6673
821.167	6703
821.307	6829
821.447	6753
821.588	6696
821.728	6601
821.868	6414
822.008	6361
822.149	6369
822.289	6338
822.429	6197
822.569	6072
822.709	6114
822.849	5942
822.99	5870
823.13	5844
823.27	5965
823.41	5821
823.55	5786
823.69	5745
823.83	5752
823.97	5615
824.11	5497
824.25	5509
824.389	5562
824.529	5577
824.669	5493
824.809	5630
824.949	5668
825.089	5615
825.228	5509
825.368	5383
825.508	5334
825.648	5353
825.787	5395
825.927	5353
826.067	5299
826.206	5284
826.346	5387
826.485	5398
826.625	5379
826.765	5573
826.904	5455
827.044	5265
827.183	5178
827.323	5086
827.462	5303
827.601	5201
827.741	5162
827.88	5227
828.02	5102
828.159	5231
828.298	5292
828.437	5337
828.577	5311
828.716	5440
828.855	5273
828.994	5208
829.134	5159
829.273	5178
829.412	5094
829.551	5159
829.69	5201
829.829	5246
829.968	5379
830.107	5337
830.246	5330
830.385	5140
830.524	5140
830.663	5090
830.802	4972
830.941	4923
831.08	4854
831.219	4938
831.357	4984
831.496	5174
831.635	4873
831.774	4839
831.913	4843
832.051	4717
832.19	4763
832.329	4801
832.467	4656
832.606	4653
832.744	4687
832.883	4733
833.022	4694
833.16	4774
833.299	4790
833.437	4805
833.576	4824
833.714	4866
833.852	4900
833.991	4889
834.129	4961
834.267	4961
834.406	4892
834.544	4953
834.682	4984
834.821	4976
834.959	5208
835.097	5006
835.235	5132
835.373	5048
835.511	5117
835.65	4999
835.788	5014
835.926	4858
836.064	4828
836.202	4915
836.34	5151
836.478	5231
836.615	5064
836.753	5189
836.891	5261
837.029	5231
837.167	5159
837.305	5174
837.443	5075
837.58	5048
837.718	5254
837.856	5174
837.993	5147
838.131	5189
838.269	5239
838.406	5193
838.544	5193
838.681	5018
838.819	4972
838.956	4828
839.094	4900
839.231	4984
839.369	5113
839.506	5436
839.643	5235
839.781	5056
839.918	4968
840.055	5094
840.193	5109
840.33	5136
840.467	5132
840.604	5189
840.742	5425
840.879	5109
841.016	5056
841.153	5170
841.29	5345
841.427	5349
841.564	5315
841.701	5357
841.838	5277
841.975	5216
842.112	5277
842.249	5083
842.385	5117
842.522	5357
842.659	5181
842.796	5162
842.933	5208
843.069	5113
843.206	5132
843.343	5273
843.479	5242
843.616	5284
843.752	5010
843.889	5003
844.025	5216
844.162	5048
844.298	5235
844.435	5014
844.571	5067
844.708	5239
844.844	5261
844.98	5345
845.117	5299
845.253	5090
845.389	5048
845.525	5174
845.661	5140
845.798	5029
845.934	5178
846.07	5048
846.206	5204
846.342	5269
846.478	5178
846.614	5010
846.75	4968
846.886	4919
847.022	5113
847.158	5045
847.294	5048
847.429	5075
847.565	5037
847.701	5307
847.837	4885
847.972	4786
848.108	4885
848.244	4885
848.379	4774
848.515	4675
848.65	4725
848.786	4748
848.921	4748
849.057	4885
849.192	4892
849.328	4809
849.463	4850
849.598	4816
849.734	4793
849.869	4702
850.004	4603
850.14	4664
850.275	4592
850.41	4546
850.545	4542
850.68	4599
850.815	4603
850.95	4599
851.085	4831
851.22	4752
851.355	4675
851.49	4607
851.625	4660
851.76	4649
851.895	4523
852.03	4584
852.165	4634
852.299	4683
852.434	4771
852.569	4782
852.703	4774
852.838	4820
852.973	4881
853.107	4847
853.242	4736
853.376	4637
853.511	4573
853.645	4603
853.78	4793
853.914	4637
854.048	4649
854.183	4622
854.317	4698
854.451	4858
854.585	4649
854.72	4649
854.854	4721
854.988	4542
855.122	4615
855.256	4535
855.39	4615
855.524	4748
855.658	4740
855.792	4725
855.926	4736
856.06	4752
856.194	4835
856.327	4683
856.461	4580
856.595	4611
856.729	4615
856.862	4755
856.996	4672
857.13	4679
857.263	4805
857.397	4771
857.53	4672
857.664	4759
857.797	4755
857.931	4748
858.064	4672
858.197	4736
858.331	4641
858.464	4641
858.597	4500
858.731	4561
858.864	4603
858.997	4577
859.13	4664
859.263	4653
859.396	4706
859.529	4588
859.662	4481
859.795	4493
859.928	4599
860.061	4698
860.194	4782
860.327	4637
860.46	4542
860.592	4740
860.725	4698
860.858	4717
860.99	4580
861.123	4500
861.256	4546
861.388	4634
861.521	5277
861.653	4459
861.786	4428
861.918	4413
862.05	4512
862.183	4527
862.315	4592
862.447	4683
862.58	4519
862.712	4421
862.844	4341
862.976	4455
863.108	4440
863.24	4729
863.372	4333
863.504	4405
863.636	4398
863.768	4493
863.9	4428
864.032	4348
864.164	4344
864.296	4489
864.428	4519
864.559	4573
864.691	4512
864.823	4519
864.954	4485
865.086	4550
865.217	4455
865.349	4405
865.48	4447
865.612	4485
865.743	4641
865.875	4516
866.006	4390
866.137	4519
866.269	4455
866.4	4500
866.531	4413
866.662	4421
866.793	4356
866.924	4443
867.055	4443
867.186	4455
867.317	4413
867.448	4371
867.579	4379
867.71	4402
867.841	4367
867.972	4485
868.103	4447
868.233	4455
868.364	4383
868.495	4497
868.625	4630
868.756	4717
868.886	4573
869.017	4607
869.147	4759
869.278	4778
869.408	4649
869.539	4584
869.669	4706
869.799	4611
869.929	4717
870.06	4729
870.19	4930
870.32	4911
870.45	4957
870.58	5010
870.71	5018
870.84	5098
870.97	4980
871.1	4881
871.23	5083
871.36	5128
871.489	5067
871.619	5048
871.749	5094
871.879	5117
872.008	5155
872.138	5052
872.267	4946
872.397	4805
872.526	4793
872.656	4748
872.785	4752
872.915	4908
873.044	4991
873.173	4892
873.303	4923
873.432	4915
873.561	4976
873.69	4870
873.819	4877
873.948	4927
874.077	4786
874.206	4767
874.335	4759
874.464	4885
874.593	4987
874.722	5033
874.851	5094
874.979	5037
875.108	4987
875.237	4927
875.365	4885
875.494	4908
875.623	5018
875.751	4805
875.88	4862
876.008	4961
876.136	4999
876.265	5223
876.393	5337
876.521	5258
876.65	5220
876.778	5128
876.906	5052
877.034	4987
877.162	5052
877.29	4946
877.418	5067
877.546	5052
877.674	5041
877.802	5037
877.93	5029
878.058	4949
878.185	4862
878.313	4930
878.441	4866
878.568	4778
878.696	4870
878.824	4957
878.951	5006
879.079	5128
879.206	5299
879.333	5105
879.461	4972
879.588	5029
879.715	5113
879.842	5239
879.97	4976
880.097	4786
880.224	4725
880.351	4839
880.478	4824
880.605	4812
880.732	4786
880.859	5083
880.986	4885
881.112	4885
881.239	4774
881.366	4683
881.493	4596
881.619	4565
881.746	4668
881.872	4622
881.999	4634
882.125	4733
882.252	4771
882.378	4831
882.505	4987
882.631	4801
882.757	4653
882.883	4694
883.01	4710
883.136	4637
883.262	4626
883.388	4584
883.514	4820
883.64	4816
883.766	4805
883.892	4641
884.018	4736
884.143	4870
884.269	4972
884.395	4679
884.52	4660
884.646	4660
884.772	4611
884.897	4516
885.023	4649
885.148	4744
885.274	4854
885.399	4793
885.524	4672
885.65	4694
885.775	4748
885.9	4691
886.025	4816
886.15	4793
886.275	4774
886.4	4653
886.525	4736
886.65	4694
886.775	4649
886.9	4934
887.025	4987
887.149	4828
887.274	4641
887.399	4580
887.523	4577
887.648	4607
887.773	4630
887.897	4763
888.021	4755
888.146	4694
888.27	4835
888.395	4885
888.519	4862
888.643	4805
888.767	4801
888.891	4698
889.015	4618
889.139	4634
889.263	4611
889.387	4755
889.511	4782
889.635	4729
889.759	4611
889.883	4603
890.006	4702
890.13	4797
890.254	4599
890.377	4630
890.501	4550
890.624	4485
890.748	4634
890.871	4550
890.995	4379
891.118	4367
891.241	4538
891.364	4538
891.488	4630
891.611	4451
891.734	4531
891.857	4599
891.98	4584
892.103	4645
892.226	4580
892.349	4565
892.471	4455
892.594	4538
892.717	4615
892.839	4561
892.962	4527
893.085	4607
893.207	4592
893.33	4485
893.452	4527
893.575	4649
893.697	4569
893.819	4805
893.941	4854
894.064	4755
894.186	4660
894.308	4584
894.43	4714
894.552	4816
894.674	4782
894.796	4535
894.918	4630
895.04	4599
895.161	4683
895.283	4672
895.405	4622
895.526	4660
895.648	4664
895.769	4714
895.891	4706
896.012	4755
896.134	4653
896.255	4710
896.376	4645
896.498	4630
896.619	4660
896.74	4626
896.861	4645
896.982	4915
897.103	5048
897.224	4858
897.345	4759
897.466	4672
897.587	4782
897.708	4843
897.828	4706
897.949	4664
898.07	4565
898.19	4607
898.311	4805
898.431	4679
898.552	4733
898.672	4801
898.792	4752
898.913	4725
899.033	4653
899.153	4489
899.273	4421
899.393	4504
899.513	4550
899.633	4558
899.753	4500
899.873	4542
899.993	4588
900.113	4512
900.232	4569
900.352	4538
900.472	4485
900.591	4409
900.711	4462
900.83	4474
900.95	4615
901.069	4675
901.189	4500
901.308	4371
901.427	4322
901.546	4383
901.665	4443
901.784	4459
901.904	4386
902.023	4306
902.141	4154
902.26	4154
902.379	4306
902.498	4246
902.617	4246
902.735	4371
902.854	4352
902.973	4363
903.091	4211
903.21	4219
903.328	4287
903.446	4276
903.565	4234
903.683	4402
903.801	4306
903.919	4405
904.038	4394
904.156	4318
904.274	4440
904.392	4363
904.51	4432
904.627	4485
904.745	4569
904.863	4641
904.981	4394
905.098	4280
905.216	4363
905.334	4459
905.451	4489
905.569	4451
905.686	4554
905.803	4569
905.921	4409
906.038	4535
906.155	4497
906.272	4367
906.389	4440
906.506	4383
906.623	4371
906.74	4394
906.857	4333
906.974	4341
907.091	4535
907.208	4683
907.324	4618
907.441	4485
907.557	4303
907.674	4314
907.79	4295
907.907	4417
908.023	4459
908.139	4485
908.256	4398
908.372	4424
908.488	4485
908.604	4356
908.72	4322
908.836	4402
908.952	4375
909.068	4329
909.184	4554
909.3	4485
909.415	4554
909.531	4538
909.647	4371
909.762	4352
909.878	4348
909.993	4424
910.108	4428
910.224	4405
910.339	4455
910.454	4390
910.57	4318
910.685	4310
910.8	4634
910.915	4554
911.03	4455
911.145	4325
911.259	4325
911.374	4333
911.489	4291
911.604	4265
911.718	4223
911.833	4162
911.947	4093
912.062	3994
912.176	4268
912.291	4261
912.405	4249
912.519	4527
912.633	4527
912.748	4363
912.862	4299
912.976	4223
913.09	4093
913.204	4124
913.318	4234
913.431	4306
913.545	4348
913.659	4447
913.772	4367
913.886	4211
914	4207
914.113	4367
914.226	4405
914.34	4352
914.453	4238
914.566	4428
914.68	4303
914.793	4314
914.906	4150
915.019	4143
915.132	4093
915.245	4162
915.358	4234
915.47	4211
915.583	4276
915.696	4337
915.809	4398
915.921	4398
916.034	4261
916.146	4249
916.259	4200
916.371	4352
916.483	4344
916.595	4242
916.708	4310
916.82	4341
916.932	4314
917.044	4303
917.156	4360
917.268	4211
917.38	4253
917.491	4238
917.603	4352
917.715	4466
917.826	4432
917.938	4310
918.049	4284
918.161	4356
918.272	4561
918.384	4519
918.495	4462
918.606	4287
918.717	4242
918.828	4337
918.939	4348
919.05	4249
919.161	4348
919.272	4135
919.383	4227
919.494	4428
919.604	4596
919.715	4409
919.826	4356
919.936	4341
920.047	4531
920.157	4493
920.267	4702
920.378	4516
920.488	4424
920.598	4706
920.708	4828
920.818	4744
920.928	4774
921.038	4953
921.148	4911
921.258	4637
921.368	4531
921.477	4474
921.587	4474
921.697	4344
921.806	4542
921.916	4413
922.025	4219
922.134	4261
922.244	4238
922.353	4322
922.462	4173
922.571	4120
922.68	4025
922.789	3964
922.898	4002
923.007	4036
923.116	4036
923.224	4063
923.333	4029
923.442	4013
923.55	4010
923.659	4017
923.767	4109
923.876	4021
923.984	4139
924.092	4025
924.201	4082
924.309	4071
924.417	4150
924.525	4093
924.633	4112
924.741	5041
924.849	3884
924.956	4147
925.064	3968
925.172	3930
925.279	3956
925.387	4051
925.494	4090
925.602	4223
925.709	4181
925.816	3956
925.924	4135
926.031	4162
926.138	4192
926.245	4185
926.352	4071
926.459	4219
926.566	4322
926.673	4147
926.779	4101
926.886	4059
926.993	3956
927.099	3945
927.206	3926
927.312	3956
927.419	4055
927.525	4013
927.631	4101
927.737	3956
927.843	3956
927.95	3876
928.056	3956
928.162	4044
928.267	4040
928.373	4519
928.479	4090
928.585	3861
928.69	4025
928.796	4055
928.901	3979
929.007	3827
929.112	4010
929.218	3983
929.323	3945
929.428	3968
929.533	4147
929.638	3892
929.743	3915
929.848	4006
929.953	3987
930.058	3907
930.163	3785
930.267	3797
930.372	4002
930.477	3819
930.581	4067
930.685	3922
930.79	3857
930.894	3896
930.998	3793
931.103	4032
931.207	3679
931.311	3701
931.415	3660
931.519	3500
931.623	3584
