Data from test_V78500241_2515.txt Node
Date: Fri Mar 25 17:06:29 CST 2022
User: usil
Spectrometer: V785-0024
Trigger mode: 0
Integration Time (sec): 4.000000E-1
Scans to average: 1
Nonlinearity correction enabled: false
Boxcar width: 0
Storing dark spectrum: false
XAxis mode: Wavelengths
Number of Pixels in Spectrum: 1024
>>>>>Begin Spectral Data<<<<<
801.071	7997
801.214	7997
801.356	7868
801.499	7807
801.641	7807
801.783	7811
801.926	7936
802.068	7906
802.211	7993
802.353	7970
802.496	7841
802.638	7887
802.78	7913
802.923	7947
803.065	7879
803.208	7887
803.35	7913
803.492	8084
803.635	8164
803.777	8035
803.919	8145
804.061	8404
804.204	8164
804.346	8103
804.488	7986
804.63	8172
804.773	8016
804.915	8111
805.057	8225
805.199	8199
805.341	8172
805.483	8301
805.626	8294
805.768	8195
805.91	8191
806.052	8225
806.194	8065
806.336	8267
806.478	8035
806.62	8001
806.762	8149
806.904	8275
807.046	8507
807.188	8324
807.33	8267
807.472	8305
807.614	8180
807.756	8035
807.898	8001
808.04	7898
808.182	7951
808.324	7868
808.465	7868
808.607	8100
808.749	8111
808.891	8206
809.033	8301
809.174	8199
809.316	8039
809.458	8103
809.6	8035
809.741	8058
809.883	7978
810.025	8161
810.166	7974
810.308	7963
810.45	7959
810.591	7814
810.733	7719
810.875	7605
811.016	7510
811.158	7480
811.299	7685
811.441	7693
811.582	7689
811.724	7514
811.865	7548
812.007	7658
812.148	7655
812.29	7643
812.431	7696
812.573	7871
812.714	7947
812.855	8134
812.997	8180
813.138	8290
813.279	8130
813.421	8031
813.562	7997
813.703	7780
813.845	7753
813.986	7457
814.127	7217
814.268	7213
814.41	7266
814.551	7202
814.692	7236
814.833	7069
814.974	7103
815.115	7118
815.256	7023
815.397	6916
815.539	6943
815.68	6890
815.821	6772
815.962	6871
816.103	6810
816.244	6741
816.385	6642
816.526	6601
816.666	6574
816.807	6277
816.948	6464
817.089	6445
817.23	6486
817.371	6384
817.512	6410
817.653	6365
817.793	6357
817.934	6422
818.075	6494
818.216	6464
818.356	6418
818.497	6220
818.638	6140
818.778	6152
818.919	6129
819.06	6152
819.2	6353
819.341	6365
819.481	6410
819.622	6551
819.762	6760
819.903	6738
820.043	6612
820.184	6650
820.324	6559
820.465	6722
820.605	6681
820.746	6681
820.886	6521
821.026	6623
821.167	6715
821.307	6837
821.447	6711
821.588	6658
821.728	6589
821.868	6467
822.008	6369
822.149	6422
822.289	6391
822.429	6155
822.569	6136
822.709	6148
822.849	5927
822.99	5889
823.13	5958
823.27	5908
823.41	5805
823.55	5836
823.69	5794
823.83	5752
823.97	5691
824.11	5490
824.25	5497
824.389	5566
824.529	5539
824.669	5570
824.809	5684
824.949	5680
825.089	5672
825.228	5562
825.368	5414
825.508	5395
825.648	5402
825.787	5349
825.927	5395
826.067	5265
826.206	5311
826.346	5379
826.485	5414
826.625	5421
826.765	5505
826.904	5417
827.044	5258
827.183	5208
827.323	5124
827.462	5254
827.601	5170
827.741	5159
827.88	5261
828.02	5098
828.159	5231
828.298	5303
828.437	5353
828.577	5242
828.716	5478
828.855	5307
828.994	5105
829.134	5185
829.273	5220
829.412	5067
829.551	5121
829.69	5147
829.829	5250
829.968	5337
830.107	5318
830.246	5303
830.385	5220
830.524	5105
830.663	5117
830.802	4965
830.941	4915
831.08	4877
831.219	4942
831.357	4915
831.496	5162
831.635	4889
831.774	4839
831.913	4831
832.051	4748
832.19	4694
832.329	4847
832.467	4698
832.606	4634
832.744	4793
832.883	4733
833.022	4702
833.16	4801
833.299	4812
833.437	4835
833.576	4877
833.714	4885
833.852	4820
833.991	4934
834.129	4927
834.267	4972
834.406	4866
834.544	4946
834.682	5018
834.821	4965
834.959	5132
835.097	4968
835.235	5124
835.373	5109
835.511	5090
835.65	5022
835.788	5014
835.926	4900
836.064	4847
836.202	4896
836.34	5204
836.478	5220
836.615	5090
836.753	5254
836.891	5296
837.029	5227
837.167	5197
837.305	5181
837.443	5159
837.58	5094
837.718	5269
837.856	5220
837.993	5185
838.131	5273
838.269	5185
838.406	5258
838.544	5201
838.681	5037
838.819	4984
838.956	4915
839.094	4911
839.231	5010
839.369	5006
839.506	5452
839.643	5284
839.781	5041
839.918	5003
840.055	5083
840.193	5105
840.33	5117
840.467	5102
840.604	5178
840.742	5459
840.879	5067
841.016	5098
841.153	5121
841.29	5376
841.427	5326
841.564	5299
841.701	5387
841.838	5269
841.975	5254
842.112	5223
842.249	5105
842.385	5113
842.522	5318
842.659	5147
842.796	5155
842.933	5181
843.069	5159
843.206	5117
843.343	5307
843.479	5280
843.616	5235
843.752	5018
843.889	5022
844.025	5223
844.162	5025
844.298	5181
844.435	5124
844.571	5071
844.708	5178
844.844	5330
844.98	5330
845.117	5284
845.253	5105
845.389	5025
845.525	5185
845.661	5128
845.798	5033
845.934	5128
846.07	5025
846.206	5159
846.342	5307
846.478	5174
846.614	5060
846.75	4968
846.886	4949
847.022	5113
847.158	5041
847.294	5090
847.429	5113
847.565	4987
847.701	5280
847.837	4850
847.972	4767
848.108	4911
848.244	4934
848.379	4702
848.515	4717
848.65	4714
848.786	4691
848.921	4759
849.057	4843
849.192	4854
849.328	4805
849.463	4862
849.598	4771
849.734	4694
849.869	4736
850.004	4626
850.14	4660
850.275	4615
850.41	4535
850.545	4607
850.68	4611
850.815	4653
850.95	4687
851.085	4866
851.22	4771
851.355	4687
851.49	4596
851.625	4615
851.76	4687
851.895	4550
852.03	4489
852.165	4626
852.299	4721
852.434	4755
852.569	4714
852.703	4786
852.838	4812
852.973	4968
853.107	4892
853.242	4698
853.376	4687
853.511	4561
853.645	4615
853.78	4797
853.914	4706
854.048	4672
854.183	4653
854.317	4691
854.451	4831
854.585	4717
854.72	4577
854.854	4744
854.988	4554
855.122	4615
855.256	4531
855.39	4637
855.524	4767
855.658	4729
855.792	4702
855.926	4729
856.06	4752
856.194	4816
856.327	4698
856.461	4607
856.595	4645
856.729	4653
856.862	4786
856.996	4675
857.13	4748
857.263	4740
857.397	4801
857.53	4664
857.664	4729
857.797	4755
857.931	4748
858.064	4687
858.197	4714
858.331	4656
858.464	4603
858.597	4558
858.731	4649
858.864	4641
858.997	4584
859.13	4630
859.263	4687
859.396	4683
859.529	4546
859.662	4542
859.795	4542
859.928	4630
860.061	4752
860.194	4786
860.327	4634
860.46	4565
860.592	4710
860.725	4679
860.858	4672
860.99	4569
861.123	4523
861.256	4500
861.388	4599
861.521	5204
861.653	4459
861.786	4493
861.918	4466
862.05	4504
862.183	4565
862.315	4573
862.447	4637
862.58	4500
862.712	4386
862.844	4371
862.976	4478
863.108	4440
863.24	4862
863.372	4310
863.504	4413
863.636	4405
863.768	4455
863.9	4443
864.032	4363
864.164	4390
864.296	4474
864.428	4504
864.559	4592
864.691	4508
864.823	4554
864.954	4489
865.086	4485
865.217	4485
865.349	4443
865.48	4455
865.612	4512
865.743	4584
865.875	4447
866.006	4447
866.137	4455
866.269	4440
866.4	4402
866.531	4402
866.662	4424
866.793	4379
866.924	4428
867.055	4516
867.186	4451
867.317	4432
867.448	4386
867.579	4424
867.71	4383
867.841	4394
867.972	4516
868.103	4447
868.233	4424
868.364	4447
868.495	4550
868.625	4656
868.756	4763
868.886	4558
869.017	4630
869.147	4778
869.278	4767
869.408	4634
869.539	4618
869.669	4740
869.799	4668
869.929	4752
870.06	4740
870.19	4870
870.32	4911
870.45	4980
870.58	5052
870.71	5083
870.84	5056
870.97	4965
871.1	4900
871.23	5136
871.36	5132
871.489	5064
871.619	5056
871.749	5075
871.879	5174
872.008	5223
872.138	5060
872.267	4957
872.397	4866
872.526	4771
872.656	4725
872.785	4831
872.915	4915
873.044	5022
873.173	4965
873.303	5003
873.432	4946
873.561	4968
873.69	4881
873.819	4850
873.948	4889
874.077	4847
874.206	4721
874.335	4831
874.464	4923
874.593	5064
874.722	4987
874.851	5067
874.979	5086
875.108	5048
875.237	4930
875.365	4934
875.494	4873
875.623	4968
875.751	4812
875.88	4892
876.008	4984
876.136	5025
876.265	5204
876.393	5349
876.521	5269
876.65	5258
876.778	5170
876.906	5071
877.034	5018
877.162	5014
877.29	4968
877.418	5060
877.546	5022
877.674	5048
877.802	4984
877.93	5003
878.058	4968
878.185	4900
878.313	4961
878.441	4968
878.568	4862
878.696	4877
878.824	4968
878.951	4968
879.079	5124
879.206	5303
879.333	5117
879.461	4934
879.588	5033
879.715	5140
879.842	5227
879.97	4953
880.097	4782
880.224	4721
880.351	4809
880.478	4850
880.605	4839
880.732	4759
880.859	5083
880.986	4820
881.112	4930
881.239	4774
881.366	4653
881.493	4558
881.619	4618
881.746	4626
881.872	4649
881.999	4645
882.125	4664
882.252	4771
882.378	4820
882.505	4934
882.631	4801
882.757	4645
882.883	4702
883.01	4694
883.136	4714
883.262	4531
883.388	4607
883.514	4809
883.64	4877
883.766	4744
883.892	4656
884.018	4702
884.143	4915
884.269	5079
884.395	4706
884.52	4641
884.646	4634
884.772	4630
884.897	4577
885.023	4618
885.148	4801
885.274	4831
885.399	4786
885.524	4755
885.65	4729
885.775	4740
885.9	4691
886.025	4881
886.15	4729
886.275	4694
886.4	4675
886.525	4710
886.65	4691
886.775	4664
886.9	4873
887.025	5079
887.149	4862
887.274	4653
887.399	4634
887.523	4630
887.648	4596
887.773	4561
887.897	4714
888.021	4786
888.146	4672
888.27	4809
888.395	4877
888.519	4790
888.643	4774
888.767	4824
888.891	4706
889.015	4599
889.139	4599
889.263	4611
889.387	4763
889.511	4850
889.635	4805
889.759	4634
889.883	4683
890.006	4691
890.13	4843
890.254	4622
890.377	4668
890.501	4546
890.624	4542
890.748	4672
890.871	4546
890.995	4417
891.118	4394
891.241	4485
891.364	4538
891.488	4622
891.611	4535
891.734	4577
891.857	4599
891.98	4519
892.103	4607
892.226	4577
892.349	4527
892.471	4443
892.594	4588
892.717	4580
892.839	4588
892.962	4626
893.085	4649
893.207	4592
893.33	4428
893.452	4516
893.575	4664
893.697	4588
893.819	4793
893.941	4782
894.064	4763
894.186	4558
894.308	4599
894.43	4767
894.552	4805
894.674	4774
894.796	4588
894.918	4596
895.04	4603
895.161	4721
895.283	4641
895.405	4561
895.526	4675
895.648	4755
895.769	4660
895.891	4721
896.012	4744
896.134	4702
896.255	4645
896.376	4622
896.498	4634
896.619	4641
896.74	4622
896.861	4672
896.982	4927
897.103	5117
897.224	4805
897.345	4809
897.466	4672
897.587	4759
897.708	4862
897.828	4774
897.949	4637
898.07	4561
898.19	4615
898.311	4843
898.431	4675
898.552	4710
898.672	4755
898.792	4793
898.913	4725
899.033	4603
899.153	4516
899.273	4405
899.393	4527
899.513	4493
899.633	4512
899.753	4535
899.873	4504
899.993	4615
900.113	4478
900.232	4569
900.352	4508
900.472	4500
900.591	4421
900.711	4474
900.83	4451
900.95	4596
901.069	4706
901.189	4523
901.308	4352
901.427	4352
901.546	4329
901.665	4466
901.784	4466
901.904	4360
902.023	4360
902.141	4166
902.26	4188
902.379	4333
902.498	4280
902.617	4242
902.735	4398
902.854	4371
902.973	4375
903.091	4188
903.21	4234
903.328	4257
903.446	4268
903.565	4230
903.683	4322
903.801	4280
903.919	4379
904.038	4409
904.156	4318
904.274	4386
904.392	4360
904.51	4432
904.627	4447
904.745	4588
904.863	4626
904.981	4462
905.098	4272
905.216	4363
905.334	4398
905.451	4405
905.569	4459
905.686	4531
905.803	4580
905.921	4386
906.038	4542
906.155	4470
906.272	4405
906.389	4459
906.506	4333
906.623	4383
906.74	4424
906.857	4303
906.974	4383
907.091	4558
907.208	4668
907.324	4599
907.441	4485
907.557	4329
907.674	4318
907.79	4276
907.907	4371
908.023	4478
908.139	4462
908.256	4409
908.372	4481
908.488	4481
908.604	4398
908.72	4284
908.836	4375
908.952	4299
909.068	4413
909.184	4561
909.3	4500
909.415	4569
909.531	4519
909.647	4348
909.762	4348
909.878	4333
909.993	4409
910.108	4428
910.224	4440
910.339	4455
910.454	4421
910.57	4318
910.685	4280
910.8	4653
910.915	4615
911.03	4474
911.145	4379
911.259	4299
911.374	4371
911.489	4291
911.604	4265
911.718	4162
911.833	4204
911.947	4090
912.062	4021
912.176	4207
912.291	4280
912.405	4253
912.519	4500
912.633	4500
912.748	4390
912.862	4306
912.976	4219
913.09	4124
913.204	4173
913.318	4265
913.431	4402
913.545	4360
913.659	4466
913.772	4337
913.886	4230
914	4215
914.113	4386
914.226	4443
914.34	4405
914.453	4204
914.566	4413
914.68	4310
914.793	4363
914.906	4147
915.019	4120
915.132	4074
915.245	4223
915.358	4188
915.47	4200
915.583	4287
915.696	4310
915.809	4421
915.921	4402
916.034	4272
916.146	4287
916.259	4246
916.371	4371
916.483	4325
916.595	4242
916.708	4398
916.82	4356
916.932	4310
917.044	4310
917.156	4322
917.268	4204
917.38	4257
917.491	4318
917.603	4356
917.715	4432
917.826	4409
917.938	4363
918.049	4211
918.161	4341
918.272	4535
918.384	4569
918.495	4443
918.606	4295
918.717	4207
918.828	4344
918.939	4375
919.05	4268
919.161	4329
919.272	4078
919.383	4261
919.494	4447
919.604	4615
919.715	4440
919.826	4333
919.936	4413
920.047	4512
920.157	4443
920.267	4675
920.378	4508
920.488	4531
920.598	4717
920.708	4858
920.818	4790
920.928	4748
921.038	4915
921.148	4938
921.258	4622
921.368	4554
921.477	4519
921.587	4455
921.697	4390
921.806	4550
921.916	4413
922.025	4261
922.134	4276
922.244	4204
922.353	4341
922.462	4147
922.571	4173
922.68	4002
922.789	3991
922.898	4048
923.007	3949
923.116	4097
923.224	4082
923.333	4063
923.442	3987
923.55	3987
923.659	4029
923.767	4120
923.876	3975
923.984	4067
924.092	4002
924.201	4097
924.309	4105
924.417	4124
924.525	4105
924.633	4048
924.741	5029
924.849	3903
924.956	4109
925.064	3945
925.172	3911
925.279	3945
925.387	4044
925.494	4048
925.602	4196
925.709	4215
925.816	4090
925.924	4135
926.031	4207
926.138	4185
926.245	4234
926.352	4074
926.459	4230
926.566	4280
926.673	4177
926.779	4112
926.886	4051
926.993	3998
927.099	3960
927.206	3937
927.312	3956
927.419	4086
927.525	4029
927.631	4086
927.737	3960
927.843	3941
927.95	3835
928.056	3903
928.162	3983
928.267	4006
928.373	4565
928.479	4078
928.585	3880
928.69	4036
928.796	4063
928.901	3972
929.007	3819
929.112	4017
929.218	3979
929.323	3945
929.428	3953
929.533	4120
929.638	3892
929.743	3922
929.848	4010
929.953	4006
930.058	3922
930.163	3793
930.267	3827
930.372	3945
930.477	3812
930.581	4086
930.685	3945
930.79	3819
930.894	3854
930.998	3892
931.103	4063
931.207	3755
931.311	3648
931.415	3679
931.519	3507
931.623	3564
