Data from test_V78500241_412.txt Node
Date: Fri Mar 25 16:51:52 CST 2022
User: usil
Spectrometer: V785-0024
Trigger mode: 0
Integration Time (sec): 4.000000E-1
Scans to average: 1
Nonlinearity correction enabled: false
Boxcar width: 0
Storing dark spectrum: false
XAxis mode: Wavelengths
Number of Pixels in Spectrum: 1024
>>>>>Begin Spectral Data<<<<<
801.071	8084
801.214	8100
801.356	7856
801.499	7856
801.641	7849
801.783	7860
801.926	7970
802.068	8027
802.211	8062
802.353	7970
802.496	7890
802.638	7932
802.78	7898
802.923	7974
803.065	7928
803.208	7860
803.35	7944
803.492	8027
803.635	8126
803.777	7989
803.919	8043
804.061	8415
804.204	8115
804.346	8107
804.488	8081
804.63	8153
804.773	7955
804.915	8073
805.057	8298
805.199	8119
805.341	8229
805.483	8256
805.626	8221
805.768	8088
805.91	8142
806.052	8221
806.194	8130
806.336	8336
806.478	8172
806.62	8115
806.762	8084
806.904	8301
807.046	8480
807.188	8385
807.33	8271
807.472	8298
807.614	8210
807.756	8183
807.898	8065
808.04	7921
808.182	7963
808.324	8005
808.465	7963
808.607	8077
808.749	8123
808.891	8221
809.033	8267
809.174	8214
809.316	8035
809.458	8058
809.6	7967
809.741	7997
809.883	8065
810.025	8142
810.166	8195
810.308	8084
810.45	8077
810.591	7883
810.733	7708
810.875	7681
811.016	7502
811.158	7525
811.299	7677
811.441	7788
811.582	7792
811.724	7597
811.865	7575
812.007	7639
812.148	7590
812.29	7681
812.431	7750
812.573	7871
812.714	7989
812.855	8138
812.997	8298
813.138	8393
813.279	8195
813.421	8149
813.562	8050
813.703	7860
813.845	7811
813.986	7506
814.127	7354
814.268	7308
814.41	7240
814.551	7194
814.692	7263
814.833	7133
814.974	7095
815.115	7133
815.256	6947
815.397	6920
815.539	6954
815.68	6837
815.821	6791
815.962	6924
816.103	6863
816.244	6760
816.385	6688
816.526	6593
816.666	6582
816.807	6353
816.948	6426
817.089	6509
817.23	6483
817.371	6399
817.512	6429
817.653	6429
817.793	6361
817.934	6452
818.075	6479
818.216	6486
818.356	6456
818.497	6315
818.638	6091
818.778	6270
818.919	6148
819.06	6121
819.2	6350
819.341	6327
819.481	6410
819.622	6555
819.762	6787
819.903	6646
820.043	6574
820.184	6582
820.324	6509
820.465	6681
820.605	6642
820.746	6639
820.886	6570
821.026	6707
821.167	6741
821.307	6791
821.447	6802
821.588	6669
821.728	6574
821.868	6540
822.008	6380
822.149	6384
822.289	6376
822.429	6228
822.569	6114
822.709	6053
822.849	5946
822.99	5920
823.13	5961
823.27	5923
823.41	5813
823.55	5748
823.69	5752
823.83	5790
823.97	5611
824.11	5524
824.25	5509
824.389	5596
824.529	5551
824.669	5505
824.809	5630
824.949	5691
825.089	5642
825.228	5573
825.368	5372
825.508	5337
825.648	5391
825.787	5414
825.927	5353
826.067	5296
826.206	5334
826.346	5349
826.485	5402
826.625	5414
826.765	5539
826.904	5444
827.044	5284
827.183	5246
827.323	5197
827.462	5212
827.601	5178
827.741	5212
827.88	5204
828.02	5155
828.159	5246
828.298	5258
828.437	5391
828.577	5265
828.716	5516
828.855	5345
828.994	5132
829.134	5151
829.273	5166
829.412	5143
829.551	5162
829.69	5204
829.829	5235
829.968	5398
830.107	5254
830.246	5303
830.385	5159
830.524	5147
830.663	5071
830.802	5022
830.941	4938
831.08	4866
831.219	5041
831.357	4930
831.496	5132
831.635	4919
831.774	4900
831.913	4820
832.051	4782
832.19	4736
832.329	4915
832.467	4710
832.606	4656
832.744	4649
832.883	4687
833.022	4725
833.16	4778
833.299	4847
833.437	4816
833.576	4820
833.714	4911
833.852	4847
833.991	4881
834.129	5006
834.267	4942
834.406	4919
834.544	4991
834.682	4965
834.821	4972
834.959	5181
835.097	5018
835.235	5136
835.373	5098
835.511	5090
835.65	5064
835.788	5029
835.926	4908
836.064	4889
836.202	4961
836.34	5185
836.478	5277
836.615	5113
836.753	5220
836.891	5296
837.029	5280
837.167	5151
837.305	5178
837.443	5204
837.58	5105
837.718	5265
837.856	5201
837.993	5212
838.131	5269
838.269	5204
838.406	5212
838.544	5231
838.681	5029
838.819	5029
838.956	4873
839.094	4881
839.231	5018
839.369	5083
839.506	5467
839.643	5239
839.781	5052
839.918	4980
840.055	5098
840.193	5090
840.33	5083
840.467	5083
840.604	5208
840.742	5444
840.879	5090
841.016	5105
841.153	5132
841.29	5429
841.427	5326
841.564	5296
841.701	5341
841.838	5292
841.975	5166
842.112	5246
842.249	5162
842.385	5102
842.522	5299
842.659	5105
842.796	5086
842.933	5208
843.069	5159
843.206	5128
843.343	5303
843.479	5235
843.616	5254
843.752	5052
843.889	4972
844.025	5193
844.162	5029
844.298	5189
844.435	5083
844.571	5025
844.708	5204
844.844	5299
844.98	5296
845.117	5315
845.253	5086
845.389	5079
845.525	5170
845.661	5136
845.798	5041
845.934	5151
846.07	5060
846.206	5201
846.342	5273
846.478	5117
846.614	5006
846.75	4946
846.886	4927
847.022	5121
847.158	5090
847.294	5022
847.429	5102
847.565	5010
847.701	5299
847.837	4862
847.972	4816
848.108	4980
848.244	4927
848.379	4786
848.515	4748
848.65	4721
848.786	4729
848.921	4824
849.057	4911
849.192	4908
849.328	4820
849.463	4820
849.598	4786
849.734	4774
849.869	4740
850.004	4683
850.14	4634
850.275	4622
850.41	4542
850.545	4588
850.68	4599
850.815	4630
850.95	4641
851.085	4831
851.22	4809
851.355	4649
851.49	4649
851.625	4660
851.76	4630
851.895	4550
852.03	4558
852.165	4687
852.299	4729
852.434	4797
852.569	4767
852.703	4774
852.838	4820
852.973	4908
853.107	4953
853.242	4763
853.376	4698
853.511	4527
853.645	4573
853.78	4740
853.914	4656
854.048	4645
854.183	4645
854.317	4717
854.451	4866
854.585	4698
854.72	4675
854.854	4740
854.988	4592
855.122	4634
855.256	4523
855.39	4653
855.524	4744
855.658	4725
855.792	4691
855.926	4710
856.06	4759
856.194	4831
856.327	4683
856.461	4630
856.595	4634
856.729	4626
856.862	4763
856.996	4721
857.13	4736
857.263	4714
857.397	4774
857.53	4733
857.664	4797
857.797	4782
857.931	4828
858.064	4702
858.197	4786
858.331	4634
858.464	4630
858.597	4531
858.731	4645
858.864	4668
858.997	4569
859.13	4630
859.263	4668
859.396	4710
859.529	4588
859.662	4554
859.795	4565
859.928	4630
860.061	4774
860.194	4733
860.327	4554
860.46	4550
860.592	4714
860.725	4710
860.858	4736
860.99	4546
861.123	4535
861.256	4519
861.388	4645
861.521	5467
861.653	4493
861.786	4451
861.918	4440
862.05	4481
862.183	4527
862.315	4618
862.447	4660
862.58	4577
862.712	4451
862.844	4314
862.976	4447
863.108	4455
863.24	4774
863.372	4295
863.504	4436
863.636	4337
863.768	4481
863.9	4390
864.032	4394
864.164	4417
864.296	4489
864.428	4561
864.559	4561
864.691	4512
864.823	4493
864.954	4519
865.086	4497
865.217	4474
865.349	4375
865.48	4485
865.612	4497
865.743	4641
865.875	4462
866.006	4428
866.137	4485
866.269	4466
866.4	4451
866.531	4398
866.662	4386
866.793	4436
866.924	4379
867.055	4504
867.186	4447
867.317	4424
867.448	4383
867.579	4409
867.71	4405
867.841	4394
867.972	4443
868.103	4455
868.233	4413
868.364	4428
868.495	4508
868.625	4645
868.756	4729
868.886	4584
869.017	4641
869.147	4744
869.278	4733
869.408	4687
869.539	4618
869.669	4748
869.799	4694
869.929	4740
870.06	4771
870.19	4972
870.32	4972
870.45	4999
870.58	5022
870.71	5067
870.84	5083
870.97	4911
871.1	4892
871.23	5143
871.36	5102
871.489	5048
871.619	5067
871.749	5094
871.879	5143
872.008	5155
872.138	5083
872.267	4961
872.397	4873
872.526	4820
872.656	4771
872.785	4767
872.915	4946
873.044	4995
873.173	4911
873.303	4961
873.432	4946
873.561	4930
873.69	4854
873.819	4824
873.948	4919
874.077	4816
874.206	4733
874.335	4809
874.464	4923
874.593	5075
874.722	4984
874.851	5090
874.979	5098
875.108	5067
875.237	4923
875.365	4892
875.494	4850
875.623	5029
875.751	4847
875.88	4904
876.008	5014
876.136	5056
876.265	5189
876.393	5303
876.521	5269
876.65	5258
876.778	5166
876.906	5094
877.034	5018
877.162	5029
877.29	5014
877.418	4976
877.546	5041
877.674	5067
877.802	5060
877.93	5006
878.058	4968
878.185	4885
878.313	4938
878.441	4961
878.568	4797
878.696	4877
878.824	4938
878.951	5029
879.079	5102
879.206	5303
879.333	5151
879.461	5071
879.588	5048
879.715	5128
879.842	5223
879.97	5018
880.097	4824
880.224	4740
880.351	4793
880.478	4816
880.605	4790
880.732	4778
880.859	5121
880.986	4847
881.112	4915
881.239	4778
881.366	4664
881.493	4634
881.619	4622
881.746	4618
881.872	4660
881.999	4626
882.125	4645
882.252	4809
882.378	4828
882.505	4984
882.631	4858
882.757	4649
882.883	4721
883.01	4721
883.136	4656
883.262	4618
883.388	4622
883.514	4835
883.64	4892
883.766	4805
883.892	4653
884.018	4755
884.143	4919
884.269	5010
884.395	4634
884.52	4637
884.646	4660
884.772	4603
884.897	4535
885.023	4683
885.148	4824
885.274	4877
885.399	4824
885.524	4698
885.65	4645
885.775	4744
885.9	4717
886.025	4892
886.15	4778
886.275	4710
886.4	4615
886.525	4733
886.65	4755
886.775	4706
886.9	4873
887.025	5086
887.149	4816
887.274	4679
887.399	4596
887.523	4626
887.648	4607
887.773	4577
887.897	4763
888.021	4721
888.146	4714
888.27	4774
888.395	4946
888.519	4816
888.643	4835
888.767	4889
888.891	4714
889.015	4630
889.139	4626
889.263	4584
889.387	4740
889.511	4870
889.635	4824
889.759	4656
889.883	4634
890.006	4778
890.13	4824
890.254	4637
890.377	4668
890.501	4550
890.624	4508
890.748	4641
890.871	4512
890.995	4424
891.118	4402
891.241	4558
891.364	4531
891.488	4634
891.611	4504
891.734	4554
891.857	4573
891.98	4588
892.103	4641
892.226	4611
892.349	4531
892.471	4417
892.594	4565
892.717	4592
892.839	4561
892.962	4618
893.085	4683
893.207	4577
893.33	4474
893.452	4569
893.575	4679
893.697	4630
893.819	4763
893.941	4850
894.064	4801
894.186	4592
894.308	4592
894.43	4725
894.552	4854
894.674	4744
894.796	4577
894.918	4603
895.04	4558
895.161	4694
895.283	4645
895.405	4550
895.526	4641
895.648	4668
895.769	4672
895.891	4733
896.012	4729
896.134	4771
896.255	4626
896.376	4615
896.498	4637
896.619	4706
896.74	4603
896.861	4634
896.982	4949
897.103	5102
897.224	4801
897.345	4729
897.466	4683
897.587	4763
897.708	4847
897.828	4809
897.949	4687
898.07	4558
898.19	4656
898.311	4835
898.431	4702
898.552	4721
898.672	4877
898.792	4774
898.913	4706
899.033	4615
899.153	4523
899.273	4409
899.393	4523
899.513	4531
899.633	4497
899.753	4512
899.873	4538
899.993	4561
900.113	4535
900.232	4580
900.352	4561
900.472	4489
900.591	4421
900.711	4519
900.83	4405
900.95	4618
901.069	4714
901.189	4573
901.308	4386
901.427	4360
901.546	4432
901.665	4421
901.784	4516
901.904	4402
902.023	4337
902.141	4246
902.26	4169
902.379	4306
902.498	4249
902.617	4253
902.735	4352
902.854	4428
902.973	4337
903.091	4192
903.21	4215
903.328	4325
903.446	4249
903.565	4257
903.683	4303
903.801	4322
903.919	4413
904.038	4459
904.156	4344
904.274	4436
904.392	4428
904.51	4447
904.627	4478
904.745	4554
904.863	4630
904.981	4447
905.098	4360
905.216	4413
905.334	4432
905.451	4409
905.569	4455
905.686	4603
905.803	4588
905.921	4421
906.038	4519
906.155	4497
906.272	4398
906.389	4470
906.506	4295
906.623	4405
906.74	4417
906.857	4306
906.974	4367
907.091	4603
907.208	4675
907.324	4577
907.441	4527
907.557	4333
907.674	4375
907.79	4306
907.907	4402
908.023	4527
908.139	4497
908.256	4440
908.372	4478
908.488	4443
908.604	4390
908.72	4322
908.836	4367
908.952	4379
909.068	4432
909.184	4554
909.3	4466
909.415	4542
909.531	4561
909.647	4371
909.762	4344
909.878	4325
909.993	4451
910.108	4398
910.224	4367
910.339	4519
910.454	4394
910.57	4360
910.685	4306
910.8	4637
910.915	4649
911.03	4497
911.145	4356
911.259	4333
911.374	4398
911.489	4314
911.604	4310
911.718	4173
911.833	4227
911.947	4112
912.062	4017
912.176	4158
912.291	4238
912.405	4272
912.519	4489
912.633	4512
912.748	4360
912.862	4348
912.976	4215
913.09	4063
913.204	4204
913.318	4280
913.431	4394
913.545	4398
913.659	4478
913.772	4375
913.886	4242
914	4261
914.113	4383
914.226	4421
914.34	4390
914.453	4249
914.566	4417
914.68	4322
914.793	4325
914.906	4227
915.019	4097
915.132	4067
915.245	4215
915.358	4223
915.47	4192
915.583	4249
915.696	4337
915.809	4409
915.921	4440
916.034	4284
916.146	4227
916.259	4230
916.371	4348
916.483	4363
916.595	4272
916.708	4337
916.82	4344
916.932	4287
917.044	4314
917.156	4322
917.268	4238
917.38	4272
917.491	4299
917.603	4348
917.715	4398
917.826	4455
917.938	4341
918.049	4276
918.161	4383
918.272	4565
918.384	4542
918.495	4474
918.606	4287
918.717	4200
918.828	4394
918.939	4409
919.05	4246
919.161	4348
919.272	4169
919.383	4230
919.494	4443
919.604	4596
919.715	4443
919.826	4322
919.936	4325
920.047	4523
920.157	4508
920.267	4698
920.378	4546
920.488	4508
920.598	4702
920.708	4953
920.818	4774
920.928	4793
921.038	4934
921.148	4930
921.258	4577
921.368	4538
921.477	4497
921.587	4440
921.697	4402
921.806	4596
921.916	4394
922.025	4253
922.134	4272
922.244	4169
922.353	4375
922.462	4188
922.571	4131
922.68	3991
922.789	4017
922.898	4036
923.007	3945
923.116	4101
923.224	4029
923.333	4097
923.442	3983
923.55	3987
923.659	4063
923.767	4112
923.876	4017
923.984	4093
924.092	4010
924.201	4051
924.309	4063
924.417	4112
924.525	4071
924.633	4131
924.741	5071
924.849	3888
924.956	4131
925.064	3987
925.172	3869
925.279	3964
925.387	4036
925.494	4059
925.602	4169
925.709	4158
925.816	4036
925.924	4124
926.031	4249
926.138	4223
926.245	4219
926.352	4105
926.459	4276
926.566	4280
926.673	4139
926.779	4074
926.886	4082
926.993	3987
927.099	3975
927.206	3903
927.312	3945
927.419	4051
927.525	4021
927.631	4086
927.737	3968
927.843	3941
927.95	3846
928.056	3960
928.162	3994
928.267	4074
928.373	4675
928.479	4101
928.585	3869
928.69	4010
928.796	4048
928.901	3949
929.007	3865
929.112	3994
929.218	4040
929.323	3983
929.428	3918
929.533	4112
929.638	3873
929.743	3934
929.848	4032
929.953	4002
930.058	3934
930.163	3797
930.267	3823
930.372	3979
930.477	3827
930.581	4078
930.685	3930
930.79	3865
930.894	3865
930.998	3823
931.103	4013
931.207	3736
931.311	3671
931.415	3656
931.519	3534
931.623	3538
