Data from test_V78500241_1611.txt Node
Date: Fri Mar 25 17:00:12 CST 2022
User: usil
Spectrometer: V785-0024
Trigger mode: 0
Integration Time (sec): 4.000000E-1
Scans to average: 1
Nonlinearity correction enabled: false
Boxcar width: 0
Storing dark spectrum: false
XAxis mode: Wavelengths
Number of Pixels in Spectrum: 1024
>>>>>Begin Spectral Data<<<<<
801.071	7928
801.214	8031
801.356	7811
801.499	7807
801.641	7753
801.783	7875
801.926	8005
802.068	8005
802.211	7947
802.353	8024
802.496	7780
802.638	7868
802.78	7860
802.923	7890
803.065	7868
803.208	7833
803.35	7944
803.492	8035
803.635	8134
803.777	7967
803.919	8081
804.061	8457
804.204	8126
804.346	8024
804.488	7898
804.63	8043
804.773	8012
804.915	8088
805.057	8279
805.199	8142
805.341	8210
805.483	8263
805.626	8157
805.768	8153
805.91	8149
806.052	8180
806.194	8039
806.336	8244
806.478	8062
806.62	7974
806.762	8142
806.904	8256
807.046	8457
807.188	8279
807.33	8256
807.472	8336
807.614	8119
807.756	8176
807.898	8039
808.04	7890
808.182	7906
808.324	7799
808.465	7864
808.607	7997
808.749	8103
808.891	8168
809.033	8301
809.174	8210
809.316	8077
809.458	7993
809.6	7989
809.741	8027
809.883	8008
810.025	8103
810.166	8069
810.308	7963
810.45	7917
810.591	7822
810.733	7708
810.875	7670
811.016	7529
811.158	7468
811.299	7594
811.441	7738
811.582	7647
811.724	7597
811.865	7487
812.007	7594
812.148	7666
812.29	7613
812.431	7742
812.573	7936
812.714	7928
812.855	8088
812.997	8202
813.138	8301
813.279	8164
813.421	8111
813.562	7989
813.703	7864
813.845	7761
813.986	7419
814.127	7217
814.268	7225
814.41	7198
814.551	7183
814.692	7240
814.833	7091
814.974	7133
815.115	7114
815.256	6947
815.397	6958
815.539	6985
815.68	6787
815.821	6749
815.962	6821
816.103	6757
816.244	6707
816.385	6627
816.526	6547
816.666	6479
816.807	6327
816.948	6399
817.089	6509
817.23	6422
817.371	6388
817.512	6334
817.653	6361
817.793	6331
817.934	6407
818.075	6414
818.216	6391
818.356	6380
818.497	6209
818.638	6079
818.778	6117
818.919	6083
819.06	6136
819.2	6311
819.341	6334
819.481	6285
819.622	6513
819.762	6776
819.903	6673
820.043	6616
820.184	6627
820.324	6528
820.465	6700
820.605	6700
820.746	6684
820.886	6506
821.026	6642
821.167	6665
821.307	6806
821.447	6776
821.588	6642
821.728	6528
821.868	6452
822.008	6346
822.149	6338
822.289	6372
822.429	6148
822.569	6121
822.709	6125
822.849	5954
822.99	5908
823.13	5889
823.27	5908
823.41	5786
823.55	5741
823.69	5756
823.83	5760
823.97	5676
824.11	5566
824.25	5463
824.389	5600
824.529	5627
824.669	5516
824.809	5653
824.949	5627
825.089	5668
825.228	5512
825.368	5349
825.508	5398
825.648	5311
825.787	5364
825.927	5364
826.067	5273
826.206	5299
826.346	5395
826.485	5398
826.625	5402
826.765	5497
826.904	5478
827.044	5288
827.183	5174
827.323	5109
827.462	5212
827.601	5178
827.741	5140
827.88	5242
828.02	5109
828.159	5197
828.298	5307
828.437	5353
828.577	5307
828.716	5433
828.855	5296
828.994	5121
829.134	5159
829.273	5212
829.412	5117
829.551	5094
829.69	5155
829.829	5216
829.968	5391
830.107	5231
830.246	5250
830.385	5155
830.524	5086
830.663	5060
830.802	5006
830.941	4831
831.08	4881
831.219	4984
831.357	4965
831.496	5159
831.635	4862
831.774	4816
831.913	4828
832.051	4721
832.19	4767
832.329	4858
832.467	4679
832.606	4683
832.744	4691
832.883	4698
833.022	4717
833.16	4763
833.299	4809
833.437	4839
833.576	4786
833.714	4866
833.852	4900
833.991	4858
834.129	4976
834.267	4946
834.406	4904
834.544	4995
834.682	4980
834.821	4949
834.959	5162
835.097	5003
835.235	5086
835.373	5079
835.511	5109
835.65	4995
835.788	5083
835.926	4873
836.064	4877
836.202	4946
836.34	5155
836.478	5246
836.615	5124
836.753	5181
836.891	5265
837.029	5220
837.167	5174
837.305	5151
837.443	5174
837.58	5086
837.718	5250
837.856	5151
837.993	5128
838.131	5204
838.269	5174
838.406	5231
838.544	5181
838.681	5048
838.819	5003
838.956	4881
839.094	4862
839.231	4972
839.369	5090
839.506	5425
839.643	5258
839.781	5029
839.918	4965
840.055	5121
840.193	5041
840.33	5121
840.467	5117
840.604	5143
840.742	5474
840.879	5083
841.016	5079
841.153	5121
841.29	5357
841.427	5303
841.564	5273
841.701	5326
841.838	5254
841.975	5250
842.112	5250
842.249	5140
842.385	5071
842.522	5318
842.659	5227
842.796	5174
842.933	5166
843.069	5102
843.206	5140
843.343	5265
843.479	5197
843.616	5265
843.752	5006
843.889	4984
844.025	5258
844.162	5056
844.298	5231
844.435	5079
844.571	5029
844.708	5201
844.844	5277
844.98	5311
845.117	5318
845.253	5098
845.389	5056
845.525	5102
845.661	5105
845.798	5041
845.934	5124
846.07	5071
846.206	5185
846.342	5216
846.478	5140
846.614	4991
846.75	4972
846.886	4881
847.022	5193
847.158	5071
847.294	5048
847.429	5079
847.565	5048
847.701	5292
847.837	4870
847.972	4850
848.108	4984
848.244	4900
848.379	4782
848.515	4694
848.65	4698
848.786	4740
848.921	4748
849.057	4858
849.192	4873
849.328	4839
849.463	4774
849.598	4831
849.734	4721
849.869	4683
850.004	4630
850.14	4603
850.275	4603
850.41	4516
850.545	4519
850.68	4634
850.815	4634
850.95	4618
851.085	4812
851.22	4744
851.355	4679
851.49	4634
851.625	4656
851.76	4668
851.895	4561
852.03	4577
852.165	4679
852.299	4752
852.434	4771
852.569	4733
852.703	4771
852.838	4831
852.973	4968
853.107	4904
853.242	4717
853.376	4660
853.511	4478
853.645	4607
853.78	4748
853.914	4645
854.048	4656
854.183	4660
854.317	4729
854.451	4839
854.585	4668
854.72	4630
854.854	4767
854.988	4580
855.122	4637
855.256	4519
855.39	4637
855.524	4782
855.658	4748
855.792	4721
855.926	4725
856.06	4702
856.194	4786
856.327	4672
856.461	4592
856.595	4607
856.729	4580
856.862	4755
856.996	4698
857.13	4687
857.263	4759
857.397	4816
857.53	4603
857.664	4710
857.797	4729
857.931	4797
858.064	4687
858.197	4748
858.331	4706
858.464	4656
858.597	4451
858.731	4611
858.864	4637
858.997	4603
859.13	4641
859.263	4626
859.396	4694
859.529	4546
859.662	4531
859.795	4478
859.928	4622
860.061	4755
860.194	4767
860.327	4603
860.46	4523
860.592	4687
860.725	4733
860.858	4675
860.99	4561
861.123	4504
861.256	4527
861.388	4622
861.521	5128
861.653	4485
861.786	4413
861.918	4459
862.05	4489
862.183	4497
862.315	4653
862.447	4618
862.58	4580
862.712	4386
862.844	4352
862.976	4451
863.108	4440
863.24	4759
863.372	4310
863.504	4493
863.636	4409
863.768	4485
863.9	4383
864.032	4322
864.164	4405
864.296	4531
864.428	4550
864.559	4580
864.691	4489
864.823	4565
864.954	4508
865.086	4455
865.217	4455
865.349	4417
865.48	4398
865.612	4451
865.743	4637
865.875	4485
866.006	4436
866.137	4459
866.269	4424
866.4	4447
866.531	4409
866.662	4390
866.793	4417
866.924	4390
867.055	4481
867.186	4436
867.317	4417
867.448	4428
867.579	4379
867.71	4390
867.841	4394
867.972	4428
868.103	4390
868.233	4451
868.364	4474
868.495	4481
868.625	4611
868.756	4729
868.886	4561
869.017	4679
869.147	4710
869.278	4702
869.408	4653
869.539	4588
869.669	4675
869.799	4683
869.929	4733
870.06	4710
870.19	4980
870.32	4870
870.45	4908
870.58	5006
870.71	5048
870.84	5064
870.97	4927
871.1	4885
871.23	5105
871.36	5075
871.489	5010
871.619	5102
871.749	5113
871.879	5067
872.008	5147
872.138	5041
872.267	4991
872.397	4847
872.526	4820
872.656	4740
872.785	4805
872.915	4968
873.044	5037
873.173	4896
873.303	4923
873.432	4896
873.561	4911
873.69	4854
873.819	4835
873.948	4858
874.077	4759
874.206	4733
874.335	4774
874.464	4873
874.593	5113
874.722	4927
874.851	5136
874.979	5075
875.108	5025
875.237	4885
875.365	4877
875.494	4904
875.623	4946
875.751	4847
875.88	4801
876.008	4946
876.136	5041
876.265	5147
876.393	5368
876.521	5204
876.65	5231
876.778	5143
876.906	5037
877.034	4995
877.162	4976
877.29	4984
877.418	5048
877.546	5067
877.674	5045
877.802	5025
877.93	5033
878.058	4927
878.185	4850
878.313	4980
878.441	4915
878.568	4759
878.696	4877
878.824	4957
878.951	5033
879.079	5124
879.206	5284
879.333	5083
879.461	4968
879.588	5022
879.715	5132
879.842	5208
879.97	5010
880.097	4801
880.224	4729
880.351	4816
880.478	4858
880.605	4736
880.732	4801
880.859	5025
880.986	4927
881.112	4854
881.239	4820
881.366	4630
881.493	4618
881.619	4603
881.746	4641
881.872	4645
881.999	4649
882.125	4683
882.252	4748
882.378	4828
882.505	4976
882.631	4778
882.757	4691
882.883	4717
883.01	4752
883.136	4702
883.262	4554
883.388	4641
883.514	4820
883.64	4835
883.766	4763
883.892	4672
884.018	4774
884.143	4877
884.269	4965
884.395	4668
884.52	4641
884.646	4656
884.772	4622
884.897	4516
885.023	4672
885.148	4744
885.274	4835
885.399	4831
885.524	4698
885.65	4687
885.775	4736
885.9	4698
886.025	4820
886.15	4759
886.275	4721
886.4	4660
886.525	4698
886.65	4710
886.775	4683
886.9	4877
887.025	4991
887.149	4763
887.274	4664
887.399	4592
887.523	4603
887.648	4577
887.773	4580
887.897	4786
888.021	4778
888.146	4634
888.27	4782
888.395	4850
888.519	4790
888.643	4801
888.767	4835
888.891	4698
889.015	4573
889.139	4622
889.263	4588
889.387	4748
889.511	4873
889.635	4809
889.759	4637
889.883	4634
890.006	4706
890.13	4801
890.254	4626
890.377	4691
890.501	4565
890.624	4440
890.748	4618
890.871	4451
890.995	4459
891.118	4390
891.241	4535
891.364	4554
891.488	4634
891.611	4523
891.734	4554
891.857	4596
891.98	4535
892.103	4584
892.226	4588
892.349	4538
892.471	4424
892.594	4516
892.717	4599
892.839	4611
892.962	4573
893.085	4634
893.207	4580
893.33	4459
893.452	4535
893.575	4664
893.697	4596
893.819	4797
893.941	4831
894.064	4767
894.186	4584
894.308	4565
894.43	4668
894.552	4744
894.674	4744
894.796	4561
894.918	4615
895.04	4535
895.161	4675
895.283	4653
895.405	4584
895.526	4577
895.648	4721
895.769	4675
895.891	4736
896.012	4653
896.134	4714
896.255	4641
896.376	4615
896.498	4531
896.619	4675
896.74	4683
896.861	4664
896.982	4934
897.103	5018
897.224	4824
897.345	4721
897.466	4679
897.587	4668
897.708	4828
897.828	4801
897.949	4603
898.07	4626
898.19	4611
898.311	4843
898.431	4637
898.552	4729
898.672	4828
898.792	4835
898.913	4774
899.033	4577
899.153	4516
899.273	4398
899.393	4523
899.513	4542
899.633	4451
899.753	4531
899.873	4470
899.993	4542
900.113	4512
900.232	4565
900.352	4546
900.472	4470
900.591	4363
900.711	4512
900.83	4455
900.95	4599
901.069	4653
901.189	4527
901.308	4405
901.427	4276
901.546	4371
901.665	4489
901.784	4516
901.904	4363
902.023	4325
902.141	4196
902.26	4246
902.379	4337
902.498	4268
902.617	4200
902.735	4352
902.854	4394
902.973	4348
903.091	4211
903.21	4169
903.328	4291
903.446	4261
903.565	4227
903.683	4325
903.801	4249
903.919	4383
904.038	4409
904.156	4333
904.274	4432
904.392	4390
904.51	4390
904.627	4455
904.745	4611
904.863	4607
904.981	4363
905.098	4333
905.216	4314
905.334	4436
905.451	4459
905.569	4417
905.686	4542
905.803	4577
905.921	4424
906.038	4542
906.155	4459
906.272	4386
906.389	4478
906.506	4295
906.623	4390
906.74	4352
906.857	4272
906.974	4383
907.091	4516
907.208	4683
907.324	4550
907.441	4500
907.557	4337
907.674	4344
907.79	4268
907.907	4375
908.023	4455
908.139	4455
908.256	4428
908.372	4455
908.488	4474
908.604	4299
908.72	4303
908.836	4402
908.952	4341
909.068	4466
909.184	4588
909.3	4440
909.415	4546
909.531	4535
909.647	4386
909.762	4394
909.878	4329
909.993	4451
910.108	4394
910.224	4405
910.339	4485
910.454	4409
910.57	4303
910.685	4287
910.8	4645
910.915	4573
911.03	4478
911.145	4341
911.259	4310
911.374	4310
911.489	4299
911.604	4272
911.718	4162
911.833	4154
911.947	4074
912.062	3991
912.176	4150
912.291	4211
912.405	4185
912.519	4474
912.633	4451
912.748	4367
912.862	4295
912.976	4196
913.09	4105
913.204	4135
913.318	4246
913.431	4318
913.545	4329
913.659	4413
913.772	4314
913.886	4196
914	4188
914.113	4360
914.226	4421
914.34	4352
914.453	4223
914.566	4413
914.68	4246
914.793	4322
914.906	4158
915.019	4086
915.132	4071
915.245	4185
915.358	4188
915.47	4261
915.583	4257
915.696	4291
915.809	4383
915.921	4428
916.034	4276
916.146	4227
916.259	4196
916.371	4299
916.483	4363
916.595	4242
916.708	4329
916.82	4299
916.932	4276
917.044	4280
917.156	4291
917.268	4204
917.38	4261
917.491	4268
917.603	4314
917.715	4409
917.826	4447
917.938	4363
918.049	4234
918.161	4379
918.272	4489
918.384	4538
918.495	4424
918.606	4310
918.717	4200
918.828	4310
918.939	4325
919.05	4230
919.161	4303
919.272	4124
919.383	4223
919.494	4447
919.604	4615
919.715	4394
919.826	4337
919.936	4405
920.047	4523
920.157	4493
920.267	4706
920.378	4523
920.488	4512
920.598	4759
920.708	4889
920.818	4763
920.928	4755
921.038	4961
921.148	4957
921.258	4630
921.368	4538
921.477	4493
921.587	4447
921.697	4421
921.806	4618
921.916	4417
922.025	4318
922.134	4280
922.244	4246
922.353	4360
922.462	4249
922.571	4177
922.68	4044
922.789	4048
922.898	4051
923.007	3987
923.116	4185
923.224	4082
923.333	4135
923.442	4036
923.55	3994
923.659	4116
923.767	4162
923.876	4044
923.984	4112
924.092	3964
924.201	4128
924.309	4116
924.417	4192
924.525	4082
924.633	4166
924.741	4942
924.849	3934
924.956	4150
925.064	3972
925.172	3907
925.279	4010
925.387	4086
925.494	4101
925.602	4207
925.709	4192
925.816	4071
925.924	4162
926.031	4261
926.138	4219
926.245	4227
926.352	4116
926.459	4310
926.566	4306
926.673	4204
926.779	4135
926.886	4143
926.993	4017
927.099	3994
927.206	3987
927.312	4029
927.419	4105
927.525	4055
927.631	4147
927.737	4048
927.843	4017
927.95	3884
928.056	3987
928.162	3994
928.267	4097
928.373	4653
928.479	4177
928.585	3873
928.69	4044
928.796	4101
928.901	4051
929.007	3884
929.112	4025
929.218	4036
929.323	4010
929.428	3983
929.533	4105
929.638	3922
929.743	3991
929.848	4059
929.953	4071
930.058	3960
930.163	3808
930.267	3884
930.372	4010
930.477	3857
930.581	4135
930.685	3953
930.79	3846
930.894	3949
930.998	3884
931.103	4044
931.207	3785
931.311	3747
931.415	3728
931.519	3553
931.623	3553
