Data from test_V78500241_986.txt Node
Date: Fri Mar 25 16:55:51 CST 2022
User: usil
Spectrometer: V785-0024
Trigger mode: 0
Integration Time (sec): 4.000000E-1
Scans to average: 1
Nonlinearity correction enabled: false
Boxcar width: 0
Storing dark spectrum: false
XAxis mode: Wavelengths
Number of Pixels in Spectrum: 1024
>>>>>Begin Spectral Data<<<<<
801.071	8088
801.214	8012
801.356	7879
801.499	7849
801.641	7837
801.783	7818
801.926	7997
802.068	7959
802.211	7978
802.353	7970
802.496	7849
802.638	7852
802.78	7898
802.923	7944
803.065	7921
803.208	7887
803.35	7986
803.492	8077
803.635	8195
803.777	8050
803.919	8153
804.061	8454
804.204	8138
804.346	8043
804.488	7982
804.63	8130
804.773	7978
804.915	8069
805.057	8286
805.199	8206
805.341	8275
805.483	8263
805.626	8142
805.768	8115
805.91	8210
806.052	8119
806.194	8058
806.336	8275
806.478	8062
806.62	8027
806.762	8191
806.904	8317
807.046	8457
807.188	8263
807.33	8309
807.472	8328
807.614	8180
807.756	8100
807.898	7986
808.04	7860
808.182	7936
808.324	7887
808.465	7921
808.607	7986
808.749	8065
808.891	8138
809.033	8275
809.174	8214
809.316	8020
809.458	8077
809.6	7974
809.741	8050
809.883	8008
810.025	8138
810.166	8084
810.308	7959
810.45	7963
810.591	7879
810.733	7719
810.875	7651
811.016	7495
811.158	7510
811.299	7605
811.441	7700
811.582	7597
811.724	7632
811.865	7510
812.007	7597
812.148	7540
812.29	7594
812.431	7738
812.573	7906
812.714	8001
812.855	8092
812.997	8221
813.138	8301
813.279	8161
813.421	8065
813.562	8035
813.703	7928
813.845	7818
813.986	7468
814.127	7244
814.268	7244
814.41	7240
814.551	7160
814.692	7202
814.833	7034
814.974	7114
815.115	7110
815.256	6935
815.397	6901
815.539	6993
815.68	6833
815.821	6798
815.962	6863
816.103	6886
816.244	6760
816.385	6711
816.526	6612
816.666	6536
816.807	6296
816.948	6464
817.089	6471
817.23	6460
817.371	6372
817.512	6445
817.653	6399
817.793	6319
817.934	6467
818.075	6399
818.216	6437
818.356	6365
818.497	6239
818.638	6136
818.778	6190
818.919	6201
819.06	6117
819.2	6300
819.341	6292
819.481	6350
819.622	6563
819.762	6700
819.903	6665
820.043	6604
820.184	6540
820.324	6597
820.465	6681
820.605	6604
820.746	6677
820.886	6502
821.026	6627
821.167	6681
821.307	6760
821.447	6760
821.588	6696
821.728	6589
821.868	6540
822.008	6281
822.149	6414
822.289	6380
822.429	6152
822.569	6136
822.709	6140
822.849	5969
822.99	5847
823.13	5931
823.27	5931
823.41	5764
823.55	5756
823.69	5760
823.83	5794
823.97	5649
824.11	5558
824.25	5497
824.389	5524
824.529	5570
824.669	5562
824.809	5630
824.949	5661
825.089	5627
825.228	5539
825.368	5387
825.508	5337
825.648	5334
825.787	5334
825.927	5379
826.067	5299
826.206	5292
826.346	5398
826.485	5459
826.625	5395
826.765	5520
826.904	5482
827.044	5235
827.183	5170
827.323	5102
827.462	5250
827.601	5170
827.741	5128
827.88	5246
828.02	5109
828.159	5189
828.298	5288
828.437	5315
828.577	5273
828.716	5478
828.855	5303
828.994	5223
829.134	5170
829.273	5185
829.412	5189
829.551	5102
829.69	5147
829.829	5223
829.968	5383
830.107	5311
830.246	5246
830.385	5178
830.524	5151
830.663	5064
830.802	4980
830.941	4919
831.08	4885
831.219	4987
831.357	4965
831.496	5124
831.635	4927
831.774	4885
831.913	4870
832.051	4740
832.19	4717
832.329	4820
832.467	4679
832.606	4615
832.744	4702
832.883	4729
833.022	4771
833.16	4816
833.299	4805
833.437	4816
833.576	4812
833.714	4896
833.852	4862
833.991	4923
834.129	4987
834.267	4938
834.406	4904
834.544	4995
834.682	4923
834.821	5003
834.959	5170
835.097	4984
835.235	5124
835.373	5102
835.511	5136
835.65	4987
835.788	5029
835.926	4889
836.064	4847
836.202	4892
836.34	5178
836.478	5242
836.615	5147
836.753	5208
836.891	5239
837.029	5242
837.167	5189
837.305	5121
837.443	5166
837.58	5048
837.718	5273
837.856	5166
837.993	5113
838.131	5201
838.269	5174
838.406	5166
838.544	5155
838.681	5075
838.819	5018
838.956	4843
839.094	4889
839.231	5033
839.369	5113
839.506	5402
839.643	5269
839.781	5064
839.918	5018
840.055	5086
840.193	5075
840.33	5143
840.467	5117
840.604	5155
840.742	5376
840.879	5094
841.016	5121
841.153	5181
841.29	5368
841.427	5326
841.564	5322
841.701	5360
841.838	5246
841.975	5280
842.112	5296
842.249	5128
842.385	5140
842.522	5395
842.659	5185
842.796	5143
842.933	5201
843.069	5174
843.206	5090
843.343	5311
843.479	5220
843.616	5242
843.752	5006
843.889	4976
844.025	5166
844.162	5014
844.298	5185
844.435	5064
844.571	5014
844.708	5212
844.844	5330
844.98	5265
845.117	5239
845.253	5102
845.389	5022
845.525	5147
845.661	5181
845.798	5006
845.934	5162
846.07	5117
846.206	5189
846.342	5280
846.478	5162
846.614	5018
846.75	4980
846.886	4957
847.022	5166
847.158	4987
847.294	5048
847.429	5018
847.565	5086
847.701	5299
847.837	4873
847.972	4763
848.108	4908
848.244	4942
848.379	4767
848.515	4755
848.65	4679
848.786	4763
848.921	4782
849.057	4847
849.192	4927
849.328	4843
849.463	4816
849.598	4778
849.734	4816
849.869	4748
850.004	4634
850.14	4656
850.275	4580
850.41	4504
850.545	4538
850.68	4577
850.815	4592
850.95	4634
851.085	4793
851.22	4725
851.355	4706
851.49	4607
851.625	4607
851.76	4607
851.895	4558
852.03	4542
852.165	4675
852.299	4721
852.434	4774
852.569	4771
852.703	4733
852.838	4843
852.973	4942
853.107	4850
853.242	4752
853.376	4683
853.511	4523
853.645	4592
853.78	4793
853.914	4672
854.048	4675
854.183	4599
854.317	4706
854.451	4862
854.585	4687
854.72	4679
854.854	4733
854.988	4531
855.122	4645
855.256	4542
855.39	4634
855.524	4778
855.658	4714
855.792	4714
855.926	4702
856.06	4748
856.194	4793
856.327	4660
856.461	4599
856.595	4580
856.729	4569
856.862	4763
856.996	4649
857.13	4721
857.263	4736
857.397	4755
857.53	4618
857.664	4744
857.797	4755
857.931	4771
858.064	4694
858.197	4729
858.331	4656
858.464	4599
858.597	4489
858.731	4615
858.864	4679
858.997	4618
859.13	4637
859.263	4683
859.396	4698
859.529	4558
859.662	4565
859.795	4535
859.928	4630
860.061	4763
860.194	4752
860.327	4622
860.46	4561
860.592	4683
860.725	4668
860.858	4706
860.99	4615
861.123	4485
861.256	4508
861.388	4615
861.521	5212
861.653	4500
861.786	4459
861.918	4443
862.05	4523
862.183	4550
862.315	4573
862.447	4607
862.58	4584
862.712	4402
862.844	4314
862.976	4443
863.108	4516
863.24	4911
863.372	4322
863.504	4432
863.636	4371
863.768	4443
863.9	4424
864.032	4341
864.164	4383
864.296	4440
864.428	4527
864.559	4538
864.691	4500
864.823	4508
864.954	4493
865.086	4504
865.217	4413
865.349	4379
865.48	4455
865.612	4481
865.743	4641
865.875	4379
866.006	4421
866.137	4436
866.269	4436
866.4	4436
866.531	4390
866.662	4383
866.793	4390
866.924	4413
867.055	4497
867.186	4443
867.317	4383
867.448	4337
867.579	4333
867.71	4363
867.841	4325
867.972	4436
868.103	4462
868.233	4436
868.364	4424
868.495	4519
868.625	4618
868.756	4763
868.886	4550
869.017	4622
869.147	4797
869.278	4755
869.408	4637
869.539	4645
869.669	4721
869.799	4694
869.929	4752
870.06	4725
870.19	4911
870.32	4934
870.45	4919
870.58	5045
870.71	5113
870.84	5083
870.97	4911
871.1	4892
871.23	5117
871.36	5155
871.489	5014
871.619	5067
871.749	5094
871.879	5117
872.008	5193
872.138	4968
872.267	4987
872.397	4854
872.526	4797
872.656	4721
872.785	4839
872.915	4938
873.044	4984
873.173	4919
873.303	4930
873.432	4965
873.561	4942
873.69	4786
873.819	4858
873.948	4911
874.077	4771
874.206	4786
874.335	4778
874.464	4896
874.593	5037
874.722	5014
874.851	5079
874.979	5056
875.108	5025
875.237	4896
875.365	4892
875.494	4866
875.623	4930
875.751	4793
875.88	4858
876.008	5003
876.136	5006
876.265	5162
876.393	5303
876.521	5258
876.65	5254
876.778	5170
876.906	5064
877.034	4999
877.162	5014
877.29	4991
877.418	5045
877.546	5060
877.674	5056
877.802	5067
877.93	5022
878.058	4915
878.185	4885
878.313	4877
878.441	4968
878.568	4809
878.696	4816
878.824	4968
878.951	5037
879.079	5117
879.206	5216
879.333	5052
879.461	4987
879.588	4972
879.715	5094
879.842	5189
879.97	4972
880.097	4759
880.224	4736
880.351	4759
880.478	4847
880.605	4729
880.732	4820
880.859	5090
880.986	4881
881.112	4915
881.239	4721
881.366	4622
881.493	4645
881.619	4626
881.746	4645
881.872	4653
881.999	4630
882.125	4668
882.252	4805
882.378	4831
882.505	4965
882.631	4809
882.757	4706
882.883	4710
883.01	4763
883.136	4656
883.262	4607
883.388	4607
883.514	4824
883.64	4828
883.766	4744
883.892	4702
884.018	4725
884.143	4885
884.269	4976
884.395	4656
884.52	4588
884.646	4660
884.772	4588
884.897	4569
885.023	4645
885.148	4809
885.274	4870
885.399	4771
885.524	4752
885.65	4694
885.775	4694
885.9	4706
886.025	4881
886.15	4763
886.275	4736
886.4	4660
886.525	4679
886.65	4679
886.775	4656
886.9	4900
887.025	5045
887.149	4778
887.274	4641
887.399	4531
887.523	4573
887.648	4561
887.773	4580
887.897	4771
888.021	4736
888.146	4634
888.27	4801
888.395	4854
888.519	4778
888.643	4778
888.767	4809
888.891	4729
889.015	4569
889.139	4637
889.263	4618
889.387	4744
889.511	4831
889.635	4793
889.759	4634
889.883	4664
890.006	4698
890.13	4835
890.254	4615
890.377	4656
890.501	4504
890.624	4512
890.748	4588
890.871	4558
890.995	4413
891.118	4386
891.241	4459
891.364	4523
891.488	4588
891.611	4436
891.734	4538
891.857	4573
891.98	4611
892.103	4649
892.226	4535
892.349	4489
892.471	4424
892.594	4546
892.717	4584
892.839	4580
892.962	4599
893.085	4649
893.207	4580
893.33	4474
893.452	4516
893.575	4630
893.697	4577
893.819	4774
893.941	4854
894.064	4759
894.186	4588
894.308	4577
894.43	4714
894.552	4797
894.674	4752
894.796	4538
894.918	4584
895.04	4538
895.161	4721
895.283	4656
895.405	4550
895.526	4634
895.648	4645
895.769	4660
895.891	4672
896.012	4668
896.134	4729
896.255	4664
896.376	4611
896.498	4573
896.619	4702
896.74	4542
896.861	4596
896.982	4873
897.103	5033
897.224	4790
897.345	4759
897.466	4653
897.587	4675
897.708	4839
897.828	4790
897.949	4622
898.07	4561
898.19	4664
898.311	4812
898.431	4679
898.552	4729
898.672	4774
898.792	4782
898.913	4725
899.033	4626
899.153	4504
899.273	4413
899.393	4516
899.513	4516
899.633	4504
899.753	4550
899.873	4512
899.993	4615
900.113	4493
900.232	4516
900.352	4542
900.472	4451
900.591	4424
900.711	4440
900.83	4440
900.95	4611
901.069	4675
901.189	4561
901.308	4402
901.427	4287
901.546	4363
901.665	4466
901.784	4508
901.904	4329
902.023	4325
902.141	4120
902.26	4116
902.379	4287
902.498	4230
902.617	4242
902.735	4337
902.854	4337
902.973	4356
903.091	4169
903.21	4242
903.328	4295
903.446	4253
903.565	4234
903.683	4329
903.801	4287
903.919	4363
904.038	4447
904.156	4261
904.274	4413
904.392	4405
904.51	4409
904.627	4485
904.745	4573
904.863	4588
904.981	4386
905.098	4272
905.216	4333
905.334	4413
905.451	4394
905.569	4432
905.686	4527
905.803	4592
905.921	4417
906.038	4558
906.155	4470
906.272	4367
906.389	4459
906.506	4341
906.623	4390
906.74	4367
906.857	4322
906.974	4383
907.091	4504
907.208	4637
907.324	4565
907.441	4459
907.557	4333
907.674	4325
907.79	4344
907.907	4352
908.023	4447
908.139	4481
908.256	4398
908.372	4443
908.488	4417
908.604	4337
908.72	4272
908.836	4322
908.952	4348
909.068	4443
909.184	4550
909.3	4440
909.415	4550
909.531	4584
909.647	4337
909.762	4360
909.878	4371
909.993	4402
910.108	4375
910.224	4421
910.339	4462
910.454	4367
910.57	4337
910.685	4272
910.8	4645
910.915	4580
911.03	4523
911.145	4310
911.259	4299
911.374	4284
911.489	4318
911.604	4261
911.718	4135
911.833	4185
911.947	4078
912.062	4002
912.176	4177
912.291	4249
912.405	4257
912.519	4459
912.633	4519
912.748	4284
912.862	4322
912.976	4188
913.09	4105
913.204	4204
913.318	4230
913.431	4394
913.545	4341
913.659	4451
913.772	4360
913.886	4249
914	4242
914.113	4360
914.226	4409
914.34	4413
914.453	4246
914.566	4428
914.68	4238
914.793	4318
914.906	4150
915.019	4120
915.132	4086
915.245	4135
915.358	4204
915.47	4242
915.583	4268
915.696	4284
915.809	4379
915.921	4390
916.034	4249
916.146	4234
916.259	4215
916.371	4402
916.483	4375
916.595	4265
916.708	4276
916.82	4337
916.932	4261
917.044	4337
917.156	4295
917.268	4196
917.38	4272
917.491	4284
917.603	4333
917.715	4386
917.826	4462
917.938	4337
918.049	4227
918.161	4367
918.272	4569
918.384	4527
918.495	4451
918.606	4253
918.717	4268
918.828	4386
918.939	4405
919.05	4246
919.161	4306
919.272	4124
919.383	4219
919.494	4440
919.604	4649
919.715	4455
919.826	4341
919.936	4363
920.047	4546
920.157	4485
920.267	4771
920.378	4519
920.488	4519
920.598	4691
920.708	4930
920.818	4740
920.928	4782
921.038	4999
921.148	4877
921.258	4618
921.368	4527
921.477	4550
921.587	4481
921.697	4352
921.806	4535
921.916	4409
922.025	4261
922.134	4268
922.244	4257
922.353	4344
922.462	4139
922.571	4131
922.68	3987
922.789	3975
922.898	3964
923.007	4002
923.116	4074
923.224	4055
923.333	4063
923.442	4021
923.55	3987
923.659	3975
923.767	4112
923.876	4006
923.984	4105
924.092	3987
924.201	4097
924.309	4086
924.417	4109
924.525	4067
924.633	4097
924.741	5079
924.849	3907
924.956	4128
925.064	3953
925.172	3903
925.279	3956
925.387	4017
925.494	4051
925.602	4211
925.709	4185
925.816	4051
925.924	4131
926.031	4238
926.138	4143
926.245	4200
926.352	4105
926.459	4253
926.566	4268
926.673	4162
926.779	4067
926.886	4059
926.993	3960
927.099	3994
927.206	3930
927.312	3934
927.419	4051
927.525	4025
927.631	4105
927.737	3949
927.843	3922
927.95	3838
928.056	3892
928.162	3979
928.267	3979
928.373	4668
928.479	4131
928.585	3861
928.69	4013
928.796	4048
928.901	4010
929.007	3865
929.112	3998
929.218	4013
929.323	3941
929.428	3937
929.533	4063
929.638	3937
929.743	3979
929.848	4032
929.953	3956
930.058	3911
930.163	3740
930.267	3808
930.372	3972
930.477	3869
930.581	4090
930.685	3945
930.79	3804
930.894	3926
930.998	3865
931.103	4071
931.207	3682
931.311	3694
931.415	3648
931.519	3504
931.623	3561
