Data from test_V78500241_2607.txt Node
Date: Fri Mar 25 17:07:07 CST 2022
User: usil
Spectrometer: V785-0024
Trigger mode: 0
Integration Time (sec): 4.000000E-1
Scans to average: 1
Nonlinearity correction enabled: false
Boxcar width: 0
Storing dark spectrum: false
XAxis mode: Wavelengths
Number of Pixels in Spectrum: 1024
>>>>>Begin Spectral Data<<<<<
801.071	8096
801.214	8062
801.356	7951
801.499	7860
801.641	7837
801.783	7879
801.926	8054
802.068	7989
802.211	8039
802.353	8065
802.496	7974
802.638	7947
802.78	7963
802.923	7993
803.065	7917
803.208	7928
803.35	7993
803.492	8183
803.635	8229
803.777	8107
803.919	8214
804.061	8465
804.204	8237
804.346	8107
804.488	8046
804.63	8142
804.773	7970
804.915	8092
805.057	8324
805.199	8183
805.341	8256
805.483	8328
805.626	8339
805.768	8180
805.91	8259
806.052	8279
806.194	8202
806.336	8298
806.478	8172
806.62	8065
806.762	8145
806.904	8252
807.046	8537
807.188	8476
807.33	8328
807.472	8339
807.614	8134
807.756	8096
807.898	8145
808.04	7913
808.182	7936
808.324	8012
808.465	7989
808.607	8115
808.749	8157
808.891	8240
809.033	8301
809.174	8298
809.316	8111
809.458	8073
809.6	8062
809.741	8073
809.883	8115
810.025	8195
810.166	8119
810.308	8157
810.45	8016
810.591	7852
810.733	7750
810.875	7655
811.016	7601
811.158	7563
811.299	7571
811.441	7742
811.582	7738
811.724	7590
811.865	7575
812.007	7696
812.148	7582
812.29	7639
812.431	7765
812.573	7849
812.714	7951
812.855	8134
812.997	8237
813.138	8332
813.279	8157
813.421	8107
813.562	8012
813.703	7902
813.845	7818
813.986	7422
814.127	7354
814.268	7228
814.41	7213
814.551	7190
814.692	7228
814.833	7137
814.974	7202
815.115	7187
815.256	6909
815.397	7046
815.539	6981
815.68	6833
815.821	6791
815.962	6909
816.103	6913
816.244	6768
816.385	6669
816.526	6642
816.666	6582
816.807	6384
816.948	6494
817.089	6498
817.23	6528
817.371	6426
817.512	6380
817.653	6410
817.793	6384
817.934	6445
818.075	6490
818.216	6437
818.356	6429
818.497	6258
818.638	6194
818.778	6152
818.919	6098
819.06	6129
819.2	6384
819.341	6353
819.481	6388
819.622	6563
819.762	6798
819.903	6696
820.043	6631
820.184	6623
820.324	6608
820.465	6768
820.605	6757
820.746	6612
820.886	6597
821.026	6692
821.167	6715
821.307	6867
821.447	6818
821.588	6745
821.728	6669
821.868	6502
822.008	6456
822.149	6391
822.289	6414
822.429	6251
822.569	6163
822.709	6117
822.849	5999
822.99	5988
823.13	6015
823.27	5958
823.41	5847
823.55	5794
823.69	5760
823.83	5790
823.97	5653
824.11	5611
824.25	5535
824.389	5589
824.529	5615
824.669	5554
824.809	5646
824.949	5676
825.089	5684
825.228	5566
825.368	5414
825.508	5383
825.648	5311
825.787	5368
825.927	5368
826.067	5330
826.206	5307
826.346	5379
826.485	5387
826.625	5395
826.765	5543
826.904	5505
827.044	5315
827.183	5250
827.323	5216
827.462	5265
827.601	5159
827.741	5227
827.88	5269
828.02	5155
828.159	5288
828.298	5341
828.437	5383
828.577	5334
828.716	5535
828.855	5395
828.994	5151
829.134	5189
829.273	5220
829.412	5181
829.551	5147
829.69	5189
829.829	5258
829.968	5402
830.107	5280
830.246	5349
830.385	5220
830.524	5181
830.663	5037
830.802	5060
830.941	4866
831.08	4908
831.219	4957
831.357	5022
831.496	5216
831.635	4930
831.774	4896
831.913	4881
832.051	4801
832.19	4759
832.329	4862
832.467	4729
832.606	4660
832.744	4763
832.883	4744
833.022	4763
833.16	4828
833.299	4820
833.437	4911
833.576	4873
833.714	4892
833.852	4889
833.991	4919
834.129	5010
834.267	4968
834.406	4915
834.544	4976
834.682	4984
834.821	4984
834.959	5197
835.097	4987
835.235	5132
835.373	5098
835.511	5147
835.65	5102
835.788	5018
835.926	4915
836.064	4915
836.202	4930
836.34	5201
836.478	5269
836.615	5155
836.753	5220
836.891	5326
837.029	5265
837.167	5239
837.305	5227
837.443	5170
837.58	5136
837.718	5273
837.856	5242
837.993	5201
838.131	5223
838.269	5242
838.406	5235
838.544	5197
838.681	5018
838.819	5075
838.956	4904
839.094	4866
839.231	4999
839.369	5117
839.506	5471
839.643	5280
839.781	5113
839.918	5041
840.055	5159
840.193	5094
840.33	5159
840.467	5132
840.604	5235
840.742	5459
840.879	5079
841.016	5090
841.153	5132
841.29	5364
841.427	5341
841.564	5326
841.701	5345
841.838	5330
841.975	5273
842.112	5292
842.249	5124
842.385	5105
842.522	5330
842.659	5197
842.796	5159
842.933	5220
843.069	5185
843.206	5178
843.343	5353
843.479	5269
843.616	5345
843.752	5006
843.889	5037
844.025	5280
844.162	5014
844.298	5204
844.435	5079
844.571	5086
844.708	5208
844.844	5265
844.98	5322
845.117	5311
845.253	5140
845.389	5098
845.525	5128
845.661	5185
845.798	5075
845.934	5155
846.07	5067
846.206	5216
846.342	5307
846.478	5201
846.614	5048
846.75	4957
846.886	4949
847.022	5136
847.158	5060
847.294	5124
847.429	5121
847.565	5113
847.701	5318
847.837	4839
847.972	4889
848.108	4965
848.244	4991
848.379	4812
848.515	4691
848.65	4736
848.786	4763
848.921	4797
849.057	4881
849.192	4938
849.328	4820
849.463	4858
849.598	4816
849.734	4782
849.869	4748
850.004	4679
850.14	4656
850.275	4683
850.41	4523
850.545	4588
850.68	4618
850.815	4683
850.95	4641
851.085	4831
851.22	4752
851.355	4714
851.49	4634
851.625	4618
851.76	4656
851.895	4580
852.03	4519
852.165	4630
852.299	4763
852.434	4782
852.569	4714
852.703	4790
852.838	4850
852.973	4949
853.107	4938
853.242	4748
853.376	4683
853.511	4554
853.645	4607
853.78	4839
853.914	4698
854.048	4653
854.183	4656
854.317	4736
854.451	4831
854.585	4691
854.72	4653
854.854	4733
854.988	4592
855.122	4660
855.256	4580
855.39	4687
855.524	4763
855.658	4752
855.792	4725
855.926	4748
856.06	4740
856.194	4870
856.327	4664
856.461	4664
856.595	4626
856.729	4637
856.862	4759
856.996	4706
857.13	4733
857.263	4801
857.397	4843
857.53	4664
857.664	4736
857.797	4778
857.931	4839
858.064	4702
858.197	4805
858.331	4664
858.464	4645
858.597	4588
858.731	4634
858.864	4618
858.997	4607
859.13	4664
859.263	4694
859.396	4733
859.529	4603
859.662	4611
859.795	4535
859.928	4615
860.061	4771
860.194	4755
860.327	4599
860.46	4519
860.592	4740
860.725	4748
860.858	4744
860.99	4622
861.123	4519
861.256	4481
861.388	4634
861.521	5436
861.653	4440
861.786	4474
861.918	4481
862.05	4531
862.183	4535
862.315	4618
862.447	4653
862.58	4596
862.712	4383
862.844	4375
862.976	4443
863.108	4485
863.24	4809
863.372	4310
863.504	4443
863.636	4398
863.768	4455
863.9	4478
864.032	4379
864.164	4440
864.296	4466
864.428	4561
864.559	4615
864.691	4535
864.823	4558
864.954	4508
865.086	4500
865.217	4489
865.349	4440
865.48	4523
865.612	4481
865.743	4618
865.875	4455
866.006	4417
866.137	4500
866.269	4447
866.4	4417
866.531	4440
866.662	4417
866.793	4417
866.924	4474
867.055	4500
867.186	4421
867.317	4447
867.448	4436
867.579	4363
867.71	4360
867.841	4329
867.972	4481
868.103	4428
868.233	4459
868.364	4405
868.495	4569
868.625	4664
868.756	4790
868.886	4519
869.017	4611
869.147	4771
869.278	4847
869.408	4698
869.539	4618
869.669	4725
869.799	4641
869.929	4755
870.06	4710
870.19	4942
870.32	4927
870.45	4949
870.58	5025
870.71	5124
870.84	5067
870.97	4942
871.1	4904
871.23	5159
871.36	5170
871.489	5003
871.619	5048
871.749	5151
871.879	5083
872.008	5201
872.138	5067
872.267	5014
872.397	4889
872.526	4831
872.656	4729
872.785	4797
872.915	4946
873.044	5060
873.173	4976
873.303	4965
873.432	4949
873.561	5010
873.69	4870
873.819	4877
873.948	4934
874.077	4858
874.206	4793
874.335	4812
874.464	4934
874.593	5056
874.722	4953
874.851	5071
874.979	5060
875.108	4987
875.237	4885
875.365	4881
875.494	4858
875.623	4938
875.751	4809
875.88	4889
876.008	4995
876.136	5056
876.265	5170
876.393	5345
876.521	5250
876.65	5284
876.778	5155
876.906	5083
877.034	5037
877.162	5003
877.29	4946
877.418	5083
877.546	5105
877.674	5083
877.802	5041
877.93	4999
878.058	4991
878.185	4854
878.313	4949
878.441	4923
878.568	4820
878.696	4900
878.824	4968
878.951	4999
879.079	5174
879.206	5299
879.333	5105
879.461	5006
879.588	5018
879.715	5121
879.842	5185
879.97	5048
880.097	4793
880.224	4755
880.351	4759
880.478	4847
880.605	4847
880.732	4812
880.859	5136
880.986	4904
881.112	4896
881.239	4778
881.366	4691
881.493	4584
881.619	4626
881.746	4630
881.872	4729
881.999	4675
882.125	4664
882.252	4771
882.378	4797
882.505	4980
882.631	4782
882.757	4649
882.883	4721
883.01	4774
883.136	4668
883.262	4573
883.388	4611
883.514	4839
883.64	4858
883.766	4843
883.892	4664
884.018	4702
884.143	4896
884.269	4999
884.395	4660
884.52	4645
884.646	4641
884.772	4561
884.897	4630
885.023	4656
885.148	4790
885.274	4809
885.399	4801
885.524	4706
885.65	4691
885.775	4771
885.9	4752
886.025	4786
886.15	4767
886.275	4706
886.4	4687
886.525	4755
886.65	4668
886.775	4668
886.9	4923
887.025	4999
887.149	4828
887.274	4672
887.399	4569
887.523	4577
887.648	4527
887.773	4584
887.897	4698
888.021	4824
888.146	4714
888.27	4812
888.395	4850
888.519	4786
888.643	4877
888.767	4797
888.891	4675
889.015	4592
889.139	4675
889.263	4649
889.387	4767
889.511	4866
889.635	4801
889.759	4664
889.883	4641
890.006	4717
890.13	4797
890.254	4672
890.377	4664
890.501	4588
890.624	4512
890.748	4660
890.871	4527
890.995	4421
891.118	4383
891.241	4542
891.364	4558
891.488	4637
891.611	4485
891.734	4573
891.857	4611
891.98	4497
892.103	4656
892.226	4618
892.349	4485
892.471	4440
892.594	4558
892.717	4584
892.839	4584
892.962	4558
893.085	4683
893.207	4611
893.33	4447
893.452	4565
893.575	4649
893.697	4592
893.819	4793
893.941	4816
894.064	4805
894.186	4554
894.308	4546
894.43	4767
894.552	4828
894.674	4736
894.796	4542
894.918	4569
895.04	4565
895.161	4675
895.283	4618
895.405	4603
895.526	4683
895.648	4656
895.769	4710
895.891	4733
896.012	4763
896.134	4710
896.255	4656
896.376	4683
896.498	4641
896.619	4710
896.74	4626
896.861	4660
896.982	4919
897.103	5022
897.224	4797
897.345	4736
897.466	4660
897.587	4733
897.708	4824
897.828	4767
897.949	4679
898.07	4573
898.19	4618
898.311	4824
898.431	4675
898.552	4687
898.672	4820
898.792	4812
898.913	4729
899.033	4687
899.153	4500
899.273	4360
899.393	4519
899.513	4542
899.633	4550
899.753	4550
899.873	4516
899.993	4573
900.113	4561
900.232	4630
900.352	4558
900.472	4493
900.591	4402
900.711	4508
900.83	4455
900.95	4561
901.069	4668
901.189	4531
901.308	4379
901.427	4314
901.546	4375
901.665	4478
901.784	4474
901.904	4363
902.023	4325
902.141	4234
902.26	4154
902.379	4268
902.498	4234
902.617	4265
902.735	4352
902.854	4436
902.973	4367
903.091	4211
903.21	4246
903.328	4303
903.446	4261
903.565	4280
903.683	4325
903.801	4310
903.919	4421
904.038	4409
904.156	4337
904.274	4409
904.392	4409
904.51	4417
904.627	4478
904.745	4596
904.863	4679
904.981	4367
905.098	4322
905.216	4386
905.334	4417
905.451	4413
905.569	4421
905.686	4512
905.803	4561
905.921	4405
906.038	4573
906.155	4481
906.272	4398
906.389	4489
906.506	4383
906.623	4390
906.74	4394
906.857	4318
906.974	4371
907.091	4527
907.208	4656
907.324	4577
907.441	4489
907.557	4265
907.674	4314
907.79	4318
907.907	4375
908.023	4489
908.139	4447
908.256	4447
908.372	4527
908.488	4474
908.604	4402
908.72	4344
908.836	4341
908.952	4394
909.068	4428
909.184	4535
909.3	4500
909.415	4561
909.531	4580
909.647	4371
909.762	4386
909.878	4348
909.993	4390
910.108	4428
910.224	4383
910.339	4474
910.454	4379
910.57	4344
910.685	4299
910.8	4687
910.915	4618
911.03	4493
911.145	4322
911.259	4299
911.374	4417
911.489	4276
911.604	4306
911.718	4166
911.833	4257
911.947	4093
912.062	4029
912.176	4185
912.291	4188
912.405	4211
912.519	4409
912.633	4485
912.748	4352
912.862	4265
912.976	4265
913.09	4116
913.204	4196
913.318	4246
913.431	4348
913.545	4371
913.659	4394
913.772	4352
913.886	4257
914	4200
914.113	4371
914.226	4440
914.34	4402
914.453	4249
914.566	4413
914.68	4325
914.793	4356
914.906	4116
915.019	4166
915.132	4105
915.245	4166
915.358	4196
915.47	4249
915.583	4238
915.696	4291
915.809	4421
915.921	4432
916.034	4295
916.146	4234
916.259	4227
916.371	4371
916.483	4402
916.595	4246
916.708	4291
916.82	4344
916.932	4318
917.044	4356
917.156	4375
917.268	4253
917.38	4314
917.491	4238
917.603	4333
917.715	4417
917.826	4462
917.938	4306
918.049	4249
918.161	4375
918.272	4580
918.384	4519
918.495	4493
918.606	4257
918.717	4230
918.828	4348
918.939	4383
919.05	4257
919.161	4322
919.272	4128
919.383	4272
919.494	4436
919.604	4637
919.715	4440
919.826	4375
919.936	4390
920.047	4504
920.157	4497
920.267	4694
920.378	4538
920.488	4478
920.598	4714
920.708	4877
920.818	4771
920.928	4774
921.038	4930
921.148	4946
921.258	4637
921.368	4588
921.477	4497
921.587	4485
921.697	4375
921.806	4550
921.916	4413
922.025	4291
922.134	4310
922.244	4265
922.353	4322
922.462	4173
922.571	4200
922.68	3998
922.789	3972
922.898	4051
923.007	3983
923.116	4093
923.224	4071
923.333	4074
923.442	3987
923.55	4006
923.659	4025
923.767	4128
923.876	3975
923.984	4101
924.092	3964
924.201	3998
924.309	4071
924.417	4112
924.525	4040
924.633	4143
924.741	5037
924.849	3941
924.956	4143
925.064	3949
925.172	3911
925.279	3934
925.387	4101
925.494	4055
925.602	4169
925.709	4135
925.816	4093
925.924	4143
926.031	4230
926.138	4131
926.245	4219
926.352	4078
926.459	4284
926.566	4291
926.673	4158
926.779	4063
926.886	4036
926.993	3956
927.099	3930
927.206	3937
927.312	3888
927.419	4029
927.525	4013
927.631	4112
927.737	3968
927.843	3930
927.95	3854
928.056	3953
928.162	4051
928.267	4051
928.373	4618
928.479	4147
928.585	3880
928.69	3994
928.796	4082
928.901	3949
929.007	3827
929.112	4006
929.218	3975
929.323	3899
929.428	3972
929.533	4109
929.638	3911
929.743	3941
929.848	4055
929.953	3991
930.058	3918
930.163	3774
930.267	3827
930.372	3949
930.477	3793
930.581	4055
930.685	3934
930.79	3823
930.894	3884
930.998	3827
931.103	4055
931.207	3720
931.311	3690
931.415	3686
931.519	3462
931.623	3553
