Data from test_V78500241_2716.txt Node
Date: Fri Mar 25 17:07:53 CST 2022
User: usil
Spectrometer: V785-0024
Trigger mode: 0
Integration Time (sec): 4.000000E-1
Scans to average: 1
Nonlinearity correction enabled: false
Boxcar width: 0
Storing dark spectrum: false
XAxis mode: Wavelengths
Number of Pixels in Spectrum: 1024
>>>>>Begin Spectral Data<<<<<
801.071	8046
801.214	7947
801.356	7841
801.499	7887
801.641	7776
801.783	7868
801.926	7993
802.068	7974
802.211	7974
802.353	7963
802.496	7909
802.638	7963
802.78	7963
802.923	7959
803.065	7879
803.208	7887
803.35	7993
803.492	8065
803.635	8123
803.777	8024
803.919	8191
804.061	8404
804.204	8172
804.346	8020
804.488	7928
804.63	8092
804.773	8092
804.915	8142
805.057	8313
805.199	8153
805.341	8244
805.483	8320
805.626	8233
805.768	8206
805.91	8240
806.052	8259
806.194	8134
806.336	8271
806.478	8073
806.62	8084
806.762	8164
806.904	8218
807.046	8434
807.188	8412
807.33	8263
807.472	8351
807.614	8229
807.756	8164
807.898	7947
808.04	7921
808.182	7947
808.324	7871
808.465	7951
808.607	8054
808.749	8138
808.891	8240
809.033	8347
809.174	8218
809.316	8065
809.458	8058
809.6	8008
809.741	8073
809.883	7982
810.025	8214
810.166	8020
810.308	8054
810.45	7944
810.591	7902
810.733	7803
810.875	7696
811.016	7518
811.158	7441
811.299	7540
811.441	7734
811.582	7681
811.724	7601
811.865	7590
812.007	7651
812.148	7586
812.29	7696
812.431	7723
812.573	7887
812.714	7963
812.855	8161
812.997	8183
813.138	8320
813.279	8248
813.421	8035
813.562	8050
813.703	7841
813.845	7792
813.986	7483
814.127	7259
814.268	7198
814.41	7244
814.551	7099
814.692	7179
814.833	7103
814.974	7107
815.115	7160
815.256	6966
815.397	6973
815.539	6928
815.68	6779
815.821	6764
815.962	6848
816.103	6837
816.244	6722
816.385	6620
816.526	6658
816.666	6563
816.807	6300
816.948	6479
817.089	6544
817.23	6422
817.371	6372
817.512	6391
817.653	6376
817.793	6319
817.934	6384
818.075	6536
818.216	6418
818.356	6464
818.497	6209
818.638	6133
818.778	6098
818.919	6117
819.06	6186
819.2	6273
819.341	6334
819.481	6342
819.622	6536
819.762	6776
819.903	6715
820.043	6665
820.184	6585
820.324	6627
820.465	6677
820.605	6711
820.746	6608
820.886	6563
821.026	6738
821.167	6726
821.307	6783
821.447	6745
821.588	6681
821.728	6566
821.868	6456
822.008	6334
822.149	6407
822.289	6258
822.429	6194
822.569	6079
822.709	6083
822.849	5958
822.99	5931
823.13	5893
823.27	5965
823.41	5771
823.55	5783
823.69	5786
823.83	5752
823.97	5611
824.11	5528
824.25	5505
824.389	5528
824.529	5619
824.669	5520
824.809	5661
824.949	5665
825.089	5623
825.228	5562
825.368	5345
825.508	5330
825.648	5311
825.787	5444
825.927	5341
826.067	5269
826.206	5299
826.346	5318
826.485	5410
826.625	5425
826.765	5535
826.904	5532
827.044	5254
827.183	5223
827.323	5124
827.462	5258
827.601	5147
827.741	5216
827.88	5178
828.02	5147
828.159	5189
828.298	5303
828.437	5326
828.577	5250
828.716	5433
828.855	5322
828.994	5109
829.134	5121
829.273	5178
829.412	5178
829.551	5121
829.69	5166
829.829	5258
829.968	5357
830.107	5280
830.246	5258
830.385	5197
830.524	5105
830.663	5083
830.802	4999
830.941	4870
831.08	4896
831.219	4987
831.357	4961
831.496	5166
831.635	4976
831.774	4866
831.913	4873
832.051	4694
832.19	4733
832.329	4828
832.467	4702
832.606	4634
832.744	4706
832.883	4687
833.022	4714
833.16	4816
833.299	4801
833.437	4824
833.576	4805
833.714	4866
833.852	4854
833.991	4877
834.129	4991
834.267	4938
834.406	4877
834.544	4972
834.682	4904
834.821	4949
834.959	5181
835.097	5060
835.235	5109
835.373	5056
835.511	5132
835.65	5003
835.788	4991
835.926	4896
836.064	4885
836.202	4892
836.34	5178
836.478	5185
836.615	5132
836.753	5170
836.891	5269
837.029	5220
837.167	5174
837.305	5181
837.443	5136
837.58	5086
837.718	5178
837.856	5204
837.993	5132
838.131	5178
838.269	5212
838.406	5147
838.544	5166
838.681	5048
838.819	4987
838.956	4923
839.094	4881
839.231	4957
839.369	5083
839.506	5376
839.643	5269
839.781	5094
839.918	5033
840.055	5136
840.193	5090
840.33	5109
840.467	5151
840.604	5147
840.742	5421
840.879	5056
841.016	5064
841.153	5094
841.29	5341
841.427	5360
841.564	5292
841.701	5292
841.838	5277
841.975	5227
842.112	5246
842.249	5113
842.385	5094
842.522	5345
842.659	5204
842.796	5105
842.933	5231
843.069	5170
843.206	5185
843.343	5261
843.479	5174
843.616	5261
843.752	5006
843.889	4991
844.025	5174
844.162	5006
844.298	5185
844.435	5052
844.571	5052
844.708	5140
844.844	5337
844.98	5322
845.117	5349
845.253	5094
845.389	5094
845.525	5216
845.661	5109
845.798	5033
845.934	5121
846.07	5033
846.206	5201
846.342	5284
846.478	5162
846.614	5025
846.75	4949
846.886	4984
847.022	5151
847.158	5033
847.294	5060
847.429	5090
847.565	5079
847.701	5337
847.837	4835
847.972	4866
848.108	4946
848.244	4965
848.379	4752
848.515	4717
848.65	4702
848.786	4774
848.921	4786
849.057	4915
849.192	4915
849.328	4797
849.463	4866
849.598	4782
849.734	4702
849.869	4691
850.004	4592
850.14	4660
850.275	4592
850.41	4573
850.545	4554
850.68	4653
850.815	4649
850.95	4630
851.085	4828
851.22	4771
851.355	4645
851.49	4607
851.625	4664
851.76	4645
851.895	4565
852.03	4569
852.165	4641
852.299	4717
852.434	4733
852.569	4725
852.703	4714
852.838	4835
852.973	4919
853.107	4904
853.242	4717
853.376	4637
853.511	4478
853.645	4607
853.78	4790
853.914	4679
854.048	4702
854.183	4656
854.317	4698
854.451	4816
854.585	4683
854.72	4672
854.854	4771
854.988	4531
855.122	4664
855.256	4497
855.39	4653
855.524	4774
855.658	4691
855.792	4672
855.926	4752
856.06	4763
856.194	4843
856.327	4729
856.461	4607
856.595	4615
856.729	4634
856.862	4759
856.996	4725
857.13	4759
857.263	4725
857.397	4793
857.53	4672
857.664	4691
857.797	4714
857.931	4755
858.064	4714
858.197	4759
858.331	4668
858.464	4626
858.597	4478
858.731	4622
858.864	4622
858.997	4584
859.13	4694
859.263	4649
859.396	4675
859.529	4538
859.662	4554
859.795	4523
859.928	4626
860.061	4752
860.194	4793
860.327	4615
860.46	4565
860.592	4687
860.725	4672
860.858	4786
860.99	4542
861.123	4500
861.256	4478
861.388	4550
861.521	5322
861.653	4481
861.786	4459
861.918	4428
862.05	4485
862.183	4538
862.315	4607
862.447	4664
862.58	4577
862.712	4409
862.844	4375
862.976	4413
863.108	4440
863.24	4717
863.372	4314
863.504	4398
863.636	4390
863.768	4485
863.9	4443
864.032	4314
864.164	4421
864.296	4508
864.428	4531
864.559	4523
864.691	4531
864.823	4580
864.954	4470
865.086	4478
865.217	4455
865.349	4390
865.48	4451
865.612	4489
865.743	4626
865.875	4508
866.006	4428
866.137	4447
866.269	4455
866.4	4459
866.531	4413
866.662	4424
866.793	4390
866.924	4447
867.055	4500
867.186	4462
867.317	4417
867.448	4398
867.579	4398
867.71	4367
867.841	4394
867.972	4470
868.103	4478
868.233	4455
868.364	4451
868.495	4478
868.625	4687
868.756	4740
868.886	4569
869.017	4607
869.147	4786
869.278	4786
869.408	4660
869.539	4618
869.669	4725
869.799	4596
869.929	4805
870.06	4744
870.19	4915
870.32	4896
870.45	4965
870.58	4999
870.71	5124
870.84	5140
870.97	4919
871.1	4885
871.23	5185
871.36	5147
871.489	5029
871.619	5128
871.749	5098
871.879	5136
872.008	5178
872.138	5060
872.267	4946
872.397	4812
872.526	4805
872.656	4698
872.785	4809
872.915	4930
873.044	5083
873.173	4915
873.303	4980
873.432	4976
873.561	4942
873.69	4850
873.819	4885
873.948	4927
874.077	4782
874.206	4771
874.335	4828
874.464	4927
874.593	5067
874.722	4953
874.851	5109
874.979	5060
875.108	5052
875.237	4923
875.365	4816
875.494	4854
875.623	4980
875.751	4847
875.88	4839
876.008	4991
876.136	5014
876.265	5220
876.393	5334
876.521	5223
876.65	5254
876.778	5136
876.906	5010
877.034	5067
877.162	5037
877.29	4987
877.418	5037
877.546	5037
877.674	5075
877.802	4995
877.93	5025
878.058	4953
878.185	4870
878.313	4999
878.441	4938
878.568	4797
878.696	4839
878.824	4938
878.951	5029
879.079	5064
879.206	5311
879.333	5075
879.461	4991
879.588	5041
879.715	5071
879.842	5185
879.97	5064
880.097	4778
880.224	4748
880.351	4763
880.478	4812
880.605	4782
880.732	4805
880.859	5090
880.986	4892
881.112	4892
881.239	4812
881.366	4630
881.493	4580
881.619	4561
881.746	4618
881.872	4630
881.999	4660
882.125	4687
882.252	4793
882.378	4839
882.505	4984
882.631	4767
882.757	4645
882.883	4736
883.01	4729
883.136	4645
883.262	4607
883.388	4588
883.514	4835
883.64	4885
883.766	4771
883.892	4660
884.018	4725
884.143	4930
884.269	5018
884.395	4675
884.52	4641
884.646	4691
884.772	4599
884.897	4546
885.023	4649
885.148	4733
885.274	4820
885.399	4805
885.524	4702
885.65	4679
885.775	4790
885.9	4714
886.025	4866
886.15	4759
886.275	4763
886.4	4634
886.525	4736
886.65	4691
886.775	4755
886.9	4892
887.025	5048
887.149	4835
887.274	4649
887.399	4599
887.523	4603
887.648	4634
887.773	4584
887.897	4782
888.021	4748
888.146	4698
888.27	4797
888.395	4900
888.519	4889
888.643	4828
888.767	4801
888.891	4740
889.015	4584
889.139	4649
889.263	4634
889.387	4786
889.511	4850
889.635	4763
889.759	4592
889.883	4607
890.006	4740
890.13	4809
890.254	4599
890.377	4714
890.501	4500
890.624	4546
890.748	4592
890.871	4523
890.995	4405
891.118	4371
891.241	4508
891.364	4516
891.488	4611
891.611	4436
891.734	4538
891.857	4611
891.98	4584
892.103	4653
892.226	4542
892.349	4542
892.471	4447
892.594	4516
892.717	4569
892.839	4580
892.962	4542
893.085	4687
893.207	4630
893.33	4466
893.452	4504
893.575	4622
893.697	4569
893.819	4774
893.941	4900
894.064	4778
894.186	4580
894.308	4599
894.43	4767
894.552	4824
894.674	4767
894.796	4561
894.918	4516
895.04	4569
895.161	4706
895.283	4660
895.405	4554
895.526	4615
895.648	4664
895.769	4660
895.891	4687
896.012	4740
896.134	4740
896.255	4706
896.376	4645
896.498	4626
896.619	4683
896.74	4592
896.861	4645
896.982	4908
897.103	5105
897.224	4812
897.345	4805
897.466	4721
897.587	4778
897.708	4873
897.828	4778
897.949	4698
898.07	4523
898.19	4592
898.311	4828
898.431	4653
898.552	4736
898.672	4793
898.792	4847
898.913	4744
899.033	4645
899.153	4542
899.273	4462
899.393	4481
899.513	4474
899.633	4538
899.753	4504
899.873	4516
899.993	4596
900.113	4546
900.232	4569
900.352	4535
900.472	4497
900.591	4371
900.711	4493
900.83	4424
900.95	4611
901.069	4694
901.189	4596
901.308	4360
901.427	4310
901.546	4352
901.665	4455
901.784	4489
901.904	4424
902.023	4356
902.141	4166
902.26	4162
902.379	4375
902.498	4242
902.617	4219
902.735	4379
902.854	4402
902.973	4379
903.091	4173
903.21	4249
903.328	4268
903.446	4310
903.565	4223
903.683	4329
903.801	4284
903.919	4405
904.038	4447
904.156	4329
904.274	4436
904.392	4405
904.51	4462
904.627	4497
904.745	4569
904.863	4641
904.981	4405
905.098	4284
905.216	4360
905.334	4428
905.451	4421
905.569	4402
905.686	4565
905.803	4554
905.921	4383
906.038	4493
906.155	4508
906.272	4390
906.389	4451
906.506	4329
906.623	4379
906.74	4413
906.857	4329
906.974	4329
907.091	4535
907.208	4672
907.324	4546
907.441	4519
907.557	4386
907.674	4325
907.79	4322
907.907	4348
908.023	4497
908.139	4451
908.256	4424
908.372	4493
908.488	4428
908.604	4363
908.72	4356
908.836	4409
908.952	4348
909.068	4447
909.184	4573
909.3	4459
909.415	4634
909.531	4565
909.647	4352
909.762	4386
909.878	4303
909.993	4402
910.108	4432
910.224	4394
910.339	4478
910.454	4386
910.57	4352
910.685	4261
910.8	4694
910.915	4615
911.03	4455
911.145	4322
911.259	4291
911.374	4352
911.489	4314
911.604	4261
911.718	4204
911.833	4200
911.947	4059
912.062	3994
912.176	4200
912.291	4211
912.405	4227
912.519	4474
912.633	4481
912.748	4356
912.862	4261
912.976	4192
913.09	4124
913.204	4166
913.318	4257
913.431	4371
913.545	4383
913.659	4455
913.772	4333
913.886	4261
914	4276
914.113	4386
914.226	4478
914.34	4417
914.453	4242
914.566	4424
914.68	4310
914.793	4303
914.906	4150
915.019	4131
915.132	4128
915.245	4143
915.358	4242
915.47	4246
915.583	4318
915.696	4299
915.809	4398
915.921	4383
916.034	4299
916.146	4329
916.259	4246
916.371	4371
916.483	4344
916.595	4280
916.708	4325
916.82	4318
916.932	4333
917.044	4306
917.156	4383
917.268	4249
917.38	4272
917.491	4238
917.603	4314
917.715	4436
917.826	4375
917.938	4379
918.049	4246
918.161	4394
918.272	4584
918.384	4580
918.495	4432
918.606	4246
918.717	4246
918.828	4360
918.939	4371
919.05	4227
919.161	4329
919.272	4097
919.383	4272
919.494	4436
919.604	4634
919.715	4455
919.826	4356
919.936	4383
920.047	4508
920.157	4455
920.267	4683
920.378	4565
920.488	4531
920.598	4748
920.708	4881
920.818	4752
920.928	4759
921.038	4873
921.148	4984
921.258	4618
921.368	4508
921.477	4535
921.587	4459
921.697	4398
921.806	4558
921.916	4424
922.025	4238
922.134	4253
922.244	4227
922.353	4322
922.462	4150
922.571	4116
922.68	4032
922.789	3968
922.898	4021
923.007	4051
923.116	4063
923.224	4078
923.333	4063
923.442	3983
923.55	3979
923.659	4044
923.767	4059
923.876	3987
923.984	4097
924.092	3964
924.201	4082
924.309	4055
924.417	4120
924.525	4021
924.633	4131
924.741	5083
924.849	3922
924.956	4158
925.064	3964
925.172	3934
925.279	3956
925.387	4025
925.494	4032
925.602	4207
925.709	4188
925.816	4029
925.924	4154
926.031	4253
926.138	4185
926.245	4219
926.352	4067
926.459	4295
926.566	4291
926.673	4143
926.779	4116
926.886	4093
926.993	3983
927.099	3968
927.206	3979
927.312	3983
927.419	4040
927.525	4013
927.631	4097
927.737	3983
927.843	3979
927.95	3831
928.056	3964
928.162	3956
928.267	4063
928.373	4599
928.479	4124
928.585	3876
928.69	4025
928.796	4051
928.901	3956
929.007	3857
929.112	4029
929.218	4048
929.323	3964
929.428	3934
929.533	4116
929.638	3926
929.743	3960
929.848	4040
929.953	3983
930.058	3926
930.163	3770
930.267	3873
930.372	3998
930.477	3865
930.581	4101
930.685	3964
930.79	3804
930.894	3876
930.998	3819
931.103	4040
931.207	3740
931.311	3694
931.415	3743
931.519	3500
931.623	3564
