Data from test_V78500241_777.txt Node
Date: Fri Mar 25 16:54:24 CST 2022
User: usil
Spectrometer: V785-0024
Trigger mode: 0
Integration Time (sec): 4.000000E-1
Scans to average: 1
Nonlinearity correction enabled: false
Boxcar width: 0
Storing dark spectrum: false
XAxis mode: Wavelengths
Number of Pixels in Spectrum: 1024
>>>>>Begin Spectral Data<<<<<
801.071	8024
801.214	7963
801.356	7936
801.499	7860
801.641	7788
801.783	7887
801.926	7967
802.068	7986
802.211	7932
802.353	7947
802.496	7826
802.638	7841
802.78	7864
802.923	7925
803.065	7879
803.208	7868
803.35	8001
803.492	8081
803.635	8149
803.777	8065
803.919	8077
804.061	8374
804.204	8130
804.346	8008
804.488	7967
804.63	8107
804.773	7989
804.915	8142
805.057	8294
805.199	8199
805.341	8168
805.483	8252
805.626	8225
805.768	8077
805.91	8161
806.052	8195
806.194	8123
806.336	8282
806.478	8088
806.62	7993
806.762	8126
806.904	8218
807.046	8393
807.188	8415
807.33	8237
807.472	8259
807.614	8142
807.756	8115
807.898	7947
808.04	7803
808.182	7902
808.324	7879
808.465	7932
808.607	8016
808.749	8084
808.891	8267
809.033	8286
809.174	8176
809.316	8077
809.458	8001
809.6	7993
809.741	7944
809.883	7989
810.025	8005
810.166	8081
810.308	8016
810.45	8084
810.591	7845
810.733	7715
810.875	7685
811.016	7540
811.158	7480
811.299	7548
811.441	7685
811.582	7681
811.724	7495
811.865	7552
812.007	7575
812.148	7586
812.29	7548
812.431	7689
812.573	7765
812.714	7974
812.855	8065
812.997	8248
813.138	8309
813.279	8138
813.421	8058
813.562	8020
813.703	7841
813.845	7731
813.986	7445
814.127	7289
814.268	7190
814.41	7213
814.551	7118
814.692	7107
814.833	7042
814.974	7103
815.115	7103
815.256	6920
815.397	6939
815.539	6977
815.68	6825
815.821	6722
815.962	6871
816.103	6833
816.244	6719
816.385	6688
816.526	6585
816.666	6456
816.807	6319
816.948	6426
817.089	6418
817.23	6407
817.371	6346
817.512	6418
817.653	6399
817.793	6334
817.934	6403
818.075	6391
818.216	6448
818.356	6357
818.497	6247
818.638	6057
818.778	6148
818.919	6136
819.06	6140
819.2	6273
819.341	6285
819.481	6365
819.622	6536
819.762	6726
819.903	6730
820.043	6578
820.184	6570
820.324	6513
820.465	6711
820.605	6673
820.746	6578
820.886	6467
821.026	6627
821.167	6696
821.307	6806
821.447	6791
821.588	6639
821.728	6563
821.868	6486
822.008	6300
822.149	6319
822.289	6399
822.429	6129
822.569	6091
822.709	6091
822.849	5893
822.99	5824
823.13	5847
823.27	5897
823.41	5745
823.55	5779
823.69	5748
823.83	5794
823.97	5642
824.11	5482
824.25	5505
824.389	5539
824.529	5573
824.669	5474
824.809	5630
824.949	5680
825.089	5615
825.228	5528
825.368	5391
825.508	5315
825.648	5349
825.787	5357
825.927	5341
826.067	5299
826.206	5296
826.346	5379
826.485	5383
826.625	5368
826.765	5573
826.904	5512
827.044	5231
827.183	5223
827.323	5147
827.462	5189
827.601	5136
827.741	5159
827.88	5212
828.02	5045
828.159	5201
828.298	5277
828.437	5353
828.577	5269
828.716	5448
828.855	5254
828.994	5174
829.134	5098
829.273	5204
829.412	5162
829.551	5067
829.69	5147
829.829	5231
829.968	5337
830.107	5250
830.246	5265
830.385	5220
830.524	5140
830.663	5006
830.802	4919
830.941	4885
831.08	4858
831.219	4949
831.357	4995
831.496	5140
831.635	4919
831.774	4847
831.913	4801
832.051	4687
832.19	4744
832.329	4847
832.467	4714
832.606	4611
832.744	4710
832.883	4717
833.022	4698
833.16	4809
833.299	4847
833.437	4797
833.576	4839
833.714	4870
833.852	4831
833.991	4847
834.129	4991
834.267	4980
834.406	4938
834.544	4957
834.682	4927
834.821	4908
834.959	5155
835.097	4999
835.235	5136
835.373	5075
835.511	5094
835.65	4991
835.788	5033
835.926	4873
836.064	4896
836.202	4892
836.34	5185
836.478	5239
836.615	5086
836.753	5197
836.891	5280
837.029	5220
837.167	5181
837.305	5113
837.443	5109
837.58	5067
837.718	5166
837.856	5189
837.993	5151
838.131	5227
838.269	5269
838.406	5181
838.544	5216
838.681	5006
838.819	5003
838.956	4919
839.094	4991
839.231	5003
839.369	5079
839.506	5341
839.643	5212
839.781	5029
839.918	5018
840.055	5060
840.193	5033
840.33	5105
840.467	5155
840.604	5124
840.742	5402
840.879	5033
841.016	5094
841.153	5117
841.29	5345
841.427	5299
841.564	5311
841.701	5353
841.838	5242
841.975	5201
842.112	5246
842.249	5185
842.385	5117
842.522	5326
842.659	5147
842.796	5174
842.933	5204
843.069	5143
843.206	5117
843.343	5318
843.479	5220
843.616	5269
843.752	5067
843.889	5014
844.025	5197
844.162	5041
844.298	5220
844.435	5109
844.571	4999
844.708	5185
844.844	5311
844.98	5334
845.117	5220
845.253	5071
845.389	5067
845.525	5162
845.661	5181
845.798	5022
845.934	5098
846.07	5052
846.206	5227
846.342	5273
846.478	5223
846.614	5022
846.75	4904
846.886	4923
847.022	5201
847.158	4946
847.294	5045
847.429	5128
847.565	5048
847.701	5337
847.837	4858
847.972	4767
848.108	4915
848.244	4953
848.379	4736
848.515	4694
848.65	4702
848.786	4691
848.921	4771
849.057	4858
849.192	4885
849.328	4831
849.463	4843
849.598	4801
849.734	4778
849.869	4664
850.004	4596
850.14	4649
850.275	4588
850.41	4561
850.545	4573
850.68	4603
850.815	4637
850.95	4618
851.085	4793
851.22	4740
851.355	4641
851.49	4615
851.625	4660
851.76	4611
851.895	4508
852.03	4516
852.165	4645
852.299	4752
852.434	4771
852.569	4744
852.703	4752
852.838	4816
852.973	4934
853.107	4968
853.242	4733
853.376	4660
853.511	4565
853.645	4611
853.78	4831
853.914	4649
854.048	4679
854.183	4637
854.317	4717
854.451	4828
854.585	4641
854.72	4588
854.854	4725
854.988	4611
855.122	4599
855.256	4512
855.39	4672
855.524	4790
855.658	4744
855.792	4664
855.926	4729
856.06	4725
856.194	4786
856.327	4660
856.461	4611
856.595	4622
856.729	4603
856.862	4767
856.996	4702
857.13	4721
857.263	4744
857.397	4786
857.53	4649
857.664	4710
857.797	4755
857.931	4755
858.064	4687
858.197	4721
858.331	4653
858.464	4603
858.597	4508
858.731	4607
858.864	4637
858.997	4592
859.13	4664
859.263	4645
859.396	4653
859.529	4535
859.662	4519
859.795	4596
859.928	4641
860.061	4790
860.194	4759
860.327	4630
860.46	4550
860.592	4679
860.725	4782
860.858	4717
860.99	4588
861.123	4527
861.256	4523
861.388	4637
861.521	5227
861.653	4493
861.786	4451
861.918	4455
862.05	4500
862.183	4554
862.315	4596
862.447	4641
862.58	4565
862.712	4337
862.844	4367
862.976	4443
863.108	4443
863.24	4908
863.372	4356
863.504	4386
863.636	4394
863.768	4455
863.9	4436
864.032	4344
864.164	4371
864.296	4470
864.428	4504
864.559	4531
864.691	4531
864.823	4519
864.954	4470
865.086	4470
865.217	4447
865.349	4421
865.48	4417
865.612	4497
865.743	4607
865.875	4436
866.006	4375
866.137	4470
866.269	4470
866.4	4478
866.531	4432
866.662	4371
866.793	4383
866.924	4428
867.055	4466
867.186	4443
867.317	4428
867.448	4310
867.579	4375
867.71	4363
867.841	4356
867.972	4436
868.103	4436
868.233	4485
868.364	4497
868.495	4478
868.625	4656
868.756	4725
868.886	4577
869.017	4637
869.147	4774
869.278	4752
869.408	4660
869.539	4664
869.669	4694
869.799	4649
869.929	4790
870.06	4733
870.19	4938
870.32	4972
870.45	4911
870.58	5018
870.71	5060
870.84	5071
870.97	4968
871.1	4885
871.23	5109
871.36	5124
871.489	5022
871.619	5037
871.749	5048
871.879	5166
872.008	5212
872.138	5045
872.267	4938
872.397	4831
872.526	4763
872.656	4702
872.785	4790
872.915	4915
873.044	5010
873.173	4949
873.303	4953
873.432	4938
873.561	4919
873.69	4854
873.819	4828
873.948	4900
874.077	4790
874.206	4740
874.335	4812
874.464	4896
874.593	5018
874.722	4915
874.851	5083
874.979	5014
875.108	5094
875.237	4862
875.365	4896
875.494	4870
875.623	4957
875.751	4847
875.88	4862
876.008	4976
876.136	4999
876.265	5201
876.393	5315
876.521	5292
876.65	5201
876.778	5197
876.906	5086
877.034	5041
877.162	5105
877.29	5006
877.418	5029
877.546	5041
877.674	5037
877.802	5033
877.93	5006
878.058	4953
878.185	4900
878.313	4942
878.441	4930
878.568	4774
878.696	4915
878.824	4972
878.951	4965
879.079	5098
879.206	5303
879.333	5083
879.461	4965
879.588	5018
879.715	5071
879.842	5250
879.97	4987
880.097	4809
880.224	4717
880.351	4820
880.478	4831
880.605	4797
880.732	4782
880.859	5079
880.986	4858
881.112	4930
881.239	4812
881.366	4679
881.493	4630
881.619	4546
881.746	4607
881.872	4634
881.999	4668
882.125	4668
882.252	4755
882.378	4805
882.505	4942
882.631	4782
882.757	4645
882.883	4691
883.01	4740
883.136	4725
883.262	4588
883.388	4630
883.514	4790
883.64	4877
883.766	4805
883.892	4702
884.018	4698
884.143	4881
884.269	5045
884.395	4672
884.52	4573
884.646	4637
884.772	4584
884.897	4527
885.023	4622
885.148	4786
885.274	4805
885.399	4782
885.524	4752
885.65	4691
885.775	4736
885.9	4679
886.025	4854
886.15	4793
886.275	4729
886.4	4645
886.525	4748
886.65	4637
886.775	4622
886.9	4934
887.025	4999
887.149	4793
887.274	4664
887.399	4577
887.523	4603
887.648	4565
887.773	4569
887.897	4793
888.021	4816
888.146	4683
888.27	4778
888.395	4881
888.519	4767
888.643	4866
888.767	4820
888.891	4668
889.015	4592
889.139	4645
889.263	4618
889.387	4771
889.511	4847
889.635	4828
889.759	4687
889.883	4615
890.006	4698
890.13	4885
890.254	4645
890.377	4691
890.501	4561
890.624	4485
890.748	4607
890.871	4523
890.995	4363
891.118	4386
891.241	4516
891.364	4558
891.488	4599
891.611	4489
891.734	4516
891.857	4558
891.98	4580
892.103	4615
892.226	4607
892.349	4550
892.471	4394
892.594	4523
892.717	4603
892.839	4519
892.962	4592
893.085	4706
893.207	4599
893.33	4500
893.452	4538
893.575	4637
893.697	4554
893.819	4820
893.941	4793
894.064	4771
894.186	4569
894.308	4519
894.43	4721
894.552	4816
894.674	4740
894.796	4535
894.918	4611
895.04	4538
895.161	4679
895.283	4725
895.405	4535
895.526	4599
895.648	4729
895.769	4672
895.891	4744
896.012	4729
896.134	4767
896.255	4679
896.376	4603
896.498	4588
896.619	4668
896.74	4607
896.861	4664
896.982	4877
897.103	5064
897.224	4793
897.345	4744
897.466	4645
897.587	4714
897.708	4866
897.828	4778
897.949	4675
898.07	4558
898.19	4630
898.311	4831
898.431	4694
898.552	4733
898.672	4752
898.792	4748
898.913	4729
899.033	4615
899.153	4493
899.273	4466
899.393	4508
899.513	4554
899.633	4500
899.753	4508
899.873	4504
899.993	4577
900.113	4558
900.232	4569
900.352	4558
900.472	4508
900.591	4413
900.711	4489
900.83	4440
900.95	4611
901.069	4656
901.189	4561
901.308	4352
901.427	4314
901.546	4443
901.665	4451
901.784	4519
901.904	4375
902.023	4306
902.141	4181
902.26	4128
902.379	4329
902.498	4265
902.617	4215
902.735	4322
902.854	4375
902.973	4379
903.091	4215
903.21	4162
903.328	4272
903.446	4215
903.565	4234
903.683	4344
903.801	4322
903.919	4348
904.038	4474
904.156	4276
904.274	4432
904.392	4402
904.51	4451
904.627	4474
904.745	4603
904.863	4649
904.981	4405
905.098	4287
905.216	4428
905.334	4462
905.451	4405
905.569	4398
905.686	4538
905.803	4546
905.921	4363
906.038	4546
906.155	4489
906.272	4428
906.389	4474
906.506	4371
906.623	4363
906.74	4352
906.857	4310
906.974	4356
907.091	4542
907.208	4668
907.324	4622
907.441	4512
907.557	4371
907.674	4352
907.79	4314
907.907	4451
908.023	4462
908.139	4462
908.256	4424
908.372	4470
908.488	4474
908.604	4386
908.72	4306
908.836	4375
908.952	4375
909.068	4443
909.184	4592
909.3	4497
909.415	4550
909.531	4573
909.647	4371
909.762	4375
909.878	4352
909.993	4421
910.108	4409
910.224	4390
910.339	4512
910.454	4409
910.57	4348
910.685	4287
910.8	4626
910.915	4626
911.03	4478
911.145	4375
911.259	4318
911.374	4363
911.489	4367
911.604	4299
911.718	4173
911.833	4192
911.947	4082
912.062	4010
912.176	4173
912.291	4253
912.405	4268
912.519	4470
912.633	4481
912.748	4363
912.862	4314
912.976	4219
913.09	4059
913.204	4177
913.318	4230
913.431	4405
913.545	4383
913.659	4402
913.772	4375
913.886	4211
914	4238
914.113	4371
914.226	4440
914.34	4337
914.453	4253
914.566	4386
914.68	4272
914.793	4360
914.906	4082
915.019	4093
915.132	4048
915.245	4143
915.358	4188
915.47	4230
915.583	4272
915.696	4257
915.809	4360
915.921	4402
916.034	4287
916.146	4238
916.259	4173
916.371	4356
916.483	4337
916.595	4230
916.708	4299
916.82	4280
916.932	4352
917.044	4287
917.156	4325
917.268	4207
917.38	4306
917.491	4253
917.603	4352
917.715	4421
917.826	4451
917.938	4325
918.049	4249
918.161	4383
918.272	4500
918.384	4542
918.495	4443
918.606	4314
918.717	4246
918.828	4352
918.939	4383
919.05	4261
919.161	4299
919.272	4139
919.383	4181
919.494	4451
919.604	4584
919.715	4417
919.826	4356
919.936	4379
920.047	4512
920.157	4500
920.267	4767
920.378	4592
920.488	4424
920.598	4721
920.708	4908
920.818	4752
920.928	4733
921.038	4949
921.148	4881
921.258	4599
921.368	4561
921.477	4512
921.587	4459
921.697	4360
921.806	4561
921.916	4440
922.025	4333
922.134	4261
922.244	4185
922.353	4356
922.462	4169
922.571	4112
922.68	3975
922.789	3994
922.898	4051
923.007	3987
923.116	4078
923.224	4025
923.333	4059
923.442	3991
923.55	3994
923.659	4013
923.767	4139
923.876	4010
923.984	4116
924.092	4025
924.201	4074
924.309	4071
924.417	4112
924.525	4086
924.633	4112
924.741	4858
924.849	3930
924.956	4131
925.064	3975
925.172	3892
925.279	3994
925.387	4055
925.494	4048
925.602	4196
925.709	4207
925.816	4017
925.924	4154
926.031	4177
926.138	4124
926.245	4211
926.352	4097
926.459	4272
926.566	4287
926.673	4124
926.779	4086
926.886	4055
926.993	3941
927.099	3945
927.206	3926
927.312	3892
927.419	4086
927.525	4048
927.631	4044
927.737	3953
927.843	3930
927.95	3865
928.056	3922
928.162	3987
928.267	4059
928.373	4672
928.479	4093
928.585	3899
928.69	3991
928.796	4067
928.901	3975
929.007	3838
929.112	3972
929.218	4013
929.323	3975
929.428	3964
929.533	4112
929.638	3880
929.743	3926
929.848	4036
929.953	3975
930.058	3907
930.163	3759
930.267	3816
930.372	3960
930.477	3854
930.581	4086
930.685	3930
930.79	3838
930.894	3911
930.998	3823
931.103	4090
931.207	3694
931.311	3690
931.415	3701
931.519	3534
931.623	3534
