Data from test_V78500241_76.txt Node
Date: Fri Mar 25 16:49:31 CST 2022
User: usil
Spectrometer: V785-0024
Trigger mode: 0
Integration Time (sec): 4.000000E-1
Scans to average: 1
Nonlinearity correction enabled: false
Boxcar width: 0
Storing dark spectrum: false
XAxis mode: Wavelengths
Number of Pixels in Spectrum: 1024
>>>>>Begin Spectral Data<<<<<
801.071	8062
801.214	8027
801.356	7913
801.499	7890
801.641	7856
801.783	7852
801.926	8081
802.068	8027
802.211	7986
802.353	8027
802.496	7928
802.638	7974
802.78	7993
802.923	8001
803.065	7887
803.208	7841
803.35	8050
803.492	8084
803.635	8119
803.777	7955
803.919	8130
804.061	8465
804.204	8081
804.346	8065
804.488	7951
804.63	8123
804.773	7955
804.915	8103
805.057	8233
805.199	8180
805.341	8225
805.483	8244
805.626	8206
805.768	8107
805.91	8259
806.052	8206
806.194	8054
806.336	8336
806.478	8134
806.62	8149
806.762	8244
806.904	8324
807.046	8450
807.188	8374
807.33	8381
807.472	8366
807.614	8172
807.756	8138
807.898	8096
808.04	7955
808.182	7944
808.324	7951
808.465	7967
808.607	8008
808.749	8134
808.891	8183
809.033	8313
809.174	8168
809.316	8065
809.458	8035
809.6	8046
809.741	8012
809.883	8039
810.025	8084
810.166	8096
810.308	8054
810.45	8062
810.591	7928
810.733	7712
810.875	7670
811.016	7548
811.158	7506
811.299	7639
811.441	7746
811.582	7734
811.724	7658
811.865	7605
812.007	7685
812.148	7677
812.29	7666
812.431	7788
812.573	7974
812.714	8058
812.855	8164
812.997	8252
813.138	8393
813.279	8206
813.421	8107
813.562	8005
813.703	7913
813.845	7822
813.986	7403
814.127	7282
814.268	7289
814.41	7228
814.551	7209
814.692	7232
814.833	7133
814.974	7137
815.115	7202
815.256	7023
815.397	6924
815.539	6981
815.68	6859
815.821	6783
815.962	6901
816.103	6825
816.244	6734
816.385	6665
816.526	6627
816.666	6563
816.807	6372
816.948	6479
817.089	6528
817.23	6467
817.371	6395
817.512	6369
817.653	6365
817.793	6346
817.934	6414
818.075	6506
818.216	6475
818.356	6490
818.497	6361
818.638	6171
818.778	6182
818.919	6155
819.06	6201
819.2	6315
819.341	6388
819.481	6467
819.622	6570
819.762	6798
819.903	6764
820.043	6623
820.184	6589
820.324	6696
820.465	6719
820.605	6749
820.746	6669
820.886	6608
821.026	6700
821.167	6707
821.307	6848
821.447	6833
821.588	6745
821.728	6658
821.868	6513
822.008	6410
822.149	6388
822.289	6372
822.429	6232
822.569	6205
822.709	6178
822.849	5965
822.99	5908
823.13	5916
823.27	5946
823.41	5889
823.55	5859
823.69	5832
823.83	5836
823.97	5783
824.11	5585
824.25	5611
824.389	5611
824.529	5623
824.669	5573
824.809	5718
824.949	5707
825.089	5611
825.228	5524
825.368	5429
825.508	5429
825.648	5383
825.787	5417
825.927	5372
826.067	5368
826.206	5357
826.346	5452
826.485	5425
826.625	5429
826.765	5573
826.904	5490
827.044	5261
827.183	5250
827.323	5170
827.462	5258
827.601	5201
827.741	5246
827.88	5239
828.02	5140
828.159	5273
828.298	5349
828.437	5341
828.577	5337
828.716	5482
828.855	5387
828.994	5197
829.134	5193
829.273	5235
829.412	5162
829.551	5128
829.69	5166
829.829	5277
829.968	5478
830.107	5303
830.246	5337
830.385	5235
830.524	5124
830.663	5117
830.802	5045
830.941	4946
831.08	4934
831.219	5018
831.357	4980
831.496	5239
831.635	4946
831.774	4900
831.913	4900
832.051	4774
832.19	4824
832.329	4885
832.467	4717
832.606	4660
832.744	4759
832.883	4771
833.022	4793
833.16	4854
833.299	4805
833.437	4885
833.576	4915
833.714	4870
833.852	4873
833.991	4900
834.129	4976
834.267	5010
834.406	4942
834.544	4987
834.682	5006
834.821	5014
834.959	5216
835.097	5003
835.235	5166
835.373	5151
835.511	5105
835.65	5033
835.788	5067
835.926	4949
836.064	4896
836.202	5037
836.34	5208
836.478	5296
836.615	5189
836.753	5231
836.891	5330
837.029	5277
837.167	5189
837.305	5189
837.443	5162
837.58	5121
837.718	5299
837.856	5201
837.993	5185
838.131	5212
838.269	5212
838.406	5227
838.544	5181
838.681	5083
838.819	5064
838.956	4919
839.094	4949
839.231	5014
839.369	5117
839.506	5482
839.643	5326
839.781	5090
839.918	5037
840.055	5075
840.193	5098
840.33	5117
840.467	5162
840.604	5235
840.742	5429
840.879	5098
841.016	5147
841.153	5143
841.29	5345
841.427	5436
841.564	5322
841.701	5372
841.838	5372
841.975	5250
842.112	5250
842.249	5170
842.385	5170
842.522	5383
842.659	5204
842.796	5242
842.933	5220
843.069	5178
843.206	5166
843.343	5383
843.479	5242
843.616	5303
843.752	5098
843.889	5010
844.025	5223
844.162	5086
844.298	5250
844.435	5105
844.571	5064
844.708	5212
844.844	5334
844.98	5414
845.117	5341
845.253	5181
845.389	5102
845.525	5189
845.661	5151
845.798	5071
845.934	5170
846.07	5083
846.206	5220
846.342	5269
846.478	5189
846.614	5064
846.75	4995
846.886	4984
847.022	5216
847.158	5064
847.294	5117
847.429	5151
847.565	5056
847.701	5292
847.837	4858
847.972	4862
848.108	5003
848.244	4999
848.379	4873
848.515	4763
848.65	4733
848.786	4759
848.921	4831
849.057	4858
849.192	4949
849.328	4870
849.463	4862
849.598	4831
849.734	4786
849.869	4717
850.004	4675
850.14	4679
850.275	4630
850.41	4592
850.545	4607
850.68	4603
850.815	4630
850.95	4675
851.085	4889
851.22	4782
851.355	4717
851.49	4656
851.625	4645
851.76	4637
851.895	4584
852.03	4519
852.165	4698
852.299	4736
852.434	4820
852.569	4736
852.703	4790
852.838	4938
852.973	4972
853.107	4927
853.242	4740
853.376	4672
853.511	4577
853.645	4679
853.78	4835
853.914	4736
854.048	4672
854.183	4637
854.317	4755
854.451	4923
854.585	4664
854.72	4717
854.854	4748
854.988	4637
855.122	4683
855.256	4592
855.39	4687
855.524	4828
855.658	4755
855.792	4763
855.926	4816
856.06	4763
856.194	4752
856.327	4736
856.461	4626
856.595	4653
856.729	4672
856.862	4839
856.996	4721
857.13	4786
857.263	4752
857.397	4805
857.53	4653
857.664	4725
857.797	4812
857.931	4854
858.064	4702
858.197	4733
858.331	4717
858.464	4607
858.597	4523
858.731	4668
858.864	4683
858.997	4607
859.13	4687
859.263	4702
859.396	4710
859.529	4596
859.662	4588
859.795	4558
859.928	4656
860.061	4778
860.194	4835
860.327	4645
860.46	4611
860.592	4748
860.725	4721
860.858	4793
860.99	4630
861.123	4542
861.256	4618
861.388	4710
861.521	5349
861.653	4504
861.786	4462
861.918	4527
862.05	4558
862.183	4573
862.315	4611
862.447	4668
862.58	4546
862.712	4398
862.844	4348
862.976	4478
863.108	4500
863.24	4904
863.372	4341
863.504	4432
863.636	4451
863.768	4512
863.9	4455
864.032	4409
864.164	4451
864.296	4523
864.428	4565
864.559	4546
864.691	4538
864.823	4550
864.954	4489
865.086	4538
865.217	4489
865.349	4375
865.48	4508
865.612	4554
865.743	4653
865.875	4516
866.006	4474
866.137	4478
866.269	4470
866.4	4478
866.531	4455
866.662	4443
866.793	4402
866.924	4424
867.055	4558
867.186	4519
867.317	4443
867.448	4394
867.579	4451
867.71	4405
867.841	4398
867.972	4478
868.103	4512
868.233	4478
868.364	4485
868.495	4535
868.625	4694
868.756	4793
868.886	4607
869.017	4611
869.147	4809
869.278	4748
869.408	4698
869.539	4679
869.669	4717
869.799	4691
869.929	4752
870.06	4717
870.19	5010
870.32	4885
870.45	4984
870.58	4991
870.71	5174
870.84	5105
870.97	4995
871.1	4911
871.23	5162
871.36	5170
871.489	5075
871.619	5140
871.749	5071
871.879	5113
872.008	5197
872.138	5124
872.267	5022
872.397	4870
872.526	4831
872.656	4744
872.785	4881
872.915	4946
873.044	5094
873.173	4957
873.303	5006
873.432	4987
873.561	5022
873.69	4938
873.819	4911
873.948	5014
874.077	4843
874.206	4767
874.335	4828
874.464	4938
874.593	5094
874.722	5006
874.851	5094
874.979	5037
875.108	5079
875.237	4942
875.365	4930
875.494	4946
875.623	4980
875.751	4862
875.88	4900
876.008	5022
876.136	5010
876.265	5231
876.393	5341
876.521	5277
876.65	5220
876.778	5201
876.906	5136
877.034	5018
877.162	5075
877.29	5037
877.418	5086
877.546	5075
877.674	5067
877.802	5060
877.93	5029
878.058	4934
878.185	4915
878.313	4980
878.441	4976
878.568	4782
878.696	4923
878.824	4987
878.951	5018
879.079	5155
879.206	5258
879.333	5071
879.461	5022
879.588	5022
879.715	5124
879.842	5250
879.97	5064
880.097	4839
880.224	4778
880.351	4820
880.478	4866
880.605	4835
880.732	4854
880.859	5098
880.986	4896
881.112	4908
881.239	4850
881.366	4763
881.493	4668
881.619	4588
881.746	4672
881.872	4698
881.999	4637
882.125	4725
882.252	4831
882.378	4854
882.505	4995
882.631	4881
882.757	4702
882.883	4763
883.01	4801
883.136	4687
883.262	4592
883.388	4630
883.514	4797
883.64	4900
883.766	4786
883.892	4694
884.018	4744
884.143	4919
884.269	5033
884.395	4698
884.52	4672
884.646	4668
884.772	4596
884.897	4607
885.023	4645
885.148	4790
885.274	4889
885.399	4839
885.524	4744
885.65	4691
885.775	4759
885.9	4710
886.025	4896
886.15	4828
886.275	4744
886.4	4763
886.525	4740
886.65	4782
886.775	4736
886.9	4934
887.025	5102
887.149	4843
887.274	4698
887.399	4679
887.523	4622
887.648	4577
887.773	4630
887.897	4790
888.021	4847
888.146	4698
888.27	4843
888.395	4946
888.519	4881
888.643	4843
888.767	4854
888.891	4744
889.015	4717
889.139	4698
889.263	4588
889.387	4824
889.511	4877
889.635	4805
889.759	4660
889.883	4694
890.006	4767
890.13	4873
890.254	4626
890.377	4664
890.501	4580
890.624	4592
890.748	4702
890.871	4554
890.995	4493
891.118	4424
891.241	4554
891.364	4592
891.488	4668
891.611	4561
891.734	4599
891.857	4664
891.98	4561
892.103	4649
892.226	4580
892.349	4504
892.471	4485
892.594	4558
892.717	4584
892.839	4649
892.962	4607
893.085	4698
893.207	4634
893.33	4500
893.452	4558
893.575	4702
893.697	4615
893.819	4812
893.941	4805
894.064	4790
894.186	4580
894.308	4641
894.43	4729
894.552	4850
894.674	4782
894.796	4588
894.918	4634
895.04	4637
895.161	4702
895.283	4683
895.405	4531
895.526	4664
895.648	4725
895.769	4793
895.891	4740
896.012	4740
896.134	4725
896.255	4679
896.376	4714
896.498	4687
896.619	4736
896.74	4672
896.861	4668
896.982	5018
897.103	5113
897.224	4854
897.345	4847
897.466	4710
897.587	4759
897.708	4866
897.828	4797
897.949	4759
898.07	4565
898.19	4710
898.311	4843
898.431	4740
898.552	4771
898.672	4831
898.792	4816
898.913	4797
899.033	4656
899.153	4569
899.273	4428
899.393	4531
899.513	4523
899.633	4599
899.753	4584
899.873	4550
899.993	4615
900.113	4580
900.232	4637
900.352	4558
900.472	4561
900.591	4466
900.711	4519
900.83	4459
900.95	4660
901.069	4717
901.189	4580
901.308	4386
901.427	4383
901.546	4424
901.665	4493
901.784	4542
901.904	4398
902.023	4344
902.141	4257
902.26	4272
902.379	4329
902.498	4261
902.617	4291
902.735	4440
902.854	4424
902.973	4356
903.091	4230
903.21	4299
903.328	4337
903.446	4337
903.565	4341
903.683	4379
903.801	4337
903.919	4424
904.038	4455
904.156	4322
904.274	4436
904.392	4451
904.51	4497
904.627	4497
904.745	4615
904.863	4679
904.981	4462
905.098	4344
905.216	4417
905.334	4459
905.451	4489
905.569	4413
905.686	4577
905.803	4615
905.921	4440
906.038	4584
906.155	4489
906.272	4436
906.389	4523
906.506	4371
906.623	4428
906.74	4413
906.857	4333
906.974	4390
907.091	4569
907.208	4691
907.324	4599
907.441	4527
907.557	4383
907.674	4409
907.79	4402
907.907	4383
908.023	4523
908.139	4538
908.256	4459
908.372	4481
908.488	4497
908.604	4405
908.72	4417
908.836	4409
908.952	4413
909.068	4440
909.184	4618
909.3	4538
909.415	4588
909.531	4565
909.647	4386
909.762	4383
909.878	4379
909.993	4447
910.108	4394
910.224	4470
910.339	4519
910.454	4417
910.57	4398
910.685	4379
910.8	4702
910.915	4618
911.03	4535
911.145	4337
911.259	4386
911.374	4363
911.489	4337
911.604	4299
911.718	4219
911.833	4223
911.947	4109
912.062	4036
912.176	4196
912.291	4257
912.405	4261
912.519	4493
912.633	4561
912.748	4417
912.862	4383
912.976	4230
913.09	4147
913.204	4215
913.318	4310
913.431	4432
913.545	4413
913.659	4470
913.772	4394
913.886	4295
914	4261
914.113	4432
914.226	4500
914.34	4421
914.453	4306
914.566	4504
914.68	4318
914.793	4329
914.906	4188
915.019	4185
915.132	4162
915.245	4238
915.358	4268
915.47	4303
915.583	4314
915.696	4299
915.809	4470
915.921	4417
916.034	4276
916.146	4249
916.259	4291
916.371	4432
916.483	4398
916.595	4268
916.708	4360
916.82	4390
916.932	4386
917.044	4405
917.156	4375
917.268	4280
917.38	4333
917.491	4303
917.603	4371
917.715	4443
917.826	4455
917.938	4386
918.049	4265
918.161	4440
918.272	4618
918.384	4588
918.495	4523
918.606	4371
918.717	4280
918.828	4379
918.939	4436
919.05	4363
919.161	4363
919.272	4223
919.383	4299
919.494	4519
919.604	4679
919.715	4489
919.826	4405
919.936	4428
920.047	4611
920.157	4550
920.267	4744
920.378	4592
920.488	4558
920.598	4736
920.708	4923
920.818	4843
920.928	4820
921.038	5022
921.148	4987
921.258	4626
921.368	4641
921.477	4531
921.587	4504
921.697	4447
921.806	4611
921.916	4508
922.025	4356
922.134	4325
922.244	4257
922.353	4383
922.462	4227
922.571	4162
922.68	4029
922.789	4013
922.898	4040
923.007	4025
923.116	4150
923.224	4097
923.333	4150
923.442	4055
923.55	4029
923.659	4116
923.767	4120
923.876	4071
923.984	4147
924.092	4029
924.201	4162
924.309	4188
924.417	4227
924.525	4063
924.633	4215
924.741	5003
924.849	3994
924.956	4185
925.064	4013
925.172	3956
925.279	4006
925.387	4078
925.494	4128
925.602	4238
925.709	4227
925.816	4082
925.924	4196
926.031	4314
926.138	4234
926.245	4291
926.352	4169
926.459	4314
926.566	4383
926.673	4215
926.779	4173
926.886	4143
926.993	4044
927.099	4040
927.206	4025
927.312	4002
927.419	4109
927.525	4128
927.631	4196
927.737	4048
927.843	3953
927.95	3873
928.056	4017
928.162	4029
928.267	4116
928.373	4725
928.479	4139
928.585	3937
928.69	4097
928.796	4116
928.901	4071
929.007	3930
929.112	4093
929.218	3987
929.323	3998
929.428	4044
929.533	4188
929.638	3937
929.743	3975
929.848	4105
929.953	4017
930.058	4002
930.163	3838
930.267	3960
930.372	4059
930.477	3838
930.581	4139
930.685	4002
930.79	3861
930.894	3949
930.998	3941
931.103	4078
931.207	3751
931.311	3781
931.415	3740
931.519	3568
931.623	3576
