Data from test_V78500241_9.txt Node
Date: Fri Mar 25 16:49:04 CST 2022
User: usil
Spectrometer: V785-0024
Trigger mode: 0
Integration Time (sec): 4.000000E-1
Scans to average: 1
Nonlinearity correction enabled: false
Boxcar width: 0
Storing dark spectrum: false
XAxis mode: Wavelengths
Number of Pixels in Spectrum: 1024
>>>>>Begin Spectral Data<<<<<
801.071	8103
801.214	8107
801.356	7959
801.499	7986
801.641	7879
801.783	7902
801.926	8062
802.068	8005
802.211	7997
802.353	8103
802.496	7940
802.638	8069
802.78	8001
802.923	8001
803.065	7967
803.208	7936
803.35	8050
803.492	8191
803.635	8161
803.777	8046
803.919	8195
804.061	8522
804.204	8233
804.346	8123
804.488	7989
804.63	8202
804.773	8069
804.915	8073
805.057	8362
805.199	8294
805.341	8320
805.483	8377
805.626	8324
805.768	8218
805.91	8309
806.052	8313
806.194	8134
806.336	8263
806.478	8233
806.62	8176
806.762	8263
806.904	8324
807.046	8488
807.188	8434
807.33	8423
807.472	8408
807.614	8218
807.756	8115
807.898	8050
808.04	7986
808.182	8058
808.324	7894
808.465	8008
808.607	8126
808.749	8107
808.891	8290
809.033	8317
809.174	8237
809.316	8138
809.458	8115
809.6	7978
809.741	8050
809.883	8092
810.025	8145
810.166	8119
810.308	8123
810.45	8123
810.591	7989
810.733	7860
810.875	7731
811.016	7582
811.158	7571
811.299	7757
811.441	7936
811.582	7769
811.724	7594
811.865	7685
812.007	7666
812.148	7666
812.29	7712
812.431	7814
812.573	7986
812.714	8077
812.855	8126
812.997	8298
813.138	8358
813.279	8282
813.421	8161
813.562	8161
813.703	7967
813.845	7860
813.986	7510
814.127	7373
814.268	7312
814.41	7339
814.551	7266
814.692	7289
814.833	7179
814.974	7145
815.115	7149
815.256	7027
815.397	6943
815.539	6935
815.68	6825
815.821	6791
815.962	6958
816.103	6871
816.244	6859
816.385	6700
816.526	6677
816.666	6563
816.807	6380
816.948	6555
817.089	6467
817.23	6475
817.371	6467
817.512	6399
817.653	6471
817.793	6475
817.934	6460
818.075	6513
818.216	6528
818.356	6509
818.497	6311
818.638	6205
818.778	6251
818.919	6216
819.06	6258
819.2	6380
819.341	6399
819.481	6414
819.622	6570
819.762	6798
819.903	6814
820.043	6646
820.184	6669
820.324	6635
820.465	6757
820.605	6753
820.746	6730
820.886	6650
821.026	6760
821.167	6787
821.307	6920
821.447	6810
821.588	6715
821.728	6650
821.868	6604
822.008	6384
822.149	6452
822.289	6441
822.429	6243
822.569	6213
822.709	6239
822.849	6019
822.99	6038
823.13	6026
823.27	6003
823.41	5832
823.55	5863
823.69	5802
823.83	5870
823.97	5790
824.11	5661
824.25	5581
824.389	5649
824.529	5680
824.669	5638
824.809	5729
824.949	5729
825.089	5756
825.228	5619
825.368	5524
825.508	5463
825.648	5452
825.787	5467
825.927	5444
826.067	5414
826.206	5474
826.346	5482
826.485	5509
826.625	5433
826.765	5646
826.904	5570
827.044	5341
827.183	5280
827.323	5208
827.462	5330
827.601	5261
827.741	5273
827.88	5292
828.02	5220
828.159	5334
828.298	5364
828.437	5501
828.577	5330
828.716	5566
828.855	5383
828.994	5204
829.134	5189
829.273	5273
829.412	5220
829.551	5242
829.69	5250
829.829	5345
829.968	5463
830.107	5307
830.246	5360
830.385	5261
830.524	5216
830.663	5102
830.802	5067
830.941	4972
831.08	4957
831.219	5060
831.357	5060
831.496	5181
831.635	4980
831.774	4908
831.913	4900
832.051	4854
832.19	4774
832.329	4946
832.467	4778
832.606	4752
832.744	4771
832.883	4809
833.022	4786
833.16	4839
833.299	4927
833.437	4934
833.576	4873
833.714	4927
833.852	4911
833.991	4957
834.129	4987
834.267	5025
834.406	5025
834.544	5025
834.682	5079
834.821	5010
834.959	5261
835.097	5075
835.235	5239
835.373	5128
835.511	5159
835.65	5136
835.788	5067
835.926	5052
836.064	4934
836.202	4968
836.34	5220
836.478	5318
836.615	5204
836.753	5250
836.891	5315
837.029	5383
837.167	5296
837.305	5280
837.443	5239
837.58	5121
837.718	5254
837.856	5231
837.993	5261
838.131	5318
838.269	5277
838.406	5296
838.544	5269
838.681	5098
838.819	5056
838.956	4949
839.094	5029
839.231	5037
839.369	5151
839.506	5532
839.643	5345
839.781	5151
839.918	5041
840.055	5181
840.193	5178
840.33	5189
840.467	5227
840.604	5288
840.742	5509
840.879	5124
841.016	5128
841.153	5208
841.29	5471
841.427	5414
841.564	5463
841.701	5372
841.838	5330
841.975	5277
842.112	5337
842.249	5235
842.385	5212
842.522	5429
842.659	5220
842.796	5204
842.933	5280
843.069	5220
843.206	5223
843.343	5337
843.479	5269
843.616	5357
843.752	5147
843.889	5025
844.025	5334
844.162	5128
844.298	5303
844.435	5166
844.571	5067
844.708	5296
844.844	5387
844.98	5402
845.117	5387
845.253	5265
845.389	5201
845.525	5250
845.661	5239
845.798	5067
845.934	5258
846.07	5136
846.206	5250
846.342	5357
846.478	5265
846.614	5102
846.75	5014
846.886	5037
847.022	5159
847.158	5109
847.294	5132
847.429	5204
847.565	5132
847.701	5421
847.837	4961
847.972	4862
848.108	4991
848.244	4949
848.379	4858
848.515	4782
848.65	4733
848.786	4786
848.921	4797
849.057	4923
849.192	5003
849.328	4919
849.463	4919
849.598	4885
849.734	4847
849.869	4752
850.004	4683
850.14	4687
850.275	4641
850.41	4546
850.545	4656
850.68	4679
850.815	4687
850.95	4664
851.085	4923
851.22	4782
851.355	4771
851.49	4691
851.625	4679
851.76	4679
851.895	4618
852.03	4577
852.165	4660
852.299	4771
852.434	4877
852.569	4835
852.703	4820
852.838	4873
852.973	4999
853.107	5003
853.242	4835
853.376	4771
853.511	4558
853.645	4687
853.78	4889
853.914	4778
854.048	4694
854.183	4679
854.317	4733
854.451	4915
854.585	4759
854.72	4675
854.854	4843
854.988	4683
855.122	4736
855.256	4584
855.39	4744
855.524	4870
855.658	4755
855.792	4752
855.926	4752
856.06	4820
856.194	4850
856.327	4744
856.461	4672
856.595	4675
856.729	4763
856.862	4858
856.996	4748
857.13	4774
857.263	4797
857.397	4877
857.53	4752
857.664	4786
857.797	4782
857.931	4850
858.064	4797
858.197	4820
858.331	4748
858.464	4675
858.597	4580
858.731	4649
858.864	4717
858.997	4603
859.13	4706
859.263	4744
859.396	4736
859.529	4649
859.662	4634
859.795	4618
859.928	4733
860.061	4816
860.194	4839
860.327	4683
860.46	4668
860.592	4850
860.725	4782
860.858	4797
860.99	4637
861.123	4577
861.256	4596
861.388	4687
861.521	5452
861.653	4535
861.786	4535
861.918	4527
862.05	4542
862.183	4577
862.315	4710
862.447	4683
862.58	4592
862.712	4485
862.844	4394
862.976	4573
863.108	4508
863.24	4953
863.372	4379
863.504	4474
863.636	4462
863.768	4485
863.9	4512
864.032	4386
864.164	4470
864.296	4550
864.428	4592
864.559	4626
864.691	4577
864.823	4615
864.954	4580
865.086	4558
865.217	4542
865.349	4500
865.48	4481
865.612	4596
865.743	4717
865.875	4497
866.006	4478
866.137	4542
866.269	4504
866.4	4519
866.531	4508
866.662	4432
866.793	4474
866.924	4523
867.055	4546
867.186	4493
867.317	4447
867.448	4428
867.579	4478
867.71	4405
867.841	4424
867.972	4504
868.103	4508
868.233	4519
868.364	4546
868.495	4504
868.625	4721
868.756	4828
868.886	4603
869.017	4683
869.147	4790
869.278	4797
869.408	4694
869.539	4752
869.669	4828
869.799	4755
869.929	4828
870.06	4824
870.19	5006
870.32	4949
870.45	4972
870.58	5098
870.71	5132
870.84	5102
870.97	4991
871.1	4946
871.23	5220
871.36	5162
871.489	5117
871.619	5117
871.749	5140
871.879	5132
872.008	5242
872.138	5105
872.267	5018
872.397	4915
872.526	4866
872.656	4790
872.785	4858
872.915	5060
873.044	5064
873.173	4991
873.303	5048
873.432	5033
873.561	4984
873.69	4972
873.819	4953
873.948	5025
874.077	4900
874.206	4828
874.335	4774
874.464	5037
874.593	5056
874.722	5071
874.851	5117
874.979	5143
875.108	5117
875.237	4919
875.365	4961
875.494	4934
875.623	5075
875.751	4870
875.88	4938
876.008	5037
876.136	5071
876.265	5212
876.393	5414
876.521	5376
876.65	5273
876.778	5197
876.906	5113
877.034	5102
877.162	5094
877.29	5075
877.418	5128
877.546	5113
877.674	5105
877.802	5117
877.93	5056
878.058	4965
878.185	4896
878.313	5025
878.441	5045
878.568	4847
878.696	4911
878.824	5041
878.951	5052
879.079	5235
879.206	5341
879.333	5166
879.461	5048
879.588	5121
879.715	5292
879.842	5277
879.97	5037
880.097	4881
880.224	4790
880.351	4889
880.478	4862
880.605	4850
880.732	4854
880.859	5151
880.986	4984
881.112	4965
881.239	4858
881.366	4717
881.493	4672
881.619	4668
881.746	4702
881.872	4706
881.999	4653
882.125	4771
882.252	4854
882.378	4911
882.505	4980
882.631	4877
882.757	4721
882.883	4805
883.01	4763
883.136	4714
883.262	4660
883.388	4664
883.514	4896
883.64	4904
883.766	4824
883.892	4752
884.018	4793
884.143	4949
884.269	5086
884.395	4698
884.52	4687
884.646	4721
884.772	4672
884.897	4588
885.023	4774
885.148	4858
885.274	4919
885.399	4889
885.524	4790
885.65	4710
885.775	4843
885.9	4774
886.025	4946
886.15	4881
886.275	4782
886.4	4710
886.525	4744
886.65	4721
886.775	4744
886.9	4987
887.025	5124
887.149	4900
887.274	4759
887.399	4660
887.523	4679
887.648	4630
887.773	4641
887.897	4858
888.021	4793
888.146	4740
888.27	4923
888.395	4999
888.519	4809
888.643	4892
888.767	4870
888.891	4763
889.015	4664
889.139	4694
889.263	4668
889.387	4839
889.511	4911
889.635	4858
889.759	4694
889.883	4679
890.006	4801
890.13	4866
890.254	4641
890.377	4744
890.501	4618
890.624	4580
890.748	4706
890.871	4577
890.995	4516
891.118	4402
891.241	4554
891.364	4584
891.488	4717
891.611	4596
891.734	4626
891.857	4698
891.98	4618
892.103	4729
892.226	4687
892.349	4561
892.471	4504
892.594	4615
892.717	4641
892.839	4611
892.962	4645
893.085	4706
893.207	4615
893.33	4523
893.452	4580
893.575	4748
893.697	4630
893.819	4839
893.941	4881
894.064	4847
894.186	4645
894.308	4637
894.43	4778
894.552	4858
894.674	4809
894.796	4615
894.918	4672
895.04	4615
895.161	4748
895.283	4740
895.405	4634
895.526	4717
895.648	4767
895.769	4714
895.891	4759
896.012	4828
896.134	4778
896.255	4729
896.376	4656
896.498	4683
896.619	4744
896.74	4691
896.861	4729
896.982	5022
897.103	5193
897.224	4953
897.345	4824
897.466	4740
897.587	4763
897.708	4965
897.828	4782
897.949	4721
898.07	4611
898.19	4683
898.311	4938
898.431	4763
898.552	4793
898.672	4858
898.792	4873
898.913	4805
899.033	4660
899.153	4584
899.273	4493
899.393	4580
899.513	4569
899.633	4588
899.753	4603
899.873	4592
899.993	4622
900.113	4580
900.232	4698
900.352	4580
900.472	4538
900.591	4443
900.711	4519
900.83	4512
900.95	4683
901.069	4786
901.189	4637
901.308	4398
901.427	4314
901.546	4379
901.665	4512
901.784	4569
901.904	4466
902.023	4386
902.141	4253
902.26	4219
902.379	4363
902.498	4299
902.617	4284
902.735	4432
902.854	4466
902.973	4424
903.091	4284
903.21	4306
903.328	4325
903.446	4325
903.565	4341
903.683	4417
903.801	4344
903.919	4436
904.038	4500
904.156	4386
904.274	4489
904.392	4447
904.51	4443
904.627	4451
904.745	4645
904.863	4649
904.981	4432
905.098	4360
905.216	4386
905.334	4497
905.451	4478
905.569	4535
905.686	4634
905.803	4596
905.921	4485
906.038	4630
906.155	4561
906.272	4440
906.389	4523
906.506	4402
906.623	4462
906.74	4428
906.857	4325
906.974	4432
907.091	4584
907.208	4733
907.324	4626
907.441	4508
907.557	4367
907.674	4409
907.79	4333
907.907	4409
908.023	4504
908.139	4493
908.256	4481
908.372	4535
908.488	4535
908.604	4390
908.72	4329
908.836	4421
908.952	4447
909.068	4497
909.184	4618
909.3	4523
909.415	4615
909.531	4615
909.647	4356
909.762	4413
909.878	4405
909.993	4504
910.108	4470
910.224	4459
910.339	4558
910.454	4424
910.57	4436
910.685	4341
910.8	4660
910.915	4660
911.03	4565
911.145	4360
911.259	4337
911.374	4447
911.489	4352
911.604	4325
911.718	4200
911.833	4284
911.947	4150
912.062	4112
912.176	4272
912.291	4329
912.405	4306
912.519	4535
912.633	4580
912.748	4447
912.862	4360
912.976	4265
913.09	4128
913.204	4200
913.318	4310
913.431	4424
913.545	4390
913.659	4466
913.772	4421
913.886	4322
914	4280
914.113	4394
914.226	4462
914.34	4436
914.453	4291
914.566	4474
914.68	4409
914.793	4375
914.906	4188
915.019	4154
915.132	4124
915.245	4234
915.358	4246
915.47	4242
915.583	4303
915.696	4318
915.809	4489
915.921	4451
916.034	4306
916.146	4314
916.259	4265
916.371	4421
916.483	4394
916.595	4306
916.708	4386
916.82	4337
916.932	4329
917.044	4371
917.156	4363
917.268	4253
917.38	4356
917.491	4306
917.603	4413
917.715	4493
917.826	4462
917.938	4424
918.049	4303
918.161	4478
918.272	4634
918.384	4603
918.495	4554
918.606	4333
918.717	4295
918.828	4390
918.939	4466
919.05	4303
919.161	4383
919.272	4188
919.383	4284
919.494	4485
919.604	4675
919.715	4504
919.826	4386
919.936	4512
920.047	4569
920.157	4561
920.267	4801
920.378	4577
920.488	4599
920.598	4755
920.708	5006
920.818	4748
920.928	4820
921.038	5056
921.148	4984
921.258	4691
921.368	4596
921.477	4535
921.587	4500
921.697	4390
921.806	4565
921.916	4527
922.025	4287
922.134	4329
922.244	4295
922.353	4424
922.462	4268
922.571	4196
922.68	3998
922.789	3994
922.898	4029
923.007	4029
923.116	4158
923.224	4109
923.333	4131
923.442	4048
923.55	4036
923.659	4071
923.767	4135
923.876	4044
923.984	4128
924.092	4059
924.201	4135
924.309	4158
924.417	4177
924.525	4059
924.633	4166
924.741	5090
924.849	3972
924.956	4185
925.064	3987
925.172	3949
925.279	4017
925.387	4131
925.494	4101
925.602	4268
925.709	4223
925.816	4109
925.924	4227
926.031	4246
926.138	4219
926.245	4314
926.352	4147
926.459	4310
926.566	4318
926.673	4188
926.779	4116
926.886	4109
926.993	4032
927.099	4029
927.206	3972
927.312	3991
927.419	4090
927.525	4071
927.631	4147
927.737	3956
927.843	4036
927.95	3865
928.056	4029
928.162	4021
928.267	4135
928.373	4759
928.479	4177
928.585	3922
928.69	4059
928.796	4120
928.901	3994
929.007	3892
929.112	4086
929.218	4044
929.323	3972
929.428	4013
929.533	4147
929.638	3922
929.743	4032
929.848	4093
929.953	4029
930.058	3991
930.163	3827
930.267	3842
930.372	4032
930.477	3896
930.581	4162
930.685	3968
930.79	3896
930.894	3896
930.998	3918
931.103	4059
931.207	3770
931.311	3751
931.415	3724
931.519	3572
931.623	3625
