Data from test_V78500241_104.txt Node
Date: Fri Mar 25 16:49:43 CST 2022
User: usil
Spectrometer: V785-0024
Trigger mode: 0
Integration Time (sec): 4.000000E-1
Scans to average: 1
Nonlinearity correction enabled: false
Boxcar width: 0
Storing dark spectrum: false
XAxis mode: Wavelengths
Number of Pixels in Spectrum: 1024
>>>>>Begin Spectral Data<<<<<
801.071	8149
801.214	8027
801.356	7951
801.499	7868
801.641	7868
801.783	7864
801.926	7970
802.068	8054
802.211	8043
802.353	8024
802.496	7951
802.638	7906
802.78	7978
802.923	7909
803.065	7921
803.208	7917
803.35	7951
803.492	8027
803.635	8115
803.777	7989
803.919	8149
804.061	8427
804.204	8138
804.346	8069
804.488	7936
804.63	8123
804.773	8054
804.915	8073
805.057	8252
805.199	8161
805.341	8252
805.483	8206
805.626	8172
805.768	8027
805.91	8176
806.052	8138
806.194	8149
806.336	8271
806.478	8180
806.62	8138
806.762	8221
806.904	8309
807.046	8499
807.188	8351
807.33	8370
807.472	8339
807.614	8134
807.756	8119
807.898	8016
808.04	7955
808.182	7928
808.324	7841
808.465	7944
808.607	8153
808.749	8088
808.891	8256
809.033	8256
809.174	8248
809.316	8050
809.458	8024
809.6	8027
809.741	8111
809.883	8096
810.025	8176
810.166	8088
810.308	8039
810.45	8069
810.591	7909
810.733	7776
810.875	7712
811.016	7556
811.158	7506
811.299	7712
811.441	7780
811.582	7700
811.724	7628
811.865	7624
812.007	7712
812.148	7662
812.29	7704
812.431	7830
812.573	8027
812.714	8031
812.855	8202
812.997	8256
813.138	8381
813.279	8294
813.421	8153
813.562	8084
813.703	7928
813.845	7746
813.986	7529
814.127	7365
814.268	7312
814.41	7293
814.551	7255
814.692	7270
814.833	7156
814.974	7149
815.115	7171
815.256	7084
815.397	6943
815.539	7000
815.68	6875
815.821	6806
815.962	6852
816.103	6810
816.244	6760
816.385	6635
816.526	6612
816.666	6601
816.807	6380
816.948	6483
817.089	6509
817.23	6479
817.371	6388
817.512	6464
817.653	6448
817.793	6414
817.934	6460
818.075	6490
818.216	6445
818.356	6456
818.497	6304
818.638	6186
818.778	6216
818.919	6152
819.06	6197
819.2	6353
819.341	6376
819.481	6388
819.622	6616
819.762	6741
819.903	6764
820.043	6646
820.184	6585
820.324	6616
820.465	6738
820.605	6692
820.746	6684
820.886	6620
821.026	6684
821.167	6757
821.307	6818
821.447	6768
821.588	6753
821.728	6616
821.868	6578
822.008	6384
822.149	6422
822.289	6448
822.429	6167
822.569	6140
822.709	6144
822.849	5950
822.99	5866
823.13	6026
823.27	5904
823.41	5847
823.55	5817
823.69	5798
823.83	5870
823.97	5745
824.11	5608
824.25	5528
824.389	5615
824.529	5585
824.669	5539
824.809	5665
824.949	5771
825.089	5634
825.228	5551
825.368	5467
825.508	5410
825.648	5349
825.787	5410
825.927	5349
826.067	5315
826.206	5326
826.346	5383
826.485	5421
826.625	5391
826.765	5577
826.904	5505
827.044	5296
827.183	5239
827.323	5140
827.462	5235
827.601	5189
827.741	5265
827.88	5204
828.02	5174
828.159	5242
828.298	5303
828.437	5360
828.577	5299
828.716	5566
828.855	5345
828.994	5235
829.134	5216
829.273	5227
829.412	5174
829.551	5143
829.69	5220
829.829	5292
829.968	5395
830.107	5311
830.246	5284
830.385	5220
830.524	5166
830.663	5098
830.802	5045
830.941	4949
831.08	4942
831.219	5033
831.357	4961
831.496	5178
831.635	5018
831.774	4900
831.913	4873
832.051	4725
832.19	4752
832.329	4809
832.467	4706
832.606	4672
832.744	4748
832.883	4683
833.022	4740
833.16	4816
833.299	4778
833.437	4870
833.576	4858
833.714	4881
833.852	4908
833.991	4896
834.129	4957
834.267	4949
834.406	4946
834.544	5037
834.682	4999
834.821	5010
834.959	5170
835.097	5029
835.235	5166
835.373	5117
835.511	5086
835.65	5060
835.788	5010
835.926	4987
836.064	4877
836.202	4934
836.34	5174
836.478	5269
836.615	5056
836.753	5220
836.891	5311
837.029	5318
837.167	5208
837.305	5193
837.443	5162
837.58	5140
837.718	5239
837.856	5216
837.993	5231
838.131	5296
838.269	5265
838.406	5220
838.544	5216
838.681	5037
838.819	5018
838.956	4896
839.094	4915
839.231	5018
839.369	5132
839.506	5455
839.643	5231
839.781	5117
839.918	5048
840.055	5071
840.193	5079
840.33	5140
840.467	5162
840.604	5220
840.742	5471
840.879	5094
841.016	5117
841.153	5143
841.29	5372
841.427	5360
841.564	5296
841.701	5387
841.838	5296
841.975	5277
842.112	5280
842.249	5189
842.385	5124
842.522	5395
842.659	5204
842.796	5193
842.933	5250
843.069	5212
843.206	5227
843.343	5299
843.479	5250
843.616	5299
843.752	5060
843.889	4991
844.025	5223
844.162	5037
844.298	5246
844.435	5136
844.571	5067
844.708	5235
844.844	5265
844.98	5398
845.117	5265
845.253	5124
845.389	5067
845.525	5208
845.661	5197
845.798	5067
845.934	5132
846.07	5083
846.206	5185
846.342	5330
846.478	5185
846.614	5071
846.75	4949
846.886	4965
847.022	5162
847.158	5045
847.294	5037
847.429	5117
847.565	5109
847.701	5368
847.837	4904
847.972	4873
848.108	4919
848.244	4961
848.379	4786
848.515	4736
848.65	4759
848.786	4771
848.921	4801
849.057	4900
849.192	4953
849.328	4831
849.463	4850
849.598	4782
849.734	4790
849.869	4717
850.004	4687
850.14	4683
850.275	4630
850.41	4516
850.545	4607
850.68	4592
850.815	4634
850.95	4694
851.085	4828
851.22	4755
851.355	4694
851.49	4656
851.625	4637
851.76	4675
851.895	4611
852.03	4588
852.165	4668
852.299	4755
852.434	4835
852.569	4786
852.703	4790
852.838	4885
852.973	4946
853.107	4889
853.242	4759
853.376	4725
853.511	4538
853.645	4618
853.78	4831
853.914	4714
854.048	4714
854.183	4637
854.317	4706
854.451	4915
854.585	4675
854.72	4653
854.854	4828
854.988	4656
855.122	4641
855.256	4485
855.39	4660
855.524	4812
855.658	4744
855.792	4675
855.926	4733
856.06	4786
856.194	4824
856.327	4752
856.461	4622
856.595	4649
856.729	4683
856.862	4752
856.996	4740
857.13	4744
857.263	4729
857.397	4824
857.53	4637
857.664	4778
857.797	4805
857.931	4797
858.064	4767
858.197	4740
858.331	4691
858.464	4630
858.597	4527
858.731	4691
858.864	4653
858.997	4618
859.13	4725
859.263	4725
859.396	4748
859.529	4573
859.662	4615
859.795	4569
859.928	4645
860.061	4790
860.194	4828
860.327	4641
860.46	4599
860.592	4717
860.725	4771
860.858	4763
860.99	4565
861.123	4546
861.256	4523
861.388	4672
861.521	5273
861.653	4535
861.786	4459
861.918	4508
862.05	4615
862.183	4554
862.315	4596
862.447	4660
862.58	4561
862.712	4379
862.844	4333
862.976	4459
863.108	4485
863.24	4896
863.372	4383
863.504	4432
863.636	4402
863.768	4474
863.9	4474
864.032	4413
864.164	4417
864.296	4481
864.428	4508
864.559	4561
864.691	4573
864.823	4573
864.954	4554
865.086	4546
865.217	4478
865.349	4440
865.48	4508
865.612	4516
865.743	4607
865.875	4497
866.006	4424
866.137	4470
866.269	4428
866.4	4451
866.531	4459
866.662	4363
866.793	4424
866.924	4432
867.055	4523
867.186	4455
867.317	4478
867.448	4398
867.579	4405
867.71	4383
867.841	4409
867.972	4466
868.103	4519
868.233	4455
868.364	4489
868.495	4519
868.625	4641
868.756	4801
868.886	4596
869.017	4622
869.147	4843
869.278	4831
869.408	4660
869.539	4683
869.669	4717
869.799	4660
869.929	4816
870.06	4748
870.19	4953
870.32	4968
870.45	4942
870.58	5048
870.71	5102
870.84	5102
870.97	4995
871.1	4930
871.23	5185
871.36	5193
871.489	5045
871.619	5086
871.749	5109
871.879	5151
872.008	5162
872.138	5060
872.267	4965
872.397	4831
872.526	4866
872.656	4763
872.785	4892
872.915	4980
873.044	5060
873.173	4900
873.303	4987
873.432	5003
873.561	4980
873.69	4904
873.819	4881
873.948	4927
874.077	4835
874.206	4786
874.335	4835
874.464	4923
874.593	5064
874.722	4900
874.851	5121
874.979	5098
875.108	5102
875.237	4957
875.365	4915
875.494	4919
875.623	5056
875.751	4835
875.88	4968
876.008	5014
876.136	5075
876.265	5296
876.393	5349
876.521	5273
876.65	5231
876.778	5189
876.906	5071
877.034	5003
877.162	5045
877.29	5022
877.418	5147
877.546	5098
877.674	5060
877.802	5022
877.93	5075
878.058	4953
878.185	4870
878.313	4968
878.441	5003
878.568	4801
878.696	4896
878.824	4953
878.951	5041
879.079	5185
879.206	5318
879.333	5178
879.461	4999
879.588	5025
879.715	5121
879.842	5239
879.97	5018
880.097	4820
880.224	4740
880.351	4816
880.478	4889
880.605	4862
880.732	4824
880.859	5117
880.986	4900
881.112	4915
881.239	4816
881.366	4729
881.493	4675
881.619	4622
881.746	4615
881.872	4710
881.999	4702
882.125	4725
882.252	4790
882.378	4850
882.505	5029
882.631	4854
882.757	4706
882.883	4774
883.01	4782
883.136	4649
883.262	4660
883.388	4675
883.514	4790
883.64	4915
883.766	4839
883.892	4714
884.018	4767
884.143	4904
884.269	5064
884.395	4668
884.52	4660
884.646	4729
884.772	4668
884.897	4573
885.023	4653
885.148	4812
885.274	4896
885.399	4828
885.524	4820
885.65	4694
885.775	4774
885.9	4698
886.025	4923
886.15	4828
886.275	4710
886.4	4660
886.525	4702
886.65	4717
886.775	4706
886.9	4904
887.025	5052
887.149	4809
887.274	4656
887.399	4588
887.523	4637
887.648	4588
887.773	4618
887.897	4759
888.021	4828
888.146	4710
888.27	4816
888.395	4946
888.519	4915
888.643	4809
888.767	4862
888.891	4717
889.015	4611
889.139	4687
889.263	4637
889.387	4782
889.511	4885
889.635	4835
889.759	4653
889.883	4721
890.006	4752
890.13	4873
890.254	4664
890.377	4687
890.501	4588
890.624	4558
890.748	4687
890.871	4527
890.995	4447
891.118	4409
891.241	4554
891.364	4573
891.488	4634
891.611	4519
891.734	4577
891.857	4672
891.98	4603
892.103	4698
892.226	4596
892.349	4535
892.471	4459
892.594	4580
892.717	4637
892.839	4561
892.962	4656
893.085	4645
893.207	4653
893.33	4493
893.452	4596
893.575	4702
893.697	4611
893.819	4828
893.941	4866
894.064	4805
894.186	4577
894.308	4558
894.43	4793
894.552	4831
894.674	4748
894.796	4615
894.918	4607
895.04	4622
895.161	4755
895.283	4683
895.405	4599
895.526	4687
895.648	4717
895.769	4740
895.891	4717
896.012	4744
896.134	4744
896.255	4698
896.376	4683
896.498	4588
896.619	4698
896.74	4679
896.861	4706
896.982	4930
897.103	5071
897.224	4862
897.345	4736
897.466	4714
897.587	4748
897.708	4911
897.828	4854
897.949	4691
898.07	4603
898.19	4653
898.311	4858
898.431	4675
898.552	4755
898.672	4835
898.792	4793
898.913	4771
899.033	4596
899.153	4516
899.273	4428
899.393	4516
899.513	4538
899.633	4584
899.753	4554
899.873	4554
899.993	4607
900.113	4565
900.232	4637
900.352	4577
900.472	4523
900.591	4413
900.711	4519
900.83	4481
900.95	4645
901.069	4687
901.189	4580
901.308	4371
901.427	4379
901.546	4379
901.665	4478
901.784	4516
901.904	4413
902.023	4329
902.141	4162
902.26	4196
902.379	4303
902.498	4276
902.617	4276
902.735	4379
902.854	4367
902.973	4352
903.091	4192
903.21	4249
903.328	4344
903.446	4287
903.565	4291
903.683	4424
903.801	4325
903.919	4440
904.038	4421
904.156	4344
904.274	4447
904.392	4432
904.51	4447
904.627	4519
904.745	4584
904.863	4649
904.981	4424
905.098	4333
905.216	4405
905.334	4432
905.451	4459
905.569	4440
905.686	4527
905.803	4592
905.921	4409
906.038	4561
906.155	4531
906.272	4386
906.389	4485
906.506	4390
906.623	4421
906.74	4417
906.857	4280
906.974	4386
907.091	4641
907.208	4672
907.324	4645
907.441	4516
907.557	4398
907.674	4428
907.79	4337
907.907	4447
908.023	4474
908.139	4504
908.256	4436
908.372	4497
908.488	4485
908.604	4413
908.72	4360
908.836	4447
908.952	4333
909.068	4459
909.184	4588
909.3	4508
909.415	4554
909.531	4561
909.647	4413
909.762	4383
909.878	4371
909.993	4455
910.108	4436
910.224	4443
910.339	4470
910.454	4394
910.57	4356
910.685	4314
910.8	4653
910.915	4588
911.03	4527
911.145	4405
911.259	4333
911.374	4379
911.489	4284
911.604	4284
911.718	4211
911.833	4219
911.947	4059
912.062	4067
912.176	4227
912.291	4234
912.405	4253
912.519	4485
912.633	4584
912.748	4367
912.862	4299
912.976	4196
913.09	4093
913.204	4188
913.318	4344
913.431	4371
913.545	4436
913.659	4474
913.772	4379
913.886	4268
914	4230
914.113	4417
914.226	4436
914.34	4440
914.453	4230
914.566	4497
914.68	4356
914.793	4375
914.906	4204
915.019	4147
915.132	4097
915.245	4207
915.358	4227
915.47	4265
915.583	4291
915.696	4303
915.809	4409
915.921	4474
916.034	4238
916.146	4268
916.259	4227
916.371	4421
916.483	4390
916.595	4276
916.708	4333
916.82	4329
916.932	4440
917.044	4417
917.156	4375
917.268	4291
917.38	4344
917.491	4303
917.603	4371
917.715	4493
917.826	4519
917.938	4386
918.049	4299
918.161	4459
918.272	4615
918.384	4535
918.495	4519
918.606	4310
918.717	4276
918.828	4402
918.939	4402
919.05	4272
919.161	4299
919.272	4177
919.383	4265
919.494	4428
919.604	4618
919.715	4421
919.826	4367
919.936	4417
920.047	4531
920.157	4523
920.267	4736
920.378	4538
920.488	4580
920.598	4748
920.708	4904
920.818	4812
920.928	4816
921.038	5029
921.148	4987
921.258	4645
921.368	4561
921.477	4500
921.587	4516
921.697	4394
921.806	4577
921.916	4447
922.025	4299
922.134	4322
922.244	4276
922.353	4356
922.462	4238
922.571	4192
922.68	4021
922.789	3998
922.898	4040
923.007	4032
923.116	4131
923.224	4071
923.333	4105
923.442	4025
923.55	3964
923.659	4074
923.767	4139
923.876	3960
923.984	4143
924.092	4006
924.201	4067
924.309	4101
924.417	4093
924.525	4097
924.633	4120
924.741	4908
924.849	3899
924.956	4154
925.064	3945
925.172	3930
925.279	4021
925.387	4017
925.494	4029
925.602	4223
925.709	4188
925.816	4055
925.924	4124
926.031	4265
926.138	4215
926.245	4242
926.352	4131
926.459	4291
926.566	4325
926.673	4215
926.779	4093
926.886	4101
926.993	3975
927.099	3968
927.206	3987
927.312	3983
927.419	4082
927.525	3994
927.631	4135
927.737	3991
927.843	3979
927.95	3865
928.056	4059
928.162	4055
928.267	4067
928.373	4622
928.479	4154
928.585	3937
928.69	4055
928.796	4090
928.901	3937
929.007	3865
929.112	4032
929.218	3979
929.323	3945
929.428	3953
929.533	4135
929.638	3926
929.743	4025
929.848	4078
929.953	4051
930.058	3926
930.163	3751
930.267	3850
930.372	4013
930.477	3812
930.581	4093
930.685	3960
930.79	3876
930.894	3907
930.998	3876
931.103	4048
931.207	3770
931.311	3717
931.415	3682
931.519	3515
931.623	3591
