Data from test_V78500241_1292.txt Node
Date: Fri Mar 25 16:57:59 CST 2022
User: usil
Spectrometer: V785-0024
Trigger mode: 0
Integration Time (sec): 4.000000E-1
Scans to average: 1
Nonlinearity correction enabled: false
Boxcar width: 0
Storing dark spectrum: false
XAxis mode: Wavelengths
Number of Pixels in Spectrum: 1024
>>>>>Begin Spectral Data<<<<<
801.071	8020
801.214	8024
801.356	7894
801.499	7887
801.641	7765
801.783	7799
801.926	7925
802.068	7936
802.211	7967
802.353	8016
802.496	7860
802.638	7887
802.78	7955
802.923	7932
803.065	7970
803.208	7890
803.35	7997
803.492	8119
803.635	8149
803.777	8084
803.919	8130
804.061	8514
804.204	8157
804.346	8054
804.488	7944
804.63	8176
804.773	8031
804.915	8172
805.057	8324
805.199	8180
805.341	8279
805.483	8233
805.626	8183
805.768	8103
805.91	8161
806.052	8168
806.194	8058
806.336	8259
806.478	8054
806.62	8058
806.762	8119
806.904	8282
807.046	8571
807.188	8324
807.33	8328
807.472	8267
807.614	8221
807.756	8149
807.898	8024
808.04	7856
808.182	7902
808.324	7856
808.465	7970
808.607	8111
808.749	8096
808.891	8187
809.033	8370
809.174	8218
809.316	8081
809.458	8035
809.6	7997
809.741	8035
809.883	8043
810.025	8138
810.166	8123
810.308	8058
810.45	8008
810.591	7875
810.733	7772
810.875	7658
811.016	7556
811.158	7499
811.299	7613
811.441	7700
811.582	7712
811.724	7605
811.865	7559
812.007	7563
812.148	7597
812.29	7708
812.431	7700
812.573	7932
812.714	7997
812.855	8115
812.997	8237
813.138	8351
813.279	8176
813.421	8103
813.562	8005
813.703	7890
813.845	7704
813.986	7525
814.127	7198
814.268	7164
814.41	7183
814.551	7129
814.692	7160
814.833	7095
814.974	7057
815.115	7160
815.256	6977
815.397	6935
815.539	7012
815.68	6806
815.821	6753
815.962	6901
816.103	6779
816.244	6753
816.385	6665
816.526	6646
816.666	6456
816.807	6285
816.948	6433
817.089	6464
817.23	6418
817.371	6395
817.512	6365
817.653	6410
817.793	6353
817.934	6403
818.075	6490
818.216	6410
818.356	6414
818.497	6235
818.638	6171
818.778	6148
818.919	6121
819.06	6167
819.2	6281
819.341	6304
819.481	6365
819.622	6566
819.762	6734
819.903	6764
820.043	6547
820.184	6585
820.324	6627
820.465	6688
820.605	6700
820.746	6669
820.886	6494
821.026	6745
821.167	6696
821.307	6760
821.447	6696
821.588	6669
821.728	6582
821.868	6471
822.008	6327
822.149	6361
822.289	6361
822.429	6159
822.569	6102
822.709	6159
822.849	5965
822.99	5882
823.13	5878
823.27	5935
823.41	5764
823.55	5790
823.69	5733
823.83	5748
823.97	5653
824.11	5501
824.25	5512
824.389	5524
824.529	5573
824.669	5566
824.809	5668
824.949	5684
825.089	5611
825.228	5543
825.368	5406
825.508	5391
825.648	5330
825.787	5425
825.927	5360
826.067	5311
826.206	5288
826.346	5353
826.485	5402
826.625	5425
826.765	5539
826.904	5463
827.044	5254
827.183	5223
827.323	5098
827.462	5216
827.601	5193
827.741	5143
827.88	5181
828.02	5105
828.159	5216
828.298	5330
828.437	5414
828.577	5292
828.716	5528
828.855	5284
828.994	5124
829.134	5136
829.273	5216
829.412	5185
829.551	5128
829.69	5147
829.829	5246
829.968	5398
830.107	5220
830.246	5337
830.385	5208
830.524	5124
830.663	5113
830.802	4984
830.941	4873
831.08	4896
831.219	4968
831.357	4972
831.496	5162
831.635	4900
831.774	4870
831.913	4831
832.051	4710
832.19	4752
832.329	4782
832.467	4698
832.606	4660
832.744	4748
832.883	4691
833.022	4771
833.16	4725
833.299	4824
833.437	4824
833.576	4820
833.714	4847
833.852	4877
833.991	4927
834.129	4976
834.267	4915
834.406	4892
834.544	4957
834.682	4968
834.821	4965
834.959	5117
835.097	4957
835.235	5212
835.373	5086
835.511	5121
835.65	5037
835.788	5037
835.926	4896
836.064	4854
836.202	4870
836.34	5147
836.478	5216
836.615	5090
836.753	5147
836.891	5242
837.029	5265
837.167	5208
837.305	5181
837.443	5147
837.58	5109
837.718	5311
837.856	5151
837.993	5124
838.131	5197
838.269	5181
838.406	5208
838.544	5197
838.681	5041
838.819	5033
838.956	4892
839.094	4900
839.231	4965
839.369	5094
839.506	5433
839.643	5246
839.781	5060
839.918	5018
840.055	5083
840.193	5056
840.33	5109
840.467	5143
840.604	5197
840.742	5486
840.879	5121
841.016	5121
841.153	5140
841.29	5372
841.427	5326
841.564	5296
841.701	5341
841.838	5254
841.975	5273
842.112	5227
842.249	5140
842.385	5090
842.522	5341
842.659	5197
842.796	5136
842.933	5140
843.069	5166
843.206	5170
843.343	5307
843.479	5197
843.616	5265
843.752	5018
843.889	5029
844.025	5223
844.162	5006
844.298	5204
844.435	5098
844.571	5048
844.708	5212
844.844	5303
844.98	5349
845.117	5269
845.253	5132
845.389	5113
845.525	5136
845.661	5170
845.798	4984
845.934	5109
846.07	5037
846.206	5181
846.342	5307
846.478	5185
846.614	5037
846.75	4957
846.886	4934
847.022	5086
847.158	4991
847.294	5075
847.429	5094
847.565	5048
847.701	5292
847.837	4873
847.972	4786
848.108	4968
848.244	4949
848.379	4691
848.515	4729
848.65	4710
848.786	4668
848.921	4790
849.057	4854
849.192	4873
849.328	4831
849.463	4870
849.598	4778
849.734	4755
849.869	4675
850.004	4626
850.14	4637
850.275	4611
850.41	4497
850.545	4569
850.68	4599
850.815	4599
850.95	4634
851.085	4873
851.22	4755
851.355	4691
851.49	4603
851.625	4603
851.76	4592
851.895	4565
852.03	4542
852.165	4618
852.299	4668
852.434	4828
852.569	4752
852.703	4782
852.838	4835
852.973	4949
853.107	4889
853.242	4706
853.376	4675
853.511	4519
853.645	4622
853.78	4755
853.914	4698
854.048	4679
854.183	4615
854.317	4645
854.451	4809
854.585	4641
854.72	4649
854.854	4752
854.988	4603
855.122	4664
855.256	4535
855.39	4645
855.524	4748
855.658	4733
855.792	4694
855.926	4763
856.06	4736
856.194	4786
856.327	4725
856.461	4607
856.595	4637
856.729	4626
856.862	4710
856.996	4683
857.13	4721
857.263	4744
857.397	4805
857.53	4622
857.664	4706
857.797	4740
857.931	4744
858.064	4672
858.197	4725
858.331	4660
858.464	4577
858.597	4516
858.731	4622
858.864	4611
858.997	4603
859.13	4622
859.263	4702
859.396	4683
859.529	4554
859.662	4603
859.795	4535
859.928	4626
860.061	4774
860.194	4771
860.327	4577
860.46	4497
860.592	4729
860.725	4717
860.858	4759
860.99	4554
861.123	4481
861.256	4558
861.388	4622
861.521	5208
861.653	4500
861.786	4417
861.918	4436
862.05	4550
862.183	4531
862.315	4649
862.447	4675
862.58	4527
862.712	4375
862.844	4337
862.976	4481
863.108	4451
863.24	4843
863.372	4363
863.504	4363
863.636	4421
863.768	4443
863.9	4447
864.032	4363
864.164	4398
864.296	4455
864.428	4527
864.559	4531
864.691	4542
864.823	4554
864.954	4504
865.086	4497
865.217	4485
865.349	4398
865.48	4466
865.612	4489
865.743	4599
865.875	4432
866.006	4436
866.137	4451
866.269	4432
866.4	4455
866.531	4390
866.662	4383
866.793	4436
866.924	4402
867.055	4481
867.186	4436
867.317	4383
867.448	4356
867.579	4394
867.71	4394
867.841	4409
867.972	4466
868.103	4470
868.233	4485
868.364	4474
868.495	4478
868.625	4630
868.756	4774
868.886	4584
869.017	4584
869.147	4801
869.278	4725
869.408	4679
869.539	4622
869.669	4679
869.799	4656
869.929	4691
870.06	4752
870.19	4942
870.32	4896
870.45	4961
870.58	5048
870.71	5052
870.84	5117
870.97	4927
871.1	4850
871.23	5086
871.36	5140
871.489	5048
871.619	5041
871.749	5071
871.879	5102
872.008	5155
872.138	5094
872.267	4949
872.397	4843
872.526	4850
872.656	4752
872.785	4809
872.915	4892
873.044	5010
873.173	4915
873.303	4911
873.432	4957
873.561	4972
873.69	4873
873.819	4854
873.948	4934
874.077	4790
874.206	4679
874.335	4801
874.464	4927
874.593	5079
874.722	4957
874.851	5121
874.979	5094
875.108	4987
875.237	4923
875.365	4877
875.494	4911
875.623	4953
875.751	4881
875.88	4885
876.008	4946
876.136	4976
876.265	5223
876.393	5311
876.521	5254
876.65	5239
876.778	5113
876.906	5014
877.034	4987
877.162	5033
877.29	4965
877.418	5090
877.546	5006
877.674	5018
877.802	5029
877.93	4957
878.058	4930
878.185	4889
878.313	4919
878.441	4984
878.568	4763
878.696	4831
878.824	4961
878.951	4904
879.079	5098
879.206	5284
879.333	5102
879.461	5006
879.588	4984
879.715	5090
879.842	5277
879.97	5022
880.097	4797
880.224	4748
880.351	4748
880.478	4824
880.605	4782
880.732	4793
880.859	5045
880.986	4919
881.112	4911
881.239	4740
881.366	4679
881.493	4622
881.619	4599
881.746	4634
881.872	4656
881.999	4611
882.125	4653
882.252	4831
882.378	4782
882.505	4984
882.631	4786
882.757	4683
882.883	4725
883.01	4710
883.136	4588
883.262	4599
883.388	4577
883.514	4759
883.64	4850
883.766	4801
883.892	4679
884.018	4698
884.143	4831
884.269	4980
884.395	4653
884.52	4599
884.646	4599
884.772	4596
884.897	4538
885.023	4694
885.148	4774
885.274	4854
885.399	4801
885.524	4687
885.65	4687
885.775	4755
885.9	4683
886.025	4828
886.15	4801
886.275	4698
886.4	4660
886.525	4748
886.65	4672
886.775	4668
886.9	4877
887.025	5022
887.149	4809
887.274	4599
887.399	4599
887.523	4561
887.648	4596
887.773	4607
887.897	4714
888.021	4733
888.146	4687
888.27	4824
888.395	4881
888.519	4782
888.643	4805
888.767	4828
888.891	4618
889.015	4607
889.139	4649
889.263	4630
889.387	4740
889.511	4873
889.635	4763
889.759	4626
889.883	4641
890.006	4710
890.13	4744
890.254	4603
890.377	4702
890.501	4516
890.624	4489
890.748	4641
890.871	4565
890.995	4421
891.118	4409
891.241	4542
891.364	4493
891.488	4596
891.611	4489
891.734	4542
891.857	4550
891.98	4531
892.103	4664
892.226	4573
892.349	4573
892.471	4432
892.594	4508
892.717	4569
892.839	4531
892.962	4588
893.085	4653
893.207	4615
893.33	4451
893.452	4481
893.575	4664
893.697	4542
893.819	4763
893.941	4866
894.064	4771
894.186	4569
894.308	4535
894.43	4752
894.552	4839
894.674	4736
894.796	4565
894.918	4599
895.04	4558
895.161	4656
895.283	4729
895.405	4550
895.526	4649
895.648	4675
895.769	4649
895.891	4668
896.012	4733
896.134	4721
896.255	4641
896.376	4637
896.498	4592
896.619	4630
896.74	4565
896.861	4656
896.982	4889
897.103	5064
897.224	4839
897.345	4748
897.466	4618
897.587	4706
897.708	4797
897.828	4809
897.949	4717
898.07	4577
898.19	4603
898.311	4835
898.431	4645
898.552	4721
898.672	4816
898.792	4786
898.913	4721
899.033	4615
899.153	4485
899.273	4383
899.393	4519
899.513	4500
899.633	4512
899.753	4546
899.873	4478
899.993	4561
900.113	4493
900.232	4546
900.352	4516
900.472	4481
900.591	4405
900.711	4493
900.83	4451
900.95	4584
901.069	4679
901.189	4500
901.308	4344
901.427	4329
901.546	4344
901.665	4466
901.784	4478
901.904	4352
902.023	4333
902.141	4177
902.26	4173
902.379	4246
902.498	4200
902.617	4162
902.735	4371
902.854	4375
902.973	4379
903.091	4215
903.21	4230
903.328	4276
903.446	4280
903.565	4242
903.683	4341
903.801	4287
903.919	4360
904.038	4417
904.156	4356
904.274	4462
904.392	4436
904.51	4428
904.627	4470
904.745	4561
904.863	4634
904.981	4398
905.098	4261
905.216	4344
905.334	4390
905.451	4417
905.569	4462
905.686	4592
905.803	4592
905.921	4421
906.038	4519
906.155	4481
906.272	4371
906.389	4436
906.506	4386
906.623	4386
906.74	4367
906.857	4268
906.974	4383
907.091	4504
907.208	4645
907.324	4565
907.441	4535
907.557	4371
907.674	4367
907.79	4280
907.907	4409
908.023	4417
908.139	4459
908.256	4390
908.372	4493
908.488	4402
908.604	4386
908.72	4325
908.836	4371
908.952	4360
909.068	4428
909.184	4554
909.3	4500
909.415	4611
909.531	4558
909.647	4333
909.762	4413
909.878	4306
909.993	4371
910.108	4417
910.224	4455
910.339	4451
910.454	4405
910.57	4329
910.685	4291
910.8	4683
910.915	4634
911.03	4462
911.145	4329
911.259	4329
911.374	4360
911.489	4310
911.604	4242
911.718	4177
911.833	4215
911.947	4086
912.062	4032
912.176	4227
912.291	4238
912.405	4230
912.519	4474
912.633	4565
912.748	4398
912.862	4322
912.976	4177
913.09	4086
913.204	4173
913.318	4234
913.431	4390
913.545	4383
913.659	4451
913.772	4314
913.886	4215
914	4204
914.113	4363
914.226	4405
914.34	4402
914.453	4215
914.566	4386
914.68	4310
914.793	4329
914.906	4166
915.019	4109
915.132	4086
915.245	4185
915.358	4166
915.47	4227
915.583	4246
915.696	4322
915.809	4371
915.921	4421
916.034	4257
916.146	4249
916.259	4143
916.371	4314
916.483	4398
916.595	4230
916.708	4291
916.82	4322
916.932	4284
917.044	4367
917.156	4322
917.268	4246
917.38	4268
917.491	4223
917.603	4360
917.715	4424
917.826	4462
917.938	4329
918.049	4215
918.161	4371
918.272	4531
918.384	4531
918.495	4413
918.606	4329
918.717	4215
918.828	4299
918.939	4318
919.05	4261
919.161	4306
919.272	4131
919.383	4242
919.494	4398
919.604	4565
919.715	4462
919.826	4363
919.936	4379
920.047	4527
920.157	4527
920.267	4664
920.378	4535
920.488	4489
920.598	4660
920.708	4870
920.818	4733
920.928	4736
921.038	4927
921.148	4927
921.258	4622
921.368	4577
921.477	4466
921.587	4459
921.697	4329
921.806	4516
921.916	4398
922.025	4249
922.134	4238
922.244	4204
922.353	4341
922.462	4109
922.571	4112
922.68	3991
922.789	3972
922.898	4036
923.007	3987
923.116	4086
923.224	4013
923.333	4051
923.442	4006
923.55	3972
923.659	4063
923.767	4051
923.876	4017
923.984	4109
924.092	4002
924.201	4074
924.309	4112
924.417	4105
924.525	4017
924.633	4090
924.741	5086
924.849	3896
924.956	4109
925.064	3956
925.172	3907
925.279	3941
925.387	4101
925.494	4055
925.602	4204
925.709	4215
925.816	3987
925.924	4128
926.031	4265
926.138	4166
926.245	4177
926.352	4097
926.459	4223
926.566	4306
926.673	4139
926.779	4044
926.886	4078
926.993	3968
927.099	3968
927.206	3907
927.312	3972
927.419	4059
927.525	4044
927.631	4128
927.737	3953
927.843	3922
927.95	3846
928.056	3960
928.162	4002
928.267	4032
928.373	4683
928.479	4093
928.585	3903
928.69	4017
928.796	4048
928.901	3949
929.007	3876
929.112	4032
929.218	3975
929.323	3907
929.428	3949
929.533	4112
929.638	3899
929.743	3991
929.848	4036
929.953	4006
930.058	3918
930.163	3770
930.267	3819
930.372	3991
930.477	3804
930.581	4086
930.685	3968
930.79	3808
930.894	3903
930.998	3827
931.103	4055
931.207	3724
931.311	3686
931.415	3641
931.519	3507
931.623	3534
