Data from test_V78500241_1508.txt Node
Date: Fri Mar 25 16:59:29 CST 2022
User: usil
Spectrometer: V785-0024
Trigger mode: 0
Integration Time (sec): 4.000000E-1
Scans to average: 1
Nonlinearity correction enabled: false
Boxcar width: 0
Storing dark spectrum: false
XAxis mode: Wavelengths
Number of Pixels in Spectrum: 1024
>>>>>Begin Spectral Data<<<<<
801.071	8088
801.214	8069
801.356	7928
801.499	7868
801.641	7879
801.783	7845
801.926	7879
802.068	7887
802.211	7921
802.353	7925
802.496	7879
802.638	7879
802.78	7890
802.923	7875
803.065	7849
803.208	7871
803.35	7917
803.492	8126
803.635	8161
803.777	7928
803.919	8199
804.061	8438
804.204	8153
804.346	8103
804.488	7925
804.63	8035
804.773	8031
804.915	8103
805.057	8279
805.199	8176
805.341	8229
805.483	8229
805.626	8229
805.768	8092
805.91	8176
806.052	8195
806.194	8073
806.336	8339
806.478	8100
806.62	8001
806.762	8088
806.904	8221
807.046	8457
807.188	8351
807.33	8244
807.472	8358
807.614	8149
807.756	8123
807.898	8001
808.04	7875
808.182	7932
808.324	7883
808.465	7868
808.607	8077
808.749	8107
808.891	8153
809.033	8298
809.174	8225
809.316	8069
809.458	8035
809.6	8027
809.741	8012
809.883	8073
810.025	8084
810.166	8043
810.308	8012
810.45	8043
810.591	7852
810.733	7780
810.875	7689
811.016	7521
811.158	7510
811.299	7685
811.441	7765
811.582	7765
811.724	7544
811.865	7548
812.007	7594
812.148	7643
812.29	7620
812.431	7757
812.573	7947
812.714	7997
812.855	8115
812.997	8191
813.138	8358
813.279	8180
813.421	8081
813.562	7963
813.703	7868
813.845	7788
813.986	7415
814.127	7285
814.268	7228
814.41	7171
814.551	7217
814.692	7221
814.833	7110
814.974	7107
815.115	7133
815.256	6939
815.397	6981
815.539	7012
815.68	6859
815.821	6814
815.962	6916
816.103	6875
816.244	6700
816.385	6608
816.526	6517
816.666	6490
816.807	6308
816.948	6380
817.089	6475
817.23	6380
817.371	6327
817.512	6372
817.653	6399
817.793	6338
817.934	6380
818.075	6445
818.216	6452
818.356	6365
818.497	6277
818.638	6110
818.778	6148
818.919	6163
819.06	6121
819.2	6289
819.341	6346
819.481	6410
819.622	6544
819.762	6711
819.903	6734
820.043	6650
820.184	6616
820.324	6681
820.465	6753
820.605	6684
820.746	6662
820.886	6471
821.026	6669
821.167	6703
821.307	6810
821.447	6837
821.588	6741
821.728	6608
821.868	6418
822.008	6262
822.149	6414
822.289	6304
822.429	6095
822.569	6133
822.709	6087
822.849	5927
822.99	5870
823.13	5920
823.27	5942
823.41	5790
823.55	5775
823.69	5756
823.83	5760
823.97	5688
824.11	5490
824.25	5497
824.389	5493
824.529	5604
824.669	5532
824.809	5627
824.949	5638
825.089	5604
825.228	5543
825.368	5357
825.508	5372
825.648	5364
825.787	5395
825.927	5349
826.067	5334
826.206	5296
826.346	5433
826.485	5376
826.625	5402
826.765	5573
826.904	5497
827.044	5280
827.183	5189
827.323	5197
827.462	5261
827.601	5174
827.741	5189
827.88	5223
828.02	5067
828.159	5246
828.298	5292
828.437	5398
828.577	5269
828.716	5467
828.855	5341
828.994	5162
829.134	5159
829.273	5181
829.412	5086
829.551	5128
829.69	5212
829.829	5239
829.968	5379
830.107	5246
830.246	5311
830.385	5223
830.524	5140
830.663	5086
830.802	4923
830.941	4870
831.08	4919
831.219	5018
831.357	4980
831.496	5136
831.635	4877
831.774	4820
831.913	4889
832.051	4740
832.19	4778
832.329	4839
832.467	4694
832.606	4660
832.744	4729
832.883	4744
833.022	4717
833.16	4843
833.299	4839
833.437	4812
833.576	4793
833.714	4828
833.852	4847
833.991	4892
834.129	4987
834.267	4923
834.406	4892
834.544	4976
834.682	4968
834.821	5029
834.959	5166
835.097	5006
835.235	5109
835.373	5067
835.511	5083
835.65	5064
835.788	5029
835.926	4908
836.064	4919
836.202	4892
836.34	5155
836.478	5261
836.615	5109
836.753	5178
836.891	5254
837.029	5231
837.167	5159
837.305	5113
837.443	5128
837.58	5075
837.718	5246
837.856	5189
837.993	5151
838.131	5197
838.269	5208
838.406	5189
838.544	5140
838.681	5045
838.819	5029
838.956	4839
839.094	4858
839.231	4984
839.369	5102
839.506	5429
839.643	5261
839.781	5071
839.918	5060
840.055	5094
840.193	5083
840.33	5151
840.467	5170
840.604	5185
840.742	5463
840.879	5083
841.016	5109
841.153	5124
841.29	5387
841.427	5395
841.564	5311
841.701	5349
841.838	5277
841.975	5216
842.112	5307
842.249	5143
842.385	5178
842.522	5391
842.659	5197
842.796	5170
842.933	5208
843.069	5170
843.206	5166
843.343	5280
843.479	5258
843.616	5227
843.752	4995
843.889	5029
844.025	5227
844.162	5025
844.298	5189
844.435	5170
844.571	5060
844.708	5216
844.844	5315
844.98	5391
845.117	5273
845.253	5128
845.389	5098
845.525	5151
845.661	5174
845.798	5079
845.934	5151
846.07	5056
846.206	5143
846.342	5269
846.478	5208
846.614	5006
846.75	4938
846.886	4915
847.022	5162
847.158	5014
847.294	5083
847.429	5132
847.565	5067
847.701	5269
847.837	4793
847.972	4824
848.108	4934
848.244	4934
848.379	4748
848.515	4740
848.65	4748
848.786	4744
848.921	4740
849.057	4839
849.192	4881
849.328	4786
849.463	4839
849.598	4786
849.734	4744
849.869	4675
850.004	4615
850.14	4675
850.275	4588
850.41	4542
850.545	4603
850.68	4603
850.815	4626
850.95	4611
851.085	4824
851.22	4744
851.355	4687
851.49	4645
851.625	4622
851.76	4664
851.895	4538
852.03	4542
852.165	4645
852.299	4721
852.434	4820
852.569	4744
852.703	4801
852.838	4862
852.973	4919
853.107	4885
853.242	4744
853.376	4653
853.511	4527
853.645	4641
853.78	4786
853.914	4698
854.048	4653
854.183	4615
854.317	4733
854.451	4854
854.585	4637
854.72	4622
854.854	4744
854.988	4603
855.122	4599
855.256	4538
855.39	4675
855.524	4778
855.658	4721
855.792	4694
855.926	4759
856.06	4763
856.194	4805
856.327	4645
856.461	4607
856.595	4599
856.729	4618
856.862	4748
856.996	4729
857.13	4706
857.263	4759
857.397	4858
857.53	4645
857.664	4752
857.797	4755
857.931	4767
858.064	4729
858.197	4759
858.331	4637
858.464	4615
858.597	4535
858.731	4653
858.864	4645
858.997	4592
859.13	4668
859.263	4675
859.396	4683
859.529	4538
859.662	4523
859.795	4554
859.928	4615
860.061	4744
860.194	4759
860.327	4630
860.46	4565
860.592	4714
860.725	4801
860.858	4694
860.99	4554
861.123	4538
861.256	4527
861.388	4596
861.521	5303
861.653	4512
861.786	4481
861.918	4459
862.05	4493
862.183	4569
862.315	4626
862.447	4649
862.58	4538
862.712	4413
862.844	4329
862.976	4474
863.108	4470
863.24	4752
863.372	4318
863.504	4424
863.636	4402
863.768	4443
863.9	4421
864.032	4341
864.164	4409
864.296	4451
864.428	4588
864.559	4569
864.691	4512
864.823	4478
864.954	4481
865.086	4508
865.217	4421
865.349	4405
865.48	4443
865.612	4451
865.743	4634
865.875	4455
866.006	4474
866.137	4462
866.269	4424
866.4	4440
866.531	4413
866.662	4409
866.793	4451
866.924	4398
867.055	4478
867.186	4432
867.317	4409
867.448	4383
867.579	4398
867.71	4337
867.841	4344
867.972	4489
868.103	4451
868.233	4436
868.364	4447
868.495	4493
868.625	4668
868.756	4698
868.886	4577
869.017	4675
869.147	4759
869.278	4809
869.408	4668
869.539	4645
869.669	4672
869.799	4706
869.929	4786
870.06	4759
870.19	4904
870.32	4927
870.45	4915
870.58	5029
870.71	5079
870.84	5113
870.97	4892
871.1	4889
871.23	5090
871.36	5113
871.489	5006
871.619	5109
871.749	5086
871.879	5083
872.008	5208
872.138	5048
872.267	4934
872.397	4862
872.526	4782
872.656	4694
872.785	4793
872.915	4927
873.044	5022
873.173	4930
873.303	4961
873.432	4961
873.561	4908
873.69	4870
873.819	4919
873.948	4904
874.077	4809
874.206	4759
874.335	4820
874.464	4915
874.593	5052
874.722	4949
874.851	5083
874.979	5014
875.108	5014
875.237	4870
875.365	4858
875.494	4843
875.623	5010
875.751	4889
875.88	4862
876.008	4938
876.136	5022
876.265	5197
876.393	5349
876.521	5235
876.65	5220
876.778	5105
876.906	5029
877.034	5018
877.162	4976
877.29	5003
877.418	5090
877.546	5033
877.674	5022
877.802	4999
877.93	5018
878.058	4915
878.185	4858
878.313	4984
878.441	4995
878.568	4824
878.696	4854
878.824	4930
878.951	4923
879.079	5162
879.206	5277
879.333	5086
879.461	4991
879.588	4980
879.715	5132
879.842	5212
879.97	5029
880.097	4778
880.224	4767
880.351	4797
880.478	4831
880.605	4786
880.732	4721
880.859	5037
880.986	4858
881.112	4866
881.239	4759
881.366	4626
881.493	4641
881.619	4637
881.746	4596
881.872	4634
881.999	4645
882.125	4691
882.252	4790
882.378	4835
882.505	4991
882.631	4847
882.757	4687
882.883	4706
883.01	4733
883.136	4687
883.262	4641
883.388	4607
883.514	4831
883.64	4824
883.766	4786
883.892	4626
884.018	4721
884.143	4854
884.269	4995
884.395	4675
884.52	4630
884.646	4653
884.772	4546
884.897	4523
885.023	4637
885.148	4748
885.274	4850
885.399	4828
885.524	4733
885.65	4691
885.775	4763
885.9	4683
886.025	4839
886.15	4774
886.275	4698
886.4	4698
886.525	4755
886.65	4672
886.775	4683
886.9	4877
887.025	5018
887.149	4805
887.274	4622
887.399	4569
887.523	4656
887.648	4611
887.773	4577
887.897	4752
888.021	4786
888.146	4721
888.27	4835
888.395	4919
888.519	4805
888.643	4771
888.767	4771
888.891	4626
889.015	4592
889.139	4626
889.263	4554
889.387	4778
889.511	4885
889.635	4820
889.759	4656
889.883	4634
890.006	4729
890.13	4820
890.254	4588
890.377	4694
890.501	4523
890.624	4569
890.748	4637
890.871	4516
890.995	4394
891.118	4383
891.241	4500
891.364	4561
891.488	4580
891.611	4542
891.734	4535
891.857	4554
891.98	4538
892.103	4634
892.226	4580
892.349	4519
892.471	4398
892.594	4531
892.717	4592
892.839	4588
892.962	4611
893.085	4656
893.207	4588
893.33	4481
893.452	4512
893.575	4664
893.697	4588
893.819	4786
893.941	4812
894.064	4763
894.186	4542
894.308	4550
894.43	4740
894.552	4801
894.674	4793
894.796	4527
894.918	4565
895.04	4546
895.161	4672
895.283	4660
895.405	4634
895.526	4611
895.648	4736
895.769	4675
895.891	4717
896.012	4721
896.134	4725
896.255	4630
896.376	4599
896.498	4607
896.619	4645
896.74	4580
896.861	4634
896.982	4911
897.103	5079
897.224	4839
897.345	4767
897.466	4653
897.587	4683
897.708	4839
897.828	4820
897.949	4679
898.07	4546
898.19	4603
898.311	4820
898.431	4645
898.552	4729
898.672	4809
898.792	4809
898.913	4752
899.033	4649
899.153	4523
899.273	4417
899.393	4428
899.513	4478
899.633	4538
899.753	4550
899.873	4538
899.993	4573
900.113	4519
900.232	4538
900.352	4546
900.472	4497
900.591	4314
900.711	4500
900.83	4421
900.95	4611
901.069	4664
901.189	4538
901.308	4314
901.427	4314
901.546	4348
901.665	4409
901.784	4519
901.904	4379
902.023	4325
902.141	4204
902.26	4147
902.379	4268
902.498	4246
902.617	4265
902.735	4390
902.854	4363
902.973	4348
903.091	4219
903.21	4219
903.328	4291
903.446	4215
903.565	4261
903.683	4322
903.801	4295
903.919	4383
904.038	4386
904.156	4276
904.274	4436
904.392	4413
904.51	4405
904.627	4478
904.745	4573
904.863	4634
904.981	4379
905.098	4303
905.216	4352
905.334	4402
905.451	4398
905.569	4424
905.686	4531
905.803	4565
905.921	4421
906.038	4485
906.155	4447
906.272	4360
906.389	4455
906.506	4341
906.623	4360
906.74	4394
906.857	4299
906.974	4352
907.091	4596
907.208	4656
907.324	4577
907.441	4481
907.557	4318
907.674	4363
907.79	4318
907.907	4402
908.023	4485
908.139	4474
908.256	4405
908.372	4436
908.488	4413
908.604	4333
908.72	4363
908.836	4363
908.952	4386
909.068	4386
909.184	4565
909.3	4447
909.415	4561
909.531	4573
909.647	4356
909.762	4367
909.878	4291
909.993	4405
910.108	4379
910.224	4394
910.339	4451
910.454	4432
910.57	4383
910.685	4280
910.8	4626
910.915	4523
911.03	4485
911.145	4310
911.259	4291
911.374	4314
911.489	4310
911.604	4272
911.718	4143
911.833	4177
911.947	4067
912.062	4074
912.176	4207
912.291	4249
912.405	4253
912.519	4462
912.633	4500
912.748	4344
912.862	4314
912.976	4185
913.09	4105
913.204	4135
913.318	4246
913.431	4424
913.545	4402
913.659	4436
913.772	4386
913.886	4249
914	4223
914.113	4405
914.226	4383
914.34	4390
914.453	4291
914.566	4421
914.68	4299
914.793	4344
914.906	4135
915.019	4090
915.132	4086
915.245	4207
915.358	4200
915.47	4242
915.583	4265
915.696	4253
915.809	4405
915.921	4417
916.034	4257
916.146	4265
916.259	4238
916.371	4394
916.483	4333
916.595	4272
916.708	4341
916.82	4314
916.932	4272
917.044	4299
917.156	4306
917.268	4196
917.38	4280
917.491	4253
917.603	4314
917.715	4455
917.826	4413
917.938	4344
918.049	4196
918.161	4386
918.272	4546
918.384	4542
918.495	4413
918.606	4325
918.717	4223
918.828	4333
918.939	4325
919.05	4272
919.161	4272
919.272	4097
919.383	4230
919.494	4451
919.604	4580
919.715	4455
919.826	4344
919.936	4398
920.047	4550
920.157	4519
920.267	4729
920.378	4603
920.488	4440
920.598	4691
920.708	4919
920.818	4763
920.928	4763
921.038	4984
921.148	4892
921.258	4584
921.368	4519
921.477	4493
921.587	4516
921.697	4367
921.806	4554
921.916	4440
922.025	4246
922.134	4276
922.244	4185
922.353	4329
922.462	4124
922.571	4109
922.68	3994
922.789	3998
922.898	4051
923.007	3972
923.116	4093
923.224	4021
923.333	4036
923.442	4010
923.55	3960
923.659	4051
923.767	4090
923.876	3964
923.984	4128
924.092	3994
924.201	4036
924.309	4078
924.417	4128
924.525	4074
924.633	4147
924.741	4866
924.849	3892
924.956	4093
925.064	3979
925.172	3892
925.279	3960
925.387	4063
925.494	4059
925.602	4185
925.709	4166
925.816	3998
925.924	4105
926.031	4234
926.138	4166
926.245	4185
926.352	4078
926.459	4219
926.566	4287
926.673	4158
926.779	4021
926.886	4116
926.993	3926
927.099	3960
927.206	3930
927.312	3899
927.419	4090
927.525	4048
927.631	4109
927.737	3972
927.843	3918
927.95	3865
928.056	3979
928.162	3991
928.267	4051
928.373	4569
928.479	4109
928.585	3899
928.69	4025
928.796	4063
928.901	4002
929.007	3838
929.112	3994
929.218	4006
929.323	3918
929.428	3930
929.533	4101
929.638	3896
929.743	3975
929.848	4055
929.953	3987
930.058	3945
930.163	3816
930.267	3789
930.372	3960
930.477	3842
930.581	4082
930.685	3922
930.79	3835
930.894	3892
930.998	3838
931.103	4051
931.207	3728
931.311	3698
931.415	3633
931.519	3500
931.623	3572
