Data from test_V78500241_1410.txt Node
Date: Fri Mar 25 16:58:48 CST 2022
User: usil
Spectrometer: V785-0024
Trigger mode: 0
Integration Time (sec): 4.000000E-1
Scans to average: 1
Nonlinearity correction enabled: false
Boxcar width: 0
Storing dark spectrum: false
XAxis mode: Wavelengths
Number of Pixels in Spectrum: 1024
>>>>>Begin Spectral Data<<<<<
801.071	7997
801.214	8039
801.356	7864
801.499	7845
801.641	7818
801.783	7792
801.926	7963
802.068	7890
802.211	7951
802.353	7993
802.496	7799
802.638	7818
802.78	7860
802.923	7921
803.065	7906
803.208	7837
803.35	7993
803.492	8065
803.635	8172
803.777	8035
803.919	8138
804.061	8389
804.204	8172
804.346	8065
804.488	7940
804.63	8115
804.773	7967
804.915	8111
805.057	8282
805.199	8206
805.341	8218
805.483	8286
805.626	8199
805.768	8088
805.91	8199
806.052	8244
806.194	8046
806.336	8301
806.478	8130
806.62	8054
806.762	8210
806.904	8282
807.046	8503
807.188	8423
807.33	8225
807.472	8339
807.614	8161
807.756	8176
807.898	7986
808.04	7887
808.182	7898
808.324	7902
808.465	7967
808.607	8142
808.749	8100
808.891	8199
809.033	8332
809.174	8267
809.316	7993
809.458	8001
809.6	8035
809.741	7967
809.883	8031
810.025	8062
810.166	8069
810.308	8050
810.45	8054
810.591	7906
810.733	7681
810.875	7658
811.016	7514
811.158	7571
811.299	7533
811.441	7723
811.582	7746
811.724	7594
811.865	7518
812.007	7556
812.148	7575
812.29	7666
812.431	7712
812.573	7879
812.714	7982
812.855	8027
812.997	8176
813.138	8252
813.279	8195
813.421	8096
813.562	7921
813.703	7845
813.845	7715
813.986	7381
814.127	7255
814.268	7247
814.41	7187
814.551	7221
814.692	7209
814.833	7053
814.974	7126
815.115	7076
815.256	6977
815.397	6890
815.539	6924
815.68	6825
815.821	6768
815.962	6833
816.103	6738
816.244	6665
816.385	6620
816.526	6566
816.666	6426
816.807	6285
816.948	6410
817.089	6452
817.23	6426
817.371	6323
817.512	6357
817.653	6391
817.793	6410
817.934	6384
818.075	6464
818.216	6486
818.356	6388
818.497	6270
818.638	6106
818.778	6121
818.919	6163
819.06	6152
819.2	6350
819.341	6315
819.481	6342
819.622	6479
819.762	6707
819.903	6707
820.043	6559
820.184	6582
820.324	6555
820.465	6616
820.605	6684
820.746	6662
820.886	6536
821.026	6673
821.167	6722
821.307	6829
821.447	6757
821.588	6673
821.728	6593
821.868	6448
822.008	6273
822.149	6391
822.289	6277
822.429	6114
822.569	6072
822.709	6106
822.849	5859
822.99	5916
823.13	5893
823.27	5897
823.41	5802
823.55	5710
823.69	5786
823.83	5752
823.97	5623
824.11	5471
824.25	5459
824.389	5539
824.529	5577
824.669	5512
824.809	5611
824.949	5596
825.089	5672
825.228	5554
825.368	5376
825.508	5364
825.648	5299
825.787	5402
825.927	5341
826.067	5288
826.206	5254
826.346	5349
826.485	5357
826.625	5463
826.765	5478
826.904	5448
827.044	5231
827.183	5143
827.323	5117
827.462	5197
827.601	5170
827.741	5159
827.88	5204
828.02	5109
828.159	5178
828.298	5280
828.437	5318
828.577	5273
828.716	5482
828.855	5315
828.994	5121
829.134	5147
829.273	5166
829.412	5109
829.551	5132
829.69	5140
829.829	5201
829.968	5337
830.107	5239
830.246	5273
830.385	5231
830.524	5121
830.663	5060
830.802	4961
830.941	4919
831.08	4870
831.219	5014
831.357	4980
831.496	5128
831.635	4938
831.774	4900
831.913	4843
832.051	4660
832.19	4717
832.329	4835
832.467	4702
832.606	4599
832.744	4683
832.883	4694
833.022	4714
833.16	4714
833.299	4809
833.437	4820
833.576	4889
833.714	4824
833.852	4858
833.991	4885
834.129	4923
834.267	4896
834.406	4877
834.544	4938
834.682	4995
834.821	4949
834.959	5162
835.097	4987
835.235	5143
835.373	5056
835.511	5098
835.65	5056
835.788	4991
835.926	4866
836.064	4812
836.202	4911
836.34	5117
836.478	5166
836.615	5128
836.753	5220
836.891	5250
837.029	5216
837.167	5143
837.305	5193
837.443	5151
837.58	5109
837.718	5239
837.856	5162
837.993	5128
838.131	5201
838.269	5197
838.406	5174
838.544	5193
838.681	5029
838.819	5048
838.956	4908
839.094	4900
839.231	4972
839.369	5086
839.506	5440
839.643	5227
839.781	5010
839.918	4946
840.055	5083
840.193	5075
840.33	5098
840.467	5105
840.604	5136
840.742	5425
840.879	5117
841.016	5006
841.153	5174
841.29	5372
841.427	5284
841.564	5311
841.701	5345
841.838	5330
841.975	5155
842.112	5269
842.249	5170
842.385	5071
842.522	5303
842.659	5155
842.796	5174
842.933	5181
843.069	5166
843.206	5109
843.343	5299
843.479	5242
843.616	5299
843.752	5018
843.889	5090
844.025	5231
844.162	5029
844.298	5204
844.435	5071
844.571	5056
844.708	5151
844.844	5322
844.98	5303
845.117	5284
845.253	5174
845.389	5098
845.525	5140
845.661	5094
845.798	4991
845.934	5128
846.07	5052
846.206	5166
846.342	5197
846.478	5132
846.614	5037
846.75	4946
846.886	4911
847.022	5064
847.158	4999
847.294	5045
847.429	5124
847.565	5079
847.701	5288
847.837	4790
847.972	4850
848.108	4942
848.244	4976
848.379	4736
848.515	4755
848.65	4721
848.786	4717
848.921	4771
849.057	4866
849.192	4908
849.328	4790
849.463	4816
849.598	4824
849.734	4801
849.869	4675
850.004	4599
850.14	4721
850.275	4599
850.41	4527
850.545	4546
850.68	4596
850.815	4615
850.95	4603
851.085	4862
851.22	4714
851.355	4596
851.49	4626
851.625	4588
851.76	4611
851.895	4615
852.03	4527
852.165	4675
852.299	4706
852.434	4809
852.569	4755
852.703	4744
852.838	4843
852.973	4915
853.107	4911
853.242	4740
853.376	4618
853.511	4554
853.645	4596
853.78	4805
853.914	4618
854.048	4721
854.183	4653
854.317	4733
854.451	4786
854.585	4702
854.72	4664
854.854	4714
854.988	4599
855.122	4603
855.256	4497
855.39	4664
855.524	4755
855.658	4748
855.792	4702
855.926	4691
856.06	4736
856.194	4801
856.327	4668
856.461	4599
856.595	4584
856.729	4603
856.862	4721
856.996	4725
857.13	4694
857.263	4710
857.397	4706
857.53	4653
857.664	4736
857.797	4725
857.931	4774
858.064	4660
858.197	4721
858.331	4645
858.464	4615
858.597	4508
858.731	4660
858.864	4641
858.997	4565
859.13	4653
859.263	4618
859.396	4683
859.529	4561
859.662	4538
859.795	4478
859.928	4603
860.061	4748
860.194	4786
860.327	4588
860.46	4535
860.592	4645
860.725	4740
860.858	4691
860.99	4538
861.123	4512
861.256	4504
861.388	4588
861.521	5425
861.653	4466
861.786	4436
861.918	4478
862.05	4485
862.183	4561
862.315	4550
862.447	4641
862.58	4588
862.712	4375
862.844	4318
862.976	4489
863.108	4455
863.24	4847
863.372	4329
863.504	4405
863.636	4390
863.768	4481
863.9	4417
864.032	4348
864.164	4398
864.296	4440
864.428	4474
864.559	4554
864.691	4504
864.823	4489
864.954	4523
865.086	4462
865.217	4485
865.349	4421
865.48	4417
865.612	4527
865.743	4599
865.875	4459
866.006	4390
866.137	4470
866.269	4379
866.4	4451
866.531	4375
866.662	4405
866.793	4394
866.924	4432
867.055	4519
867.186	4421
867.317	4394
867.448	4344
867.579	4363
867.71	4341
867.841	4394
867.972	4432
868.103	4462
868.233	4462
868.364	4428
868.495	4493
868.625	4645
868.756	4755
868.886	4573
869.017	4630
869.147	4801
869.278	4729
869.408	4656
869.539	4641
869.669	4694
869.799	4641
869.929	4702
870.06	4725
870.19	4870
870.32	4889
870.45	4908
870.58	5014
870.71	5079
870.84	5071
870.97	4908
871.1	4828
871.23	5113
871.36	5105
871.489	5041
871.619	5033
871.749	5090
871.879	5117
872.008	5178
872.138	5045
872.267	4915
872.397	4786
872.526	4774
872.656	4717
872.785	4793
872.915	4949
873.044	5033
873.173	4892
873.303	4991
873.432	4938
873.561	4919
873.69	4881
873.819	4854
873.948	4889
874.077	4793
874.206	4767
874.335	4752
874.464	4972
874.593	5041
874.722	4927
874.851	5067
874.979	5048
875.108	5010
875.237	4953
875.365	4900
875.494	4801
875.623	4965
875.751	4870
875.88	4873
876.008	4930
876.136	5079
876.265	5162
876.393	5299
876.521	5235
876.65	5212
876.778	5075
876.906	5067
877.034	5018
877.162	5029
877.29	4972
877.418	5041
877.546	5018
877.674	5006
877.802	4987
877.93	5018
878.058	4896
878.185	4850
878.313	4908
878.441	4904
878.568	4771
878.696	4866
878.824	4934
878.951	4972
879.079	5117
879.206	5212
879.333	5098
879.461	4987
879.588	5018
879.715	5113
879.842	5231
879.97	4976
880.097	4774
880.224	4752
880.351	4778
880.478	4801
880.605	4733
880.732	4797
880.859	5075
880.986	4843
881.112	4866
881.239	4755
881.366	4656
881.493	4603
881.619	4561
881.746	4611
881.872	4649
881.999	4622
882.125	4672
882.252	4782
882.378	4858
882.505	4946
882.631	4782
882.757	4641
882.883	4710
883.01	4698
883.136	4645
883.262	4573
883.388	4588
883.514	4778
883.64	4809
883.766	4771
883.892	4641
884.018	4679
884.143	4911
884.269	4976
884.395	4634
884.52	4615
884.646	4634
884.772	4584
884.897	4546
885.023	4641
885.148	4759
885.274	4839
885.399	4835
885.524	4698
885.65	4698
885.775	4721
885.9	4683
886.025	4866
886.15	4778
886.275	4706
886.4	4672
886.525	4710
886.65	4664
886.775	4634
886.9	4892
887.025	5048
887.149	4771
887.274	4607
887.399	4573
887.523	4599
887.648	4577
887.773	4588
887.897	4717
888.021	4733
888.146	4641
888.27	4809
888.395	4831
888.519	4786
888.643	4801
888.767	4847
888.891	4653
889.015	4603
889.139	4626
889.263	4596
889.387	4748
889.511	4862
889.635	4782
889.759	4603
889.883	4630
890.006	4752
890.13	4835
890.254	4649
890.377	4710
890.501	4558
890.624	4474
890.748	4634
890.871	4504
890.995	4447
891.118	4367
891.241	4500
891.364	4565
891.488	4653
891.611	4508
891.734	4493
891.857	4611
891.98	4542
892.103	4649
892.226	4558
892.349	4512
892.471	4394
892.594	4561
892.717	4645
892.839	4584
892.962	4573
893.085	4664
893.207	4580
893.33	4455
893.452	4523
893.575	4675
893.697	4622
893.819	4778
893.941	4774
894.064	4744
894.186	4554
894.308	4542
894.43	4759
894.552	4850
894.674	4729
894.796	4538
894.918	4561
895.04	4508
895.161	4641
895.283	4656
895.405	4588
895.526	4607
895.648	4634
895.769	4649
895.891	4721
896.012	4736
896.134	4729
896.255	4653
896.376	4622
896.498	4611
896.619	4645
896.74	4592
896.861	4733
896.982	4873
897.103	5060
897.224	4809
897.345	4767
897.466	4664
897.587	4717
897.708	4831
897.828	4740
897.949	4656
898.07	4565
898.19	4645
898.311	4816
898.431	4679
898.552	4740
898.672	4812
898.792	4797
898.913	4717
899.033	4603
899.153	4538
899.273	4436
899.393	4478
899.513	4500
899.633	4527
899.753	4561
899.873	4504
899.993	4577
900.113	4504
900.232	4580
900.352	4558
900.472	4481
900.591	4398
900.711	4489
900.83	4440
900.95	4634
901.069	4668
901.189	4554
901.308	4348
901.427	4287
901.546	4352
901.665	4436
901.784	4516
901.904	4344
902.023	4325
902.141	4204
902.26	4188
902.379	4272
902.498	4253
902.617	4215
902.735	4394
902.854	4440
902.973	4322
903.091	4230
903.21	4227
903.328	4284
903.446	4261
903.565	4265
903.683	4341
903.801	4276
903.919	4417
904.038	4363
904.156	4291
904.274	4386
904.392	4371
904.51	4402
904.627	4478
904.745	4538
904.863	4637
904.981	4371
905.098	4280
905.216	4402
905.334	4409
905.451	4421
905.569	4436
905.686	4508
905.803	4550
905.921	4402
906.038	4516
906.155	4489
906.272	4409
906.389	4455
906.506	4341
906.623	4344
906.74	4421
906.857	4325
906.974	4325
907.091	4554
907.208	4656
907.324	4615
907.441	4497
907.557	4333
907.674	4375
907.79	4341
907.907	4386
908.023	4497
908.139	4481
908.256	4405
908.372	4440
908.488	4440
908.604	4333
908.72	4325
908.836	4337
908.952	4413
909.068	4383
909.184	4538
909.3	4497
909.415	4550
909.531	4527
909.647	4398
909.762	4390
909.878	4329
909.993	4443
910.108	4398
910.224	4432
910.339	4478
910.454	4409
910.57	4367
910.685	4299
910.8	4626
910.915	4538
911.03	4493
911.145	4371
911.259	4337
911.374	4314
911.489	4306
911.604	4219
911.718	4196
911.833	4227
911.947	4097
912.062	4017
912.176	4234
912.291	4204
912.405	4261
912.519	4447
912.633	4455
912.748	4424
912.862	4280
912.976	4162
913.09	4067
913.204	4139
913.318	4230
913.431	4333
913.545	4356
913.659	4394
913.772	4409
913.886	4230
914	4207
914.113	4322
914.226	4394
914.34	4409
914.453	4249
914.566	4409
914.68	4291
914.793	4284
914.906	4154
915.019	4162
915.132	4116
915.245	4173
915.358	4185
915.47	4230
915.583	4234
915.696	4272
915.809	4413
915.921	4443
916.034	4265
916.146	4253
916.259	4223
916.371	4413
916.483	4325
916.595	4253
916.708	4333
916.82	4268
916.932	4276
917.044	4314
917.156	4303
917.268	4207
917.38	4299
917.491	4265
917.603	4348
917.715	4386
917.826	4432
917.938	4318
918.049	4185
918.161	4356
918.272	4565
918.384	4558
918.495	4432
918.606	4306
918.717	4253
918.828	4253
918.939	4379
919.05	4280
919.161	4310
919.272	4128
919.383	4219
919.494	4421
919.604	4622
919.715	4424
919.826	4348
919.936	4390
920.047	4466
920.157	4516
920.267	4729
920.378	4558
920.488	4523
920.598	4683
920.708	4858
920.818	4797
920.928	4755
921.038	4968
921.148	4919
921.258	4679
921.368	4569
921.477	4436
921.587	4447
921.697	4428
921.806	4519
921.916	4402
922.025	4291
922.134	4272
922.244	4215
922.353	4306
922.462	4185
922.571	4105
922.68	3983
922.789	3945
922.898	4029
923.007	3907
923.116	4158
923.224	4093
923.333	4082
923.442	4032
923.55	3991
923.659	4044
923.767	4074
923.876	4002
923.984	4101
924.092	3934
924.201	4067
924.309	4071
924.417	4112
924.525	4078
924.633	4109
924.741	5033
924.849	3869
924.956	4105
925.064	3926
925.172	3907
925.279	3949
925.387	4071
925.494	4055
925.602	4185
925.709	4207
925.816	4021
925.924	4105
926.031	4211
926.138	4150
926.245	4207
926.352	4078
926.459	4295
926.566	4265
926.673	4131
926.779	4101
926.886	4055
926.993	3960
927.099	3953
927.206	3945
927.312	3892
927.419	4029
927.525	4044
927.631	4128
927.737	3934
927.843	3918
927.95	3827
928.056	3873
928.162	3972
928.267	4055
928.373	4664
928.479	4086
928.585	3888
928.69	4059
928.796	4086
928.901	3953
929.007	3865
929.112	3994
929.218	3968
929.323	3964
929.428	3930
929.533	4120
929.638	3903
929.743	3934
929.848	3994
929.953	4013
930.058	3937
930.163	3747
930.267	3823
930.372	3956
930.477	3823
930.581	4097
930.685	3937
930.79	3804
930.894	3899
930.998	3793
931.103	3972
931.207	3675
931.311	3713
931.415	3652
931.519	3507
931.623	3523
