Data from test_V78500241_2543.txt Node
Date: Fri Mar 25 17:06:41 CST 2022
User: usil
Spectrometer: V785-0024
Trigger mode: 0
Integration Time (sec): 4.000000E-1
Scans to average: 1
Nonlinearity correction enabled: false
Boxcar width: 0
Storing dark spectrum: false
XAxis mode: Wavelengths
Number of Pixels in Spectrum: 1024
>>>>>Begin Spectral Data<<<<<
801.071	8016
801.214	7989
801.356	7974
801.499	7772
801.641	7780
801.783	7784
801.926	7871
802.068	7955
802.211	7970
802.353	7974
802.496	7879
802.638	7917
802.78	7864
802.923	7955
803.065	7890
803.208	7837
803.35	7963
803.492	8107
803.635	8214
803.777	7989
803.919	8172
804.061	8457
804.204	8088
804.346	8088
804.488	7902
804.63	8126
804.773	8016
804.915	8107
805.057	8256
805.199	8164
805.341	8183
805.483	8221
805.626	8271
805.768	8119
805.91	8187
806.052	8191
806.194	8050
806.336	8244
806.478	8115
806.62	8084
806.762	8103
806.904	8225
807.046	8473
807.188	8389
807.33	8286
807.472	8256
807.614	8168
807.756	8145
807.898	7978
808.04	7875
808.182	7917
808.324	7959
808.465	7936
808.607	8062
808.749	8043
808.891	8259
809.033	8290
809.174	8233
809.316	8020
809.458	8073
809.6	8012
809.741	7997
809.883	7970
810.025	8115
810.166	8043
810.308	8054
810.45	7967
810.591	7841
810.733	7788
810.875	7696
811.016	7491
811.158	7476
811.299	7613
811.441	7685
811.582	7601
811.724	7544
811.865	7628
812.007	7578
812.148	7548
812.29	7643
812.431	7655
812.573	7845
812.714	7959
812.855	8142
812.997	8195
813.138	8309
813.279	8142
813.421	8123
813.562	7951
813.703	7807
813.845	7772
813.986	7415
814.127	7274
814.268	7194
814.41	7240
814.551	7183
814.692	7206
814.833	7114
814.974	7114
815.115	7107
815.256	6977
815.397	6901
815.539	6954
815.68	6798
815.821	6715
815.962	6871
816.103	6791
816.244	6726
816.385	6604
816.526	6681
816.666	6528
816.807	6323
816.948	6456
817.089	6475
817.23	6445
817.371	6464
817.512	6388
817.653	6429
817.793	6319
817.934	6410
818.075	6464
818.216	6445
818.356	6456
818.497	6346
818.638	6152
818.778	6175
818.919	6190
819.06	6129
819.2	6331
819.341	6395
819.481	6388
819.622	6532
819.762	6738
819.903	6692
820.043	6623
820.184	6646
820.324	6566
820.465	6707
820.605	6677
820.746	6658
820.886	6517
821.026	6627
821.167	6696
821.307	6840
821.447	6768
821.588	6696
821.728	6559
821.868	6506
822.008	6350
822.149	6331
822.289	6334
822.429	6163
822.569	6083
822.709	6079
822.849	5969
822.99	5931
823.13	5889
823.27	5977
823.41	5775
823.55	5771
823.69	5809
823.83	5756
823.97	5649
824.11	5478
824.25	5558
824.389	5512
824.529	5581
824.669	5509
824.809	5592
824.949	5680
825.089	5630
825.228	5577
825.368	5414
825.508	5311
825.648	5318
825.787	5372
825.927	5357
826.067	5341
826.206	5280
826.346	5376
826.485	5417
826.625	5417
826.765	5516
826.904	5493
827.044	5269
827.183	5170
827.323	5136
827.462	5261
827.601	5212
827.741	5147
827.88	5223
828.02	5132
828.159	5239
828.298	5261
828.437	5357
828.577	5258
828.716	5452
828.855	5265
828.994	5155
829.134	5090
829.273	5201
829.412	5159
829.551	5109
829.69	5170
829.829	5227
829.968	5376
830.107	5311
830.246	5258
830.385	5227
830.524	5105
830.663	5067
830.802	4999
830.941	4885
831.08	4816
831.219	4968
831.357	4980
831.496	5083
831.635	4889
831.774	4828
831.913	4881
832.051	4740
832.19	4759
832.329	4877
832.467	4706
832.606	4637
832.744	4683
832.883	4702
833.022	4706
833.16	4801
833.299	4801
833.437	4824
833.576	4835
833.714	4847
833.852	4885
833.991	4919
834.129	4991
834.267	4915
834.406	4900
834.544	4987
834.682	4949
834.821	4930
834.959	5136
835.097	4938
835.235	5159
835.373	5022
835.511	5098
835.65	5033
835.788	5018
835.926	4911
836.064	4862
836.202	4911
836.34	5155
836.478	5227
836.615	5121
836.753	5216
836.891	5292
837.029	5220
837.167	5204
837.305	5166
837.443	5136
837.58	5109
837.718	5242
837.856	5181
837.993	5151
838.131	5216
838.269	5208
838.406	5239
838.544	5193
838.681	5029
838.819	4972
838.956	4885
839.094	4896
839.231	5056
839.369	5071
839.506	5448
839.643	5250
839.781	5056
839.918	5041
840.055	5064
840.193	5105
840.33	5109
840.467	5147
840.604	5140
840.742	5490
840.879	5075
841.016	5132
841.153	5136
841.29	5391
841.427	5330
841.564	5307
841.701	5357
841.838	5273
841.975	5227
842.112	5231
842.249	5140
842.385	5117
842.522	5303
842.659	5185
842.796	5185
842.933	5181
843.069	5121
843.206	5208
843.343	5307
843.479	5246
843.616	5273
843.752	5010
843.889	5018
844.025	5246
844.162	5033
844.298	5246
844.435	5056
844.571	5079
844.708	5208
844.844	5334
844.98	5322
845.117	5292
845.253	5124
845.389	5083
845.525	5174
845.661	5121
845.798	5025
845.934	5155
846.07	5045
846.206	5181
846.342	5284
846.478	5212
846.614	5006
846.75	5006
846.886	5010
847.022	5136
847.158	5037
847.294	5064
847.429	5094
847.565	5037
847.701	5296
847.837	4843
847.972	4801
848.108	4957
848.244	4930
848.379	4797
848.515	4714
848.65	4721
848.786	4767
848.921	4824
849.057	4889
849.192	4942
849.328	4828
849.463	4797
849.598	4793
849.734	4782
849.869	4691
850.004	4607
850.14	4668
850.275	4611
850.41	4546
850.545	4531
850.68	4607
850.815	4611
850.95	4584
851.085	4862
851.22	4721
851.355	4645
851.49	4618
851.625	4637
851.76	4653
851.895	4527
852.03	4519
852.165	4637
852.299	4763
852.434	4778
852.569	4694
852.703	4702
852.838	4843
852.973	4946
853.107	4870
853.242	4736
853.376	4687
853.511	4538
853.645	4622
853.78	4774
853.914	4714
854.048	4653
854.183	4691
854.317	4698
854.451	4816
854.585	4664
854.72	4634
854.854	4714
854.988	4580
855.122	4637
855.256	4516
855.39	4634
855.524	4774
855.658	4752
855.792	4714
855.926	4721
856.06	4744
856.194	4828
856.327	4668
856.461	4611
856.595	4565
856.729	4664
856.862	4767
856.996	4683
857.13	4752
857.263	4744
857.397	4816
857.53	4637
857.664	4759
857.797	4755
857.931	4771
858.064	4645
858.197	4748
858.331	4637
858.464	4645
858.597	4519
858.731	4573
858.864	4603
858.997	4561
859.13	4679
859.263	4683
859.396	4660
859.529	4584
859.662	4535
859.795	4546
859.928	4645
860.061	4717
860.194	4778
860.327	4622
860.46	4577
860.592	4675
860.725	4759
860.858	4733
860.99	4599
861.123	4493
861.256	4504
861.388	4596
861.521	5189
861.653	4478
861.786	4424
861.918	4440
862.05	4485
862.183	4550
862.315	4565
862.447	4656
862.58	4561
862.712	4405
862.844	4329
862.976	4474
863.108	4451
863.24	4744
863.372	4333
863.504	4443
863.636	4424
863.768	4508
863.9	4417
864.032	4367
864.164	4424
864.296	4481
864.428	4561
864.559	4527
864.691	4538
864.823	4504
864.954	4478
865.086	4489
865.217	4481
865.349	4375
865.48	4405
865.612	4512
865.743	4637
865.875	4424
866.006	4455
866.137	4455
866.269	4436
866.4	4398
866.531	4383
866.662	4356
866.793	4390
866.924	4440
867.055	4443
867.186	4424
867.317	4440
867.448	4386
867.579	4405
867.71	4424
867.841	4379
867.972	4447
868.103	4470
868.233	4390
868.364	4402
868.495	4459
868.625	4645
868.756	4736
868.886	4588
869.017	4565
869.147	4793
869.278	4831
869.408	4664
869.539	4649
869.669	4725
869.799	4637
869.929	4744
870.06	4729
870.19	4968
870.32	4896
870.45	5014
870.58	5041
870.71	5086
870.84	5060
870.97	4885
871.1	4904
871.23	5124
871.36	5121
871.489	4984
871.619	5124
871.749	5105
871.879	5124
872.008	5132
872.138	5060
872.267	4957
872.397	4854
872.526	4805
872.656	4702
872.785	4797
872.915	4965
873.044	5067
873.173	4927
873.303	4965
873.432	4930
873.561	4968
873.69	4930
873.819	4843
873.948	4850
874.077	4782
874.206	4763
874.335	4801
874.464	4961
874.593	5025
874.722	4961
874.851	5083
874.979	5037
875.108	4995
875.237	4866
875.365	4866
875.494	4923
875.623	4976
875.751	4850
875.88	4843
876.008	4980
876.136	5010
876.265	5181
876.393	5345
876.521	5277
876.65	5254
876.778	5151
876.906	5079
877.034	5022
877.162	5037
877.29	4991
877.418	5090
877.546	5010
877.674	5048
877.802	5037
877.93	5006
878.058	4915
878.185	4870
878.313	4949
878.441	4946
878.568	4816
878.696	4881
878.824	4930
878.951	5018
879.079	5189
879.206	5204
879.333	5064
879.461	4965
879.588	5037
879.715	5174
879.842	5220
879.97	4999
880.097	4831
880.224	4694
880.351	4831
880.478	4801
880.605	4812
880.732	4778
880.859	5075
880.986	4930
881.112	4927
881.239	4786
881.366	4675
881.493	4615
881.619	4550
881.746	4664
881.872	4687
881.999	4637
882.125	4733
882.252	4797
882.378	4835
882.505	4968
882.631	4828
882.757	4641
882.883	4683
883.01	4725
883.136	4740
883.262	4622
883.388	4596
883.514	4816
883.64	4820
883.766	4809
883.892	4691
884.018	4714
884.143	4889
884.269	4965
884.395	4660
884.52	4603
884.646	4626
884.772	4531
884.897	4607
885.023	4683
885.148	4801
885.274	4850
885.399	4782
885.524	4714
885.65	4691
885.775	4733
885.9	4656
886.025	4828
886.15	4786
886.275	4664
886.4	4694
886.525	4786
886.65	4660
886.775	4672
886.9	4953
887.025	5052
887.149	4793
887.274	4679
887.399	4588
887.523	4584
887.648	4584
887.773	4569
887.897	4778
888.021	4748
888.146	4675
888.27	4805
888.395	4904
888.519	4733
888.643	4763
888.767	4774
888.891	4656
889.015	4618
889.139	4656
889.263	4599
889.387	4725
889.511	4831
889.635	4797
889.759	4656
889.883	4634
890.006	4759
890.13	4831
890.254	4611
890.377	4656
890.501	4542
890.624	4554
890.748	4649
890.871	4508
890.995	4424
891.118	4402
891.241	4497
891.364	4542
891.488	4626
891.611	4485
891.734	4516
891.857	4573
891.98	4554
892.103	4702
892.226	4611
892.349	4519
892.471	4421
892.594	4542
892.717	4596
892.839	4611
892.962	4622
893.085	4698
893.207	4607
893.33	4455
893.452	4519
893.575	4675
893.697	4603
893.819	4748
893.941	4820
894.064	4793
894.186	4630
894.308	4554
894.43	4679
894.552	4850
894.674	4717
894.796	4573
894.918	4573
895.04	4588
895.161	4714
895.283	4637
895.405	4611
895.526	4630
895.648	4691
895.769	4721
895.891	4725
896.012	4736
896.134	4725
896.255	4618
896.376	4679
896.498	4607
896.619	4691
896.74	4607
896.861	4630
896.982	4942
897.103	5048
897.224	4839
897.345	4778
897.466	4698
897.587	4694
897.708	4778
897.828	4774
897.949	4687
898.07	4519
898.19	4630
898.311	4835
898.431	4675
898.552	4752
898.672	4809
898.792	4801
898.913	4710
899.033	4615
899.153	4459
899.273	4436
899.393	4466
899.513	4481
899.633	4577
899.753	4527
899.873	4538
899.993	4573
900.113	4599
900.232	4512
900.352	4546
900.472	4504
900.591	4402
900.711	4481
900.83	4447
900.95	4577
901.069	4687
901.189	4531
901.308	4367
901.427	4322
901.546	4398
901.665	4466
901.784	4504
901.904	4390
902.023	4356
902.141	4211
902.26	4128
902.379	4318
902.498	4215
902.617	4238
902.735	4348
902.854	4413
902.973	4325
903.091	4207
903.21	4215
903.328	4314
903.446	4299
903.565	4249
903.683	4363
903.801	4261
903.919	4352
904.038	4417
904.156	4325
904.274	4470
904.392	4367
904.51	4455
904.627	4440
904.745	4580
904.863	4596
904.981	4409
905.098	4299
905.216	4329
905.334	4390
905.451	4424
905.569	4432
905.686	4512
905.803	4538
905.921	4390
906.038	4599
906.155	4447
906.272	4386
906.389	4440
906.506	4352
906.623	4367
906.74	4421
906.857	4341
906.974	4417
907.091	4558
907.208	4630
907.324	4588
907.441	4542
907.557	4310
907.674	4303
907.79	4322
907.907	4413
908.023	4489
908.139	4462
908.256	4413
908.372	4531
908.488	4455
908.604	4344
908.72	4322
908.836	4371
908.952	4363
909.068	4421
909.184	4519
909.3	4436
909.415	4538
909.531	4558
909.647	4386
909.762	4405
909.878	4341
909.993	4447
910.108	4402
910.224	4409
910.339	4455
910.454	4379
910.57	4352
910.685	4310
910.8	4664
910.915	4603
911.03	4455
911.145	4280
911.259	4322
911.374	4352
911.489	4280
911.604	4257
911.718	4173
911.833	4211
911.947	4063
912.062	3994
912.176	4196
912.291	4230
912.405	4253
912.519	4459
912.633	4478
912.748	4375
912.862	4356
912.976	4196
913.09	4128
913.204	4196
913.318	4257
913.431	4413
913.545	4375
913.659	4466
913.772	4367
913.886	4303
914	4219
914.113	4390
914.226	4424
914.34	4386
914.453	4238
914.566	4443
914.68	4284
914.793	4356
914.906	4166
915.019	4131
915.132	4059
915.245	4139
915.358	4207
915.47	4253
915.583	4276
915.696	4295
915.809	4417
915.921	4466
916.034	4249
916.146	4238
916.259	4219
916.371	4337
916.483	4367
916.595	4261
916.708	4303
916.82	4329
916.932	4299
917.044	4299
917.156	4268
917.268	4238
917.38	4299
917.491	4287
917.603	4367
917.715	4447
917.826	4436
917.938	4329
918.049	4192
918.161	4363
918.272	4546
918.384	4561
918.495	4447
918.606	4287
918.717	4238
918.828	4375
918.939	4344
919.05	4246
919.161	4337
919.272	4139
919.383	4238
919.494	4531
919.604	4603
919.715	4413
919.826	4367
919.936	4390
920.047	4554
920.157	4489
920.267	4702
920.378	4561
920.488	4531
920.598	4717
920.708	4854
920.818	4782
920.928	4733
921.038	4915
921.148	4900
921.258	4634
921.368	4546
921.477	4554
921.587	4451
921.697	4371
921.806	4535
921.916	4386
922.025	4265
922.134	4253
922.244	4261
922.353	4306
922.462	4211
922.571	4093
922.68	4021
922.789	3983
922.898	4010
923.007	3972
923.116	4093
923.224	4055
923.333	4082
923.442	3987
923.55	3972
923.659	4021
923.767	4143
923.876	4002
923.984	4097
924.092	4029
924.201	4063
924.309	4082
924.417	4120
924.525	4051
924.633	4105
924.741	5014
924.849	3911
924.956	4116
925.064	3941
925.172	3922
925.279	3968
925.387	4059
925.494	4036
925.602	4192
925.709	4181
925.816	4048
925.924	4135
926.031	4200
926.138	4173
926.245	4253
926.352	4074
926.459	4204
926.566	4295
926.673	4105
926.779	4059
926.886	4044
926.993	3968
927.099	3968
927.206	3945
927.312	3983
927.419	4078
927.525	4051
927.631	4074
927.737	3922
927.843	3934
927.95	3876
928.056	3987
928.162	3937
928.267	4063
928.373	4565
928.479	4147
928.585	3876
928.69	4051
928.796	4051
928.901	3949
929.007	3819
929.112	3998
929.218	3983
929.323	3945
929.428	3937
929.533	4147
929.638	3865
929.743	3968
929.848	4036
929.953	3975
930.058	3930
930.163	3770
930.267	3850
930.372	3987
930.477	3838
930.581	4097
930.685	3949
930.79	3819
930.894	3926
930.998	3854
931.103	4025
931.207	3732
931.311	3709
931.415	3709
931.519	3542
931.623	3534
