Data from test_V78500241_1234.txt Node
Date: Fri Mar 25 16:57:34 CST 2022
User: usil
Spectrometer: V785-0024
Trigger mode: 0
Integration Time (sec): 4.000000E-1
Scans to average: 1
Nonlinearity correction enabled: false
Boxcar width: 0
Storing dark spectrum: false
XAxis mode: Wavelengths
Number of Pixels in Spectrum: 1024
>>>>>Begin Spectral Data<<<<<
801.071	8020
801.214	8039
801.356	7883
801.499	7871
801.641	7769
801.783	7670
801.926	7890
802.068	7830
802.211	8050
802.353	8005
802.496	7883
802.638	7944
802.78	7951
802.923	7883
803.065	7917
803.208	7913
803.35	7947
803.492	8081
803.635	8161
803.777	8020
803.919	8126
804.061	8461
804.204	8142
804.346	8043
804.488	7940
804.63	8111
804.773	7974
804.915	8103
805.057	8290
805.199	8138
805.341	8259
805.483	8267
805.626	8221
805.768	8126
805.91	8225
806.052	8237
806.194	8096
806.336	8259
806.478	8046
806.62	8107
806.762	8100
806.904	8244
807.046	8514
807.188	8351
807.33	8309
807.472	8279
807.614	8077
807.756	8126
807.898	7932
808.04	7959
808.182	7898
808.324	7864
808.465	7849
808.607	8065
808.749	8100
808.891	8145
809.033	8267
809.174	8187
809.316	8062
809.458	8103
809.6	7982
809.741	8008
809.883	8008
810.025	8115
810.166	8027
810.308	7986
810.45	8027
810.591	7928
810.733	7681
810.875	7658
811.016	7525
811.158	7521
811.299	7575
811.441	7723
811.582	7616
811.724	7537
811.865	7483
812.007	7609
812.148	7578
812.29	7620
812.431	7738
812.573	7940
812.714	8005
812.855	8081
812.997	8123
813.138	8309
813.279	8180
813.421	8149
813.562	7986
813.703	7890
813.845	7788
813.986	7495
814.127	7251
814.268	7183
814.41	7202
814.551	7152
814.692	7168
814.833	7076
814.974	7084
815.115	7080
815.256	6947
815.397	6878
815.539	6939
815.68	6810
815.821	6837
815.962	6897
816.103	6814
816.244	6703
816.385	6684
816.526	6616
816.666	6445
816.807	6334
816.948	6422
817.089	6448
817.23	6456
817.371	6407
817.512	6403
817.653	6407
817.793	6361
817.934	6376
818.075	6441
818.216	6395
818.356	6407
818.497	6251
818.638	6159
818.778	6136
818.919	6178
819.06	6152
819.2	6319
819.341	6315
819.481	6281
819.622	6525
819.762	6707
819.903	6707
820.043	6627
820.184	6517
820.324	6642
820.465	6673
820.605	6662
820.746	6627
820.886	6498
821.026	6620
821.167	6703
821.307	6749
821.447	6730
821.588	6673
821.728	6486
821.868	6486
822.008	6327
822.149	6369
822.289	6331
822.429	6136
822.569	6095
822.709	6129
822.849	5893
822.99	5912
823.13	5855
823.27	5870
823.41	5783
823.55	5809
823.69	5718
823.83	5722
823.97	5676
824.11	5535
824.25	5478
824.389	5554
824.529	5558
824.669	5486
824.809	5608
824.949	5661
825.089	5589
825.228	5539
825.368	5391
825.508	5258
825.648	5364
825.787	5357
825.927	5330
826.067	5315
826.206	5235
826.346	5360
826.485	5471
826.625	5376
826.765	5520
826.904	5467
827.044	5201
827.183	5170
827.323	5109
827.462	5242
827.601	5197
827.741	5121
827.88	5254
828.02	5094
828.159	5227
828.298	5273
828.437	5368
828.577	5239
828.716	5497
828.855	5311
828.994	5105
829.134	5166
829.273	5124
829.412	5174
829.551	5124
829.69	5170
829.829	5201
829.968	5330
830.107	5216
830.246	5277
830.385	5166
830.524	5067
830.663	5056
830.802	4957
830.941	4850
831.08	4877
831.219	4987
831.357	4949
831.496	5181
831.635	4968
831.774	4812
831.913	4843
832.051	4752
832.19	4729
832.329	4824
832.467	4698
832.606	4622
832.744	4752
832.883	4675
833.022	4725
833.16	4759
833.299	4812
833.437	4805
833.576	4790
833.714	4862
833.852	4873
833.991	4881
834.129	4995
834.267	4938
834.406	4892
834.544	4927
834.682	4968
834.821	4972
834.959	5147
835.097	5022
835.235	5140
835.373	5052
835.511	5041
835.65	5010
835.788	5071
835.926	4877
836.064	4858
836.202	4900
836.34	5178
836.478	5258
836.615	5136
836.753	5258
836.891	5254
837.029	5201
837.167	5235
837.305	5121
837.443	5155
837.58	5098
837.718	5235
837.856	5178
837.993	5178
838.131	5181
838.269	5227
838.406	5170
838.544	5121
838.681	5067
838.819	5003
838.956	4873
839.094	4915
839.231	4972
839.369	5071
839.506	5402
839.643	5235
839.781	5098
839.918	4987
840.055	5079
840.193	5083
840.33	5045
840.467	5113
840.604	5143
840.742	5368
840.879	5075
841.016	5086
841.153	5113
841.29	5353
841.427	5326
841.564	5269
841.701	5296
841.838	5242
841.975	5212
842.112	5254
842.249	5162
842.385	5121
842.522	5360
842.659	5117
842.796	5151
842.933	5212
843.069	5162
843.206	5132
843.343	5269
843.479	5193
843.616	5231
843.752	5056
843.889	4984
844.025	5216
844.162	4972
844.298	5159
844.435	5094
844.571	5029
844.708	5208
844.844	5299
844.98	5326
845.117	5227
845.253	5102
845.389	5048
845.525	5159
845.661	5083
845.798	5052
845.934	5132
846.07	5029
846.206	5151
846.342	5269
846.478	5128
846.614	4976
846.75	4957
846.886	4953
847.022	5102
847.158	5025
847.294	5067
847.429	5071
847.565	5098
847.701	5315
847.837	4862
847.972	4733
848.108	4946
848.244	4881
848.379	4767
848.515	4714
848.65	4714
848.786	4706
848.921	4801
849.057	4866
849.192	4938
849.328	4759
849.463	4831
849.598	4740
849.734	4752
849.869	4668
850.004	4630
850.14	4653
850.275	4580
850.41	4493
850.545	4519
850.68	4561
850.815	4596
850.95	4599
851.085	4824
851.22	4717
851.355	4649
851.49	4558
851.625	4615
851.76	4626
851.895	4527
852.03	4519
852.165	4615
852.299	4694
852.434	4763
852.569	4694
852.703	4752
852.838	4782
852.973	4919
853.107	4889
853.242	4698
853.376	4634
853.511	4535
853.645	4596
853.78	4839
853.914	4675
854.048	4641
854.183	4656
854.317	4694
854.451	4805
854.585	4656
854.72	4569
854.854	4767
854.988	4573
855.122	4622
855.256	4538
855.39	4603
855.524	4763
855.658	4717
855.792	4740
855.926	4714
856.06	4687
856.194	4805
856.327	4706
856.461	4561
856.595	4622
856.729	4565
856.862	4717
856.996	4675
857.13	4717
857.263	4710
857.397	4816
857.53	4615
857.664	4740
857.797	4744
857.931	4786
858.064	4656
858.197	4721
858.331	4630
858.464	4584
858.597	4527
858.731	4596
858.864	4630
858.997	4637
859.13	4641
859.263	4611
859.396	4649
859.529	4573
859.662	4531
859.795	4462
859.928	4641
860.061	4733
860.194	4740
860.327	4630
860.46	4554
860.592	4714
860.725	4736
860.858	4714
860.99	4538
861.123	4466
861.256	4523
861.388	4603
861.521	5212
861.653	4531
861.786	4436
861.918	4409
862.05	4504
862.183	4519
862.315	4592
862.447	4645
862.58	4516
862.712	4348
862.844	4268
862.976	4485
863.108	4417
863.24	4873
863.372	4325
863.504	4375
863.636	4432
863.768	4474
863.9	4436
864.032	4371
864.164	4360
864.296	4470
864.428	4523
864.559	4531
864.691	4535
864.823	4493
864.954	4481
865.086	4459
865.217	4432
865.349	4394
865.48	4390
865.612	4466
865.743	4626
865.875	4459
866.006	4363
866.137	4474
866.269	4413
866.4	4402
866.531	4402
866.662	4375
866.793	4360
866.924	4383
867.055	4455
867.186	4394
867.317	4417
867.448	4314
867.579	4390
867.71	4341
867.841	4375
867.972	4466
868.103	4417
868.233	4386
868.364	4424
868.495	4459
868.625	4649
868.756	4755
868.886	4561
869.017	4565
869.147	4767
869.278	4767
869.408	4641
869.539	4630
869.669	4717
869.799	4653
869.929	4721
870.06	4694
870.19	4930
870.32	4908
870.45	4934
870.58	4942
870.71	5029
870.84	5045
870.97	4946
871.1	4938
871.23	5147
871.36	5166
871.489	5018
871.619	5094
871.749	5025
871.879	5128
872.008	5193
872.138	5056
872.267	4957
872.397	4839
872.526	4816
872.656	4740
872.785	4793
872.915	4991
873.044	5006
873.173	4953
873.303	4995
873.432	4946
873.561	4972
873.69	4866
873.819	4870
873.948	4889
874.077	4858
874.206	4755
874.335	4793
874.464	4915
874.593	5064
874.722	4938
874.851	5098
874.979	5083
875.108	5052
875.237	4946
875.365	4873
875.494	4885
875.623	4965
875.751	4904
875.88	4930
876.008	4984
876.136	5048
876.265	5258
876.393	5330
876.521	5258
876.65	5239
876.778	5174
876.906	5121
877.034	5022
877.162	5022
877.29	5060
877.418	5079
877.546	5060
877.674	5083
877.802	5079
877.93	5094
878.058	4984
878.185	4934
878.313	4991
878.441	4995
878.568	4858
878.696	4934
878.824	4953
878.951	4991
879.079	5201
879.206	5280
879.333	5124
879.461	4965
879.588	5037
879.715	5147
879.842	5254
879.97	5006
880.097	4866
880.224	4797
880.351	4870
880.478	4820
880.605	4801
880.732	4797
880.859	5064
880.986	4972
881.112	4976
881.239	4809
881.366	4687
881.493	4634
881.619	4599
881.746	4679
881.872	4698
881.999	4672
882.125	4729
882.252	4778
882.378	4873
882.505	5052
882.631	4858
882.757	4653
882.883	4793
883.01	4774
883.136	4672
883.262	4645
883.388	4668
883.514	4858
883.64	4915
883.766	4797
883.892	4675
884.018	4740
884.143	4892
884.269	5022
884.395	4698
884.52	4664
884.646	4634
884.772	4630
884.897	4611
885.023	4634
885.148	4755
885.274	4873
885.399	4858
885.524	4733
885.65	4721
885.775	4759
885.9	4748
886.025	4862
886.15	4774
886.275	4729
886.4	4679
886.525	4721
886.65	4725
886.775	4721
886.9	4976
887.025	5086
887.149	4759
887.274	4691
887.399	4580
887.523	4622
887.648	4649
887.773	4618
887.897	4740
888.021	4782
888.146	4687
888.27	4797
888.395	4915
888.519	4839
888.643	4831
888.767	4843
888.891	4729
889.015	4664
889.139	4698
889.263	4622
889.387	4717
889.511	4881
889.635	4828
889.759	4683
889.883	4668
890.006	4771
890.13	4850
890.254	4653
890.377	4694
890.501	4561
890.624	4546
890.748	4660
890.871	4512
890.995	4470
891.118	4390
891.241	4542
891.364	4561
891.488	4641
891.611	4519
891.734	4554
891.857	4596
891.98	4637
892.103	4710
892.226	4588
892.349	4523
892.471	4478
892.594	4542
892.717	4561
892.839	4573
892.962	4634
893.085	4736
893.207	4611
893.33	4504
893.452	4527
893.575	4679
893.697	4596
893.819	4805
893.941	4923
894.064	4839
894.186	4599
894.308	4622
894.43	4725
894.552	4870
894.674	4782
894.796	4584
894.918	4615
895.04	4584
895.161	4725
895.283	4691
895.405	4607
895.526	4679
895.648	4721
895.769	4721
895.891	4733
896.012	4755
896.134	4733
896.255	4740
896.376	4733
896.498	4599
896.619	4736
896.74	4641
896.861	4645
896.982	4949
897.103	5113
897.224	4790
897.345	4767
897.466	4702
897.587	4725
897.708	4889
897.828	4771
897.949	4694
898.07	4584
898.19	4649
898.311	4824
898.431	4660
898.552	4748
898.672	4870
898.792	4831
898.913	4782
899.033	4637
899.153	4485
899.273	4443
899.393	4584
899.513	4462
899.633	4546
899.753	4538
899.873	4519
899.993	4592
900.113	4565
900.232	4626
900.352	4535
900.472	4493
900.591	4432
900.711	4550
900.83	4447
900.95	4603
901.069	4702
901.189	4580
901.308	4474
901.427	4375
901.546	4466
901.665	4478
901.784	4500
901.904	4428
902.023	4394
902.141	4234
902.26	4223
902.379	4325
902.498	4261
902.617	4291
902.735	4417
902.854	4447
902.973	4398
903.091	4238
903.21	4257
903.328	4265
903.446	4253
903.565	4295
903.683	4383
903.801	4322
903.919	4417
904.038	4466
904.156	4295
904.274	4436
904.392	4360
904.51	4459
904.627	4481
904.745	4596
904.863	4664
904.981	4413
905.098	4325
905.216	4386
905.334	4436
905.451	4500
905.569	4451
905.686	4622
905.803	4599
905.921	4417
906.038	4599
906.155	4474
906.272	4409
906.389	4478
906.506	4394
906.623	4386
906.74	4447
906.857	4356
906.974	4417
907.091	4584
907.208	4672
907.324	4618
907.441	4504
907.557	4424
907.674	4322
907.79	4310
907.907	4417
908.023	4504
908.139	4527
908.256	4497
908.372	4474
908.488	4497
908.604	4341
908.72	4341
908.836	4398
908.952	4398
909.068	4474
909.184	4584
909.3	4504
909.415	4599
909.531	4603
909.647	4379
909.762	4402
909.878	4344
909.993	4421
910.108	4455
910.224	4470
910.339	4535
910.454	4440
910.57	4394
910.685	4333
910.8	4691
910.915	4637
911.03	4535
911.145	4322
911.259	4363
911.374	4360
911.489	4325
911.604	4261
911.718	4188
911.833	4246
911.947	4124
912.062	4013
912.176	4200
912.291	4265
912.405	4329
912.519	4485
912.633	4516
912.748	4367
912.862	4344
912.976	4242
913.09	4131
913.204	4219
913.318	4261
913.431	4367
913.545	4394
913.659	4447
913.772	4398
913.886	4246
914	4234
914.113	4386
914.226	4443
914.34	4432
914.453	4238
914.566	4424
914.68	4329
914.793	4314
914.906	4169
915.019	4147
915.132	4112
915.245	4169
915.358	4268
915.47	4234
915.583	4276
915.696	4303
915.809	4402
915.921	4394
916.034	4249
916.146	4242
916.259	4268
916.371	4394
916.483	4363
916.595	4249
916.708	4371
916.82	4363
916.932	4303
917.044	4379
917.156	4356
917.268	4223
917.38	4291
917.491	4280
917.603	4310
917.715	4432
917.826	4436
917.938	4348
918.049	4268
918.161	4451
918.272	4561
918.384	4542
918.495	4451
918.606	4325
918.717	4261
918.828	4344
918.939	4383
919.05	4261
919.161	4337
919.272	4181
919.383	4265
919.494	4459
919.604	4569
919.715	4421
919.826	4333
919.936	4436
920.047	4554
920.157	4455
920.267	4721
920.378	4523
920.488	4516
920.598	4717
920.708	4892
920.818	4771
920.928	4797
921.038	4957
921.148	4850
921.258	4656
921.368	4558
921.477	4538
921.587	4519
921.697	4421
921.806	4542
921.916	4413
922.025	4303
922.134	4287
922.244	4246
922.353	4329
922.462	4162
922.571	4131
922.68	4002
922.789	3998
922.898	4029
923.007	4002
923.116	4128
923.224	4032
923.333	4071
923.442	3991
923.55	3968
923.659	4044
923.767	4124
923.876	4025
923.984	4158
924.092	4036
924.201	4143
924.309	4067
924.417	4097
924.525	4044
924.633	4112
924.741	5094
924.849	3907
924.956	4169
925.064	3972
925.172	3892
925.279	3934
925.387	4044
925.494	4090
925.602	4234
925.709	4150
925.816	4067
925.924	4139
926.031	4249
926.138	4169
926.245	4204
926.352	4128
926.459	4227
926.566	4333
926.673	4135
926.779	4093
926.886	4086
926.993	3994
927.099	4010
927.206	3975
927.312	3945
927.419	4029
927.525	4017
927.631	4090
927.737	3994
927.843	3949
927.95	3838
928.056	3972
928.162	4044
928.267	4124
928.373	4679
928.479	4143
928.585	3873
928.69	4029
928.796	4116
928.901	3987
929.007	3854
929.112	4002
929.218	3975
929.323	3949
929.428	3937
929.533	4105
929.638	3903
929.743	3926
929.848	4036
929.953	4055
930.058	3918
930.163	3800
930.267	3823
930.372	4051
930.477	3823
930.581	4097
930.685	3945
930.79	3842
930.894	3937
930.998	3835
931.103	4059
931.207	3709
931.311	3736
931.415	3690
931.519	3553
931.623	3530
