Data from test_V78500241_370.txt Node
Date: Fri Mar 25 16:51:34 CST 2022
User: usil
Spectrometer: V785-0024
Trigger mode: 0
Integration Time (sec): 4.000000E-1
Scans to average: 1
Nonlinearity correction enabled: false
Boxcar width: 0
Storing dark spectrum: false
XAxis mode: Wavelengths
Number of Pixels in Spectrum: 1024
>>>>>Begin Spectral Data<<<<<
801.071	8058
801.214	8084
801.356	7875
801.499	7852
801.641	7883
801.783	7837
801.926	8008
802.068	7989
802.211	7997
802.353	7978
802.496	7894
802.638	7856
802.78	7986
802.923	7959
803.065	7871
803.208	7860
803.35	7963
803.492	8084
803.635	8107
803.777	7978
803.919	8180
804.061	8434
804.204	8214
804.346	8100
804.488	7944
804.63	8081
804.773	8005
804.915	8005
805.057	8263
805.199	8111
805.341	8191
805.483	8279
805.626	8168
805.768	8005
805.91	8172
806.052	8248
806.194	8077
806.336	8298
806.478	8149
806.62	8123
806.762	8134
806.904	8282
807.046	8381
807.188	8351
807.33	8324
807.472	8355
807.614	8168
807.756	8172
807.898	8027
808.04	7940
808.182	7959
808.324	7967
808.465	7936
808.607	8123
808.749	8115
808.891	8183
809.033	8275
809.174	8233
809.316	8100
809.458	8012
809.6	8008
809.741	8035
809.883	7974
810.025	8100
810.166	8153
810.308	8103
810.45	8096
810.591	7883
810.733	7826
810.875	7666
811.016	7483
811.158	7563
811.299	7647
811.441	7788
811.582	7742
811.724	7639
811.865	7594
812.007	7632
812.148	7601
812.29	7647
812.431	7784
812.573	7909
812.714	7970
812.855	8092
812.997	8191
813.138	8313
813.279	8142
813.421	8107
813.562	8065
813.703	7925
813.845	7803
813.986	7483
814.127	7354
814.268	7297
814.41	7232
814.551	7183
814.692	7183
814.833	7061
814.974	7122
815.115	7168
815.256	6913
815.397	6966
815.539	6928
815.68	6867
815.821	6814
815.962	6878
816.103	6897
816.244	6730
816.385	6677
816.526	6585
816.666	6532
816.807	6270
816.948	6448
817.089	6445
817.23	6433
817.371	6346
817.512	6357
817.653	6441
817.793	6376
817.934	6384
818.075	6471
818.216	6410
818.356	6395
818.497	6235
818.638	6114
818.778	6114
818.919	6167
819.06	6178
819.2	6285
819.341	6300
819.481	6418
819.622	6517
819.762	6757
819.903	6722
820.043	6642
820.184	6574
820.324	6536
820.465	6684
820.605	6623
820.746	6654
820.886	6464
821.026	6696
821.167	6669
821.307	6795
821.447	6791
821.588	6642
821.728	6582
821.868	6475
822.008	6224
822.149	6391
822.289	6319
822.429	6186
822.569	6102
822.709	6083
822.849	5885
822.99	5950
823.13	5904
823.27	5939
823.41	5844
823.55	5809
823.69	5798
823.83	5756
823.97	5676
824.11	5543
824.25	5524
824.389	5596
824.529	5619
824.669	5474
824.809	5649
824.949	5608
825.089	5596
825.228	5547
825.368	5417
825.508	5292
825.648	5349
825.787	5322
825.927	5383
826.067	5250
826.206	5334
826.346	5368
826.485	5376
826.625	5433
826.765	5463
826.904	5482
827.044	5261
827.183	5193
827.323	5124
827.462	5280
827.601	5220
827.741	5136
827.88	5250
828.02	5151
828.159	5181
828.298	5296
828.437	5353
828.577	5269
828.716	5490
828.855	5357
828.994	5204
829.134	5178
829.273	5265
829.412	5140
829.551	5140
829.69	5170
829.829	5311
829.968	5459
830.107	5261
830.246	5322
830.385	5189
830.524	5178
830.663	5083
830.802	4957
830.941	4957
831.08	4919
831.219	5041
831.357	5048
831.496	5193
831.635	5022
831.774	4896
831.913	4896
832.051	4771
832.19	4778
832.329	4877
832.467	4744
832.606	4729
832.744	4763
832.883	4771
833.022	4740
833.16	4820
833.299	4812
833.437	4831
833.576	4892
833.714	4942
833.852	4923
833.991	4908
834.129	4999
834.267	5022
834.406	4984
834.544	5086
834.682	5052
834.821	5041
834.959	5155
835.097	5010
835.235	5216
835.373	5105
835.511	5147
835.65	5037
835.788	5098
835.926	4949
836.064	4892
836.202	5003
836.34	5239
836.478	5258
836.615	5151
836.753	5269
836.891	5307
837.029	5315
837.167	5231
837.305	5189
837.443	5189
837.58	5117
837.718	5345
837.856	5242
837.993	5159
838.131	5265
838.269	5227
838.406	5303
838.544	5220
838.681	5083
838.819	5079
838.956	4949
839.094	4923
839.231	5117
839.369	5121
839.506	5501
839.643	5303
839.781	5132
839.918	5048
840.055	5201
840.193	5162
840.33	5155
840.467	5170
840.604	5284
840.742	5452
840.879	5147
841.016	5113
841.153	5185
841.29	5387
841.427	5387
841.564	5357
841.701	5398
841.838	5292
841.975	5254
842.112	5288
842.249	5235
842.385	5166
842.522	5360
842.659	5197
842.796	5235
842.933	5185
843.069	5185
843.206	5204
843.343	5368
843.479	5273
843.616	5311
843.752	5071
843.889	5048
844.025	5265
844.162	5079
844.298	5220
844.435	5132
844.571	5064
844.708	5315
844.844	5330
844.98	5395
845.117	5330
845.253	5178
845.389	5105
845.525	5208
845.661	5227
845.798	5067
845.934	5220
846.07	5064
846.206	5250
846.342	5326
846.478	5277
846.614	5029
846.75	5003
846.886	4946
847.022	5155
847.158	5045
847.294	5113
847.429	5174
847.565	5056
847.701	5395
847.837	4873
847.972	4839
848.108	4987
848.244	5003
848.379	4831
848.515	4805
848.65	4759
848.786	4752
848.921	4866
849.057	4949
849.192	4942
849.328	4866
849.463	4858
849.598	4866
849.734	4790
849.869	4736
850.004	4668
850.14	4725
850.275	4660
850.41	4580
850.545	4656
850.68	4653
850.815	4672
850.95	4641
851.085	4820
851.22	4820
851.355	4687
851.49	4672
851.625	4668
851.76	4668
851.895	4618
852.03	4596
852.165	4691
852.299	4752
852.434	4816
852.569	4778
852.703	4786
852.838	4885
852.973	4938
853.107	4923
853.242	4771
853.376	4740
853.511	4580
853.645	4664
853.78	4790
853.914	4736
854.048	4755
854.183	4675
854.317	4740
854.451	4828
854.585	4721
854.72	4687
854.854	4820
854.988	4653
855.122	4698
855.256	4580
855.39	4710
855.524	4778
855.658	4793
855.792	4748
855.926	4778
856.06	4816
856.194	4858
856.327	4736
856.461	4668
856.595	4683
856.729	4683
856.862	4771
856.996	4683
857.13	4782
857.263	4790
857.397	4835
857.53	4660
857.664	4763
857.797	4771
857.931	4831
858.064	4710
858.197	4748
858.331	4694
858.464	4679
858.597	4603
858.731	4691
858.864	4668
858.997	4664
859.13	4687
859.263	4736
859.396	4763
859.529	4626
859.662	4687
859.795	4569
859.928	4694
860.061	4816
860.194	4805
860.327	4641
860.46	4592
860.592	4767
860.725	4740
860.858	4786
860.99	4618
861.123	4531
861.256	4573
861.388	4660
861.521	5322
861.653	4523
861.786	4485
861.918	4531
862.05	4554
862.183	4519
862.315	4668
862.447	4694
862.58	4618
862.712	4436
862.844	4386
862.976	4504
863.108	4466
863.24	4786
863.372	4424
863.504	4470
863.636	4402
863.768	4550
863.9	4462
864.032	4390
864.164	4409
864.296	4493
864.428	4580
864.559	4599
864.691	4531
864.823	4550
864.954	4561
865.086	4512
865.217	4478
865.349	4462
865.48	4489
865.612	4508
865.743	4596
865.875	4512
866.006	4394
866.137	4474
866.269	4478
866.4	4462
866.531	4466
866.662	4466
866.793	4462
866.924	4432
867.055	4535
867.186	4489
867.317	4459
867.448	4386
867.579	4451
867.71	4474
867.841	4459
867.972	4485
868.103	4485
868.233	4478
868.364	4470
868.495	4481
868.625	4675
868.756	4843
868.886	4645
869.017	4596
869.147	4843
869.278	4748
869.408	4691
869.539	4675
869.669	4736
869.799	4714
869.929	4778
870.06	4736
870.19	4995
870.32	4995
870.45	4995
870.58	5045
870.71	5147
870.84	5124
870.97	4930
871.1	4889
871.23	5143
871.36	5159
871.489	5041
871.619	5102
871.749	5132
871.879	5174
872.008	5197
872.138	5102
872.267	5052
872.397	4881
872.526	4885
872.656	4744
872.785	4835
872.915	4953
873.044	5003
873.173	4968
873.303	4995
873.432	4965
873.561	5025
873.69	4877
873.819	4900
873.948	4953
874.077	4866
874.206	4778
874.335	4809
874.464	4942
874.593	5132
874.722	4965
874.851	5136
874.979	5113
875.108	5056
875.237	4961
875.365	4919
875.494	4923
875.623	5025
875.751	4873
875.88	4919
876.008	5029
876.136	5064
876.265	5258
876.393	5398
876.521	5261
876.65	5269
876.778	5162
876.906	5140
877.034	5033
877.162	5102
877.29	5037
877.418	5075
877.546	5132
877.674	5079
877.802	5048
877.93	5067
878.058	4946
878.185	4908
878.313	5006
878.441	4995
878.568	4839
878.696	4889
878.824	5006
878.951	5025
879.079	5166
879.206	5299
879.333	5132
879.461	5045
879.588	4991
879.715	5132
879.842	5231
879.97	5048
880.097	4835
880.224	4839
880.351	4805
880.478	4881
880.605	4839
880.732	4820
880.859	5136
880.986	4889
881.112	4957
881.239	4850
881.366	4679
881.493	4649
881.619	4641
881.746	4683
881.872	4691
881.999	4683
882.125	4729
882.252	4839
882.378	4824
882.505	5060
882.631	4828
882.757	4733
882.883	4771
883.01	4759
883.136	4679
883.262	4668
883.388	4630
883.514	4835
883.64	4873
883.766	4847
883.892	4706
884.018	4774
884.143	4953
884.269	5075
884.395	4702
884.52	4721
884.646	4645
884.772	4611
884.897	4523
885.023	4668
885.148	4812
885.274	4908
885.399	4831
885.524	4752
885.65	4748
885.775	4759
885.9	4721
886.025	4862
886.15	4862
886.275	4755
886.4	4653
886.525	4755
886.65	4740
886.775	4691
886.9	4957
887.025	5045
887.149	4809
887.274	4698
887.399	4592
887.523	4641
887.648	4554
887.773	4645
887.897	4782
888.021	4858
888.146	4698
888.27	4831
888.395	4968
888.519	4774
888.643	4839
888.767	4858
888.891	4740
889.015	4660
889.139	4656
889.263	4626
889.387	4839
889.511	4900
889.635	4816
889.759	4656
889.883	4672
890.006	4759
890.13	4862
890.254	4645
890.377	4698
890.501	4554
890.624	4550
890.748	4664
890.871	4527
890.995	4462
891.118	4421
891.241	4561
891.364	4561
891.488	4664
891.611	4550
891.734	4561
891.857	4611
891.98	4565
892.103	4649
892.226	4618
892.349	4569
892.471	4440
892.594	4550
892.717	4649
892.839	4588
892.962	4596
893.085	4691
893.207	4622
893.33	4474
893.452	4561
893.575	4702
893.697	4577
893.819	4805
893.941	4774
894.064	4752
894.186	4603
894.308	4603
894.43	4755
894.552	4828
894.674	4752
894.796	4577
894.918	4653
895.04	4569
895.161	4714
895.283	4672
895.405	4607
895.526	4653
895.648	4668
895.769	4736
895.891	4706
896.012	4763
896.134	4752
896.255	4694
896.376	4634
896.498	4626
896.619	4752
896.74	4626
896.861	4660
896.982	5006
897.103	5117
897.224	4858
897.345	4759
897.466	4649
897.587	4748
897.708	4870
897.828	4793
897.949	4729
898.07	4603
898.19	4656
898.311	4873
898.431	4653
898.552	4752
898.672	4816
898.792	4858
898.913	4736
899.033	4637
899.153	4531
899.273	4428
899.393	4500
899.513	4500
899.633	4542
899.753	4565
899.873	4531
899.993	4603
900.113	4531
900.232	4599
900.352	4592
900.472	4485
900.591	4447
900.711	4508
900.83	4432
900.95	4615
901.069	4656
901.189	4516
901.308	4375
901.427	4344
901.546	4390
901.665	4474
901.784	4504
901.904	4398
902.023	4360
902.141	4219
902.26	4185
902.379	4333
902.498	4238
902.617	4242
902.735	4383
902.854	4409
902.973	4360
903.091	4227
903.21	4253
903.328	4322
903.446	4284
903.565	4257
903.683	4329
903.801	4318
903.919	4424
904.038	4527
904.156	4341
904.274	4455
904.392	4421
904.51	4462
904.627	4489
904.745	4622
904.863	4653
904.981	4440
905.098	4299
905.216	4375
905.334	4436
905.451	4462
905.569	4459
905.686	4550
905.803	4584
905.921	4424
906.038	4535
906.155	4497
906.272	4428
906.389	4516
906.506	4367
906.623	4409
906.74	4383
906.857	4325
906.974	4394
907.091	4611
907.208	4694
907.324	4679
907.441	4554
907.557	4375
907.674	4367
907.79	4341
907.907	4390
908.023	4466
908.139	4531
908.256	4459
908.372	4466
908.488	4455
908.604	4379
908.72	4333
908.836	4409
908.952	4394
909.068	4417
909.184	4531
909.3	4489
909.415	4611
909.531	4538
909.647	4363
909.762	4337
909.878	4386
909.993	4409
910.108	4440
910.224	4409
910.339	4516
910.454	4428
910.57	4398
910.685	4318
910.8	4660
910.915	4641
911.03	4500
911.145	4329
911.259	4341
911.374	4363
911.489	4325
911.604	4268
911.718	4150
911.833	4219
911.947	4109
912.062	4063
912.176	4200
912.291	4276
912.405	4242
912.519	4504
912.633	4531
912.748	4375
912.862	4371
912.976	4234
913.09	4067
913.204	4162
913.318	4291
913.431	4371
913.545	4413
913.659	4455
913.772	4421
913.886	4257
914	4261
914.113	4379
914.226	4474
914.34	4379
914.453	4265
914.566	4402
914.68	4291
914.793	4341
914.906	4181
915.019	4101
915.132	4082
915.245	4188
915.358	4257
915.47	4276
915.583	4337
915.696	4318
915.809	4367
915.921	4417
916.034	4284
916.146	4295
916.259	4230
916.371	4402
916.483	4375
916.595	4356
916.708	4344
916.82	4333
916.932	4333
917.044	4337
917.156	4337
917.268	4253
917.38	4303
917.491	4318
917.603	4356
917.715	4485
917.826	4436
917.938	4363
918.049	4287
918.161	4398
918.272	4531
918.384	4561
918.495	4489
918.606	4287
918.717	4261
918.828	4352
918.939	4360
919.05	4268
919.161	4329
919.272	4173
919.383	4249
919.494	4440
919.604	4656
919.715	4474
919.826	4318
919.936	4417
920.047	4500
920.157	4512
920.267	4672
920.378	4554
920.488	4535
920.598	4706
920.708	4911
920.818	4809
920.928	4755
921.038	4957
921.148	4938
921.258	4649
921.368	4558
921.477	4512
921.587	4497
921.697	4390
921.806	4531
921.916	4447
922.025	4284
922.134	4291
922.244	4211
922.353	4352
922.462	4185
922.571	4135
922.68	4029
922.789	3968
922.898	4032
923.007	3994
923.116	4086
923.224	4067
923.333	4090
923.442	4032
923.55	3964
923.659	4017
923.767	4128
923.876	3987
923.984	4109
924.092	3994
924.201	4090
924.309	4105
924.417	4158
924.525	4036
924.633	4128
924.741	4896
924.849	3888
924.956	4150
925.064	3991
925.172	3888
925.279	3934
925.387	4078
925.494	4093
925.602	4234
925.709	4196
925.816	4044
925.924	4177
926.031	4276
926.138	4166
926.245	4192
926.352	4124
926.459	4234
926.566	4310
926.673	4158
926.779	4112
926.886	4090
926.993	4006
927.099	3926
927.206	3911
927.312	4002
927.419	4067
927.525	4036
927.631	4071
927.737	3937
927.843	3941
927.95	3850
928.056	3975
928.162	4025
928.267	4112
928.373	4672
928.479	4105
928.585	3956
928.69	4025
928.796	4105
928.901	3945
929.007	3892
929.112	3953
929.218	3960
929.323	3987
929.428	3945
929.533	4093
929.638	3915
929.743	3972
929.848	4067
929.953	3972
930.058	3930
930.163	3800
930.267	3838
930.372	3918
930.477	3808
930.581	4059
930.685	3949
930.79	3808
930.894	3903
930.998	3888
931.103	4013
931.207	3732
931.311	3682
931.415	3675
931.519	3545
931.623	3572
