Data from test_V78500241_1522.txt Node
Date: Fri Mar 25 16:59:35 CST 2022
User: usil
Spectrometer: V785-0024
Trigger mode: 0
Integration Time (sec): 4.000000E-1
Scans to average: 1
Nonlinearity correction enabled: false
Boxcar width: 0
Storing dark spectrum: false
XAxis mode: Wavelengths
Number of Pixels in Spectrum: 1024
>>>>>Begin Spectral Data<<<<<
801.071	8035
801.214	7959
801.356	7868
801.499	7902
801.641	7799
801.783	7765
801.926	7902
802.068	7921
802.211	7932
802.353	8005
802.496	7837
802.638	7807
802.78	7894
802.923	7936
803.065	7860
803.208	7852
803.35	7928
803.492	8031
803.635	8142
803.777	7974
803.919	8111
804.061	8362
804.204	8149
804.346	7997
804.488	7951
804.63	8069
804.773	7989
804.915	8084
805.057	8206
805.199	8149
805.341	8187
805.483	8305
805.626	8256
805.768	8126
805.91	8183
806.052	8183
806.194	8077
806.336	8252
806.478	8092
806.62	7997
806.762	8088
806.904	8271
807.046	8427
807.188	8370
807.33	8298
807.472	8396
807.614	8161
807.756	8103
807.898	7951
808.04	7906
808.182	7932
808.324	7909
808.465	7902
808.607	8054
808.749	8107
808.891	8221
809.033	8271
809.174	8221
809.316	8069
809.458	8046
809.6	8073
809.741	8016
809.883	8084
810.025	8016
810.166	8050
810.308	7963
810.45	7951
810.591	7780
810.733	7696
810.875	7666
811.016	7438
811.158	7426
811.299	7636
811.441	7738
811.582	7696
811.724	7499
811.865	7578
812.007	7533
812.148	7567
812.29	7552
812.431	7723
812.573	7864
812.714	7951
812.855	8130
812.997	8187
813.138	8336
813.279	8176
813.421	8138
813.562	8062
813.703	7860
813.845	7750
813.986	7422
814.127	7198
814.268	7160
814.41	7190
814.551	7145
814.692	7244
814.833	7129
814.974	7061
815.115	7091
815.256	6989
815.397	6882
815.539	6993
815.68	6734
815.821	6753
815.962	6878
816.103	6776
816.244	6726
816.385	6608
816.526	6589
816.666	6517
816.807	6296
816.948	6361
817.089	6471
817.23	6448
817.371	6323
817.512	6353
817.653	6376
817.793	6384
817.934	6380
818.075	6448
818.216	6414
818.356	6342
818.497	6228
818.638	6083
818.778	6175
818.919	6136
819.06	6163
819.2	6331
819.341	6308
819.481	6372
819.622	6555
819.762	6696
819.903	6711
820.043	6608
820.184	6540
820.324	6574
820.465	6738
820.605	6688
820.746	6662
820.886	6452
821.026	6642
821.167	6601
821.307	6776
821.447	6783
821.588	6677
821.728	6559
821.868	6540
822.008	6353
822.149	6372
822.289	6327
822.429	6079
822.569	6072
822.709	6091
822.849	5961
822.99	5863
823.13	5916
823.27	5882
823.41	5760
823.55	5798
823.69	5714
823.83	5707
823.97	5604
824.11	5486
824.25	5448
824.389	5554
824.529	5630
824.669	5505
824.809	5558
824.949	5623
825.089	5566
825.228	5497
825.368	5341
825.508	5326
825.648	5318
825.787	5372
825.927	5307
826.067	5254
826.206	5292
826.346	5345
826.485	5360
826.625	5402
826.765	5512
826.904	5501
827.044	5223
827.183	5197
827.323	5162
827.462	5235
827.601	5170
827.741	5128
827.88	5212
828.02	5105
828.159	5170
828.298	5261
828.437	5349
828.577	5265
828.716	5467
828.855	5296
828.994	5162
829.134	5094
829.273	5178
829.412	5117
829.551	5067
829.69	5128
829.829	5227
829.968	5288
830.107	5212
830.246	5284
830.385	5162
830.524	5128
830.663	5079
830.802	4938
830.941	4881
831.08	4835
831.219	4946
831.357	4942
831.496	5170
831.635	4961
831.774	4820
831.913	4858
832.051	4759
832.19	4710
832.329	4816
832.467	4645
832.606	4615
832.744	4672
832.883	4687
833.022	4706
833.16	4736
833.299	4835
833.437	4828
833.576	4831
833.714	4839
833.852	4873
833.991	4892
834.129	4942
834.267	4953
834.406	4854
834.544	4972
834.682	4976
834.821	5006
834.959	5102
835.097	4961
835.235	5166
835.373	5113
835.511	5037
835.65	5022
835.788	4957
835.926	4858
836.064	4847
836.202	4930
836.34	5208
836.478	5170
836.615	5067
836.753	5162
836.891	5311
837.029	5204
837.167	5159
837.305	5162
837.443	5098
837.58	5098
837.718	5269
837.856	5181
837.993	5178
838.131	5166
838.269	5212
838.406	5201
838.544	5151
838.681	5048
838.819	5025
838.956	4892
839.094	4866
839.231	4999
839.369	5045
839.506	5440
839.643	5235
839.781	5022
839.918	4968
840.055	5060
840.193	5067
840.33	5136
840.467	5132
840.604	5162
840.742	5455
840.879	5052
841.016	5056
841.153	5204
841.29	5315
841.427	5318
841.564	5322
841.701	5322
841.838	5315
841.975	5189
842.112	5250
842.249	5143
842.385	5079
842.522	5299
842.659	5067
842.796	5071
842.933	5220
843.069	5143
843.206	5178
843.343	5242
843.479	5166
843.616	5246
843.752	5025
843.889	4949
844.025	5174
844.162	4972
844.298	5193
844.435	5003
844.571	5045
844.708	5201
844.844	5280
844.98	5299
845.117	5254
845.253	5067
845.389	5014
845.525	5094
845.661	5109
845.798	5022
845.934	5064
846.07	5071
846.206	5174
846.342	5280
846.478	5128
846.614	5010
846.75	4991
846.886	4949
847.022	5083
847.158	4991
847.294	5048
847.429	5075
847.565	5052
847.701	5280
847.837	4885
847.972	4740
848.108	4999
848.244	4862
848.379	4771
848.515	4714
848.65	4721
848.786	4733
848.921	4740
849.057	4835
849.192	4889
849.328	4801
849.463	4839
849.598	4755
849.734	4736
849.869	4679
850.004	4565
850.14	4618
850.275	4622
850.41	4523
850.545	4535
850.68	4599
850.815	4607
850.95	4615
851.085	4835
851.22	4721
851.355	4653
851.49	4630
851.625	4618
851.76	4584
851.895	4561
852.03	4485
852.165	4622
852.299	4710
852.434	4759
852.569	4767
852.703	4725
852.838	4843
852.973	4919
853.107	4904
853.242	4710
853.376	4683
853.511	4603
853.645	4641
853.78	4843
853.914	4660
854.048	4599
854.183	4634
854.317	4736
854.451	4835
854.585	4694
854.72	4622
854.854	4721
854.988	4618
855.122	4599
855.256	4500
855.39	4630
855.524	4752
855.658	4725
855.792	4683
855.926	4691
856.06	4740
856.194	4767
856.327	4675
856.461	4584
856.595	4653
856.729	4607
856.862	4744
856.996	4672
857.13	4714
857.263	4706
857.397	4767
857.53	4618
857.664	4694
857.797	4706
857.931	4752
858.064	4664
858.197	4736
858.331	4649
858.464	4668
858.597	4500
858.731	4603
858.864	4622
858.997	4565
859.13	4645
859.263	4653
859.396	4725
859.529	4588
859.662	4558
859.795	4531
859.928	4653
860.061	4755
860.194	4801
860.327	4596
860.46	4519
860.592	4733
860.725	4714
860.858	4729
860.99	4596
861.123	4542
861.256	4512
861.388	4588
861.521	5315
861.653	4455
861.786	4489
861.918	4432
862.05	4497
862.183	4535
862.315	4611
862.447	4634
862.58	4546
862.712	4383
862.844	4291
862.976	4443
863.108	4451
863.24	4767
863.372	4287
863.504	4428
863.636	4432
863.768	4474
863.9	4409
864.032	4383
864.164	4390
864.296	4455
864.428	4497
864.559	4554
864.691	4535
864.823	4596
864.954	4432
865.086	4485
865.217	4443
865.349	4402
865.48	4474
865.612	4462
865.743	4569
865.875	4493
866.006	4424
866.137	4390
866.269	4470
866.4	4428
866.531	4379
866.662	4367
866.793	4390
866.924	4409
867.055	4485
867.186	4474
867.317	4417
867.448	4344
867.579	4383
867.71	4363
867.841	4390
867.972	4440
868.103	4398
868.233	4424
868.364	4470
868.495	4485
868.625	4618
868.756	4733
868.886	4550
869.017	4607
869.147	4805
869.278	4755
869.408	4653
869.539	4622
869.669	4725
869.799	4653
869.929	4752
870.06	4733
870.19	4934
870.32	4892
870.45	4953
870.58	4999
870.71	5064
870.84	5079
870.97	4980
871.1	4877
871.23	5121
871.36	5132
871.489	5010
871.619	5033
871.749	5037
871.879	5090
872.008	5109
872.138	5048
872.267	4957
872.397	4828
872.526	4793
872.656	4702
872.785	4812
872.915	4999
873.044	5025
873.173	4965
873.303	4915
873.432	4957
873.561	4949
873.69	4850
873.819	4824
873.948	4881
874.077	4797
874.206	4755
874.335	4828
874.464	4904
874.593	5033
874.722	4946
874.851	5098
874.979	5052
875.108	5014
875.237	4881
875.365	4896
875.494	4812
875.623	4927
875.751	4835
875.88	4847
876.008	5003
876.136	5033
876.265	5208
876.393	5292
876.521	5220
876.65	5220
876.778	5143
876.906	5025
877.034	5014
877.162	5018
877.29	4957
877.418	5045
877.546	5041
877.674	5003
877.802	5022
877.93	4961
878.058	4938
878.185	4866
878.313	4968
878.441	4900
878.568	4786
878.696	4850
878.824	4908
878.951	4999
879.079	5098
879.206	5223
879.333	5098
879.461	4976
879.588	5025
879.715	5109
879.842	5189
879.97	4980
880.097	4755
880.224	4740
880.351	4774
880.478	4774
880.605	4805
880.732	4782
880.859	5037
880.986	4843
881.112	4877
881.239	4763
881.366	4698
881.493	4634
881.619	4588
881.746	4649
881.872	4630
881.999	4660
882.125	4710
882.252	4759
882.378	4816
882.505	4995
882.631	4843
882.757	4645
882.883	4778
883.01	4729
883.136	4641
883.262	4672
883.388	4672
883.514	4843
883.64	4824
883.766	4831
883.892	4717
884.018	4729
884.143	4843
884.269	5033
884.395	4691
884.52	4611
884.646	4679
884.772	4596
884.897	4577
885.023	4683
885.148	4809
885.274	4866
885.399	4843
885.524	4748
885.65	4736
885.775	4759
885.9	4767
886.025	4850
886.15	4824
886.275	4755
886.4	4721
886.525	4790
886.65	4748
886.775	4763
886.9	4934
887.025	5124
887.149	4812
887.274	4721
887.399	4577
887.523	4656
887.648	4683
887.773	4649
887.897	4801
888.021	4797
888.146	4672
888.27	4835
888.395	4984
888.519	4843
888.643	4850
888.767	4934
888.891	4668
889.015	4668
889.139	4691
889.263	4672
889.387	4771
889.511	4915
889.635	4778
889.759	4634
889.883	4656
890.006	4774
890.13	4896
890.254	4668
890.377	4706
890.501	4599
890.624	4546
890.748	4645
890.871	4584
890.995	4470
891.118	4428
891.241	4508
891.364	4546
891.488	4660
891.611	4527
891.734	4592
891.857	4626
891.98	4607
892.103	4755
892.226	4626
892.349	4554
892.471	4462
892.594	4577
892.717	4596
892.839	4622
892.962	4653
893.085	4717
893.207	4653
893.33	4455
893.452	4527
893.575	4672
893.697	4618
893.819	4866
893.941	4839
894.064	4801
894.186	4622
894.308	4580
894.43	4752
894.552	4809
894.674	4744
894.796	4558
894.918	4592
895.04	4580
895.161	4710
895.283	4668
895.405	4596
895.526	4649
895.648	4702
895.769	4679
895.891	4759
896.012	4797
896.134	4767
896.255	4694
896.376	4653
896.498	4687
896.619	4714
896.74	4656
896.861	4660
896.982	4965
897.103	5102
897.224	4850
897.345	4736
897.466	4691
897.587	4786
897.708	4877
897.828	4809
897.949	4710
898.07	4618
898.19	4653
898.311	4847
898.431	4687
898.552	4744
898.672	4793
898.792	4873
898.913	4801
899.033	4649
899.153	4538
899.273	4447
899.393	4535
899.513	4554
899.633	4550
899.753	4607
899.873	4554
899.993	4626
900.113	4580
900.232	4599
900.352	4592
900.472	4485
900.591	4413
900.711	4504
900.83	4413
900.95	4618
901.069	4740
901.189	4546
901.308	4371
901.427	4352
901.546	4390
901.665	4462
901.784	4577
901.904	4394
902.023	4371
902.141	4169
902.26	4185
902.379	4325
902.498	4257
902.617	4299
902.735	4405
902.854	4405
902.973	4329
903.091	4253
903.21	4325
903.328	4325
903.446	4284
903.565	4314
903.683	4409
903.801	4314
903.919	4440
904.038	4462
904.156	4352
904.274	4478
904.392	4451
904.51	4417
904.627	4508
904.745	4580
904.863	4634
904.981	4443
905.098	4341
905.216	4440
905.334	4481
905.451	4500
905.569	4466
905.686	4580
905.803	4611
905.921	4459
906.038	4561
906.155	4550
906.272	4405
906.389	4504
906.506	4348
906.623	4409
906.74	4436
906.857	4386
906.974	4421
907.091	4558
907.208	4687
907.324	4618
907.441	4569
907.557	4367
907.674	4356
907.79	4348
907.907	4405
908.023	4512
908.139	4519
908.256	4447
908.372	4493
908.488	4424
908.604	4379
908.72	4386
908.836	4417
908.952	4413
909.068	4462
909.184	4577
909.3	4500
909.415	4599
909.531	4569
909.647	4405
909.762	4402
909.878	4383
909.993	4481
910.108	4451
910.224	4443
910.339	4542
910.454	4451
910.57	4375
910.685	4333
910.8	4675
910.915	4637
911.03	4584
911.145	4333
911.259	4341
911.374	4375
911.489	4303
911.604	4276
911.718	4246
911.833	4246
911.947	4090
912.062	4067
912.176	4268
912.291	4276
912.405	4287
912.519	4485
912.633	4535
912.748	4409
912.862	4348
912.976	4227
913.09	4109
913.204	4169
913.318	4284
913.431	4360
913.545	4360
913.659	4405
913.772	4360
913.886	4329
914	4257
914.113	4352
914.226	4474
914.34	4413
914.453	4318
914.566	4451
914.68	4325
914.793	4280
914.906	4181
915.019	4185
915.132	4128
915.245	4173
915.358	4230
915.47	4257
915.583	4246
915.696	4303
915.809	4409
915.921	4447
916.034	4272
916.146	4314
916.259	4253
916.371	4405
916.483	4386
916.595	4306
916.708	4405
916.82	4344
916.932	4325
917.044	4367
917.156	4363
917.268	4227
917.38	4261
917.491	4291
917.603	4409
917.715	4409
917.826	4459
917.938	4375
918.049	4261
918.161	4417
918.272	4546
918.384	4569
918.495	4470
918.606	4325
918.717	4268
918.828	4367
918.939	4337
919.05	4287
919.161	4356
919.272	4177
919.383	4227
919.494	4428
919.604	4668
919.715	4440
919.826	4344
919.936	4428
920.047	4535
920.157	4500
920.267	4736
920.378	4561
920.488	4500
920.598	4752
920.708	4908
920.818	4763
920.928	4809
921.038	4984
921.148	4930
921.258	4679
921.368	4569
921.477	4531
921.587	4459
921.697	4367
921.806	4550
921.916	4386
922.025	4303
922.134	4257
922.244	4227
922.353	4348
922.462	4173
922.571	4169
922.68	4032
922.789	3972
922.898	4048
923.007	4021
923.116	4082
923.224	4097
923.333	4090
923.442	4013
923.55	4017
923.659	4059
923.767	4109
923.876	4040
923.984	4143
924.092	4051
924.201	4109
924.309	4051
924.417	4131
924.525	4074
924.633	4173
924.741	4866
924.849	3972
924.956	4158
925.064	3956
925.172	3937
925.279	3968
925.387	4051
925.494	4067
925.602	4249
925.709	4177
925.816	4032
925.924	4135
926.031	4204
926.138	4166
926.245	4204
926.352	4120
926.459	4276
926.566	4341
926.673	4234
926.779	4059
926.886	4116
926.993	4013
927.099	3972
927.206	3972
927.312	3922
927.419	4059
927.525	4071
927.631	4109
927.737	4021
927.843	3975
927.95	3846
928.056	3975
928.162	3956
928.267	4116
928.373	4592
928.479	4120
928.585	3846
928.69	4074
928.796	4109
928.901	4002
929.007	3819
929.112	4021
929.218	4017
929.323	3994
929.428	3934
929.533	4139
929.638	3930
929.743	3979
929.848	4051
929.953	3991
930.058	3941
930.163	3781
930.267	3880
930.372	4010
930.477	3861
930.581	4105
930.685	3968
930.79	3793
930.894	3876
930.998	3827
931.103	4067
931.207	3705
931.311	3690
931.415	3682
931.519	3519
931.623	3545
