Data from test_V78500241_662.txt Node
Date: Fri Mar 25 16:53:36 CST 2022
User: usil
Spectrometer: V785-0024
Trigger mode: 0
Integration Time (sec): 4.000000E-1
Scans to average: 1
Nonlinearity correction enabled: false
Boxcar width: 0
Storing dark spectrum: false
XAxis mode: Wavelengths
Number of Pixels in Spectrum: 1024
>>>>>Begin Spectral Data<<<<<
801.071	8020
801.214	8012
801.356	7932
801.499	7875
801.641	7803
801.783	7761
801.926	8005
802.068	7959
802.211	8005
802.353	8039
802.496	7894
802.638	7909
802.78	7928
802.923	7830
803.065	7830
803.208	7792
803.35	8016
803.492	8138
803.635	8138
803.777	8031
803.919	8054
804.061	8400
804.204	8138
804.346	8039
804.488	7936
804.63	8119
804.773	7997
804.915	8096
805.057	8305
805.199	8145
805.341	8286
805.483	8290
805.626	8248
805.768	8100
805.91	8199
806.052	8210
806.194	8111
806.336	8313
806.478	8062
806.62	8081
806.762	8088
806.904	8233
807.046	8427
807.188	8381
807.33	8286
807.472	8267
807.614	8161
807.756	8138
807.898	7982
808.04	7887
808.182	7932
808.324	7894
808.465	7883
808.607	8054
808.749	8073
808.891	8214
809.033	8229
809.174	8202
809.316	8024
809.458	8088
809.6	7959
809.741	8054
809.883	8031
810.025	8069
810.166	8100
810.308	7932
810.45	8012
810.591	7868
810.733	7772
810.875	7689
811.016	7544
811.158	7464
811.299	7578
811.441	7696
811.582	7620
811.724	7552
811.865	7460
812.007	7571
812.148	7643
812.29	7567
812.431	7731
812.573	7849
812.714	7970
812.855	8077
812.997	8183
813.138	8347
813.279	8210
813.421	8202
813.562	8016
813.703	7864
813.845	7792
813.986	7434
814.127	7312
814.268	7274
814.41	7228
814.551	7141
814.692	7228
814.833	7034
814.974	7141
815.115	7107
815.256	6977
815.397	6871
815.539	6935
815.68	6814
815.821	6768
815.962	6890
816.103	6913
816.244	6772
816.385	6608
816.526	6570
816.666	6498
816.807	6346
816.948	6414
817.089	6391
817.23	6437
817.371	6365
817.512	6429
817.653	6384
817.793	6357
817.934	6361
818.075	6483
818.216	6460
818.356	6357
818.497	6209
818.638	6110
818.778	6095
818.919	6159
819.06	6197
819.2	6277
819.341	6350
819.481	6338
819.622	6509
819.762	6749
819.903	6604
820.043	6582
820.184	6570
820.324	6559
820.465	6654
820.605	6658
820.746	6612
820.886	6521
821.026	6635
821.167	6745
821.307	6821
821.447	6730
821.588	6631
821.728	6536
821.868	6506
822.008	6262
822.149	6410
822.289	6308
822.429	6148
822.569	6072
822.709	6110
822.849	5935
822.99	5904
823.13	5893
823.27	5973
823.41	5813
823.55	5756
823.69	5802
823.83	5821
823.97	5722
824.11	5562
824.25	5585
824.389	5528
824.529	5596
824.669	5512
824.809	5665
824.949	5661
825.089	5653
825.228	5589
825.368	5410
825.508	5372
825.648	5398
825.787	5364
825.927	5459
826.067	5398
826.206	5334
826.346	5425
826.485	5410
826.625	5471
826.765	5562
826.904	5482
827.044	5299
827.183	5181
827.323	5143
827.462	5292
827.601	5254
827.741	5174
827.88	5231
828.02	5075
828.159	5280
828.298	5318
828.437	5406
828.577	5341
828.716	5547
828.855	5414
828.994	5239
829.134	5174
829.273	5227
829.412	5132
829.551	5181
829.69	5185
829.829	5284
829.968	5398
830.107	5277
830.246	5292
830.385	5231
830.524	5159
830.663	5128
830.802	5003
830.941	4911
831.08	4866
831.219	5090
831.357	5022
831.496	5181
831.635	4965
831.774	4953
831.913	4877
832.051	4729
832.19	4755
832.329	4892
832.467	4744
832.606	4649
832.744	4752
832.883	4721
833.022	4797
833.16	4801
833.299	4862
833.437	4847
833.576	4839
833.714	4885
833.852	4904
833.991	4911
834.129	4972
834.267	4953
834.406	4946
834.544	5014
834.682	4984
834.821	4957
834.959	5189
835.097	5056
835.235	5124
835.373	5124
835.511	5090
835.65	5037
835.788	4991
835.926	4892
836.064	4915
836.202	4911
836.34	5162
836.478	5296
836.615	5170
836.753	5231
836.891	5296
837.029	5227
837.167	5204
837.305	5204
837.443	5166
837.58	5018
837.718	5284
837.856	5193
837.993	5166
838.131	5265
838.269	5223
838.406	5181
838.544	5193
838.681	5014
838.819	5033
838.956	4961
839.094	4946
839.231	5029
839.369	5124
839.506	5448
839.643	5261
839.781	5071
839.918	5048
840.055	5064
840.193	5143
840.33	5174
840.467	5189
840.604	5208
840.742	5490
840.879	5094
841.016	5151
841.153	5147
841.29	5387
841.427	5368
841.564	5387
841.701	5379
841.838	5337
841.975	5311
842.112	5261
842.249	5220
842.385	5140
842.522	5318
842.659	5242
842.796	5162
842.933	5178
843.069	5204
843.206	5178
843.343	5376
843.479	5201
843.616	5277
843.752	5086
843.889	5037
844.025	5235
844.162	5083
844.298	5235
844.435	5075
844.571	5083
844.708	5254
844.844	5334
844.98	5364
845.117	5315
845.253	5143
845.389	5086
845.525	5204
845.661	5181
845.798	5056
845.934	5170
846.07	5124
846.206	5178
846.342	5269
846.478	5220
846.614	5029
846.75	4995
846.886	4949
847.022	5189
847.158	5014
847.294	5079
847.429	5102
847.565	5041
847.701	5417
847.837	4908
847.972	4831
848.108	5006
848.244	4991
848.379	4752
848.515	4767
848.65	4714
848.786	4755
848.921	4771
849.057	4908
849.192	4908
849.328	4862
849.463	4831
849.598	4820
849.734	4755
849.869	4744
850.004	4653
850.14	4641
850.275	4691
850.41	4550
850.545	4615
850.68	4573
850.815	4630
850.95	4656
851.085	4835
851.22	4763
851.355	4679
851.49	4668
851.625	4630
851.76	4683
851.895	4561
852.03	4546
852.165	4683
852.299	4725
852.434	4752
852.569	4740
852.703	4820
852.838	4850
852.973	4904
853.107	4949
853.242	4729
853.376	4687
853.511	4542
853.645	4645
853.78	4828
853.914	4710
854.048	4679
854.183	4641
854.317	4771
854.451	4881
854.585	4691
854.72	4702
854.854	4740
854.988	4607
855.122	4656
855.256	4535
855.39	4694
855.524	4759
855.658	4771
855.792	4714
855.926	4721
856.06	4816
856.194	4873
856.327	4691
856.461	4679
856.595	4649
856.729	4645
856.862	4778
856.996	4687
857.13	4725
857.263	4752
857.397	4801
857.53	4717
857.664	4752
857.797	4744
857.931	4824
858.064	4702
858.197	4786
858.331	4653
858.464	4637
858.597	4554
858.731	4630
858.864	4645
858.997	4634
859.13	4645
859.263	4698
859.396	4714
859.529	4641
859.662	4580
859.795	4569
859.928	4641
860.061	4786
860.194	4805
860.327	4641
860.46	4618
860.592	4733
860.725	4740
860.858	4755
860.99	4577
861.123	4527
861.256	4558
861.388	4672
861.521	5357
861.653	4546
861.786	4474
861.918	4489
862.05	4497
862.183	4531
862.315	4580
862.447	4721
862.58	4569
862.712	4447
862.844	4341
862.976	4485
863.108	4493
863.24	4927
863.372	4356
863.504	4440
863.636	4443
863.768	4504
863.9	4443
864.032	4424
864.164	4489
864.296	4508
864.428	4554
864.559	4546
864.691	4527
864.823	4538
864.954	4527
865.086	4508
865.217	4432
865.349	4417
865.48	4481
865.612	4531
865.743	4603
865.875	4478
866.006	4421
866.137	4500
866.269	4466
866.4	4436
866.531	4447
866.662	4402
866.793	4413
866.924	4428
867.055	4493
867.186	4443
867.317	4489
867.448	4398
867.579	4409
867.71	4394
867.841	4405
867.972	4508
868.103	4478
868.233	4470
868.364	4508
868.495	4512
868.625	4660
868.756	4782
868.886	4637
869.017	4653
869.147	4797
869.278	4816
869.408	4668
869.539	4641
869.669	4733
869.799	4698
869.929	4774
870.06	4740
870.19	5006
870.32	4976
870.45	5022
870.58	5006
870.71	5121
870.84	5140
870.97	4949
871.1	4870
871.23	5174
871.36	5155
871.489	5025
871.619	5052
871.749	5124
871.879	5117
872.008	5220
872.138	5136
872.267	5006
872.397	4828
872.526	4759
872.656	4740
872.785	4839
872.915	4972
873.044	5045
873.173	4976
873.303	4991
873.432	5003
873.561	4984
873.69	4866
873.819	4870
873.948	4873
874.077	4828
874.206	4767
874.335	4850
874.464	4885
874.593	5060
874.722	4980
874.851	5083
874.979	5094
875.108	5022
875.237	4915
875.365	4885
875.494	4911
875.623	4991
875.751	4862
875.88	4862
876.008	4965
876.136	5083
876.265	5220
876.393	5414
876.521	5288
876.65	5273
876.778	5140
876.906	5041
877.034	5041
877.162	5064
877.29	5033
877.418	5014
877.546	5098
877.674	5079
877.802	5083
877.93	4999
878.058	4942
878.185	4873
878.313	4957
878.441	4976
878.568	4835
878.696	4904
878.824	5010
878.951	4999
879.079	5166
879.206	5299
879.333	5151
879.461	5018
879.588	4991
879.715	5128
879.842	5227
879.97	4995
880.097	4824
880.224	4759
880.351	4831
880.478	4816
880.605	4816
880.732	4850
880.859	5174
880.986	4885
881.112	4919
881.239	4748
881.366	4660
881.493	4603
881.619	4607
881.746	4645
881.872	4687
881.999	4675
882.125	4706
882.252	4862
882.378	4820
882.505	4965
882.631	4824
882.757	4710
882.883	4755
883.01	4767
883.136	4675
883.262	4641
883.388	4584
883.514	4847
883.64	4858
883.766	4831
883.892	4706
884.018	4729
884.143	4915
884.269	5033
884.395	4679
884.52	4630
884.646	4618
884.772	4584
884.897	4592
885.023	4683
885.148	4816
885.274	4828
885.399	4801
885.524	4702
885.65	4721
885.775	4725
885.9	4740
886.025	4896
886.15	4786
886.275	4698
886.4	4660
886.525	4706
886.65	4637
886.775	4702
886.9	4896
887.025	5029
887.149	4812
887.274	4649
887.399	4607
887.523	4580
887.648	4577
887.773	4554
887.897	4778
888.021	4816
888.146	4649
888.27	4835
888.395	4919
888.519	4812
888.643	4805
888.767	4820
888.891	4683
889.015	4626
889.139	4679
889.263	4626
889.387	4755
889.511	4900
889.635	4816
889.759	4675
889.883	4649
890.006	4759
890.13	4858
890.254	4637
890.377	4714
890.501	4546
890.624	4573
890.748	4668
890.871	4523
890.995	4516
891.118	4421
891.241	4588
891.364	4622
891.488	4691
891.611	4474
891.734	4569
891.857	4611
891.98	4546
892.103	4637
892.226	4577
892.349	4569
892.471	4424
892.594	4577
892.717	4584
892.839	4573
892.962	4615
893.085	4698
893.207	4656
893.33	4470
893.452	4538
893.575	4672
893.697	4592
893.819	4774
893.941	4858
894.064	4786
894.186	4580
894.308	4584
894.43	4755
894.552	4843
894.674	4816
894.796	4558
894.918	4592
895.04	4565
895.161	4725
895.283	4714
895.405	4592
895.526	4668
895.648	4679
895.769	4691
895.891	4694
896.012	4748
896.134	4729
896.255	4683
896.376	4611
896.498	4618
896.619	4691
896.74	4584
896.861	4660
896.982	4911
897.103	5083
897.224	4790
897.345	4771
897.466	4656
897.587	4729
897.708	4927
897.828	4759
897.949	4683
898.07	4592
898.19	4637
898.311	4801
898.431	4664
898.552	4774
898.672	4831
898.792	4786
898.913	4721
899.033	4649
899.153	4527
899.273	4413
899.393	4493
899.513	4546
899.633	4558
899.753	4561
899.873	4478
899.993	4580
900.113	4497
900.232	4615
900.352	4554
900.472	4519
900.591	4405
900.711	4466
900.83	4470
900.95	4626
901.069	4668
901.189	4569
901.308	4386
901.427	4322
901.546	4398
901.665	4493
901.784	4519
901.904	4424
902.023	4348
902.141	4181
902.26	4242
902.379	4325
902.498	4295
902.617	4207
902.735	4390
902.854	4375
902.973	4405
903.091	4173
903.21	4276
903.328	4337
903.446	4310
903.565	4291
903.683	4363
903.801	4295
903.919	4390
904.038	4451
904.156	4280
904.274	4466
904.392	4402
904.51	4462
904.627	4459
904.745	4615
904.863	4660
904.981	4383
905.098	4295
905.216	4383
905.334	4421
905.451	4447
905.569	4367
905.686	4538
905.803	4550
905.921	4375
906.038	4569
906.155	4466
906.272	4394
906.389	4470
906.506	4379
906.623	4348
906.74	4386
906.857	4348
906.974	4363
907.091	4558
907.208	4702
907.324	4656
907.441	4535
907.557	4344
907.674	4344
907.79	4291
907.907	4390
908.023	4478
908.139	4489
908.256	4436
908.372	4512
908.488	4478
908.604	4398
908.72	4413
908.836	4398
908.952	4405
909.068	4436
909.184	4611
909.3	4523
909.415	4618
909.531	4596
909.647	4383
909.762	4356
909.878	4379
909.993	4462
910.108	4344
910.224	4428
910.339	4489
910.454	4447
910.57	4383
910.685	4303
910.8	4679
910.915	4611
911.03	4485
911.145	4363
911.259	4329
911.374	4409
911.489	4261
911.604	4280
911.718	4230
911.833	4150
911.947	4101
912.062	4032
912.176	4223
912.291	4204
912.405	4261
912.519	4504
912.633	4485
912.748	4390
912.862	4303
912.976	4207
913.09	4120
913.204	4211
913.318	4238
913.431	4291
913.545	4402
913.659	4470
913.772	4344
913.886	4238
914	4223
914.113	4394
914.226	4409
914.34	4383
914.453	4257
914.566	4436
914.68	4325
914.793	4299
914.906	4154
915.019	4131
915.132	4063
915.245	4181
915.358	4188
915.47	4230
915.583	4295
915.696	4299
915.809	4375
915.921	4451
916.034	4257
916.146	4265
916.259	4257
916.371	4371
916.483	4333
916.595	4261
916.708	4325
916.82	4325
916.932	4318
917.044	4344
917.156	4333
917.268	4207
917.38	4261
917.491	4268
917.603	4367
917.715	4428
917.826	4428
917.938	4383
918.049	4234
918.161	4386
918.272	4523
918.384	4512
918.495	4455
918.606	4310
918.717	4253
918.828	4356
918.939	4318
919.05	4261
919.161	4329
919.272	4150
919.383	4249
919.494	4440
919.604	4618
919.715	4428
919.826	4348
919.936	4394
920.047	4554
920.157	4493
920.267	4717
920.378	4558
920.488	4504
920.598	4706
920.708	4892
920.818	4828
920.928	4797
921.038	4919
921.148	4968
921.258	4656
921.368	4577
921.477	4474
921.587	4474
921.697	4386
921.806	4569
921.916	4436
922.025	4314
922.134	4242
922.244	4249
922.353	4303
922.462	4173
922.571	4143
922.68	4013
922.789	3987
922.898	4021
923.007	3998
923.116	4093
923.224	4055
923.333	4086
923.442	4025
923.55	3964
923.659	4032
923.767	4112
923.876	4051
923.984	4131
924.092	3994
924.201	4059
924.309	4105
924.417	4105
924.525	4059
924.633	4105
924.741	5083
924.849	3945
924.956	4120
925.064	3926
925.172	3865
925.279	3979
925.387	4055
925.494	4067
925.602	4280
925.709	4196
925.816	4032
925.924	4181
926.031	4280
926.138	4143
926.245	4196
926.352	4051
926.459	4246
926.566	4295
926.673	4154
926.779	4112
926.886	4082
926.993	4002
927.099	3953
927.206	3915
927.312	3926
927.419	4067
927.525	4067
927.631	4082
927.737	3926
927.843	3945
927.95	3819
928.056	3945
928.162	3960
928.267	4006
928.373	4660
928.479	4124
928.585	3880
928.69	3991
928.796	4021
928.901	3953
929.007	3819
929.112	4002
929.218	3983
929.323	3960
929.428	3975
929.533	4109
929.638	3911
929.743	3945
929.848	4040
929.953	3975
930.058	3873
930.163	3774
930.267	3835
930.372	3934
930.477	3812
930.581	4086
930.685	3937
930.79	3819
930.894	3869
930.998	3865
931.103	4029
931.207	3728
931.311	3717
931.415	3698
931.519	3519
931.623	3576
