Data from test_V78500241_1191.txt Node
Date: Fri Mar 25 16:57:16 CST 2022
User: usil
Spectrometer: V785-0024
Trigger mode: 0
Integration Time (sec): 4.000000E-1
Scans to average: 1
Nonlinearity correction enabled: false
Boxcar width: 0
Storing dark spectrum: false
XAxis mode: Wavelengths
Number of Pixels in Spectrum: 1024
>>>>>Begin Spectral Data<<<<<
801.071	8058
801.214	8073
801.356	7917
801.499	7871
801.641	7780
801.783	7833
801.926	7967
802.068	7970
802.211	7959
802.353	8012
802.496	7849
802.638	7887
802.78	7959
802.923	7940
803.065	7913
803.208	7902
803.35	8046
803.492	8107
803.635	8157
803.777	8084
803.919	8161
804.061	8495
804.204	8187
804.346	8123
804.488	7947
804.63	8073
804.773	8039
804.915	8081
805.057	8290
805.199	8157
805.341	8221
805.483	8240
805.626	8187
805.768	8172
805.91	8252
806.052	8191
806.194	8111
806.336	8244
806.478	8107
806.62	7997
806.762	8172
806.904	8240
807.046	8434
807.188	8317
807.33	8324
807.472	8343
807.614	8123
807.756	8107
807.898	7997
808.04	7951
808.182	7913
808.324	7864
808.465	7887
808.607	8081
808.749	8043
808.891	8176
809.033	8271
809.174	8187
809.316	8024
809.458	8005
809.6	7989
809.741	7997
809.883	8005
810.025	8058
810.166	8046
810.308	8039
810.45	8043
810.591	7875
810.733	7742
810.875	7662
811.016	7594
811.158	7476
811.299	7590
811.441	7734
811.582	7753
811.724	7616
811.865	7556
812.007	7529
812.148	7556
812.29	7613
812.431	7715
812.573	7841
812.714	7993
812.855	8145
812.997	8248
813.138	8279
813.279	8180
813.421	8088
813.562	7974
813.703	7852
813.845	7750
813.986	7381
814.127	7293
814.268	7228
814.41	7225
814.551	7091
814.692	7168
814.833	7095
814.974	7065
815.115	7129
815.256	6939
815.397	6947
815.539	6886
815.68	6783
815.821	6738
815.962	6867
816.103	6833
816.244	6711
816.385	6593
816.526	6563
816.666	6467
816.807	6254
816.948	6331
817.089	6441
817.23	6445
817.371	6388
817.512	6422
817.653	6338
817.793	6388
817.934	6372
818.075	6422
818.216	6369
818.356	6407
818.497	6186
818.638	6079
818.778	6167
818.919	6102
819.06	6167
819.2	6346
819.341	6315
819.481	6353
819.622	6506
819.762	6745
819.903	6753
820.043	6582
820.184	6528
820.324	6544
820.465	6688
820.605	6673
820.746	6654
820.886	6467
821.026	6623
821.167	6673
821.307	6768
821.447	6768
821.588	6677
821.728	6585
821.868	6513
822.008	6342
822.149	6361
822.289	6353
822.429	6186
822.569	6068
822.709	6144
822.849	5916
822.99	5912
823.13	5893
823.27	5866
823.41	5733
823.55	5764
823.69	5779
823.83	5775
823.97	5592
824.11	5512
824.25	5512
824.389	5577
824.529	5611
824.669	5627
824.809	5684
824.949	5657
825.089	5600
825.228	5501
825.368	5410
825.508	5383
825.648	5326
825.787	5376
825.927	5429
826.067	5277
826.206	5326
826.346	5383
826.485	5421
826.625	5440
826.765	5577
826.904	5486
827.044	5311
827.183	5273
827.323	5208
827.462	5242
827.601	5185
827.741	5201
827.88	5280
828.02	5170
828.159	5269
828.298	5307
828.437	5376
828.577	5296
828.716	5551
828.855	5414
828.994	5197
829.134	5147
829.273	5197
829.412	5151
829.551	5193
829.69	5174
829.829	5258
829.968	5429
830.107	5307
830.246	5258
830.385	5201
830.524	5113
830.663	5086
830.802	4987
830.941	4889
831.08	4919
831.219	5018
831.357	5010
831.496	5189
831.635	4961
831.774	4862
831.913	4896
832.051	4744
832.19	4782
832.329	4862
832.467	4786
832.606	4679
832.744	4748
832.883	4771
833.022	4774
833.16	4782
833.299	4873
833.437	4828
833.576	4828
833.714	4885
833.852	4866
833.991	4889
834.129	5037
834.267	4972
834.406	4923
834.544	4991
834.682	5045
834.821	4984
834.959	5178
835.097	4987
835.235	5113
835.373	5094
835.511	5121
835.65	5105
835.788	5010
835.926	4896
836.064	4927
836.202	4934
836.34	5159
836.478	5261
836.615	5117
836.753	5231
836.891	5322
837.029	5292
837.167	5242
837.305	5189
837.443	5166
837.58	5151
837.718	5254
837.856	5208
837.993	5140
838.131	5227
838.269	5284
838.406	5227
838.544	5197
838.681	5079
838.819	4999
838.956	4942
839.094	4953
839.231	5006
839.369	5090
839.506	5509
839.643	5296
839.781	5105
839.918	5052
840.055	5136
840.193	5090
840.33	5121
840.467	5102
840.604	5178
840.742	5414
840.879	5071
841.016	5102
841.153	5128
841.29	5357
841.427	5376
841.564	5330
841.701	5372
841.838	5337
841.975	5288
842.112	5273
842.249	5193
842.385	5166
842.522	5368
842.659	5151
842.796	5136
842.933	5242
843.069	5208
843.206	5162
843.343	5296
843.479	5250
843.616	5231
843.752	5094
843.889	5056
844.025	5239
844.162	4953
844.298	5235
844.435	5067
844.571	4984
844.708	5193
844.844	5326
844.98	5379
845.117	5322
845.253	5197
845.389	5083
845.525	5212
845.661	5140
845.798	5090
845.934	5102
846.07	5090
846.206	5223
846.342	5299
846.478	5223
846.614	5052
846.75	5025
846.886	4984
847.022	5170
847.158	5045
847.294	5071
847.429	5113
847.565	5071
847.701	5326
847.837	4896
847.972	4790
848.108	4991
848.244	4965
848.379	4809
848.515	4771
848.65	4740
848.786	4755
848.921	4809
849.057	4900
849.192	4938
849.328	4858
849.463	4870
849.598	4805
849.734	4812
849.869	4740
850.004	4649
850.14	4653
850.275	4630
850.41	4561
850.545	4580
850.68	4558
850.815	4683
850.95	4664
851.085	4881
851.22	4763
851.355	4691
851.49	4637
851.625	4679
851.76	4626
851.895	4573
852.03	4558
852.165	4679
852.299	4774
852.434	4782
852.569	4759
852.703	4793
852.838	4877
852.973	4946
853.107	4984
853.242	4812
853.376	4729
853.511	4565
853.645	4611
853.78	4839
853.914	4725
854.048	4679
854.183	4691
854.317	4717
854.451	4870
854.585	4729
854.72	4679
854.854	4809
854.988	4561
855.122	4702
855.256	4538
855.39	4694
855.524	4797
855.658	4755
855.792	4691
855.926	4801
856.06	4755
856.194	4759
856.327	4736
856.461	4634
856.595	4656
856.729	4675
856.862	4721
856.996	4729
857.13	4710
857.263	4797
857.397	4862
857.53	4675
857.664	4755
857.797	4759
857.931	4797
858.064	4717
858.197	4778
858.331	4675
858.464	4622
858.597	4561
858.731	4725
858.864	4656
858.997	4626
859.13	4691
859.263	4740
859.396	4778
859.529	4637
859.662	4561
859.795	4531
859.928	4653
860.061	4774
860.194	4763
860.327	4588
860.46	4561
860.592	4710
860.725	4778
860.858	4717
860.99	4588
861.123	4531
861.256	4527
861.388	4672
861.521	5364
861.653	4527
861.786	4474
861.918	4474
862.05	4580
862.183	4531
862.315	4645
862.447	4607
862.58	4558
862.712	4432
862.844	4348
862.976	4512
863.108	4481
863.24	4892
863.372	4344
863.504	4474
863.636	4398
863.768	4500
863.9	4405
864.032	4352
864.164	4432
864.296	4474
864.428	4630
864.559	4588
864.691	4546
864.823	4519
864.954	4481
865.086	4542
865.217	4443
865.349	4424
865.48	4493
865.612	4470
865.743	4660
865.875	4516
866.006	4402
866.137	4470
866.269	4485
866.4	4440
866.531	4424
866.662	4417
866.793	4428
866.924	4436
867.055	4561
867.186	4493
867.317	4432
867.448	4394
867.579	4394
867.71	4417
867.841	4436
867.972	4478
868.103	4466
868.233	4417
868.364	4470
868.495	4481
868.625	4630
868.756	4801
868.886	4550
869.017	4649
869.147	4752
869.278	4831
869.408	4634
869.539	4634
869.669	4725
869.799	4698
869.929	4725
870.06	4763
870.19	4911
870.32	4892
870.45	4980
870.58	5022
870.71	5105
870.84	5124
870.97	4953
871.1	4889
871.23	5174
871.36	5166
871.489	5025
871.619	5067
871.749	5155
871.879	5117
872.008	5193
872.138	5048
872.267	5022
872.397	4854
872.526	4759
872.656	4740
872.785	4847
872.915	4957
873.044	5060
873.173	4972
873.303	4987
873.432	4995
873.561	4934
873.69	4896
873.819	4892
873.948	5018
874.077	4828
874.206	4778
874.335	4786
874.464	4942
874.593	5029
874.722	4957
874.851	5102
874.979	4984
875.108	5018
875.237	4984
875.365	4885
875.494	4881
875.623	4957
875.751	4885
875.88	4889
876.008	5022
876.136	5018
876.265	5189
876.393	5334
876.521	5265
876.65	5246
876.778	5166
876.906	5025
877.034	5037
877.162	5018
877.29	5018
877.418	5083
877.546	5075
877.674	5075
877.802	5094
877.93	4987
878.058	4953
878.185	4915
878.313	4968
878.441	4976
878.568	4839
878.696	4877
878.824	4961
878.951	4995
879.079	5136
879.206	5311
879.333	5083
879.461	5033
879.588	4999
879.715	5121
879.842	5242
879.97	5025
880.097	4809
880.224	4790
880.351	4809
880.478	4835
880.605	4816
880.732	4809
880.859	5143
880.986	4927
881.112	4930
881.239	4831
881.366	4687
881.493	4653
881.619	4573
881.746	4649
881.872	4694
881.999	4637
882.125	4660
882.252	4767
882.378	4870
882.505	4949
882.631	4805
882.757	4683
882.883	4752
883.01	4729
883.136	4687
883.262	4645
883.388	4656
883.514	4797
883.64	4866
883.766	4801
883.892	4668
884.018	4774
884.143	4919
884.269	4968
884.395	4725
884.52	4603
884.646	4710
884.772	4596
884.897	4577
885.023	4618
885.148	4812
885.274	4862
885.399	4778
885.524	4752
885.65	4675
885.775	4759
885.9	4683
886.025	4885
886.15	4759
886.275	4729
886.4	4698
886.525	4714
886.65	4733
886.775	4729
886.9	4976
887.025	5022
887.149	4805
887.274	4672
887.399	4592
887.523	4603
887.648	4577
887.773	4580
887.897	4748
888.021	4793
888.146	4679
888.27	4831
888.395	4900
888.519	4835
888.643	4839
888.767	4820
888.891	4706
889.015	4618
889.139	4672
889.263	4584
889.387	4725
889.511	4892
889.635	4786
889.759	4649
889.883	4645
890.006	4698
890.13	4873
890.254	4649
890.377	4710
890.501	4577
890.624	4542
890.748	4603
890.871	4523
890.995	4409
891.118	4417
891.241	4538
891.364	4558
891.488	4634
891.611	4508
891.734	4500
891.857	4634
891.98	4573
892.103	4626
892.226	4611
892.349	4569
892.471	4428
892.594	4527
892.717	4599
892.839	4588
892.962	4569
893.085	4687
893.207	4584
893.33	4489
893.452	4512
893.575	4641
893.697	4561
893.819	4797
893.941	4839
894.064	4797
894.186	4592
894.308	4569
894.43	4687
894.552	4801
894.674	4714
894.796	4478
894.918	4634
895.04	4546
895.161	4714
895.283	4687
895.405	4607
895.526	4637
895.648	4634
895.769	4698
895.891	4710
896.012	4714
896.134	4714
896.255	4664
896.376	4653
896.498	4622
896.619	4660
896.74	4611
896.861	4656
896.982	4949
897.103	5060
897.224	4820
897.345	4786
897.466	4702
897.587	4736
897.708	4850
897.828	4790
897.949	4626
898.07	4519
898.19	4573
898.311	4820
898.431	4679
898.552	4706
898.672	4809
898.792	4801
898.913	4767
899.033	4611
899.153	4481
899.273	4443
899.393	4527
899.513	4538
899.633	4546
899.753	4485
899.873	4519
899.993	4580
900.113	4538
900.232	4561
900.352	4508
900.472	4478
900.591	4371
900.711	4497
900.83	4455
900.95	4645
901.069	4694
901.189	4550
901.308	4398
901.427	4314
901.546	4352
901.665	4485
901.784	4516
901.904	4436
902.023	4333
902.141	4192
902.26	4181
902.379	4360
902.498	4207
902.617	4242
902.735	4386
902.854	4386
902.973	4344
903.091	4223
903.21	4196
903.328	4246
903.446	4268
903.565	4230
903.683	4386
903.801	4287
903.919	4394
904.038	4459
904.156	4303
904.274	4447
904.392	4440
904.51	4421
904.627	4478
904.745	4569
904.863	4653
904.981	4428
905.098	4314
905.216	4352
905.334	4432
905.451	4390
905.569	4451
905.686	4569
905.803	4607
905.921	4402
906.038	4535
906.155	4466
906.272	4363
906.389	4428
906.506	4356
906.623	4379
906.74	4394
906.857	4291
906.974	4386
907.091	4596
907.208	4641
907.324	4531
907.441	4481
907.557	4329
907.674	4322
907.79	4318
907.907	4348
908.023	4500
908.139	4474
908.256	4413
908.372	4462
908.488	4459
908.604	4390
908.72	4287
908.836	4360
908.952	4344
909.068	4443
909.184	4565
909.3	4462
909.415	4607
909.531	4561
909.647	4375
909.762	4379
909.878	4367
909.993	4436
910.108	4390
910.224	4405
910.339	4519
910.454	4360
910.57	4341
910.685	4344
910.8	4668
910.915	4577
911.03	4527
911.145	4333
911.259	4314
911.374	4367
911.489	4322
911.604	4303
911.718	4181
911.833	4200
911.947	4051
912.062	4032
912.176	4215
912.291	4253
912.405	4287
912.519	4519
912.633	4478
912.748	4352
912.862	4295
912.976	4219
913.09	4116
913.204	4169
913.318	4246
913.431	4356
913.545	4314
913.659	4451
913.772	4337
913.886	4211
914	4249
914.113	4417
914.226	4440
914.34	4383
914.453	4219
914.566	4428
914.68	4291
914.793	4310
914.906	4135
915.019	4166
915.132	4013
915.245	4185
915.358	4196
915.47	4253
915.583	4265
915.696	4333
915.809	4451
915.921	4367
916.034	4249
916.146	4272
916.259	4291
916.371	4390
916.483	4367
916.595	4246
916.708	4318
916.82	4299
916.932	4322
917.044	4272
917.156	4344
917.268	4192
917.38	4303
917.491	4287
917.603	4367
917.715	4383
917.826	4428
917.938	4322
918.049	4257
918.161	4386
918.272	4535
918.384	4523
918.495	4470
918.606	4306
918.717	4211
918.828	4356
918.939	4363
919.05	4261
919.161	4310
919.272	4177
919.383	4227
919.494	4493
919.604	4584
919.715	4447
919.826	4352
919.936	4383
920.047	4462
920.157	4470
920.267	4683
920.378	4561
920.488	4421
920.598	4694
920.708	4889
920.818	4767
920.928	4755
921.038	4934
921.148	4915
921.258	4622
921.368	4554
921.477	4504
921.587	4466
921.697	4386
921.806	4508
921.916	4451
922.025	4238
922.134	4276
922.244	4238
922.353	4352
922.462	4135
922.571	4131
922.68	4036
922.789	3987
922.898	4017
923.007	4044
923.116	4139
923.224	4063
923.333	4025
923.442	3945
923.55	3972
923.659	4063
923.767	4090
923.876	4025
923.984	4173
924.092	3934
924.201	4071
924.309	4093
924.417	4120
924.525	4074
924.633	4051
924.741	5083
924.849	3926
924.956	4097
925.064	3987
925.172	3918
925.279	3945
925.387	4059
925.494	4059
925.602	4192
925.709	4147
925.816	4025
925.924	4124
926.031	4276
926.138	4112
926.245	4253
926.352	4101
926.459	4227
926.566	4303
926.673	4181
926.779	4032
926.886	4090
926.993	3960
927.099	3968
927.206	3899
927.312	3918
927.419	4074
927.525	4017
927.631	4097
927.737	3968
927.843	3972
927.95	3812
928.056	3937
928.162	3994
928.267	4090
928.373	4645
928.479	4147
928.585	3873
928.69	4013
928.796	4025
928.901	3941
929.007	3876
929.112	3991
929.218	3964
929.323	3937
929.428	3972
929.533	4082
929.638	3880
929.743	3937
929.848	4051
929.953	3968
930.058	3937
930.163	3781
930.267	3804
930.372	3983
930.477	3797
930.581	4082
930.685	3911
930.79	3823
930.894	3907
930.998	3842
931.103	4013
931.207	3690
931.311	3717
931.415	3679
931.519	3496
931.623	3557
