Data from test_V78500241_2579.txt Node
Date: Fri Mar 25 17:06:56 CST 2022
User: usil
Spectrometer: V785-0024
Trigger mode: 0
Integration Time (sec): 4.000000E-1
Scans to average: 1
Nonlinearity correction enabled: false
Boxcar width: 0
Storing dark spectrum: false
XAxis mode: Wavelengths
Number of Pixels in Spectrum: 1024
>>>>>Begin Spectral Data<<<<<
801.071	7989
801.214	8027
801.356	7894
801.499	7841
801.641	7761
801.783	7925
801.926	7940
802.068	7917
802.211	7955
802.353	8005
802.496	7788
802.638	7860
802.78	7890
802.923	7940
803.065	7837
803.208	7902
803.35	7955
803.492	8123
803.635	8111
803.777	8103
803.919	8172
804.061	8366
804.204	8199
804.346	8043
804.488	7951
804.63	8111
804.773	7993
804.915	8153
805.057	8301
805.199	8107
805.341	8237
805.483	8282
805.626	8259
805.768	8134
805.91	8221
806.052	8259
806.194	8073
806.336	8191
806.478	8077
806.62	8024
806.762	8145
806.904	8286
807.046	8476
807.188	8366
807.33	8279
807.472	8374
807.614	8126
807.756	8126
807.898	8031
808.04	7925
808.182	7902
808.324	7845
808.465	7951
808.607	8039
808.749	8172
808.891	8206
809.033	8263
809.174	8237
809.316	8073
809.458	8035
809.6	8024
809.741	8035
809.883	8001
810.025	8073
810.166	8081
810.308	8020
810.45	7978
810.591	7890
810.733	7750
810.875	7666
811.016	7495
811.158	7510
811.299	7563
811.441	7658
811.582	7700
811.724	7552
811.865	7540
812.007	7601
812.148	7563
812.29	7647
812.431	7738
812.573	7803
812.714	7940
812.855	8142
812.997	8267
813.138	8279
813.279	8111
813.421	8069
813.562	7921
813.703	7837
813.845	7757
813.986	7381
814.127	7198
814.268	7175
814.41	7168
814.551	7194
814.692	7194
814.833	7042
814.974	7031
815.115	7084
815.256	6939
815.397	6993
815.539	6935
815.68	6821
815.821	6768
815.962	6878
816.103	6818
816.244	6722
816.385	6627
816.526	6601
816.666	6544
816.807	6334
816.948	6410
817.089	6433
817.23	6395
817.371	6395
817.512	6414
817.653	6467
817.793	6315
817.934	6414
818.075	6456
818.216	6448
818.356	6391
818.497	6270
818.638	6125
818.778	6167
818.919	6133
819.06	6140
819.2	6289
819.341	6346
819.481	6323
819.622	6525
819.762	6772
819.903	6749
820.043	6578
820.184	6620
820.324	6532
820.465	6692
820.605	6738
820.746	6662
820.886	6544
821.026	6658
821.167	6776
821.307	6875
821.447	6753
821.588	6711
821.728	6551
821.868	6517
822.008	6361
822.149	6399
822.289	6346
822.429	6205
822.569	6133
822.709	6140
822.849	5935
822.99	5984
823.13	5935
823.27	5980
823.41	5824
823.55	5855
823.69	5832
823.83	5798
823.97	5707
824.11	5611
824.25	5532
824.389	5627
824.529	5642
824.669	5512
824.809	5718
824.949	5665
825.089	5722
825.228	5627
825.368	5440
825.508	5414
825.648	5440
825.787	5391
825.927	5421
826.067	5318
826.206	5387
826.346	5364
826.485	5421
826.625	5463
826.765	5535
826.904	5512
827.044	5288
827.183	5288
827.323	5174
827.462	5265
827.601	5235
827.741	5181
827.88	5216
828.02	5113
828.159	5303
828.298	5353
828.437	5391
828.577	5311
828.716	5516
828.855	5349
828.994	5201
829.134	5170
829.273	5277
829.412	5181
829.551	5201
829.69	5178
829.829	5318
829.968	5421
830.107	5292
830.246	5349
830.385	5239
830.524	5151
830.663	5102
830.802	5014
830.941	4957
831.08	4919
831.219	5094
831.357	5045
831.496	5231
831.635	4949
831.774	4911
831.913	4889
832.051	4831
832.19	4778
832.329	4942
832.467	4755
832.606	4717
832.744	4721
832.883	4729
833.022	4778
833.16	4828
833.299	4904
833.437	4885
833.576	4858
833.714	4870
833.852	4900
833.991	4946
834.129	4980
834.267	4942
834.406	4949
834.544	5029
834.682	5037
834.821	5014
834.959	5216
835.097	5029
835.235	5227
835.373	5109
835.511	5147
835.65	5052
835.788	5109
835.926	4949
836.064	4957
836.202	4980
836.34	5197
836.478	5326
836.615	5185
836.753	5227
836.891	5322
837.029	5299
837.167	5242
837.305	5181
837.443	5174
837.58	5109
837.718	5315
837.856	5235
837.993	5109
838.131	5242
838.269	5239
838.406	5189
838.544	5197
838.681	5025
838.819	5102
838.956	4911
839.094	4919
839.231	5060
839.369	5102
839.506	5459
839.643	5288
839.781	5151
839.918	5075
840.055	5121
840.193	5083
840.33	5159
840.467	5140
840.604	5204
840.742	5429
840.879	5086
841.016	5140
841.153	5197
841.29	5398
841.427	5337
841.564	5307
841.701	5391
841.838	5311
841.975	5292
842.112	5277
842.249	5178
842.385	5102
842.522	5406
842.659	5220
842.796	5204
842.933	5181
843.069	5166
843.206	5223
843.343	5315
843.479	5288
843.616	5318
843.752	5075
843.889	5048
844.025	5231
844.162	5075
844.298	5227
844.435	5071
844.571	5090
844.708	5227
844.844	5261
844.98	5334
845.117	5299
845.253	5170
845.389	5098
845.525	5212
845.661	5170
845.798	5109
845.934	5136
846.07	5102
846.206	5277
846.342	5303
846.478	5151
846.614	5075
846.75	4999
846.886	4972
847.022	5193
847.158	5071
847.294	5102
847.429	5136
847.565	5132
847.701	5322
847.837	4892
847.972	4847
848.108	4987
848.244	4904
848.379	4797
848.515	4725
848.65	4763
848.786	4782
848.921	4801
849.057	4900
849.192	4908
849.328	4854
849.463	4881
849.598	4786
849.734	4793
849.869	4710
850.004	4653
850.14	4691
850.275	4649
850.41	4580
850.545	4626
850.68	4622
850.815	4653
850.95	4641
851.085	4843
851.22	4805
851.355	4675
851.49	4637
851.625	4660
851.76	4691
851.895	4603
852.03	4554
852.165	4668
852.299	4767
852.434	4786
852.569	4801
852.703	4809
852.838	4885
852.973	4946
853.107	4904
853.242	4744
853.376	4729
853.511	4546
853.645	4694
853.78	4831
853.914	4698
854.048	4714
854.183	4679
854.317	4721
854.451	4885
854.585	4710
854.72	4660
854.854	4835
854.988	4641
855.122	4645
855.256	4584
855.39	4649
855.524	4831
855.658	4786
855.792	4752
855.926	4782
856.06	4801
856.194	4820
856.327	4721
856.461	4634
856.595	4630
856.729	4687
856.862	4763
856.996	4706
857.13	4782
857.263	4805
857.397	4801
857.53	4675
857.664	4744
857.797	4801
857.931	4824
858.064	4744
858.197	4786
858.331	4706
858.464	4630
858.597	4573
858.731	4637
858.864	4702
858.997	4603
859.13	4683
859.263	4660
859.396	4706
859.529	4584
859.662	4573
859.795	4550
859.928	4714
860.061	4740
860.194	4778
860.327	4641
860.46	4626
860.592	4755
860.725	4759
860.858	4736
860.99	4599
861.123	4565
861.256	4538
861.388	4634
861.521	5288
861.653	4489
861.786	4466
861.918	4489
862.05	4527
862.183	4538
862.315	4596
862.447	4725
862.58	4573
862.712	4432
862.844	4344
862.976	4459
863.108	4516
863.24	4835
863.372	4344
863.504	4405
863.636	4417
863.768	4493
863.9	4470
864.032	4409
864.164	4443
864.296	4489
864.428	4584
864.559	4599
864.691	4554
864.823	4573
864.954	4493
865.086	4527
865.217	4481
865.349	4424
865.48	4500
865.612	4459
865.743	4622
865.875	4455
866.006	4409
866.137	4493
866.269	4462
866.4	4455
866.531	4466
866.662	4455
866.793	4478
866.924	4417
867.055	4523
867.186	4447
867.317	4424
867.448	4398
867.579	4405
867.71	4413
867.841	4386
867.972	4493
868.103	4447
868.233	4512
868.364	4481
868.495	4527
868.625	4675
868.756	4782
868.886	4588
869.017	4653
869.147	4839
869.278	4820
869.408	4641
869.539	4687
869.669	4710
869.799	4706
869.929	4793
870.06	4763
870.19	4965
870.32	4961
870.45	4946
870.58	5014
870.71	5136
870.84	5109
870.97	4972
871.1	4957
871.23	5140
871.36	5151
871.489	4987
871.619	5105
871.749	5083
871.879	5159
872.008	5201
872.138	5098
872.267	5033
872.397	4877
872.526	4873
872.656	4729
872.785	4816
872.915	5025
873.044	5048
873.173	4942
873.303	4976
873.432	5006
873.561	4968
873.69	4881
873.819	4904
873.948	4930
874.077	4820
874.206	4790
874.335	4831
874.464	4942
874.593	5079
874.722	4995
874.851	5113
874.979	5045
875.108	5022
875.237	4949
875.365	4908
875.494	4904
875.623	5014
875.751	4896
875.88	4900
876.008	5018
876.136	5052
876.265	5170
876.393	5379
876.521	5280
876.65	5223
876.778	5162
876.906	5079
877.034	5052
877.162	5033
877.29	5014
877.418	5094
877.546	5083
877.674	5067
877.802	5071
877.93	5033
878.058	4911
878.185	4930
878.313	4972
878.441	4946
878.568	4782
878.696	4896
878.824	4976
878.951	5003
879.079	5128
879.206	5372
879.333	5083
879.461	4984
879.588	5018
879.715	5136
879.842	5258
879.97	5041
880.097	4755
880.224	4752
880.351	4801
880.478	4858
880.605	4805
880.732	4835
880.859	5090
880.986	4923
881.112	4946
881.239	4805
881.366	4694
881.493	4683
881.619	4592
881.746	4653
881.872	4656
881.999	4683
882.125	4710
882.252	4835
882.378	4809
882.505	4980
882.631	4820
882.757	4740
882.883	4721
883.01	4744
883.136	4679
883.262	4603
883.388	4592
883.514	4778
883.64	4904
883.766	4797
883.892	4710
884.018	4736
884.143	4900
884.269	5025
884.395	4660
884.52	4596
884.646	4672
884.772	4626
884.897	4565
885.023	4675
885.148	4824
885.274	4896
885.399	4759
885.524	4702
885.65	4702
885.775	4793
885.9	4733
886.025	4873
886.15	4831
886.275	4729
886.4	4672
886.525	4771
886.65	4714
886.775	4733
886.9	4923
887.025	5071
887.149	4790
887.274	4645
887.399	4573
887.523	4634
887.648	4535
887.773	4649
887.897	4755
888.021	4759
888.146	4664
888.27	4839
888.395	4889
888.519	4782
888.643	4839
888.767	4896
888.891	4664
889.015	4596
889.139	4679
889.263	4656
889.387	4736
889.511	4866
889.635	4801
889.759	4603
889.883	4698
890.006	4736
890.13	4820
890.254	4637
890.377	4675
890.501	4538
890.624	4527
890.748	4653
890.871	4516
890.995	4417
891.118	4375
891.241	4508
891.364	4519
891.488	4653
891.611	4519
891.734	4580
891.857	4637
891.98	4607
892.103	4649
892.226	4596
892.349	4550
892.471	4413
892.594	4546
892.717	4584
892.839	4607
892.962	4603
893.085	4664
893.207	4569
893.33	4436
893.452	4569
893.575	4683
893.697	4550
893.819	4816
893.941	4828
894.064	4763
894.186	4596
894.308	4592
894.43	4721
894.552	4835
894.674	4771
894.796	4599
894.918	4618
895.04	4607
895.161	4706
895.283	4656
895.405	4584
895.526	4618
895.648	4706
895.769	4714
895.891	4733
896.012	4729
896.134	4755
896.255	4660
896.376	4664
896.498	4664
896.619	4672
896.74	4622
896.861	4664
896.982	4927
897.103	5075
897.224	4801
897.345	4714
897.466	4679
897.587	4733
897.708	4889
897.828	4824
897.949	4683
898.07	4558
898.19	4710
898.311	4889
898.431	4694
898.552	4687
898.672	4850
898.792	4790
898.913	4729
899.033	4672
899.153	4577
899.273	4398
899.393	4497
899.513	4580
899.633	4561
899.753	4546
899.873	4535
899.993	4554
900.113	4546
900.232	4603
900.352	4565
900.472	4500
900.591	4459
900.711	4466
900.83	4462
900.95	4615
901.069	4694
901.189	4577
901.308	4371
901.427	4318
901.546	4390
901.665	4481
901.784	4542
901.904	4470
902.023	4344
902.141	4249
902.26	4173
902.379	4329
902.498	4291
902.617	4265
902.735	4398
902.854	4402
902.973	4352
903.091	4211
903.21	4249
903.328	4291
903.446	4268
903.565	4299
903.683	4367
903.801	4287
903.919	4443
904.038	4466
904.156	4314
904.274	4428
904.392	4379
904.51	4402
904.627	4428
904.745	4607
904.863	4660
904.981	4367
905.098	4322
905.216	4363
905.334	4443
905.451	4489
905.569	4447
905.686	4550
905.803	4580
905.921	4440
906.038	4561
906.155	4500
906.272	4398
906.389	4447
906.506	4352
906.623	4436
906.74	4386
906.857	4306
906.974	4344
907.091	4531
907.208	4687
907.324	4599
907.441	4497
907.557	4344
907.674	4333
907.79	4291
907.907	4459
908.023	4451
908.139	4466
908.256	4459
908.372	4470
908.488	4459
908.604	4375
908.72	4356
908.836	4409
908.952	4360
909.068	4383
909.184	4592
909.3	4504
909.415	4546
909.531	4592
909.647	4367
909.762	4375
909.878	4348
909.993	4421
910.108	4402
910.224	4409
910.339	4504
910.454	4459
910.57	4386
910.685	4344
910.8	4615
910.915	4618
911.03	4485
911.145	4329
911.259	4360
911.374	4367
911.489	4295
911.604	4265
911.718	4181
911.833	4188
911.947	4120
912.062	4051
912.176	4223
912.291	4223
912.405	4249
912.519	4478
912.633	4516
912.748	4367
912.862	4329
912.976	4268
913.09	4154
913.204	4196
913.318	4265
913.431	4360
913.545	4371
913.659	4455
913.772	4379
913.886	4265
914	4215
914.113	4333
914.226	4455
914.34	4386
914.453	4192
914.566	4440
914.68	4348
914.793	4295
914.906	4139
915.019	4185
915.132	4071
915.245	4181
915.358	4219
915.47	4246
915.583	4249
915.696	4280
915.809	4409
915.921	4417
916.034	4265
916.146	4211
916.259	4177
916.371	4367
916.483	4394
916.595	4280
916.708	4329
916.82	4291
916.932	4337
917.044	4337
917.156	4329
917.268	4268
917.38	4276
917.491	4276
917.603	4344
917.715	4421
917.826	4447
917.938	4318
918.049	4268
918.161	4379
918.272	4542
918.384	4554
918.495	4504
918.606	4329
918.717	4230
918.828	4337
918.939	4379
919.05	4280
919.161	4329
919.272	4158
919.383	4207
919.494	4417
919.604	4603
919.715	4428
919.826	4371
919.936	4394
920.047	4558
920.157	4478
920.267	4679
920.378	4531
920.488	4527
920.598	4710
920.708	4911
920.818	4759
920.928	4733
921.038	4904
921.148	4915
921.258	4630
921.368	4573
921.477	4462
921.587	4398
921.697	4371
921.806	4573
921.916	4398
922.025	4253
922.134	4253
922.244	4249
922.353	4325
922.462	4135
922.571	4112
922.68	3998
922.789	3964
922.898	4006
923.007	3979
923.116	4082
923.224	4040
923.333	4097
923.442	4002
923.55	3991
923.659	4021
923.767	4101
923.876	4029
923.984	4124
924.092	3983
924.201	4086
924.309	4093
924.417	4105
924.525	4051
924.633	4120
924.741	5086
924.849	3934
924.956	4173
925.064	3964
925.172	3896
925.279	3930
925.387	4040
925.494	4032
925.602	4215
925.709	4219
925.816	4013
925.924	4124
926.031	4215
926.138	4204
926.245	4223
926.352	4051
926.459	4223
926.566	4287
926.673	4166
926.779	4063
926.886	4086
926.993	3991
927.099	3953
927.206	3968
927.312	3945
927.419	4051
927.525	4006
927.631	4131
927.737	3972
927.843	3945
927.95	3865
928.056	3907
928.162	4013
928.267	4074
928.373	4577
928.479	4131
928.585	3857
928.69	4029
928.796	4067
928.901	3994
929.007	3823
929.112	4017
929.218	3953
929.323	3937
929.428	3915
929.533	4097
929.638	3888
929.743	3953
929.848	4036
929.953	3991
930.058	3899
930.163	3804
930.267	3842
930.372	3979
930.477	3846
930.581	4116
930.685	3949
930.79	3823
930.894	3892
930.998	3861
931.103	4071
931.207	3709
931.311	3686
931.415	3660
931.519	3553
931.623	3553
