Data from test_V78500241_1179.txt Node
Date: Fri Mar 25 16:57:11 CST 2022
User: usil
Spectrometer: V785-0024
Trigger mode: 0
Integration Time (sec): 4.000000E-1
Scans to average: 1
Nonlinearity correction enabled: false
Boxcar width: 0
Storing dark spectrum: false
XAxis mode: Wavelengths
Number of Pixels in Spectrum: 1024
>>>>>Begin Spectral Data<<<<<
801.071	7997
801.214	7989
801.356	7887
801.499	7803
801.641	7769
801.783	7803
801.926	7944
802.068	7871
802.211	7921
802.353	7997
802.496	7818
802.638	7879
802.78	7875
802.923	7955
803.065	7921
803.208	7833
803.35	8008
803.492	8069
803.635	8172
803.777	8046
803.919	8126
804.061	8465
804.204	8168
804.346	8100
804.488	7921
804.63	8096
804.773	7963
804.915	8012
805.057	8267
805.199	8138
805.341	8294
805.483	8290
805.626	8195
805.768	8164
805.91	8176
806.052	8218
806.194	8145
806.336	8202
806.478	8039
806.62	7967
806.762	8123
806.904	8259
807.046	8461
807.188	8290
807.33	8256
807.472	8237
807.614	8081
807.756	8142
807.898	8027
808.04	7925
808.182	7871
808.324	7940
808.465	7887
808.607	8012
808.749	8115
808.891	8168
809.033	8259
809.174	8115
809.316	8073
809.458	8031
809.6	7963
809.741	7970
809.883	8031
810.025	8058
810.166	8050
810.308	7993
810.45	8024
810.591	7864
810.733	7712
810.875	7616
811.016	7529
811.158	7483
811.299	7575
811.441	7674
811.582	7651
811.724	7616
811.865	7487
812.007	7567
812.148	7605
812.29	7575
812.431	7765
812.573	7921
812.714	7944
812.855	8050
812.997	8138
813.138	8294
813.279	8221
813.421	8035
813.562	8046
813.703	7955
813.845	7776
813.986	7426
814.127	7209
814.268	7217
814.41	7270
814.551	7088
814.692	7156
814.833	7088
814.974	7069
815.115	7061
815.256	6924
815.397	6913
815.539	6935
815.68	6848
815.821	6798
815.962	6901
816.103	6798
816.244	6745
816.385	6578
816.526	6582
816.666	6475
816.807	6239
816.948	6414
817.089	6471
817.23	6407
817.371	6388
817.512	6395
817.653	6429
817.793	6372
817.934	6407
818.075	6486
818.216	6429
818.356	6403
818.497	6251
818.638	6083
818.778	6133
818.919	6163
819.06	6072
819.2	6319
819.341	6262
819.481	6331
819.622	6555
819.762	6749
819.903	6730
820.043	6578
820.184	6540
820.324	6517
820.465	6684
820.605	6608
820.746	6620
820.886	6486
821.026	6616
821.167	6684
821.307	6677
821.447	6776
821.588	6635
821.728	6593
821.868	6525
822.008	6327
822.149	6334
822.289	6289
822.429	6117
822.569	6079
822.709	6129
822.849	5889
822.99	5885
823.13	5923
823.27	5882
823.41	5771
823.55	5764
823.69	5737
823.83	5821
823.97	5668
824.11	5547
824.25	5493
824.389	5547
824.529	5543
824.669	5539
824.809	5608
824.949	5619
825.089	5551
825.228	5547
825.368	5414
825.508	5357
825.648	5322
825.787	5345
825.927	5349
826.067	5307
826.206	5318
826.346	5337
826.485	5341
826.625	5379
826.765	5558
826.904	5448
827.044	5250
827.183	5178
827.323	5174
827.462	5204
827.601	5189
827.741	5174
827.88	5235
828.02	5124
828.159	5296
828.298	5383
828.437	5326
828.577	5280
828.716	5455
828.855	5341
828.994	5216
829.134	5136
829.273	5174
829.412	5151
829.551	5143
829.69	5212
829.829	5261
829.968	5387
830.107	5326
830.246	5303
830.385	5227
830.524	5181
830.663	5117
830.802	5029
830.941	4938
831.08	4938
831.219	5025
831.357	4995
831.496	5178
831.635	4930
831.774	4866
831.913	4831
832.051	4759
832.19	4763
832.329	4889
832.467	4710
832.606	4660
832.744	4740
832.883	4763
833.022	4774
833.16	4778
833.299	4831
833.437	4858
833.576	4927
833.714	4854
833.852	4919
833.991	4953
834.129	4968
834.267	4965
834.406	4904
834.544	4999
834.682	4976
834.821	4987
834.959	5159
835.097	5003
835.235	5155
835.373	5117
835.511	5094
835.65	5086
835.788	4995
835.926	4942
836.064	4961
836.202	4930
836.34	5220
836.478	5181
836.615	5155
836.753	5250
836.891	5322
837.029	5261
837.167	5261
837.305	5201
837.443	5166
837.58	5151
837.718	5273
837.856	5208
837.993	5220
838.131	5269
838.269	5204
838.406	5235
838.544	5231
838.681	5079
838.819	5060
838.956	4911
839.094	4942
839.231	4999
839.369	5132
839.506	5482
839.643	5318
839.781	5086
839.918	5037
840.055	5155
840.193	5140
840.33	5124
840.467	5162
840.604	5204
840.742	5474
840.879	5136
841.016	5140
841.153	5159
841.29	5414
841.427	5372
841.564	5353
841.701	5379
841.838	5273
841.975	5277
842.112	5353
842.249	5147
842.385	5166
842.522	5368
842.659	5147
842.796	5155
842.933	5212
843.069	5208
843.206	5155
843.343	5292
843.479	5280
843.616	5303
843.752	5033
843.889	5022
844.025	5227
844.162	5018
844.298	5235
844.435	5102
844.571	5094
844.708	5216
844.844	5311
844.98	5326
845.117	5318
845.253	5143
845.389	5117
845.525	5193
845.661	5147
845.798	5048
845.934	5166
846.07	5132
846.206	5231
846.342	5349
846.478	5212
846.614	5037
846.75	5014
846.886	4961
847.022	5147
847.158	5018
847.294	5071
847.429	5109
847.565	5056
847.701	5372
847.837	4900
847.972	4839
848.108	4968
848.244	4987
848.379	4816
848.515	4748
848.65	4755
848.786	4736
848.921	4786
849.057	4843
849.192	4923
849.328	4828
849.463	4881
849.598	4790
849.734	4752
849.869	4694
850.004	4626
850.14	4725
850.275	4641
850.41	4561
850.545	4599
850.68	4603
850.815	4668
850.95	4653
851.085	4854
851.22	4793
851.355	4714
851.49	4637
851.625	4664
851.76	4698
851.895	4550
852.03	4550
852.165	4687
852.299	4755
852.434	4812
852.569	4778
852.703	4809
852.838	4862
852.973	4934
853.107	4965
853.242	4725
853.376	4698
853.511	4584
853.645	4649
853.78	4824
853.914	4687
854.048	4706
854.183	4664
854.317	4725
854.451	4870
854.585	4721
854.72	4603
854.854	4805
854.988	4611
855.122	4691
855.256	4531
855.39	4698
855.524	4862
855.658	4691
855.792	4733
855.926	4717
856.06	4778
856.194	4850
856.327	4694
856.461	4653
856.595	4596
856.729	4626
856.862	4759
856.996	4694
857.13	4790
857.263	4778
857.397	4820
857.53	4675
857.664	4729
857.797	4714
857.931	4763
858.064	4736
858.197	4755
858.331	4664
858.464	4615
858.597	4558
858.731	4687
858.864	4630
858.997	4634
859.13	4702
859.263	4683
859.396	4702
859.529	4603
859.662	4580
859.795	4607
859.928	4660
860.061	4729
860.194	4816
860.327	4656
860.46	4622
860.592	4736
860.725	4721
860.858	4733
860.99	4599
861.123	4527
861.256	4538
861.388	4679
861.521	5208
861.653	4493
861.786	4455
861.918	4459
862.05	4535
862.183	4573
862.315	4656
862.447	4675
862.58	4535
862.712	4417
862.844	4341
862.976	4478
863.108	4470
863.24	4892
863.372	4306
863.504	4447
863.636	4413
863.768	4493
863.9	4436
864.032	4417
864.164	4455
864.296	4500
864.428	4565
864.559	4561
864.691	4523
864.823	4500
864.954	4527
865.086	4538
865.217	4451
865.349	4447
865.48	4470
865.612	4489
865.743	4634
865.875	4500
866.006	4459
866.137	4474
866.269	4478
866.4	4447
866.531	4405
866.662	4424
866.793	4436
866.924	4386
867.055	4538
867.186	4474
867.317	4493
867.448	4409
867.579	4402
867.71	4398
867.841	4424
867.972	4432
868.103	4481
868.233	4459
868.364	4447
868.495	4489
868.625	4668
868.756	4740
868.886	4588
869.017	4626
869.147	4790
869.278	4786
869.408	4721
869.539	4637
869.669	4771
869.799	4664
869.929	4748
870.06	4691
870.19	5010
870.32	4930
870.45	4953
870.58	5029
870.71	5113
870.84	5105
870.97	4930
871.1	4866
871.23	5151
871.36	5155
871.489	5071
871.619	5102
871.749	5075
871.879	5143
872.008	5193
872.138	5090
872.267	4972
872.397	4866
872.526	4812
872.656	4702
872.785	4824
872.915	4923
873.044	5037
873.173	4942
873.303	4995
873.432	4976
873.561	4972
873.69	4889
873.819	4850
873.948	4927
874.077	4805
874.206	4752
874.335	4816
874.464	4930
874.593	5083
874.722	4976
874.851	5052
874.979	5067
875.108	5045
875.237	4946
875.365	4877
875.494	4934
875.623	5003
875.751	4843
875.88	4900
876.008	5003
876.136	5045
876.265	5242
876.393	5299
876.521	5326
876.65	5197
876.778	5147
876.906	5151
877.034	5025
877.162	5014
877.29	4968
877.418	5064
877.546	5041
877.674	5048
877.802	5060
877.93	5029
878.058	4961
878.185	4816
878.313	4968
878.441	4961
878.568	4843
878.696	4881
878.824	5037
878.951	5045
879.079	5132
879.206	5280
879.333	5094
879.461	4976
879.588	5052
879.715	5102
879.842	5185
879.97	4984
880.097	4809
880.224	4740
880.351	4820
880.478	4816
880.605	4797
880.732	4767
880.859	5090
880.986	4930
881.112	4919
881.239	4771
881.366	4714
881.493	4634
881.619	4577
881.746	4641
881.872	4603
881.999	4679
882.125	4694
882.252	4816
882.378	4904
882.505	4930
882.631	4801
882.757	4660
882.883	4748
883.01	4736
883.136	4664
883.262	4634
883.388	4626
883.514	4831
883.64	4866
883.766	4782
883.892	4675
884.018	4793
884.143	4877
884.269	5006
884.395	4733
884.52	4664
884.646	4660
884.772	4596
884.897	4577
885.023	4698
885.148	4771
885.274	4877
885.399	4755
885.524	4694
885.65	4702
885.775	4736
885.9	4733
886.025	4866
886.15	4805
886.275	4698
886.4	4615
886.525	4755
886.65	4725
886.775	4687
886.9	4938
887.025	5098
887.149	4850
887.274	4694
887.399	4580
887.523	4580
887.648	4565
887.773	4569
887.897	4786
888.021	4771
888.146	4698
888.27	4847
888.395	4870
888.519	4816
888.643	4850
888.767	4866
888.891	4634
889.015	4634
889.139	4675
889.263	4584
889.387	4767
889.511	4896
889.635	4858
889.759	4607
889.883	4679
890.006	4729
890.13	4782
890.254	4542
890.377	4672
890.501	4584
890.624	4512
890.748	4630
890.871	4546
890.995	4417
891.118	4390
891.241	4504
891.364	4504
891.488	4592
891.611	4512
891.734	4573
891.857	4641
891.98	4588
892.103	4641
892.226	4596
892.349	4519
892.471	4417
892.594	4546
892.717	4599
892.839	4592
892.962	4580
893.085	4649
893.207	4649
893.33	4421
893.452	4546
893.575	4675
893.697	4584
893.819	4831
893.941	4866
894.064	4809
894.186	4607
894.308	4588
894.43	4744
894.552	4797
894.674	4744
894.796	4577
894.918	4622
895.04	4573
895.161	4729
895.283	4664
895.405	4615
895.526	4656
895.648	4645
895.769	4672
895.891	4702
896.012	4736
896.134	4694
896.255	4706
896.376	4702
896.498	4630
896.619	4721
896.74	4637
896.861	4698
896.982	4949
897.103	5090
897.224	4862
897.345	4744
897.466	4694
897.587	4694
897.708	4854
897.828	4793
897.949	4660
898.07	4569
898.19	4679
898.311	4889
898.431	4694
898.552	4755
898.672	4812
898.792	4782
898.913	4702
899.033	4618
899.153	4481
899.273	4447
899.393	4512
899.513	4550
899.633	4523
899.753	4542
899.873	4519
899.993	4538
900.113	4565
900.232	4618
900.352	4592
900.472	4443
900.591	4379
900.711	4478
900.83	4405
900.95	4599
901.069	4653
901.189	4542
901.308	4383
901.427	4348
901.546	4352
901.665	4455
901.784	4535
901.904	4383
902.023	4356
902.141	4196
902.26	4188
902.379	4318
902.498	4234
902.617	4215
902.735	4363
902.854	4390
902.973	4363
903.091	4207
903.21	4185
903.328	4333
903.446	4253
903.565	4234
903.683	4329
903.801	4291
903.919	4363
904.038	4394
904.156	4314
904.274	4424
904.392	4424
904.51	4390
904.627	4474
904.745	4565
904.863	4622
904.981	4337
905.098	4265
905.216	4325
905.334	4413
905.451	4436
905.569	4432
905.686	4596
905.803	4573
905.921	4443
906.038	4615
906.155	4493
906.272	4390
906.389	4451
906.506	4379
906.623	4383
906.74	4394
906.857	4318
906.974	4409
907.091	4527
907.208	4702
907.324	4599
907.441	4542
907.557	4314
907.674	4314
907.79	4306
907.907	4417
908.023	4512
908.139	4481
908.256	4455
908.372	4535
908.488	4413
908.604	4367
908.72	4314
908.836	4356
908.952	4367
909.068	4428
909.184	4596
909.3	4497
909.415	4596
909.531	4558
909.647	4394
909.762	4386
909.878	4291
909.993	4432
910.108	4421
910.224	4390
910.339	4481
910.454	4417
910.57	4360
910.685	4299
910.8	4687
910.915	4630
911.03	4466
911.145	4337
911.259	4329
911.374	4352
911.489	4310
911.604	4276
911.718	4128
911.833	4200
911.947	4116
912.062	4093
912.176	4284
912.291	4253
912.405	4268
912.519	4474
912.633	4538
912.748	4352
912.862	4310
912.976	4181
913.09	4112
913.204	4162
913.318	4219
913.431	4398
913.545	4360
913.659	4424
913.772	4329
913.886	4227
914	4188
914.113	4413
914.226	4443
914.34	4344
914.453	4242
914.566	4443
914.68	4337
914.793	4291
914.906	4147
915.019	4112
915.132	4067
915.245	4154
915.358	4147
915.47	4230
915.583	4261
915.696	4268
915.809	4409
915.921	4428
916.034	4265
916.146	4272
916.259	4238
916.371	4360
916.483	4329
916.595	4287
916.708	4295
916.82	4367
916.932	4299
917.044	4341
917.156	4303
917.268	4242
917.38	4280
917.491	4310
917.603	4337
917.715	4417
917.826	4440
917.938	4367
918.049	4261
918.161	4356
918.272	4504
918.384	4550
918.495	4413
918.606	4310
918.717	4196
918.828	4356
918.939	4363
919.05	4234
919.161	4329
919.272	4105
919.383	4223
919.494	4455
919.604	4611
919.715	4402
919.826	4303
919.936	4363
920.047	4554
920.157	4481
920.267	4714
920.378	4569
920.488	4527
920.598	4725
920.708	4835
920.818	4706
920.928	4771
921.038	4953
921.148	4972
921.258	4653
921.368	4546
921.477	4474
921.587	4493
921.697	4363
921.806	4538
921.916	4462
922.025	4246
922.134	4276
922.244	4246
922.353	4303
922.462	4166
922.571	4105
922.68	4036
922.789	3968
922.898	4036
923.007	3987
923.116	4128
923.224	4078
923.333	4051
923.442	4025
923.55	3930
923.659	4040
923.767	4109
923.876	4017
923.984	4124
924.092	3987
924.201	4067
924.309	4109
924.417	4124
924.525	4082
924.633	4078
924.741	5060
924.849	3930
924.956	4139
925.064	3945
925.172	3922
925.279	3953
925.387	4055
925.494	4025
925.602	4207
925.709	4215
925.816	4029
925.924	4116
926.031	4192
926.138	4135
926.245	4215
926.352	4055
926.459	4223
926.566	4257
926.673	4169
926.779	4051
926.886	4112
926.993	3987
927.099	3975
927.206	3915
927.312	3930
927.419	4048
927.525	4048
927.631	4074
927.737	3926
927.843	3979
927.95	3846
928.056	3979
928.162	3930
928.267	4040
928.373	4630
928.479	4109
928.585	3888
928.69	4032
928.796	4051
928.901	3979
929.007	3861
929.112	4025
929.218	4025
929.323	3953
929.428	3994
929.533	4059
929.638	3869
929.743	3907
929.848	4032
929.953	3975
930.058	3903
930.163	3789
930.267	3823
930.372	3979
930.477	3827
930.581	4093
930.685	3983
930.79	3838
930.894	3876
930.998	3842
931.103	4013
931.207	3690
931.311	3713
931.415	3663
931.519	3545
931.623	3534
