Data from test_V78500241_2410.txt Node
Date: Fri Mar 25 17:05:45 CST 2022
User: usil
Spectrometer: V785-0024
Trigger mode: 0
Integration Time (sec): 4.000000E-1
Scans to average: 1
Nonlinearity correction enabled: false
Boxcar width: 0
Storing dark spectrum: false
XAxis mode: Wavelengths
Number of Pixels in Spectrum: 1024
>>>>>Begin Spectral Data<<<<<
801.071	8005
801.214	7993
801.356	7879
801.499	7852
801.641	7814
801.783	7879
801.926	7970
802.068	7944
802.211	7928
802.353	8020
802.496	7871
802.638	7902
802.78	7944
802.923	7936
803.065	7860
803.208	7887
803.35	8054
803.492	8145
803.635	8195
803.777	8138
803.919	8183
804.061	8549
804.204	8172
804.346	8103
804.488	7955
804.63	8142
804.773	8050
804.915	8142
805.057	8328
805.199	8225
805.341	8275
805.483	8351
805.626	8290
805.768	8191
805.91	8191
806.052	8199
806.194	8119
806.336	8317
806.478	8058
806.62	8134
806.762	8157
806.904	8240
807.046	8514
807.188	8404
807.33	8366
807.472	8358
807.614	8206
807.756	8164
807.898	8096
808.04	7936
808.182	7947
808.324	7890
808.465	7989
808.607	8172
808.749	8088
808.891	8237
809.033	8393
809.174	8172
809.316	8142
809.458	8123
809.6	8088
809.741	8115
809.883	8054
810.025	8149
810.166	8134
810.308	8073
810.45	7970
810.591	7887
810.733	7856
810.875	7685
811.016	7636
811.158	7476
811.299	7601
811.441	7757
811.582	7700
811.724	7624
811.865	7556
812.007	7616
812.148	7632
812.29	7643
812.431	7837
812.573	7887
812.714	8008
812.855	8199
812.997	8199
813.138	8259
813.279	8153
813.421	8100
813.562	7982
813.703	7902
813.845	7811
813.986	7476
814.127	7335
814.268	7221
814.41	7240
814.551	7164
814.692	7247
814.833	7080
814.974	7141
815.115	7187
815.256	6932
815.397	7023
815.539	7015
815.68	6882
815.821	6806
815.962	6878
816.103	6909
816.244	6715
816.385	6658
816.526	6669
816.666	6536
816.807	6391
816.948	6395
817.089	6570
817.23	6441
817.371	6410
817.512	6437
817.653	6445
817.793	6372
817.934	6448
818.075	6494
818.216	6475
818.356	6475
818.497	6315
818.638	6182
818.778	6182
818.919	6155
819.06	6186
819.2	6357
819.341	6357
819.481	6460
819.622	6525
819.762	6757
819.903	6734
820.043	6608
820.184	6669
820.324	6566
820.465	6726
820.605	6745
820.746	6730
820.886	6517
821.026	6753
821.167	6810
821.307	6818
821.447	6791
821.588	6707
821.728	6635
821.868	6525
822.008	6346
822.149	6342
822.289	6361
822.429	6163
822.569	6194
822.709	6186
822.849	5946
822.99	5901
823.13	5912
823.27	5954
823.41	5809
823.55	5802
823.69	5783
823.83	5802
823.97	5680
824.11	5570
824.25	5551
824.389	5570
824.529	5653
824.669	5558
824.809	5649
824.949	5642
825.089	5608
825.228	5551
825.368	5425
825.508	5444
825.648	5357
825.787	5414
825.927	5360
826.067	5337
826.206	5349
826.346	5387
826.485	5471
826.625	5368
826.765	5577
826.904	5539
827.044	5303
827.183	5208
827.323	5162
827.462	5307
827.601	5201
827.741	5197
827.88	5181
828.02	5181
828.159	5341
828.298	5303
828.437	5364
828.577	5357
828.716	5524
828.855	5334
828.994	5201
829.134	5193
829.273	5204
829.412	5136
829.551	5147
829.69	5185
829.829	5227
829.968	5376
830.107	5265
830.246	5296
830.385	5246
830.524	5197
830.663	5056
830.802	5018
830.941	4911
831.08	4930
831.219	4976
831.357	4961
831.496	5227
831.635	4984
831.774	4866
831.913	4820
832.051	4763
832.19	4767
832.329	4881
832.467	4691
832.606	4694
832.744	4744
832.883	4759
833.022	4767
833.16	4816
833.299	4816
833.437	4858
833.576	4915
833.714	4908
833.852	4927
833.991	4946
834.129	5029
834.267	4949
834.406	4885
834.544	4987
834.682	5010
834.821	4949
834.959	5197
835.097	5045
835.235	5162
835.373	5064
835.511	5128
835.65	5018
835.788	5037
835.926	4934
836.064	4942
836.202	4942
836.34	5174
836.478	5212
836.615	5181
836.753	5280
836.891	5242
837.029	5299
837.167	5185
837.305	5178
837.443	5178
837.58	5102
837.718	5284
837.856	5231
837.993	5155
838.131	5223
838.269	5250
838.406	5197
838.544	5239
838.681	5052
838.819	5018
838.956	4904
839.094	4908
839.231	5003
839.369	5067
839.506	5433
839.643	5349
839.781	5067
839.918	4995
840.055	5113
840.193	5086
840.33	5170
840.467	5147
840.604	5216
840.742	5440
840.879	5151
841.016	5109
841.153	5189
841.29	5402
841.427	5372
841.564	5353
841.701	5402
841.838	5254
841.975	5254
842.112	5280
842.249	5132
842.385	5124
842.522	5345
842.659	5216
842.796	5178
842.933	5193
843.069	5147
843.206	5181
843.343	5288
843.479	5239
843.616	5258
843.752	5022
843.889	5037
844.025	5223
844.162	5003
844.298	5277
844.435	5143
844.571	5071
844.708	5273
844.844	5326
844.98	5334
845.117	5341
845.253	5204
845.389	5090
845.525	5155
845.661	5151
845.798	5041
845.934	5136
846.07	5098
846.206	5208
846.342	5288
846.478	5212
846.614	5079
846.75	4968
846.886	4949
847.022	5204
847.158	5056
847.294	5105
847.429	5136
847.565	5041
847.701	5345
847.837	4858
847.972	4797
848.108	4984
848.244	4930
848.379	4809
848.515	4774
848.65	4733
848.786	4721
848.921	4771
849.057	4889
849.192	4942
849.328	4812
849.463	4881
849.598	4835
849.734	4793
849.869	4729
850.004	4656
850.14	4668
850.275	4634
850.41	4538
850.545	4592
850.68	4641
850.815	4649
850.95	4603
851.085	4831
851.22	4748
851.355	4645
851.49	4592
851.625	4672
851.76	4637
851.895	4561
852.03	4580
852.165	4592
852.299	4759
852.434	4797
852.569	4755
852.703	4778
852.838	4858
852.973	4923
853.107	4850
853.242	4755
853.376	4664
853.511	4584
853.645	4592
853.78	4843
853.914	4740
854.048	4634
854.183	4683
854.317	4691
854.451	4927
854.585	4717
854.72	4618
854.854	4748
854.988	4641
855.122	4615
855.256	4531
855.39	4596
855.524	4759
855.658	4736
855.792	4706
855.926	4679
856.06	4778
856.194	4850
856.327	4710
856.461	4596
856.595	4580
856.729	4634
856.862	4786
856.996	4767
857.13	4740
857.263	4778
857.397	4831
857.53	4653
857.664	4683
857.797	4797
857.931	4805
858.064	4733
858.197	4816
858.331	4675
858.464	4584
858.597	4565
858.731	4672
858.864	4645
858.997	4645
859.13	4672
859.263	4664
859.396	4759
859.529	4565
859.662	4611
859.795	4527
859.928	4626
860.061	4793
860.194	4801
860.327	4649
860.46	4607
860.592	4752
860.725	4763
860.858	4759
860.99	4588
861.123	4538
861.256	4569
861.388	4592
861.521	5341
861.653	4546
861.786	4462
861.918	4466
862.05	4542
862.183	4554
862.315	4603
862.447	4641
862.58	4558
862.712	4421
862.844	4398
862.976	4459
863.108	4462
863.24	4752
863.372	4291
863.504	4417
863.636	4421
863.768	4470
863.9	4508
864.032	4424
864.164	4394
864.296	4531
864.428	4588
864.559	4584
864.691	4523
864.823	4504
864.954	4500
865.086	4474
865.217	4451
865.349	4405
865.48	4451
865.612	4481
865.743	4634
865.875	4462
866.006	4421
866.137	4455
866.269	4405
866.4	4485
866.531	4405
866.662	4383
866.793	4402
866.924	4390
867.055	4485
867.186	4470
867.317	4432
867.448	4421
867.579	4443
867.71	4432
867.841	4363
867.972	4478
868.103	4497
868.233	4474
868.364	4462
868.495	4516
868.625	4668
868.756	4801
868.886	4592
869.017	4622
869.147	4786
869.278	4828
869.408	4645
869.539	4672
869.669	4759
869.799	4672
869.929	4759
870.06	4797
870.19	4968
870.32	4976
870.45	4999
870.58	4991
870.71	5067
870.84	5128
870.97	4995
871.1	4938
871.23	5166
871.36	5140
871.489	5010
871.619	5105
871.749	5121
871.879	5128
872.008	5231
872.138	5056
872.267	5010
872.397	4847
872.526	4835
872.656	4729
872.785	4801
872.915	4946
873.044	5064
873.173	4927
873.303	4965
873.432	4957
873.561	4946
873.69	4881
873.819	4854
873.948	4915
874.077	4809
874.206	4744
874.335	4828
874.464	4968
874.593	5098
874.722	5014
874.851	5090
874.979	5060
875.108	4995
875.237	4919
875.365	4866
875.494	4896
875.623	4987
875.751	4839
875.88	4900
876.008	4949
876.136	4972
876.265	5242
876.393	5368
876.521	5242
876.65	5265
876.778	5193
876.906	5109
877.034	5079
877.162	5090
877.29	5018
877.418	5090
877.546	5052
877.674	5086
877.802	5056
877.93	4995
878.058	4949
878.185	4889
878.313	4984
878.441	4972
878.568	4797
878.696	4908
878.824	4953
878.951	5006
879.079	5083
879.206	5261
879.333	5128
879.461	4968
879.588	5067
879.715	5113
879.842	5235
879.97	4991
880.097	4805
880.224	4774
880.351	4873
880.478	4812
880.605	4854
880.732	4812
880.859	5056
880.986	4900
881.112	4949
881.239	4797
881.366	4656
881.493	4634
881.619	4580
881.746	4683
881.872	4653
881.999	4679
882.125	4710
882.252	4820
882.378	4862
882.505	4976
882.631	4816
882.757	4687
882.883	4733
883.01	4763
883.136	4653
883.262	4618
883.388	4577
883.514	4771
883.64	4828
883.766	4790
883.892	4653
884.018	4706
884.143	4911
884.269	5048
884.395	4672
884.52	4675
884.646	4618
884.772	4607
884.897	4542
885.023	4645
885.148	4831
885.274	4889
885.399	4805
885.524	4679
885.65	4698
885.775	4672
885.9	4714
886.025	4885
886.15	4767
886.275	4740
886.4	4702
886.525	4752
886.65	4679
886.775	4706
886.9	4843
887.025	5052
887.149	4820
887.274	4611
887.399	4599
887.523	4618
887.648	4535
887.773	4637
887.897	4793
888.021	4759
888.146	4687
888.27	4797
888.395	4911
888.519	4835
888.643	4816
888.767	4809
888.891	4698
889.015	4653
889.139	4603
889.263	4569
889.387	4771
889.511	4873
889.635	4786
889.759	4580
889.883	4615
890.006	4729
890.13	4858
890.254	4656
890.377	4698
890.501	4550
890.624	4546
890.748	4615
890.871	4466
890.995	4421
891.118	4363
891.241	4531
891.364	4527
891.488	4607
891.611	4497
891.734	4508
891.857	4596
891.98	4584
892.103	4672
892.226	4577
892.349	4516
892.471	4474
892.594	4523
892.717	4569
892.839	4599
892.962	4588
893.085	4702
893.207	4577
893.33	4462
893.452	4493
893.575	4672
893.697	4603
893.819	4843
893.941	4820
894.064	4774
894.186	4592
894.308	4554
894.43	4698
894.552	4847
894.674	4755
894.796	4519
894.918	4641
895.04	4607
895.161	4653
895.283	4641
895.405	4599
895.526	4630
895.648	4717
895.769	4740
895.891	4702
896.012	4694
896.134	4744
896.255	4645
896.376	4641
896.498	4607
896.619	4675
896.74	4592
896.861	4618
896.982	4972
897.103	5064
897.224	4824
897.345	4717
897.466	4672
897.587	4694
897.708	4839
897.828	4790
897.949	4691
898.07	4580
898.19	4580
898.311	4786
898.431	4694
898.552	4759
898.672	4820
898.792	4782
898.913	4740
899.033	4656
899.153	4508
899.273	4409
899.393	4459
899.513	4516
899.633	4512
899.753	4470
899.873	4481
899.993	4596
900.113	4584
900.232	4618
900.352	4523
900.472	4497
900.591	4398
900.711	4489
900.83	4398
900.95	4626
901.069	4645
901.189	4561
901.308	4383
901.427	4344
901.546	4352
901.665	4489
901.784	4504
901.904	4417
902.023	4306
902.141	4192
902.26	4135
902.379	4295
902.498	4257
902.617	4261
902.735	4341
902.854	4394
902.973	4348
903.091	4211
903.21	4238
903.328	4303
903.446	4246
903.565	4257
903.683	4344
903.801	4310
903.919	4432
904.038	4440
904.156	4348
904.274	4424
904.392	4386
904.51	4459
904.627	4470
904.745	4565
904.863	4611
904.981	4451
905.098	4295
905.216	4352
905.334	4455
905.451	4436
905.569	4436
905.686	4516
905.803	4535
905.921	4394
906.038	4558
906.155	4485
906.272	4402
906.389	4413
906.506	4333
906.623	4344
906.74	4360
906.857	4341
906.974	4379
907.091	4584
907.208	4653
907.324	4569
907.441	4531
907.557	4318
907.674	4367
907.79	4333
907.907	4344
908.023	4489
908.139	4481
908.256	4443
908.372	4470
908.488	4405
908.604	4363
908.72	4352
908.836	4436
908.952	4375
909.068	4440
909.184	4573
909.3	4516
909.415	4542
909.531	4546
909.647	4360
909.762	4432
909.878	4325
909.993	4451
910.108	4421
910.224	4386
910.339	4474
910.454	4394
910.57	4306
910.685	4303
910.8	4637
910.915	4577
911.03	4508
911.145	4291
911.259	4337
911.374	4348
911.489	4303
911.604	4261
911.718	4177
911.833	4211
911.947	4090
912.062	4021
912.176	4181
912.291	4249
912.405	4276
912.519	4466
912.633	4485
912.748	4367
912.862	4287
912.976	4246
913.09	4086
913.204	4139
913.318	4268
913.431	4413
913.545	4375
913.659	4409
913.772	4356
913.886	4207
914	4215
914.113	4371
914.226	4443
914.34	4390
914.453	4234
914.566	4447
914.68	4249
914.793	4322
914.906	4192
915.019	4135
915.132	4120
915.245	4188
915.358	4185
915.47	4207
915.583	4249
915.696	4246
915.809	4421
915.921	4363
916.034	4268
916.146	4207
916.259	4261
916.371	4390
916.483	4363
916.595	4265
916.708	4344
916.82	4329
916.932	4303
917.044	4341
917.156	4333
917.268	4227
917.38	4272
917.491	4249
917.603	4325
917.715	4424
917.826	4432
917.938	4360
918.049	4265
918.161	4394
918.272	4531
918.384	4535
918.495	4440
918.606	4257
918.717	4234
918.828	4276
918.939	4409
919.05	4234
919.161	4322
919.272	4128
919.383	4223
919.494	4428
919.604	4599
919.715	4447
919.826	4371
919.936	4386
920.047	4561
920.157	4447
920.267	4687
920.378	4561
920.488	4474
920.598	4683
920.708	4896
920.818	4736
920.928	4759
921.038	4961
921.148	4946
921.258	4656
921.368	4500
921.477	4451
921.587	4409
921.697	4398
921.806	4573
921.916	4466
922.025	4261
922.134	4291
922.244	4272
922.353	4333
922.462	4188
922.571	4143
922.68	4002
922.789	3998
922.898	3987
923.007	3994
923.116	4086
923.224	4067
923.333	4082
923.442	3987
923.55	4029
923.659	4025
923.767	4067
923.876	3979
923.984	4105
924.092	3998
924.201	4051
924.309	4036
924.417	4082
924.525	4067
924.633	4128
924.741	5041
924.849	3975
924.956	4131
925.064	3945
925.172	3937
925.279	3983
925.387	4036
925.494	4074
925.602	4211
925.709	4211
925.816	4051
925.924	4131
926.031	4188
926.138	4150
926.245	4166
926.352	4082
926.459	4268
926.566	4291
926.673	4078
926.779	4063
926.886	4074
926.993	3968
927.099	3979
927.206	3930
927.312	3915
927.419	3994
927.525	4048
927.631	4101
927.737	3968
927.843	3918
927.95	3854
928.056	3941
928.162	4044
928.267	4059
928.373	4645
928.479	4166
928.585	3861
928.69	4021
928.796	4109
928.901	3937
929.007	3854
929.112	4055
929.218	3953
929.323	3941
929.428	3934
929.533	4067
929.638	3884
929.743	3964
929.848	4051
929.953	4021
930.058	3945
930.163	3751
930.267	3846
930.372	3975
930.477	3800
930.581	4063
930.685	3960
930.79	3800
930.894	3842
930.998	3865
931.103	4025
931.207	3705
931.311	3679
931.415	3690
931.519	3511
931.623	3545
