Data from test_V78500241_2183.txt Node
Date: Fri Mar 25 17:04:10 CST 2022
User: usil
Spectrometer: V785-0024
Trigger mode: 0
Integration Time (sec): 4.000000E-1
Scans to average: 1
Nonlinearity correction enabled: false
Boxcar width: 0
Storing dark spectrum: false
XAxis mode: Wavelengths
Number of Pixels in Spectrum: 1024
>>>>>Begin Spectral Data<<<<<
801.071	8031
801.214	7978
801.356	7849
801.499	7845
801.641	7772
801.783	7868
801.926	8046
802.068	7909
802.211	7989
802.353	8035
802.496	7792
802.638	7879
802.78	7947
802.923	7928
803.065	7925
803.208	7849
803.35	8043
803.492	8088
803.635	8145
803.777	7986
803.919	8107
804.061	8461
804.204	8145
804.346	8107
804.488	8008
804.63	8103
804.773	8001
804.915	8103
805.057	8301
805.199	8149
805.341	8161
805.483	8252
805.626	8214
805.768	8126
805.91	8233
806.052	8244
806.194	8142
806.336	8282
806.478	8111
806.62	8065
806.762	8237
806.904	8298
807.046	8419
807.188	8366
807.33	8233
807.472	8358
807.614	8164
807.756	8130
807.898	8008
808.04	7887
808.182	7898
808.324	7868
808.465	7902
808.607	8084
808.749	8111
808.891	8206
809.033	8301
809.174	8202
809.316	8012
809.458	8142
809.6	8031
809.741	8046
809.883	8050
810.025	8145
810.166	8115
810.308	8084
810.45	7967
810.591	7814
810.733	7757
810.875	7696
811.016	7476
811.158	7445
811.299	7529
811.441	7708
811.582	7696
811.724	7552
811.865	7537
812.007	7567
812.148	7575
812.29	7605
812.431	7772
812.573	7906
812.714	8031
812.855	8164
812.997	8103
813.138	8309
813.279	8191
813.421	8058
813.562	7955
813.703	7799
813.845	7792
813.986	7460
814.127	7236
814.268	7149
814.41	7168
814.551	7228
814.692	7217
814.833	7080
814.974	7072
815.115	7103
815.256	7008
815.397	6886
815.539	6935
815.68	6818
815.821	6757
815.962	6852
816.103	6776
816.244	6635
816.385	6623
816.526	6563
816.666	6452
816.807	6300
816.948	6475
817.089	6471
817.23	6452
817.371	6365
817.512	6399
817.653	6399
817.793	6365
817.934	6437
818.075	6414
818.216	6479
818.356	6365
818.497	6319
818.638	6152
818.778	6171
818.919	6167
819.06	6262
819.2	6353
819.341	6357
819.481	6350
819.622	6547
819.762	6745
819.903	6703
820.043	6631
820.184	6544
820.324	6547
820.465	6776
820.605	6688
820.746	6673
820.886	6547
821.026	6601
821.167	6658
821.307	6825
821.447	6768
821.588	6639
821.728	6593
821.868	6506
822.008	6289
822.149	6414
822.289	6407
822.429	6117
822.569	6106
822.709	6102
822.849	5935
822.99	5939
823.13	5908
823.27	5912
823.41	5824
823.55	5741
823.69	5775
823.83	5771
823.97	5589
824.11	5585
824.25	5467
824.389	5539
824.529	5573
824.669	5501
824.809	5676
824.949	5688
825.089	5619
825.228	5581
825.368	5391
825.508	5357
825.648	5334
825.787	5372
825.927	5395
826.067	5334
826.206	5284
826.346	5414
826.485	5410
826.625	5440
826.765	5592
826.904	5493
827.044	5223
827.183	5174
827.323	5128
827.462	5265
827.601	5201
827.741	5185
827.88	5201
828.02	5098
828.159	5258
828.298	5299
828.437	5387
828.577	5296
828.716	5528
828.855	5311
828.994	5227
829.134	5128
829.273	5155
829.412	5162
829.551	5102
829.69	5166
829.829	5246
829.968	5368
830.107	5265
830.246	5220
830.385	5174
830.524	5121
830.663	5094
830.802	4972
830.941	4885
831.08	4915
831.219	4957
831.357	4965
831.496	5136
831.635	4885
831.774	4862
831.913	4862
832.051	4744
832.19	4733
832.329	4854
832.467	4649
832.606	4653
832.744	4668
832.883	4702
833.022	4786
833.16	4797
833.299	4797
833.437	4831
833.576	4847
833.714	4847
833.852	4835
833.991	4877
834.129	4961
834.267	4946
834.406	4873
834.544	4927
834.682	4991
834.821	4957
834.959	5132
835.097	4987
835.235	5105
835.373	5083
835.511	5090
835.65	5025
835.788	5010
835.926	4942
836.064	4892
836.202	4892
836.34	5201
836.478	5204
836.615	5159
836.753	5181
836.891	5288
837.029	5254
837.167	5170
837.305	5147
837.443	5102
837.58	5094
837.718	5299
837.856	5216
837.993	5197
838.131	5254
838.269	5223
838.406	5185
838.544	5197
838.681	5041
838.819	4984
838.956	4892
839.094	4900
839.231	4957
839.369	5071
839.506	5433
839.643	5269
839.781	5067
839.918	5006
840.055	5117
840.193	5094
840.33	5136
840.467	5136
840.604	5204
840.742	5463
840.879	5033
841.016	5086
841.153	5147
841.29	5360
841.427	5277
841.564	5322
841.701	5353
841.838	5265
841.975	5204
842.112	5265
842.249	5170
842.385	5121
842.522	5341
842.659	5231
842.796	5113
842.933	5162
843.069	5155
843.206	5117
843.343	5284
843.479	5261
843.616	5254
843.752	4987
843.889	5033
844.025	5208
844.162	5041
844.298	5223
844.435	5048
844.571	5037
844.708	5162
844.844	5288
844.98	5330
845.117	5280
845.253	5185
845.389	5079
845.525	5159
845.661	5147
845.798	5010
845.934	5140
846.07	5033
846.206	5178
846.342	5258
846.478	5181
846.614	5029
846.75	5041
846.886	4892
847.022	5166
847.158	5029
847.294	5056
847.429	5086
847.565	5006
847.701	5296
847.837	4816
847.972	4809
848.108	4904
848.244	4919
848.379	4740
848.515	4733
848.65	4736
848.786	4733
848.921	4763
849.057	4847
849.192	4923
849.328	4847
849.463	4824
849.598	4801
849.734	4767
849.869	4702
850.004	4653
850.14	4672
850.275	4588
850.41	4485
850.545	4580
850.68	4561
850.815	4588
850.95	4618
851.085	4850
851.22	4763
851.355	4683
851.49	4603
851.625	4634
851.76	4634
851.895	4569
852.03	4558
852.165	4679
852.299	4725
852.434	4805
852.569	4717
852.703	4828
852.838	4835
852.973	4873
853.107	4976
853.242	4717
853.376	4687
853.511	4527
853.645	4641
853.78	4828
853.914	4668
854.048	4645
854.183	4607
854.317	4698
854.451	4828
854.585	4691
854.72	4630
854.854	4767
854.988	4588
855.122	4641
855.256	4531
855.39	4637
855.524	4774
855.658	4801
855.792	4702
855.926	4706
856.06	4752
856.194	4797
856.327	4664
856.461	4569
856.595	4626
856.729	4618
856.862	4687
856.996	4698
857.13	4759
857.263	4801
857.397	4801
857.53	4607
857.664	4786
857.797	4771
857.931	4755
858.064	4702
858.197	4702
858.331	4645
858.464	4637
858.597	4516
858.731	4675
858.864	4653
858.997	4641
859.13	4637
859.263	4645
859.396	4679
859.529	4584
859.662	4519
859.795	4489
859.928	4603
860.061	4767
860.194	4767
860.327	4626
860.46	4558
860.592	4755
860.725	4729
860.858	4714
860.99	4584
861.123	4466
861.256	4489
861.388	4584
861.521	5410
861.653	4523
861.786	4432
861.918	4478
862.05	4538
862.183	4588
862.315	4584
862.447	4706
862.58	4580
862.712	4424
862.844	4348
862.976	4474
863.108	4466
863.24	4771
863.372	4329
863.504	4421
863.636	4405
863.768	4470
863.9	4447
864.032	4383
864.164	4371
864.296	4470
864.428	4542
864.559	4577
864.691	4542
864.823	4561
864.954	4485
865.086	4489
865.217	4478
865.349	4432
865.48	4478
865.612	4462
865.743	4630
865.875	4462
866.006	4421
866.137	4447
866.269	4455
866.4	4424
866.531	4421
866.662	4390
866.793	4394
866.924	4405
867.055	4500
867.186	4421
867.317	4398
867.448	4363
867.579	4402
867.71	4421
867.841	4367
867.972	4413
868.103	4455
868.233	4523
868.364	4440
868.495	4489
868.625	4694
868.756	4744
868.886	4588
869.017	4588
869.147	4725
869.278	4797
869.408	4611
869.539	4588
869.669	4717
869.799	4622
869.929	4744
870.06	4691
870.19	4972
870.32	4915
870.45	4961
870.58	5052
870.71	5124
870.84	5075
870.97	4968
871.1	4870
871.23	5140
871.36	5117
871.489	5022
871.619	5079
871.749	5067
871.879	5109
872.008	5197
872.138	5003
872.267	4965
872.397	4828
872.526	4850
872.656	4748
872.785	4774
872.915	4965
873.044	5037
873.173	4995
873.303	4995
873.432	4946
873.561	4908
873.69	4862
873.819	4885
873.948	4911
874.077	4820
874.206	4778
874.335	4824
874.464	4953
874.593	5113
874.722	4980
874.851	5086
874.979	5014
875.108	5052
875.237	4904
875.365	4908
875.494	4892
875.623	4942
875.751	4790
875.88	4862
876.008	5003
876.136	4995
876.265	5223
876.393	5357
876.521	5269
876.65	5216
876.778	5174
876.906	5086
877.034	5045
877.162	5079
877.29	5003
877.418	5033
877.546	5067
877.674	5022
877.802	5025
877.93	4976
878.058	4934
878.185	4915
878.313	4968
878.441	4953
878.568	4744
878.696	4892
878.824	5003
878.951	4999
879.079	5056
879.206	5235
879.333	5132
879.461	4938
879.588	5014
879.715	5113
879.842	5246
879.97	5025
880.097	4755
880.224	4759
880.351	4774
880.478	4801
880.605	4839
880.732	4740
880.859	5025
880.986	4858
881.112	4870
881.239	4774
881.366	4660
881.493	4607
881.619	4512
881.746	4607
881.872	4653
881.999	4634
882.125	4672
882.252	4774
882.378	4839
882.505	4976
882.631	4767
882.757	4660
882.883	4755
883.01	4698
883.136	4687
883.262	4611
883.388	4569
883.514	4778
883.64	4877
883.766	4820
883.892	4630
884.018	4740
884.143	4923
884.269	5025
884.395	4710
884.52	4630
884.646	4634
884.772	4618
884.897	4622
885.023	4649
885.148	4778
885.274	4809
885.399	4797
885.524	4714
885.65	4694
885.775	4721
885.9	4702
886.025	4831
886.15	4767
886.275	4736
886.4	4725
886.525	4710
886.65	4702
886.775	4691
886.9	4908
887.025	4976
887.149	4759
887.274	4641
887.399	4569
887.523	4611
887.648	4607
887.773	4577
887.897	4755
888.021	4786
888.146	4660
888.27	4805
888.395	4919
888.519	4812
888.643	4839
888.767	4809
888.891	4660
889.015	4637
889.139	4622
889.263	4592
889.387	4782
889.511	4892
889.635	4763
889.759	4694
889.883	4622
890.006	4752
890.13	4816
890.254	4637
890.377	4694
890.501	4485
890.624	4538
890.748	4622
890.871	4478
890.995	4405
891.118	4436
891.241	4512
891.364	4504
891.488	4592
891.611	4489
891.734	4550
891.857	4588
891.98	4538
892.103	4664
892.226	4569
892.349	4504
892.471	4409
892.594	4531
892.717	4626
892.839	4580
892.962	4523
893.085	4622
893.207	4561
893.33	4432
893.452	4497
893.575	4611
893.697	4588
893.819	4797
893.941	4793
894.064	4797
894.186	4615
894.308	4527
894.43	4717
894.552	4862
894.674	4706
894.796	4523
894.918	4611
895.04	4592
895.161	4634
895.283	4618
895.405	4573
895.526	4615
895.648	4698
895.769	4679
895.891	4653
896.012	4752
896.134	4797
896.255	4660
896.376	4672
896.498	4626
896.619	4691
896.74	4615
896.861	4664
896.982	4915
897.103	5098
897.224	4835
897.345	4725
897.466	4656
897.587	4675
897.708	4854
897.828	4729
897.949	4672
898.07	4580
898.19	4599
898.311	4786
898.431	4668
898.552	4744
898.672	4790
898.792	4816
898.913	4744
899.033	4626
899.153	4558
899.273	4436
899.393	4470
899.513	4466
899.633	4542
899.753	4542
899.873	4512
899.993	4554
900.113	4508
900.232	4573
900.352	4519
900.472	4500
900.591	4390
900.711	4493
900.83	4459
900.95	4584
901.069	4702
901.189	4485
901.308	4344
901.427	4310
901.546	4329
901.665	4440
901.784	4497
901.904	4390
902.023	4360
902.141	4173
902.26	4162
902.379	4295
902.498	4230
902.617	4238
902.735	4390
902.854	4402
902.973	4348
903.091	4196
903.21	4223
903.328	4367
903.446	4246
903.565	4257
903.683	4394
903.801	4257
903.919	4371
904.038	4386
904.156	4291
904.274	4455
904.392	4413
904.51	4428
904.627	4485
904.745	4637
904.863	4615
904.981	4398
905.098	4322
905.216	4367
905.334	4413
905.451	4428
905.569	4440
905.686	4554
905.803	4630
905.921	4386
906.038	4481
906.155	4527
906.272	4398
906.389	4462
906.506	4379
906.623	4379
906.74	4333
906.857	4295
906.974	4314
907.091	4535
907.208	4653
907.324	4554
907.441	4497
907.557	4383
907.674	4310
907.79	4295
907.907	4337
908.023	4493
908.139	4485
908.256	4432
908.372	4493
908.488	4459
908.604	4352
908.72	4318
908.836	4356
908.952	4409
909.068	4390
909.184	4519
909.3	4493
909.415	4546
909.531	4580
909.647	4356
909.762	4375
909.878	4325
909.993	4455
910.108	4405
910.224	4390
910.339	4485
910.454	4409
910.57	4341
910.685	4314
910.8	4577
910.915	4592
911.03	4542
911.145	4360
911.259	4333
911.374	4375
911.489	4276
911.604	4204
911.718	4215
911.833	4166
911.947	4074
912.062	3994
912.176	4246
912.291	4230
912.405	4257
912.519	4436
912.633	4470
912.748	4386
912.862	4341
912.976	4253
913.09	4093
913.204	4185
913.318	4276
913.431	4432
913.545	4360
913.659	4405
913.772	4356
913.886	4158
914	4200
914.113	4348
914.226	4478
914.34	4413
914.453	4242
914.566	4432
914.68	4291
914.793	4314
914.906	4169
915.019	4135
915.132	4101
915.245	4154
915.358	4257
915.47	4185
915.583	4272
915.696	4306
915.809	4379
915.921	4341
916.034	4268
916.146	4276
916.259	4192
916.371	4386
916.483	4360
916.595	4257
916.708	4295
916.82	4325
916.932	4325
917.044	4337
917.156	4341
917.268	4223
917.38	4310
917.491	4253
917.603	4322
917.715	4360
917.826	4440
917.938	4379
918.049	4219
918.161	4417
918.272	4565
918.384	4523
918.495	4440
918.606	4268
918.717	4272
918.828	4322
918.939	4352
919.05	4238
919.161	4360
919.272	4090
919.383	4246
919.494	4462
919.604	4637
919.715	4447
919.826	4352
919.936	4428
920.047	4531
920.157	4481
920.267	4672
920.378	4527
920.488	4474
920.598	4694
920.708	4873
920.818	4702
920.928	4717
921.038	4946
921.148	4927
921.258	4649
921.368	4508
921.477	4508
921.587	4481
921.697	4344
921.806	4470
921.916	4421
922.025	4268
922.134	4253
922.244	4215
922.353	4261
922.462	4120
922.571	4166
922.68	3979
922.789	3941
922.898	4036
923.007	3994
923.116	4116
923.224	4067
923.333	4090
923.442	3987
923.55	3991
923.659	4051
923.767	4082
923.876	3975
923.984	4124
924.092	3949
924.201	4078
924.309	4078
924.417	4093
924.525	4074
924.633	4086
924.741	5029
924.849	3934
924.956	4150
925.064	3934
925.172	3896
925.279	3945
925.387	4040
925.494	4051
925.602	4223
925.709	4162
925.816	4025
925.924	4135
926.031	4215
926.138	4124
926.245	4204
926.352	4158
926.459	4246
926.566	4295
926.673	4147
926.779	4101
926.886	4078
926.993	3964
927.099	3983
927.206	3945
927.312	3960
927.419	4048
927.525	4044
927.631	4090
927.737	3972
927.843	3934
927.95	3800
928.056	3911
928.162	3991
928.267	4090
928.373	4698
928.479	4112
928.585	3884
928.69	4006
928.796	4082
928.901	3991
929.007	3812
929.112	4006
929.218	3972
929.323	3937
929.428	3937
929.533	4040
929.638	3907
929.743	3945
929.848	4029
929.953	4025
930.058	3907
930.163	3797
930.267	3876
930.372	3915
930.477	3831
930.581	4044
930.685	3937
930.79	3819
930.894	3857
930.998	3876
931.103	4010
931.207	3705
931.311	3705
931.415	3633
931.519	3515
931.623	3519
