Data from test_V78500241_1906.txt Node
Date: Fri Mar 25 17:02:15 CST 2022
User: usil
Spectrometer: V785-0024
Trigger mode: 0
Integration Time (sec): 4.000000E-1
Scans to average: 1
Nonlinearity correction enabled: false
Boxcar width: 0
Storing dark spectrum: false
XAxis mode: Wavelengths
Number of Pixels in Spectrum: 1024
>>>>>Begin Spectral Data<<<<<
801.071	8012
801.214	7955
801.356	7814
801.499	7833
801.641	7753
801.783	7932
801.926	7955
802.068	7875
802.211	7909
802.353	8016
802.496	7906
802.638	7856
802.78	7845
802.923	7894
803.065	7780
803.208	7868
803.35	7944
803.492	8073
803.635	8111
803.777	8016
803.919	8145
804.061	8434
804.204	8134
804.346	8062
804.488	8039
804.63	8081
804.773	7967
804.915	8077
805.057	8290
805.199	8134
805.341	8168
805.483	8259
805.626	8229
805.768	8107
805.91	8180
806.052	8267
806.194	8084
806.336	8328
806.478	8058
806.62	8031
806.762	8126
806.904	8229
807.046	8480
807.188	8446
807.33	8275
807.472	8324
807.614	8187
807.756	8096
807.898	8016
808.04	7932
808.182	7928
808.324	7879
808.465	7879
808.607	8103
808.749	8088
808.891	8153
809.033	8336
809.174	8195
809.316	8096
809.458	8096
809.6	8001
809.741	8069
809.883	8039
810.025	8111
810.166	8046
810.308	8008
810.45	7890
810.591	7830
810.733	7738
810.875	7689
811.016	7502
811.158	7453
811.299	7502
811.441	7685
811.582	7674
811.724	7556
811.865	7563
812.007	7616
812.148	7609
812.29	7613
812.431	7753
812.573	7860
812.714	8008
812.855	8092
812.997	8130
813.138	8210
813.279	8111
813.421	8027
813.562	7917
813.703	7852
813.845	7746
813.986	7392
814.127	7228
814.268	7171
814.41	7202
814.551	7194
814.692	7251
814.833	7091
814.974	7114
815.115	7145
815.256	6989
815.397	6916
815.539	6954
815.68	6768
815.821	6764
815.962	6939
816.103	6829
816.244	6707
816.385	6601
816.526	6578
816.666	6525
816.807	6315
816.948	6418
817.089	6407
817.23	6388
817.371	6376
817.512	6365
817.653	6407
817.793	6315
817.934	6399
818.075	6426
818.216	6384
818.356	6460
818.497	6266
818.638	6133
818.778	6159
818.919	6117
819.06	6167
819.2	6346
819.341	6311
819.481	6395
819.622	6513
819.762	6772
819.903	6677
820.043	6544
820.184	6589
820.324	6559
820.465	6715
820.605	6696
820.746	6654
820.886	6551
821.026	6665
821.167	6688
821.307	6768
821.447	6722
821.588	6627
821.728	6612
821.868	6475
822.008	6270
822.149	6380
822.289	6334
822.429	6167
822.569	6072
822.709	6140
822.849	5889
822.99	5901
823.13	5931
823.27	5870
823.41	5828
823.55	5767
823.69	5786
823.83	5722
823.97	5646
824.11	5505
824.25	5532
824.389	5573
824.529	5524
824.669	5493
824.809	5604
824.949	5710
825.089	5615
825.228	5547
825.368	5414
825.508	5341
825.648	5288
825.787	5368
825.927	5353
826.067	5269
826.206	5284
826.346	5318
826.485	5421
826.625	5448
826.765	5535
826.904	5471
827.044	5292
827.183	5185
827.323	5140
827.462	5227
827.601	5159
827.741	5162
827.88	5239
828.02	5041
828.159	5204
828.298	5265
828.437	5364
828.577	5288
828.716	5406
828.855	5349
828.994	5147
829.134	5155
829.273	5216
829.412	5067
829.551	5109
829.69	5181
829.829	5220
829.968	5330
830.107	5239
830.246	5246
830.385	5204
830.524	5098
830.663	5041
830.802	4957
830.941	4854
831.08	4892
831.219	4911
831.357	5010
831.496	5132
831.635	4877
831.774	4839
831.913	4839
832.051	4675
832.19	4694
832.329	4801
832.467	4691
832.606	4607
832.744	4733
832.883	4706
833.022	4725
833.16	4763
833.299	4793
833.437	4820
833.576	4824
833.714	4847
833.852	4850
833.991	4862
834.129	4953
834.267	4930
834.406	4892
834.544	4987
834.682	4999
834.821	4923
834.959	5121
835.097	4953
835.235	5098
835.373	5079
835.511	5143
835.65	5025
835.788	5010
835.926	4900
836.064	4885
836.202	4858
836.34	5124
836.478	5174
836.615	5117
836.753	5197
836.891	5280
837.029	5227
837.167	5151
837.305	5197
837.443	5132
837.58	5079
837.718	5273
837.856	5197
837.993	5159
838.131	5235
838.269	5223
838.406	5216
838.544	5181
838.681	5022
838.819	4923
838.956	4847
839.094	4930
839.231	4927
839.369	5067
839.506	5395
839.643	5239
839.781	5075
839.918	4980
840.055	5083
840.193	5060
840.33	5113
840.467	5113
840.604	5117
840.742	5436
840.879	5025
841.016	5098
841.153	5128
841.29	5360
841.427	5288
841.564	5337
841.701	5341
841.838	5284
841.975	5284
842.112	5284
842.249	5132
842.385	5060
842.522	5360
842.659	5147
842.796	5124
842.933	5197
843.069	5155
843.206	5143
843.343	5280
843.479	5231
843.616	5303
843.752	5018
843.889	5006
844.025	5227
844.162	4984
844.298	5227
844.435	5037
844.571	5064
844.708	5155
844.844	5246
844.98	5322
845.117	5311
845.253	5159
845.389	5136
845.525	5079
845.661	5151
845.798	5045
845.934	5124
846.07	5083
846.206	5181
846.342	5273
846.478	5197
846.614	5029
846.75	4965
846.886	4915
847.022	5075
847.158	5014
847.294	5029
847.429	5075
847.565	5041
847.701	5315
847.837	4858
847.972	4797
848.108	5010
848.244	4930
848.379	4801
848.515	4725
848.65	4683
848.786	4759
848.921	4774
849.057	4881
849.192	4904
849.328	4778
849.463	4820
849.598	4782
849.734	4790
849.869	4725
850.004	4577
850.14	4668
850.275	4603
850.41	4523
850.545	4531
850.68	4607
850.815	4618
850.95	4615
851.085	4839
851.22	4736
851.355	4569
851.49	4656
851.625	4584
851.76	4660
851.895	4588
852.03	4493
852.165	4626
852.299	4630
852.434	4820
852.569	4717
852.703	4759
852.838	4881
852.973	4892
853.107	4904
853.242	4729
853.376	4630
853.511	4527
853.645	4558
853.78	4786
853.914	4683
854.048	4664
854.183	4641
854.317	4755
854.451	4877
854.585	4694
854.72	4645
854.854	4774
854.988	4634
855.122	4660
855.256	4481
855.39	4596
855.524	4793
855.658	4736
855.792	4687
855.926	4687
856.06	4755
856.194	4816
856.327	4691
856.461	4588
856.595	4626
856.729	4592
856.862	4725
856.996	4656
857.13	4729
857.263	4778
857.397	4759
857.53	4618
857.664	4744
857.797	4755
857.931	4729
858.064	4694
858.197	4714
858.331	4618
858.464	4615
858.597	4542
858.731	4603
858.864	4656
858.997	4561
859.13	4622
859.263	4675
859.396	4714
859.529	4542
859.662	4558
859.795	4565
859.928	4580
860.061	4725
860.194	4721
860.327	4546
860.46	4580
860.592	4664
860.725	4729
860.858	4736
860.99	4542
861.123	4542
861.256	4512
861.388	4622
861.521	5220
861.653	4504
861.786	4379
861.918	4432
862.05	4550
862.183	4542
862.315	4565
862.447	4618
862.58	4542
862.712	4375
862.844	4329
862.976	4451
863.108	4447
863.24	4717
863.372	4295
863.504	4402
863.636	4394
863.768	4455
863.9	4459
864.032	4341
864.164	4421
864.296	4451
864.428	4527
864.559	4577
864.691	4523
864.823	4592
864.954	4523
865.086	4523
865.217	4455
865.349	4398
865.48	4432
865.612	4440
865.743	4634
865.875	4466
866.006	4443
866.137	4455
866.269	4424
866.4	4451
866.531	4417
866.662	4386
866.793	4375
866.924	4394
867.055	4489
867.186	4451
867.317	4386
867.448	4379
867.579	4379
867.71	4383
867.841	4341
867.972	4455
868.103	4474
868.233	4462
868.364	4459
868.495	4474
868.625	4649
868.756	4733
868.886	4565
869.017	4622
869.147	4763
869.278	4755
869.408	4645
869.539	4630
869.669	4687
869.799	4622
869.929	4744
870.06	4687
870.19	4976
870.32	4911
870.45	4953
870.58	4957
870.71	5121
870.84	5033
870.97	4904
871.1	4870
871.23	5136
871.36	5117
871.489	4968
871.619	5071
871.749	5090
871.879	5143
872.008	5162
872.138	5052
872.267	4934
872.397	4816
872.526	4767
872.656	4672
872.785	4805
872.915	4957
873.044	5022
873.173	4930
873.303	4946
873.432	4900
873.561	4946
873.69	4847
873.819	4908
873.948	4873
874.077	4774
874.206	4752
874.335	4812
874.464	4904
874.593	5083
874.722	4934
874.851	5105
874.979	5056
875.108	5018
875.237	4953
875.365	4866
875.494	4843
875.623	4995
875.751	4828
875.88	4877
876.008	4995
876.136	5022
876.265	5212
876.393	5330
876.521	5235
876.65	5166
876.778	5178
876.906	5014
877.034	5045
877.162	5083
877.29	5025
877.418	5045
877.546	5041
877.674	5090
877.802	4968
877.93	4976
878.058	4900
878.185	4892
878.313	5018
878.441	4991
878.568	4835
878.696	4854
878.824	4991
878.951	4968
879.079	5117
879.206	5280
879.333	5147
879.461	5003
879.588	4995
879.715	5136
879.842	5151
879.97	4987
880.097	4797
880.224	4748
880.351	4771
880.478	4839
880.605	4866
880.732	4771
880.859	5033
880.986	4896
881.112	4915
881.239	4797
881.366	4645
881.493	4615
881.619	4516
881.746	4656
881.872	4626
881.999	4607
882.125	4664
882.252	4801
882.378	4809
882.505	4915
882.631	4797
882.757	4672
882.883	4691
883.01	4759
883.136	4694
883.262	4622
883.388	4618
883.514	4782
883.64	4877
883.766	4759
883.892	4653
884.018	4679
884.143	4824
884.269	4972
884.395	4702
884.52	4599
884.646	4675
884.772	4573
884.897	4523
885.023	4653
885.148	4774
885.274	4805
885.399	4828
885.524	4729
885.65	4736
885.775	4782
885.9	4672
886.025	4839
886.15	4763
886.275	4641
886.4	4702
886.525	4733
886.65	4714
886.775	4702
886.9	4870
887.025	5064
887.149	4809
887.274	4675
887.399	4592
887.523	4622
887.648	4569
887.773	4561
887.897	4733
888.021	4725
888.146	4729
888.27	4797
888.395	4896
888.519	4759
888.643	4820
888.767	4839
888.891	4641
889.015	4573
889.139	4668
889.263	4561
889.387	4710
889.511	4900
889.635	4854
889.759	4641
889.883	4630
890.006	4698
890.13	4820
890.254	4603
890.377	4615
890.501	4535
890.624	4497
890.748	4637
890.871	4481
890.995	4402
891.118	4409
891.241	4531
891.364	4493
891.488	4653
891.611	4504
891.734	4538
891.857	4607
891.98	4535
892.103	4607
892.226	4607
892.349	4565
892.471	4424
892.594	4504
892.717	4546
892.839	4550
892.962	4641
893.085	4672
893.207	4596
893.33	4497
893.452	4516
893.575	4649
893.697	4607
893.819	4759
893.941	4774
894.064	4816
894.186	4592
894.308	4565
894.43	4736
894.552	4801
894.674	4729
894.796	4588
894.918	4584
895.04	4565
895.161	4668
895.283	4630
895.405	4580
895.526	4675
895.648	4656
895.769	4660
895.891	4729
896.012	4759
896.134	4721
896.255	4733
896.376	4584
896.498	4618
896.619	4664
896.74	4592
896.861	4634
896.982	4870
897.103	5060
897.224	4870
897.345	4714
897.466	4668
897.587	4744
897.708	4877
897.828	4759
897.949	4679
898.07	4565
898.19	4611
898.311	4812
898.431	4679
898.552	4706
898.672	4896
898.792	4721
898.913	4706
899.033	4645
899.153	4516
899.273	4436
899.393	4462
899.513	4550
899.633	4531
899.753	4588
899.873	4489
899.993	4580
900.113	4519
900.232	4584
900.352	4508
900.472	4500
900.591	4432
900.711	4508
900.83	4390
900.95	4569
901.069	4668
901.189	4535
901.308	4348
901.427	4322
901.546	4417
901.665	4440
901.784	4523
901.904	4344
902.023	4295
902.141	4181
902.26	4131
902.379	4272
902.498	4223
902.617	4227
902.735	4371
902.854	4398
902.973	4337
903.091	4227
903.21	4188
903.328	4280
903.446	4268
903.565	4234
903.683	4318
903.801	4272
903.919	4371
904.038	4421
904.156	4310
904.274	4417
904.392	4383
904.51	4459
904.627	4481
904.745	4550
904.863	4603
904.981	4409
905.098	4287
905.216	4417
905.334	4447
905.451	4455
905.569	4451
905.686	4558
905.803	4554
905.921	4432
906.038	4523
906.155	4417
906.272	4405
906.389	4432
906.506	4390
906.623	4352
906.74	4398
906.857	4303
906.974	4356
907.091	4519
907.208	4687
907.324	4565
907.441	4443
907.557	4310
907.674	4318
907.79	4303
907.907	4367
908.023	4436
908.139	4485
908.256	4440
908.372	4421
908.488	4424
908.604	4356
908.72	4322
908.836	4325
908.952	4344
909.068	4451
909.184	4546
909.3	4481
909.415	4577
909.531	4561
909.647	4360
909.762	4371
909.878	4352
909.993	4409
910.108	4386
910.224	4352
910.339	4451
910.454	4383
910.57	4344
910.685	4284
910.8	4687
910.915	4607
911.03	4542
911.145	4348
911.259	4284
911.374	4402
911.489	4299
911.604	4268
911.718	4196
911.833	4242
911.947	4059
912.062	4040
912.176	4242
912.291	4261
912.405	4261
912.519	4485
912.633	4500
912.748	4371
912.862	4306
912.976	4188
913.09	4082
913.204	4116
913.318	4246
913.431	4348
913.545	4352
913.659	4451
913.772	4375
913.886	4234
914	4246
914.113	4383
914.226	4440
914.34	4402
914.453	4192
914.566	4428
914.68	4284
914.793	4310
914.906	4143
915.019	4131
915.132	4051
915.245	4162
915.358	4204
915.47	4246
915.583	4287
915.696	4276
915.809	4455
915.921	4432
916.034	4291
916.146	4242
916.259	4265
916.371	4333
916.483	4329
916.595	4268
916.708	4348
916.82	4295
916.932	4344
917.044	4303
917.156	4344
917.268	4207
917.38	4314
917.491	4287
917.603	4333
917.715	4398
917.826	4421
917.938	4352
918.049	4200
918.161	4390
918.272	4538
918.384	4535
918.495	4462
918.606	4303
918.717	4234
918.828	4325
918.939	4352
919.05	4253
919.161	4261
919.272	4139
919.383	4196
919.494	4424
919.604	4592
919.715	4402
919.826	4329
919.936	4356
920.047	4489
920.157	4516
920.267	4649
920.378	4565
920.488	4516
920.598	4637
920.708	4934
920.818	4778
920.928	4752
921.038	4942
921.148	4881
921.258	4607
921.368	4558
921.477	4497
921.587	4436
921.697	4356
921.806	4580
921.916	4470
922.025	4215
922.134	4276
922.244	4223
922.353	4367
922.462	4185
922.571	4135
922.68	4017
922.789	3964
922.898	3994
923.007	3956
923.116	4105
923.224	4063
923.333	4040
923.442	4025
923.55	3930
923.659	4010
923.767	4055
923.876	3983
923.984	4093
924.092	3991
924.201	4032
924.309	4131
924.417	4093
924.525	4021
924.633	4086
924.741	5014
924.849	3892
924.956	4112
925.064	3945
925.172	3888
925.279	3941
925.387	3994
925.494	4063
925.602	4219
925.709	4158
925.816	3994
925.924	4158
926.031	4230
926.138	4185
926.245	4177
926.352	4067
926.459	4253
926.566	4276
926.673	4185
926.779	4097
926.886	4067
926.993	3975
927.099	3964
927.206	3949
927.312	3975
927.419	4059
927.525	4078
927.631	4071
927.737	3922
927.843	3930
927.95	3857
928.056	3934
928.162	4032
928.267	4040
928.373	4577
928.479	4097
928.585	3880
928.69	3979
928.796	4029
928.901	3991
929.007	3823
929.112	3987
929.218	3968
929.323	3956
929.428	3922
929.533	4109
929.638	3911
929.743	3953
929.848	4040
929.953	3975
930.058	3934
930.163	3770
930.267	3827
930.372	3949
930.477	3797
930.581	4063
930.685	3926
930.79	3827
930.894	3915
930.998	3880
931.103	4048
931.207	3728
931.311	3690
931.415	3652
931.519	3504
931.623	3534
