Data from test_V78500241_1555.txt Node
Date: Fri Mar 25 16:59:48 CST 2022
User: usil
Spectrometer: V785-0024
Trigger mode: 0
Integration Time (sec): 4.000000E-1
Scans to average: 1
Nonlinearity correction enabled: false
Boxcar width: 0
Storing dark spectrum: false
XAxis mode: Wavelengths
Number of Pixels in Spectrum: 1024
>>>>>Begin Spectral Data<<<<<
801.071	8031
801.214	8043
801.356	7830
801.499	7837
801.641	7814
801.783	7845
801.926	8001
802.068	7917
802.211	7955
802.353	8001
802.496	7871
802.638	7868
802.78	7921
802.923	7944
803.065	7887
803.208	7849
803.35	7967
803.492	8115
803.635	8168
803.777	7993
803.919	8119
804.061	8408
804.204	8123
804.346	8145
804.488	8020
804.63	8130
804.773	8005
804.915	8103
805.057	8244
805.199	8130
805.341	8290
805.483	8240
805.626	8233
805.768	8039
805.91	8271
806.052	8229
806.194	8031
806.336	8313
806.478	8138
806.62	8084
806.762	8123
806.904	8290
807.046	8461
807.188	8396
807.33	8339
807.472	8301
807.614	8195
807.756	8134
807.898	8039
808.04	7871
808.182	7875
808.324	7837
808.465	7925
808.607	8081
808.749	8092
808.891	8138
809.033	8240
809.174	8168
809.316	8012
809.458	8111
809.6	7986
809.741	8016
809.883	8043
810.025	8145
810.166	8069
810.308	7993
810.45	7951
810.591	7852
810.733	7662
810.875	7712
811.016	7506
811.158	7464
811.299	7601
811.441	7715
811.582	7655
811.724	7620
811.865	7487
812.007	7616
812.148	7521
812.29	7689
812.431	7704
812.573	7913
812.714	7970
812.855	8161
812.997	8145
813.138	8343
813.279	8256
813.421	8100
813.562	7932
813.703	7864
813.845	7700
813.986	7381
814.127	7282
814.268	7126
814.41	7198
814.551	7179
814.692	7225
814.833	7179
814.974	7057
815.115	7126
815.256	7012
815.397	6897
815.539	6935
815.68	6806
815.821	6764
815.962	6810
816.103	6749
816.244	6681
816.385	6570
816.526	6608
816.666	6475
816.807	6361
816.948	6418
817.089	6483
817.23	6414
817.371	6372
817.512	6361
817.653	6433
817.793	6384
817.934	6418
818.075	6410
818.216	6448
818.356	6441
818.497	6270
818.638	6152
818.778	6136
818.919	6133
819.06	6117
819.2	6266
819.341	6289
819.481	6350
819.622	6513
819.762	6810
819.903	6730
820.043	6525
820.184	6547
820.324	6551
820.465	6715
820.605	6711
820.746	6692
820.886	6532
821.026	6642
821.167	6684
821.307	6787
821.447	6726
821.588	6715
821.728	6597
821.868	6460
822.008	6334
822.149	6357
822.289	6323
822.429	6163
822.569	6045
822.709	6064
822.849	5927
822.99	5874
823.13	5904
823.27	5916
823.41	5756
823.55	5767
823.69	5764
823.83	5767
823.97	5737
824.11	5577
824.25	5532
824.389	5543
824.529	5585
824.669	5596
824.809	5615
824.949	5585
825.089	5581
825.228	5570
825.368	5383
825.508	5315
825.648	5360
825.787	5368
825.927	5376
826.067	5318
826.206	5311
826.346	5334
826.485	5379
826.625	5410
826.765	5566
826.904	5463
827.044	5315
827.183	5204
827.323	5121
827.462	5242
827.601	5132
827.741	5162
827.88	5212
828.02	5105
828.159	5254
828.298	5284
828.437	5345
828.577	5242
828.716	5410
828.855	5357
828.994	5178
829.134	5143
829.273	5162
829.412	5143
829.551	5147
829.69	5155
829.829	5220
829.968	5315
830.107	5231
830.246	5288
830.385	5170
830.524	5136
830.663	5083
830.802	4965
830.941	4858
831.08	4831
831.219	4953
831.357	5033
831.496	5136
831.635	4934
831.774	4889
831.913	4828
832.051	4706
832.19	4759
832.329	4843
832.467	4664
832.606	4584
832.744	4706
832.883	4744
833.022	4748
833.16	4736
833.299	4812
833.437	4809
833.576	4828
833.714	4828
833.852	4831
833.991	4835
834.129	4957
834.267	4946
834.406	4881
834.544	5018
834.682	4980
834.821	4946
834.959	5132
835.097	5006
835.235	5162
835.373	5071
835.511	5041
835.65	4968
835.788	4999
835.926	4892
836.064	4835
836.202	4892
836.34	5170
836.478	5212
836.615	5155
836.753	5185
836.891	5322
837.029	5220
837.167	5193
837.305	5151
837.443	5170
837.58	5102
837.718	5193
837.856	5143
837.993	5098
838.131	5246
838.269	5178
838.406	5155
838.544	5197
838.681	5052
838.819	4991
838.956	4919
839.094	4866
839.231	4961
839.369	5041
839.506	5376
839.643	5208
839.781	5067
839.918	5056
840.055	5105
840.193	5033
840.33	5037
840.467	5143
840.604	5166
840.742	5406
840.879	5060
841.016	5113
841.153	5128
841.29	5417
841.427	5364
841.564	5296
841.701	5349
841.838	5280
841.975	5254
842.112	5246
842.249	5128
842.385	5102
842.522	5307
842.659	5159
842.796	5147
842.933	5166
843.069	5117
843.206	5121
843.343	5288
843.479	5250
843.616	5258
843.752	4980
843.889	5045
844.025	5166
844.162	4984
844.298	5197
844.435	5075
844.571	5018
844.708	5143
844.844	5318
844.98	5334
845.117	5258
845.253	5136
845.389	5075
845.525	5174
845.661	5170
845.798	5003
845.934	5132
846.07	5041
846.206	5178
846.342	5216
846.478	5162
846.614	4991
846.75	4953
846.886	4919
847.022	5223
847.158	4953
847.294	5064
847.429	5083
847.565	5083
847.701	5292
847.837	4854
847.972	4767
848.108	4957
848.244	4984
848.379	4752
848.515	4748
848.65	4721
848.786	4717
848.921	4740
849.057	4843
849.192	4930
849.328	4831
849.463	4835
849.598	4793
849.734	4778
849.869	4740
850.004	4615
850.14	4660
850.275	4615
850.41	4538
850.545	4542
850.68	4561
850.815	4660
850.95	4649
851.085	4843
851.22	4752
851.355	4634
851.49	4592
851.625	4641
851.76	4618
851.895	4561
852.03	4550
852.165	4607
852.299	4714
852.434	4778
852.569	4729
852.703	4755
852.838	4843
852.973	4904
853.107	4862
853.242	4812
853.376	4664
853.511	4542
853.645	4584
853.78	4828
853.914	4653
854.048	4714
854.183	4641
854.317	4679
854.451	4809
854.585	4698
854.72	4664
854.854	4733
854.988	4584
855.122	4675
855.256	4527
855.39	4656
855.524	4740
855.658	4752
855.792	4687
855.926	4714
856.06	4759
856.194	4790
856.327	4664
856.461	4611
856.595	4607
856.729	4645
856.862	4740
856.996	4679
857.13	4710
857.263	4759
857.397	4778
857.53	4668
857.664	4725
857.797	4752
857.931	4714
858.064	4675
858.197	4759
858.331	4672
858.464	4618
858.597	4489
858.731	4611
858.864	4679
858.997	4634
859.13	4607
859.263	4744
859.396	4679
859.529	4611
859.662	4561
859.795	4527
859.928	4664
860.061	4710
860.194	4786
860.327	4611
860.46	4596
860.592	4683
860.725	4706
860.858	4759
860.99	4565
861.123	4542
861.256	4516
861.388	4615
861.521	5223
861.653	4462
861.786	4428
861.918	4470
862.05	4504
862.183	4500
862.315	4554
862.447	4634
862.58	4519
862.712	4386
862.844	4375
862.976	4489
863.108	4455
863.24	4752
863.372	4344
863.504	4455
863.636	4394
863.768	4504
863.9	4402
864.032	4367
864.164	4367
864.296	4474
864.428	4535
864.559	4554
864.691	4542
864.823	4542
864.954	4470
865.086	4489
865.217	4421
865.349	4436
865.48	4455
865.612	4500
865.743	4611
865.875	4455
866.006	4409
866.137	4459
866.269	4451
866.4	4443
866.531	4428
866.662	4402
866.793	4383
866.924	4421
867.055	4500
867.186	4432
867.317	4462
867.448	4352
867.579	4367
867.71	4379
867.841	4306
867.972	4455
868.103	4436
868.233	4447
868.364	4466
868.495	4485
868.625	4668
868.756	4740
868.886	4565
869.017	4588
869.147	4740
869.278	4812
869.408	4706
869.539	4592
869.669	4733
869.799	4660
869.929	4774
870.06	4714
870.19	4957
870.32	4927
870.45	4961
870.58	4999
870.71	5083
870.84	5105
870.97	4919
871.1	4923
871.23	5083
871.36	5090
871.489	5022
871.619	5037
871.749	5060
871.879	5117
872.008	5181
872.138	5029
872.267	4991
872.397	4862
872.526	4828
872.656	4710
872.785	4812
872.915	4953
873.044	4991
873.173	4968
873.303	4938
873.432	4862
873.561	4953
873.69	4892
873.819	4843
873.948	4927
874.077	4828
874.206	4771
874.335	4824
874.464	4892
874.593	5052
874.722	4934
874.851	5056
874.979	5079
875.108	5033
875.237	4919
875.365	4911
875.494	4835
875.623	4946
875.751	4793
875.88	4930
876.008	4919
876.136	5071
876.265	5189
876.393	5303
876.521	5174
876.65	5162
876.778	5162
876.906	5022
877.034	4999
877.162	5010
877.29	4999
877.418	5064
877.546	5041
877.674	5003
877.802	5041
877.93	4991
878.058	4949
878.185	4831
878.313	4938
878.441	4927
878.568	4755
878.696	4866
878.824	4961
878.951	5010
879.079	5109
879.206	5315
879.333	5060
879.461	4938
879.588	4953
879.715	5102
879.842	5197
879.97	4927
880.097	4824
880.224	4759
880.351	4778
880.478	4805
880.605	4793
880.732	4782
880.859	5033
880.986	4870
881.112	4927
881.239	4767
881.366	4660
881.493	4607
881.619	4607
881.746	4653
881.872	4637
881.999	4630
882.125	4641
882.252	4782
882.378	4858
882.505	4957
882.631	4809
882.757	4710
882.883	4664
883.01	4748
883.136	4717
883.262	4565
883.388	4622
883.514	4790
883.64	4854
883.766	4778
883.892	4653
884.018	4683
884.143	4870
884.269	5041
884.395	4668
884.52	4630
884.646	4641
884.772	4630
884.897	4546
885.023	4687
885.148	4774
885.274	4881
885.399	4797
885.524	4710
885.65	4611
885.775	4729
885.9	4729
886.025	4850
886.15	4767
886.275	4725
886.4	4660
886.525	4702
886.65	4691
886.775	4729
886.9	4938
887.025	5045
887.149	4774
887.274	4649
887.399	4569
887.523	4607
887.648	4554
887.773	4603
887.897	4778
888.021	4812
888.146	4691
888.27	4805
888.395	4904
888.519	4778
888.643	4820
888.767	4805
888.891	4653
889.015	4634
889.139	4603
889.263	4558
889.387	4725
889.511	4873
889.635	4809
889.759	4573
889.883	4599
890.006	4763
890.13	4843
890.254	4641
890.377	4634
890.501	4546
890.624	4516
890.748	4649
890.871	4519
890.995	4428
891.118	4360
891.241	4516
891.364	4523
891.488	4656
891.611	4485
891.734	4573
891.857	4592
891.98	4561
892.103	4630
892.226	4626
892.349	4516
892.471	4394
892.594	4538
892.717	4588
892.839	4531
892.962	4588
893.085	4668
893.207	4611
893.33	4379
893.452	4558
893.575	4653
893.697	4538
893.819	4763
893.941	4843
894.064	4752
894.186	4527
894.308	4565
894.43	4698
894.552	4763
894.674	4736
894.796	4546
894.918	4599
895.04	4538
895.161	4706
895.283	4660
895.405	4618
895.526	4607
895.648	4683
895.769	4660
895.891	4748
896.012	4729
896.134	4675
896.255	4653
896.376	4637
896.498	4584
896.619	4653
896.74	4611
896.861	4618
896.982	4847
897.103	5117
897.224	4805
897.345	4714
897.466	4637
897.587	4679
897.708	4885
897.828	4767
897.949	4626
898.07	4573
898.19	4618
898.311	4809
898.431	4634
898.552	4660
898.672	4778
898.792	4812
898.913	4710
899.033	4622
899.153	4455
899.273	4371
899.393	4409
899.513	4523
899.633	4470
899.753	4508
899.873	4500
899.993	4565
900.113	4565
900.232	4519
900.352	4577
900.472	4417
900.591	4379
900.711	4455
900.83	4402
900.95	4596
901.069	4721
901.189	4512
901.308	4402
901.427	4310
901.546	4421
901.665	4489
901.784	4508
901.904	4394
902.023	4322
902.141	4185
902.26	4158
902.379	4314
902.498	4219
902.617	4185
902.735	4367
902.854	4371
902.973	4333
903.091	4177
903.21	4215
903.328	4257
903.446	4268
903.565	4257
903.683	4375
903.801	4276
903.919	4405
904.038	4443
904.156	4287
904.274	4447
904.392	4405
904.51	4424
904.627	4512
904.745	4569
904.863	4607
904.981	4356
905.098	4276
905.216	4341
905.334	4432
905.451	4428
905.569	4428
905.686	4527
905.803	4554
905.921	4421
906.038	4554
906.155	4466
906.272	4409
906.389	4474
906.506	4299
906.623	4413
906.74	4363
906.857	4310
906.974	4344
907.091	4516
907.208	4679
907.324	4607
907.441	4424
907.557	4322
907.674	4325
907.79	4284
907.907	4371
908.023	4462
908.139	4436
908.256	4409
908.372	4443
908.488	4466
908.604	4356
908.72	4333
908.836	4371
908.952	4348
909.068	4497
909.184	4542
909.3	4485
909.415	4573
909.531	4527
909.647	4348
909.762	4405
909.878	4333
909.993	4459
910.108	4405
910.224	4360
910.339	4489
910.454	4443
910.57	4356
910.685	4329
910.8	4637
910.915	4584
911.03	4466
911.145	4344
911.259	4329
911.374	4356
911.489	4291
911.604	4318
911.718	4196
911.833	4143
911.947	4086
912.062	4025
912.176	4181
912.291	4211
912.405	4306
912.519	4523
912.633	4508
912.748	4344
912.862	4390
912.976	4261
913.09	4105
913.204	4177
913.318	4272
913.431	4344
913.545	4325
913.659	4417
913.772	4371
913.886	4234
914	4211
914.113	4451
914.226	4409
914.34	4363
914.453	4280
914.566	4421
914.68	4299
914.793	4363
914.906	4150
915.019	4135
915.132	4051
915.245	4169
915.358	4223
915.47	4219
915.583	4268
915.696	4295
915.809	4428
915.921	4443
916.034	4272
916.146	4249
916.259	4238
916.371	4352
916.483	4348
916.595	4272
916.708	4337
916.82	4318
916.932	4310
917.044	4360
917.156	4352
917.268	4227
917.38	4265
917.491	4230
917.603	4306
917.715	4421
917.826	4432
917.938	4329
918.049	4246
918.161	4405
918.272	4550
918.384	4523
918.495	4447
918.606	4352
918.717	4253
918.828	4306
918.939	4352
919.05	4211
919.161	4383
919.272	4131
919.383	4242
919.494	4417
919.604	4577
919.715	4390
919.826	4325
919.936	4428
920.047	4519
920.157	4504
920.267	4714
920.378	4493
920.488	4500
920.598	4717
920.708	4877
920.818	4774
920.928	4778
921.038	4923
921.148	4877
921.258	4645
921.368	4573
921.477	4489
921.587	4489
921.697	4367
921.806	4516
921.916	4493
922.025	4253
922.134	4295
922.244	4272
922.353	4341
922.462	4173
922.571	4139
922.68	4010
922.789	4010
922.898	4002
923.007	3960
923.116	4074
923.224	4071
923.333	4078
923.442	3998
923.55	4017
923.659	4032
923.767	4090
923.876	3972
923.984	4124
924.092	3968
924.201	4051
924.309	4128
924.417	4158
924.525	4029
924.633	4090
924.741	5006
924.849	3880
924.956	4109
925.064	3975
925.172	3915
925.279	3987
925.387	4063
925.494	4040
925.602	4196
925.709	4162
925.816	4013
925.924	4128
926.031	4227
926.138	4181
926.245	4211
926.352	4055
926.459	4238
926.566	4299
926.673	4116
926.779	4044
926.886	4051
926.993	3998
927.099	3972
927.206	3945
927.312	3926
927.419	4032
927.525	4021
927.631	4067
927.737	3949
927.843	3979
927.95	3835
928.056	3934
928.162	3991
928.267	4036
928.373	4577
928.479	4150
928.585	3838
928.69	4025
928.796	4067
928.901	3953
929.007	3865
929.112	3987
929.218	3956
929.323	3922
929.428	3941
929.533	4116
929.638	3926
929.743	3994
929.848	4032
929.953	3987
930.058	3911
930.163	3759
930.267	3865
930.372	3987
930.477	3854
930.581	4090
930.685	3926
930.79	3850
930.894	3873
930.998	3831
931.103	4006
931.207	3778
931.311	3679
931.415	3648
931.519	3473
931.623	3587
