Data from test_V78500241_1985.txt Node
Date: Fri Mar 25 17:02:48 CST 2022
User: usil
Spectrometer: V785-0024
Trigger mode: 0
Integration Time (sec): 4.000000E-1
Scans to average: 1
Nonlinearity correction enabled: false
Boxcar width: 0
Storing dark spectrum: false
XAxis mode: Wavelengths
Number of Pixels in Spectrum: 1024
>>>>>Begin Spectral Data<<<<<
801.071	8031
801.214	7997
801.356	7902
801.499	7902
801.641	7811
801.783	7890
801.926	7986
802.068	7967
802.211	8001
802.353	8039
802.496	7871
802.638	7917
802.78	7875
802.923	7974
803.065	7890
803.208	7955
803.35	7986
803.492	8138
803.635	8149
803.777	8024
803.919	8138
804.061	8434
804.204	8183
804.346	8016
804.488	7959
804.63	8111
804.773	7997
804.915	8107
805.057	8339
805.199	8214
805.341	8244
805.483	8259
805.626	8214
805.768	8115
805.91	8210
806.052	8275
806.194	8123
806.336	8343
806.478	8077
806.62	8092
806.762	8218
806.904	8248
807.046	8545
807.188	8393
807.33	8377
807.472	8351
807.614	8252
807.756	8073
807.898	8012
808.04	7940
808.182	7833
808.324	7928
808.465	7986
808.607	8050
808.749	8115
808.891	8187
809.033	8267
809.174	8259
809.316	8164
809.458	8027
809.6	7989
809.741	8081
809.883	8054
810.025	8084
810.166	8111
810.308	8031
810.45	7947
810.591	7871
810.733	7658
810.875	7674
811.016	7518
811.158	7525
811.299	7594
811.441	7700
811.582	7658
811.724	7521
811.865	7510
812.007	7616
812.148	7548
812.29	7639
812.431	7792
812.573	7887
812.714	8073
812.855	8149
812.997	8210
813.138	8328
813.279	8111
813.421	8065
813.562	7902
813.703	7852
813.845	7731
813.986	7422
814.127	7213
814.268	7202
814.41	7232
814.551	7168
814.692	7247
814.833	7149
814.974	7091
815.115	7149
815.256	6943
815.397	6958
815.539	6962
815.68	6886
815.821	6798
815.962	6905
816.103	6821
816.244	6715
816.385	6570
816.526	6589
816.666	6509
816.807	6365
816.948	6464
817.089	6486
817.23	6429
817.371	6365
817.512	6376
817.653	6414
817.793	6403
817.934	6376
818.075	6471
818.216	6456
818.356	6433
818.497	6247
818.638	6144
818.778	6171
818.919	6175
819.06	6224
819.2	6308
819.341	6334
819.481	6361
819.622	6532
819.762	6768
819.903	6726
820.043	6570
820.184	6601
820.324	6582
820.465	6719
820.605	6764
820.746	6650
820.886	6559
821.026	6665
821.167	6703
821.307	6802
821.447	6783
821.588	6692
821.728	6597
821.868	6536
822.008	6323
822.149	6334
822.289	6388
822.429	6152
822.569	6114
822.709	6152
822.849	5942
822.99	5916
823.13	5935
823.27	5904
823.41	5817
823.55	5783
823.69	5805
823.83	5756
823.97	5684
824.11	5592
824.25	5520
824.389	5543
824.529	5585
824.669	5543
824.809	5608
824.949	5646
825.089	5615
825.228	5543
825.368	5406
825.508	5383
825.648	5398
825.787	5402
825.927	5372
826.067	5360
826.206	5273
826.346	5425
826.485	5391
826.625	5429
826.765	5573
826.904	5478
827.044	5239
827.183	5235
827.323	5162
827.462	5269
827.601	5204
827.741	5151
827.88	5208
828.02	5102
828.159	5307
828.298	5265
828.437	5414
828.577	5231
828.716	5501
828.855	5326
828.994	5227
829.134	5121
829.273	5261
829.412	5143
829.551	5185
829.69	5227
829.829	5284
829.968	5421
830.107	5261
830.246	5311
830.385	5235
830.524	5159
830.663	5109
830.802	5033
830.941	4908
831.08	4896
831.219	4987
831.357	5025
831.496	5155
831.635	4927
831.774	4885
831.913	4873
832.051	4763
832.19	4755
832.329	4866
832.467	4721
832.606	4641
832.744	4729
832.883	4748
833.022	4725
833.16	4801
833.299	4862
833.437	4896
833.576	4889
833.714	4881
833.852	4915
833.991	4877
834.129	4999
834.267	4984
834.406	4938
834.544	4961
834.682	4972
834.821	4961
834.959	5197
835.097	5037
835.235	5185
835.373	5102
835.511	5124
835.65	5022
835.788	5006
835.926	4938
836.064	4911
836.202	4927
836.34	5151
836.478	5216
836.615	5136
836.753	5223
836.891	5326
837.029	5258
837.167	5216
837.305	5151
837.443	5155
837.58	5105
837.718	5292
837.856	5197
837.993	5178
838.131	5277
838.269	5201
838.406	5216
838.544	5231
838.681	5014
838.819	5056
838.956	4866
839.094	4862
839.231	4976
839.369	5128
839.506	5417
839.643	5242
839.781	5075
839.918	5003
840.055	5121
840.193	5102
840.33	5124
840.467	5143
840.604	5204
840.742	5406
840.879	5102
841.016	5159
841.153	5147
841.29	5353
841.427	5330
841.564	5357
841.701	5414
841.838	5280
841.975	5258
842.112	5254
842.249	5162
842.385	5117
842.522	5360
842.659	5185
842.796	5132
842.933	5193
843.069	5174
843.206	5181
843.343	5303
843.479	5273
843.616	5258
843.752	5003
843.889	5022
844.025	5250
844.162	5060
844.298	5216
844.435	5060
844.571	5052
844.708	5220
844.844	5315
844.98	5322
845.117	5261
845.253	5178
845.389	5117
845.525	5124
845.661	5166
845.798	5033
845.934	5113
846.07	5060
846.206	5246
846.342	5307
846.478	5181
846.614	5060
846.75	4972
846.886	4968
847.022	5147
847.158	5041
847.294	5071
847.429	5143
847.565	5037
847.701	5376
847.837	4854
847.972	4812
848.108	4938
848.244	4900
848.379	4797
848.515	4736
848.65	4694
848.786	4710
848.921	4809
849.057	4873
849.192	4927
849.328	4782
849.463	4835
849.598	4824
849.734	4771
849.869	4691
850.004	4664
850.14	4679
850.275	4645
850.41	4584
850.545	4592
850.68	4626
850.815	4615
850.95	4660
851.085	4885
851.22	4729
851.355	4702
851.49	4599
851.625	4679
851.76	4694
851.895	4599
852.03	4500
852.165	4687
852.299	4740
852.434	4778
852.569	4717
852.703	4782
852.838	4870
852.973	4934
853.107	4885
853.242	4759
853.376	4653
853.511	4558
853.645	4641
853.78	4835
853.914	4733
854.048	4683
854.183	4641
854.317	4721
854.451	4847
854.585	4714
854.72	4649
854.854	4801
854.988	4569
855.122	4668
855.256	4542
855.39	4675
855.524	4862
855.658	4763
855.792	4714
855.926	4714
856.06	4790
856.194	4755
856.327	4710
856.461	4626
856.595	4584
856.729	4656
856.862	4748
856.996	4725
857.13	4733
857.263	4793
857.397	4828
857.53	4672
857.664	4725
857.797	4740
857.931	4782
858.064	4717
858.197	4778
858.331	4618
858.464	4611
858.597	4523
858.731	4626
858.864	4683
858.997	4588
859.13	4645
859.263	4694
859.396	4683
859.529	4618
859.662	4580
859.795	4558
859.928	4599
860.061	4771
860.194	4790
860.327	4653
860.46	4550
860.592	4702
860.725	4702
860.858	4744
860.99	4577
861.123	4531
861.256	4584
861.388	4637
861.521	5174
861.653	4462
861.786	4462
861.918	4485
862.05	4523
862.183	4558
862.315	4527
862.447	4679
862.58	4569
862.712	4383
862.844	4390
862.976	4443
863.108	4493
863.24	4812
863.372	4356
863.504	4421
863.636	4417
863.768	4443
863.9	4413
864.032	4421
864.164	4440
864.296	4455
864.428	4580
864.559	4603
864.691	4531
864.823	4580
864.954	4508
865.086	4497
865.217	4451
865.349	4432
865.48	4466
865.612	4531
865.743	4588
865.875	4481
866.006	4421
866.137	4474
866.269	4474
866.4	4440
866.531	4432
866.662	4424
866.793	4379
866.924	4470
867.055	4500
867.186	4432
867.317	4478
867.448	4379
867.579	4386
867.71	4375
867.841	4390
867.972	4474
868.103	4493
868.233	4436
868.364	4474
868.495	4481
868.625	4653
868.756	4748
868.886	4607
869.017	4618
869.147	4831
869.278	4721
869.408	4691
869.539	4645
869.669	4744
869.799	4649
869.929	4774
870.06	4782
870.19	4938
870.32	4957
870.45	4965
870.58	5010
870.71	5075
870.84	5094
870.97	4965
871.1	4854
871.23	5151
871.36	5121
871.489	5014
871.619	5102
871.749	5083
871.879	5140
872.008	5174
872.138	5079
872.267	5029
872.397	4877
872.526	4847
872.656	4759
872.785	4797
872.915	4938
873.044	5045
873.173	4949
873.303	4987
873.432	4938
873.561	4927
873.69	4915
873.819	4801
873.948	4949
874.077	4759
874.206	4752
874.335	4782
874.464	4911
874.593	5067
874.722	4968
874.851	5121
874.979	5075
875.108	5060
875.237	4904
875.365	4896
875.494	4892
875.623	4976
875.751	4877
875.88	4870
876.008	4984
876.136	5033
876.265	5162
876.393	5372
876.521	5269
876.65	5197
876.778	5193
876.906	5079
877.034	5025
877.162	5052
877.29	4953
877.418	5060
877.546	5094
877.674	4999
877.802	5014
877.93	5029
878.058	4976
878.185	4862
878.313	4965
878.441	4930
878.568	4816
878.696	4843
878.824	5006
878.951	4999
879.079	5159
879.206	5311
879.333	5067
879.461	5041
879.588	4999
879.715	5083
879.842	5212
879.97	5041
880.097	4839
880.224	4778
880.351	4843
880.478	4824
880.605	4767
880.732	4839
880.859	5117
880.986	4896
881.112	4900
881.239	4755
881.366	4698
881.493	4577
881.619	4561
881.746	4577
881.872	4660
881.999	4645
882.125	4660
882.252	4759
882.378	4835
882.505	4980
882.631	4805
882.757	4656
882.883	4710
883.01	4748
883.136	4687
883.262	4653
883.388	4596
883.514	4755
883.64	4934
883.766	4805
883.892	4702
884.018	4763
884.143	4877
884.269	4949
884.395	4664
884.52	4626
884.646	4611
884.772	4603
884.897	4538
885.023	4622
885.148	4786
885.274	4885
885.399	4812
885.524	4721
885.65	4694
885.775	4698
885.9	4767
886.025	4850
886.15	4797
886.275	4714
886.4	4622
886.525	4782
886.65	4714
886.775	4714
886.9	4881
887.025	5052
887.149	4854
887.274	4694
887.399	4596
887.523	4611
887.648	4577
887.773	4580
887.897	4729
888.021	4843
888.146	4729
888.27	4797
888.395	4927
888.519	4774
888.643	4816
888.767	4809
888.891	4653
889.015	4607
889.139	4668
889.263	4622
889.387	4744
889.511	4866
889.635	4797
889.759	4637
889.883	4649
890.006	4755
890.13	4809
890.254	4573
890.377	4698
890.501	4531
890.624	4500
890.748	4679
890.871	4508
890.995	4405
891.118	4375
891.241	4508
891.364	4527
891.488	4592
891.611	4527
891.734	4542
891.857	4622
891.98	4588
892.103	4664
892.226	4592
892.349	4546
892.471	4436
892.594	4519
892.717	4626
892.839	4565
892.962	4580
893.085	4649
893.207	4607
893.33	4535
893.452	4470
893.575	4634
893.697	4573
893.819	4790
893.941	4782
894.064	4744
894.186	4603
894.308	4573
894.43	4736
894.552	4793
894.674	4748
894.796	4542
894.918	4637
895.04	4565
895.161	4721
895.283	4729
895.405	4584
895.526	4641
895.648	4672
895.769	4710
895.891	4691
896.012	4694
896.134	4687
896.255	4679
896.376	4649
896.498	4641
896.619	4649
896.74	4561
896.861	4637
896.982	4915
897.103	5067
897.224	4854
897.345	4694
897.466	4615
897.587	4721
897.708	4911
897.828	4736
897.949	4649
898.07	4573
898.19	4645
898.311	4797
898.431	4706
898.552	4744
898.672	4816
898.792	4843
898.913	4740
899.033	4565
899.153	4493
899.273	4432
899.393	4504
899.513	4512
899.633	4527
899.753	4531
899.873	4512
899.993	4592
900.113	4550
900.232	4580
900.352	4538
900.472	4462
900.591	4348
900.711	4538
900.83	4417
900.95	4618
901.069	4679
901.189	4535
901.308	4337
901.427	4329
901.546	4386
901.665	4500
901.784	4527
901.904	4375
902.023	4322
902.141	4215
902.26	4173
902.379	4299
902.498	4261
902.617	4257
902.735	4386
902.854	4402
902.973	4379
903.091	4185
903.21	4200
903.328	4272
903.446	4242
903.565	4314
903.683	4348
903.801	4272
903.919	4402
904.038	4455
904.156	4367
904.274	4447
904.392	4432
904.51	4413
904.627	4459
904.745	4569
904.863	4573
904.981	4405
905.098	4280
905.216	4379
905.334	4451
905.451	4443
905.569	4424
905.686	4588
905.803	4542
905.921	4394
906.038	4512
906.155	4459
906.272	4383
906.389	4462
906.506	4379
906.623	4424
906.74	4341
906.857	4303
906.974	4352
907.091	4550
907.208	4607
907.324	4546
907.441	4474
907.557	4337
907.674	4341
907.79	4325
907.907	4402
908.023	4497
908.139	4428
908.256	4394
908.372	4474
908.488	4447
908.604	4329
908.72	4325
908.836	4360
908.952	4375
909.068	4424
909.184	4558
909.3	4493
909.415	4577
909.531	4596
909.647	4398
909.762	4367
909.878	4352
909.993	4424
910.108	4413
910.224	4375
910.339	4466
910.454	4398
910.57	4348
910.685	4333
910.8	4615
910.915	4592
911.03	4519
911.145	4306
911.259	4344
911.374	4348
911.489	4306
911.604	4337
911.718	4173
911.833	4192
911.947	4097
912.062	4055
912.176	4185
912.291	4284
912.405	4268
912.519	4481
912.633	4478
912.748	4398
912.862	4318
912.976	4219
913.09	4063
913.204	4188
913.318	4242
913.431	4352
913.545	4367
913.659	4443
913.772	4363
913.886	4249
914	4215
914.113	4398
914.226	4440
914.34	4360
914.453	4238
914.566	4383
914.68	4295
914.793	4325
914.906	4131
915.019	4162
915.132	4082
915.245	4143
915.358	4242
915.47	4223
915.583	4238
915.696	4284
915.809	4424
915.921	4440
916.034	4265
916.146	4261
916.259	4215
916.371	4356
916.483	4329
916.595	4329
916.708	4356
916.82	4325
916.932	4333
917.044	4356
917.156	4310
917.268	4227
917.38	4322
917.491	4303
917.603	4287
917.715	4455
917.826	4455
917.938	4360
918.049	4299
918.161	4367
918.272	4531
918.384	4550
918.495	4417
918.606	4303
918.717	4185
918.828	4306
918.939	4348
919.05	4284
919.161	4386
919.272	4166
919.383	4234
919.494	4451
919.604	4630
919.715	4417
919.826	4356
919.936	4390
920.047	4546
920.157	4519
920.267	4694
920.378	4569
920.488	4516
920.598	4698
920.708	4873
920.818	4767
920.928	4725
921.038	4968
921.148	4957
921.258	4637
921.368	4573
921.477	4497
921.587	4470
921.697	4367
921.806	4558
921.916	4440
922.025	4230
922.134	4268
922.244	4196
922.353	4310
922.462	4154
922.571	4097
922.68	3994
922.789	3975
922.898	4025
923.007	3953
923.116	4078
923.224	4082
923.333	4032
923.442	3960
923.55	3983
923.659	4013
923.767	4067
923.876	3983
923.984	4090
924.092	3991
924.201	4051
924.309	4090
924.417	4086
924.525	4048
924.633	4128
924.741	5056
924.849	3884
924.956	4139
925.064	3983
925.172	3884
925.279	3953
925.387	4101
925.494	4036
925.602	4173
925.709	4173
925.816	4063
925.924	4128
926.031	4227
926.138	4173
926.245	4181
926.352	4109
926.459	4272
926.566	4318
926.673	4128
926.779	4082
926.886	4051
926.993	3949
927.099	3991
927.206	3964
927.312	3945
927.419	4048
927.525	4036
927.631	4097
927.737	3907
927.843	3907
927.95	3831
928.056	3922
928.162	3972
928.267	4044
928.373	4596
928.479	4105
928.585	3850
928.69	4055
928.796	4078
928.901	3968
929.007	3789
929.112	4002
929.218	3979
929.323	3884
929.428	3934
929.533	4105
929.638	3865
929.743	3918
929.848	4040
929.953	4029
930.058	3896
930.163	3774
930.267	3804
930.372	3915
930.477	3838
930.581	4082
930.685	3945
930.79	3778
930.894	3838
930.998	3823
931.103	4025
931.207	3694
931.311	3679
931.415	3686
931.519	3507
931.623	3564
