Data from test_V78500241_2301.txt Node
Date: Fri Mar 25 17:05:00 CST 2022
User: usil
Spectrometer: V785-0024
Trigger mode: 0
Integration Time (sec): 4.000000E-1
Scans to average: 1
Nonlinearity correction enabled: false
Boxcar width: 0
Storing dark spectrum: false
XAxis mode: Wavelengths
Number of Pixels in Spectrum: 1024
>>>>>Begin Spectral Data<<<<<
801.071	7947
801.214	7959
801.356	7879
801.499	7826
801.641	7792
801.783	7738
801.926	7928
802.068	7967
802.211	7955
802.353	8001
802.496	7784
802.638	7830
802.78	7849
802.923	7917
803.065	7890
803.208	7898
803.35	8043
803.492	8081
803.635	8187
803.777	7982
803.919	8157
804.061	8446
804.204	8202
804.346	8043
804.488	7967
804.63	8008
804.773	8012
804.915	8073
805.057	8313
805.199	8199
805.341	8229
805.483	8237
805.626	8221
805.768	8168
805.91	8180
806.052	8176
806.194	8107
806.336	8256
806.478	8096
806.62	7963
806.762	8088
806.904	8275
807.046	8450
807.188	8370
807.33	8279
807.472	8313
807.614	8138
807.756	8199
807.898	8027
808.04	7898
808.182	7875
808.324	7841
808.465	7932
808.607	7997
808.749	8115
808.891	8248
809.033	8309
809.174	8259
809.316	8126
809.458	8096
809.6	8062
809.741	8050
809.883	8039
810.025	8138
810.166	8012
810.308	8039
810.45	8020
810.591	7837
810.733	7753
810.875	7643
811.016	7506
811.158	7468
811.299	7575
811.441	7624
811.582	7662
811.724	7540
811.865	7453
812.007	7609
812.148	7575
812.29	7632
812.431	7826
812.573	7883
812.714	7970
812.855	8157
812.997	8183
813.138	8339
813.279	8191
813.421	8126
813.562	7913
813.703	7765
813.845	7670
813.986	7430
814.127	7289
814.268	7190
814.41	7236
814.551	7187
814.692	7240
814.833	7110
814.974	7156
815.115	7114
815.256	6954
815.397	6962
815.539	6916
815.68	6814
815.821	6753
815.962	6840
816.103	6871
816.244	6650
816.385	6582
816.526	6627
816.666	6464
816.807	6372
816.948	6399
817.089	6441
817.23	6395
817.371	6357
817.512	6407
817.653	6380
817.793	6380
817.934	6410
818.075	6479
818.216	6361
818.356	6391
818.497	6251
818.638	6087
818.778	6114
818.919	6171
819.06	6144
819.2	6323
819.341	6357
819.481	6365
819.622	6532
819.762	6741
819.903	6776
820.043	6566
820.184	6597
820.324	6608
820.465	6673
820.605	6665
820.746	6639
820.886	6532
821.026	6608
821.167	6749
821.307	6791
821.447	6738
821.588	6726
821.728	6612
821.868	6547
822.008	6376
822.149	6380
822.289	6391
822.429	6190
822.569	6091
822.709	6140
822.849	5965
822.99	5904
823.13	5901
823.27	5935
823.41	5809
823.55	5828
823.69	5802
823.83	5767
823.97	5707
824.11	5512
824.25	5490
824.389	5570
824.529	5608
824.669	5482
824.809	5627
824.949	5661
825.089	5661
825.228	5539
825.368	5368
825.508	5383
825.648	5357
825.787	5395
825.927	5364
826.067	5315
826.206	5239
826.346	5341
826.485	5417
826.625	5383
826.765	5532
826.904	5448
827.044	5239
827.183	5201
827.323	5094
827.462	5227
827.601	5193
827.741	5193
827.88	5193
828.02	5132
828.159	5223
828.298	5265
828.437	5402
828.577	5296
828.716	5486
828.855	5326
828.994	5166
829.134	5185
829.273	5162
829.412	5189
829.551	5090
829.69	5212
829.829	5250
829.968	5364
830.107	5220
830.246	5288
830.385	5178
830.524	5132
830.663	5041
830.802	4949
830.941	4900
831.08	4843
831.219	4987
831.357	4972
831.496	5185
831.635	4904
831.774	4797
831.913	4858
832.051	4744
832.19	4782
832.329	4805
832.467	4717
832.606	4634
832.744	4721
832.883	4744
833.022	4755
833.16	4812
833.299	4831
833.437	4782
833.576	4877
833.714	4854
833.852	4923
833.991	4892
834.129	4923
834.267	4957
834.406	4873
834.544	4984
834.682	4961
834.821	4934
834.959	5159
835.097	4968
835.235	5113
835.373	5060
835.511	5109
835.65	5025
835.788	5041
835.926	4919
836.064	4930
836.202	4930
836.34	5147
836.478	5216
836.615	5109
836.753	5181
836.891	5326
837.029	5307
837.167	5231
837.305	5162
837.443	5121
837.58	5083
837.718	5235
837.856	5178
837.993	5136
838.131	5242
838.269	5235
838.406	5231
838.544	5094
838.681	5041
838.819	5010
838.956	4873
839.094	4919
839.231	5006
839.369	5098
839.506	5444
839.643	5258
839.781	5033
839.918	5014
840.055	5102
840.193	5124
840.33	5117
840.467	5136
840.604	5170
840.742	5463
840.879	5124
841.016	5060
841.153	5140
841.29	5353
841.427	5379
841.564	5322
841.701	5376
841.838	5261
841.975	5197
842.112	5269
842.249	5121
842.385	5090
842.522	5292
842.659	5201
842.796	5159
842.933	5235
843.069	5208
843.206	5170
843.343	5269
843.479	5227
843.616	5277
843.752	5037
843.889	5045
844.025	5185
844.162	4972
844.298	5235
844.435	5124
844.571	5064
844.708	5208
844.844	5315
844.98	5315
845.117	5322
845.253	5166
845.389	5094
845.525	5178
845.661	5151
845.798	5052
845.934	5117
846.07	5052
846.206	5166
846.342	5284
846.478	5212
846.614	4942
846.75	4999
846.886	4900
847.022	5181
847.158	5014
847.294	5105
847.429	5124
847.565	4995
847.701	5315
847.837	4866
847.972	4820
848.108	4961
848.244	4896
848.379	4759
848.515	4759
848.65	4687
848.786	4710
848.921	4778
849.057	4866
849.192	4858
849.328	4786
849.463	4889
849.598	4816
849.734	4790
849.869	4664
850.004	4603
850.14	4630
850.275	4603
850.41	4542
850.545	4558
850.68	4641
850.815	4626
850.95	4637
851.085	4885
851.22	4740
851.355	4668
851.49	4645
851.625	4622
851.76	4634
851.895	4607
852.03	4493
852.165	4634
852.299	4706
852.434	4782
852.569	4759
852.703	4805
852.838	4847
852.973	4919
853.107	4908
853.242	4675
853.376	4641
853.511	4523
853.645	4580
853.78	4805
853.914	4740
854.048	4691
854.183	4630
854.317	4710
854.451	4816
854.585	4721
854.72	4641
854.854	4721
854.988	4630
855.122	4622
855.256	4493
855.39	4664
855.524	4835
855.658	4656
855.792	4672
855.926	4691
856.06	4748
856.194	4797
856.327	4706
856.461	4618
856.595	4615
856.729	4622
856.862	4778
856.996	4679
857.13	4744
857.263	4797
857.397	4778
857.53	4630
857.664	4687
857.797	4771
857.931	4771
858.064	4694
858.197	4748
858.331	4637
858.464	4565
858.597	4531
858.731	4584
858.864	4683
858.997	4641
859.13	4687
859.263	4664
859.396	4687
859.529	4618
859.662	4558
859.795	4561
859.928	4630
860.061	4725
860.194	4736
860.327	4569
860.46	4611
860.592	4664
860.725	4714
860.858	4725
860.99	4546
861.123	4588
861.256	4546
861.388	4588
861.521	5277
861.653	4436
861.786	4383
861.918	4440
862.05	4489
862.183	4535
862.315	4554
862.447	4588
862.58	4542
862.712	4394
862.844	4363
862.976	4432
863.108	4489
863.24	4843
863.372	4367
863.504	4459
863.636	4398
863.768	4493
863.9	4413
864.032	4367
864.164	4409
864.296	4421
864.428	4535
864.559	4580
864.691	4531
864.823	4481
864.954	4474
865.086	4523
865.217	4462
865.349	4436
865.48	4459
865.612	4485
865.743	4630
865.875	4436
866.006	4409
866.137	4447
866.269	4428
866.4	4455
866.531	4424
866.662	4398
866.793	4398
866.924	4386
867.055	4470
867.186	4436
867.317	4417
867.448	4379
867.579	4379
867.71	4402
867.841	4333
867.972	4462
868.103	4478
868.233	4432
868.364	4489
868.495	4474
868.625	4687
868.756	4744
868.886	4512
869.017	4634
869.147	4767
869.278	4752
869.408	4672
869.539	4649
869.669	4710
869.799	4615
869.929	4801
870.06	4752
870.19	4915
870.32	4896
870.45	4915
870.58	4999
870.71	5033
870.84	5094
870.97	4949
871.1	4881
871.23	5113
871.36	5178
871.489	5014
871.619	5071
871.749	5067
871.879	5121
872.008	5166
872.138	5094
872.267	5025
872.397	4831
872.526	4782
872.656	4740
872.785	4782
872.915	5003
873.044	5029
873.173	4961
873.303	4946
873.432	4889
873.561	4873
873.69	4870
873.819	4889
873.948	4946
874.077	4812
874.206	4717
874.335	4854
874.464	4896
874.593	5048
874.722	4957
874.851	5121
874.979	5079
875.108	5060
875.237	4938
875.365	4892
875.494	4911
875.623	4972
875.751	4816
875.88	4881
876.008	4972
876.136	5037
876.265	5227
876.393	5330
876.521	5208
876.65	5239
876.778	5151
876.906	5067
877.034	5006
877.162	5075
877.29	4949
877.418	5067
877.546	5033
877.674	5041
877.802	5045
877.93	4991
878.058	4953
878.185	4873
878.313	4949
878.441	4915
878.568	4771
878.696	4877
878.824	4946
878.951	5022
879.079	5071
879.206	5250
879.333	5086
879.461	5010
879.588	4995
879.715	5052
879.842	5227
879.97	5006
880.097	4812
880.224	4725
880.351	4812
880.478	4771
880.605	4847
880.732	4771
880.859	5083
880.986	4885
881.112	4927
881.239	4782
881.366	4634
881.493	4637
881.619	4588
881.746	4622
881.872	4672
881.999	4584
882.125	4653
882.252	4786
882.378	4793
882.505	4999
882.631	4755
882.757	4664
882.883	4740
883.01	4710
883.136	4622
883.262	4622
883.388	4573
883.514	4786
883.64	4885
883.766	4736
883.892	4660
884.018	4733
884.143	4835
884.269	5018
884.395	4702
884.52	4588
884.646	4645
884.772	4599
884.897	4592
885.023	4691
885.148	4755
885.274	4892
885.399	4809
885.524	4691
885.65	4714
885.775	4752
885.9	4710
886.025	4831
886.15	4805
886.275	4717
886.4	4702
886.525	4694
886.65	4698
886.775	4710
886.9	4900
887.025	5018
887.149	4793
887.274	4603
887.399	4615
887.523	4565
887.648	4542
887.773	4558
887.897	4763
888.021	4759
888.146	4687
888.27	4809
888.395	4949
888.519	4786
888.643	4843
888.767	4847
888.891	4675
889.015	4615
889.139	4653
889.263	4622
889.387	4729
889.511	4873
889.635	4767
889.759	4637
889.883	4630
890.006	4778
890.13	4828
890.254	4592
890.377	4649
890.501	4577
890.624	4512
890.748	4675
890.871	4478
890.995	4436
891.118	4363
891.241	4550
891.364	4573
891.488	4618
891.611	4459
891.734	4561
891.857	4603
891.98	4554
892.103	4607
892.226	4573
892.349	4550
892.471	4424
892.594	4523
892.717	4599
892.839	4531
892.962	4607
893.085	4634
893.207	4588
893.33	4474
893.452	4504
893.575	4607
893.697	4577
893.819	4748
893.941	4759
894.064	4771
894.186	4603
894.308	4535
894.43	4714
894.552	4820
894.674	4733
894.796	4519
894.918	4596
895.04	4546
895.161	4706
895.283	4679
895.405	4580
895.526	4653
895.648	4714
895.769	4672
895.891	4717
896.012	4763
896.134	4691
896.255	4634
896.376	4611
896.498	4592
896.619	4634
896.74	4630
896.861	4660
896.982	4923
897.103	5048
897.224	4797
897.345	4771
897.466	4664
897.587	4714
897.708	4873
897.828	4809
897.949	4622
898.07	4573
898.19	4691
898.311	4809
898.431	4645
898.552	4729
898.672	4778
898.792	4763
898.913	4729
899.033	4618
899.153	4519
899.273	4432
899.393	4485
899.513	4538
899.633	4565
899.753	4535
899.873	4447
899.993	4634
900.113	4558
900.232	4588
900.352	4569
900.472	4523
900.591	4367
900.711	4470
900.83	4459
900.95	4618
901.069	4687
901.189	4516
901.308	4344
901.427	4318
901.546	4402
901.665	4432
901.784	4508
901.904	4398
902.023	4322
902.141	4169
902.26	4181
902.379	4280
902.498	4227
902.617	4227
902.735	4333
902.854	4352
902.973	4390
903.091	4215
903.21	4253
903.328	4246
903.446	4272
903.565	4268
903.683	4310
903.801	4234
903.919	4394
904.038	4413
904.156	4284
904.274	4386
904.392	4386
904.51	4455
904.627	4459
904.745	4573
904.863	4618
904.981	4409
905.098	4325
905.216	4390
905.334	4455
905.451	4424
905.569	4500
905.686	4584
905.803	4561
905.921	4383
906.038	4523
906.155	4478
906.272	4413
906.389	4462
906.506	4322
906.623	4310
906.74	4386
906.857	4272
906.974	4383
907.091	4603
907.208	4660
907.324	4626
907.441	4443
907.557	4314
907.674	4333
907.79	4341
907.907	4348
908.023	4462
908.139	4466
908.256	4424
908.372	4459
908.488	4424
908.604	4375
908.72	4314
908.836	4375
908.952	4375
909.068	4417
909.184	4580
909.3	4462
909.415	4592
909.531	4531
909.647	4291
909.762	4333
909.878	4371
909.993	4421
910.108	4421
910.224	4402
910.339	4390
910.454	4440
910.57	4352
910.685	4329
910.8	4637
910.915	4596
911.03	4455
911.145	4337
911.259	4333
911.374	4360
911.489	4299
911.604	4246
911.718	4173
911.833	4166
911.947	4071
912.062	4048
912.176	4207
912.291	4284
912.405	4253
912.519	4478
912.633	4478
912.748	4371
912.862	4314
912.976	4242
913.09	4124
913.204	4185
913.318	4257
913.431	4371
913.545	4352
913.659	4405
913.772	4333
913.886	4272
914	4234
914.113	4337
914.226	4443
914.34	4405
914.453	4215
914.566	4436
914.68	4329
914.793	4303
914.906	4177
915.019	4082
915.132	4078
915.245	4143
915.358	4173
915.47	4215
915.583	4242
915.696	4314
915.809	4386
915.921	4421
916.034	4219
916.146	4238
916.259	4238
916.371	4383
916.483	4341
916.595	4276
916.708	4322
916.82	4322
916.932	4318
917.044	4325
917.156	4375
917.268	4177
917.38	4230
917.491	4246
917.603	4344
917.715	4405
917.826	4409
917.938	4318
918.049	4211
918.161	4409
918.272	4542
918.384	4542
918.495	4478
918.606	4333
918.717	4242
918.828	4344
918.939	4348
919.05	4242
919.161	4287
919.272	4109
919.383	4219
919.494	4405
919.604	4615
919.715	4413
919.826	4318
919.936	4390
920.047	4592
920.157	4527
920.267	4675
920.378	4527
920.488	4481
920.598	4717
920.708	4892
920.818	4752
920.928	4740
921.038	4953
921.148	4927
921.258	4592
921.368	4565
921.477	4470
921.587	4474
921.697	4402
921.806	4538
921.916	4386
922.025	4284
922.134	4284
922.244	4234
922.353	4341
922.462	4128
922.571	4135
922.68	3994
922.789	3972
922.898	4021
923.007	3991
923.116	4120
923.224	4109
923.333	4097
923.442	3975
923.55	3956
923.659	4048
923.767	4105
923.876	3972
923.984	4090
924.092	4010
924.201	4032
924.309	4124
924.417	4078
924.525	4048
924.633	4090
924.741	5045
924.849	3915
924.956	4135
925.064	3960
925.172	3896
925.279	3994
925.387	4055
925.494	4017
925.602	4173
925.709	4173
925.816	4074
925.924	4105
926.031	4196
926.138	4192
926.245	4192
926.352	4101
926.459	4265
926.566	4276
926.673	4131
926.779	4090
926.886	4086
926.993	4006
927.099	3899
927.206	3975
927.312	3979
927.419	4063
927.525	4017
927.631	4101
927.737	3945
927.843	3945
927.95	3823
928.056	3949
928.162	3941
928.267	4055
928.373	4733
928.479	4097
928.585	3808
928.69	4036
928.796	4040
928.901	3960
929.007	3816
929.112	3994
929.218	3975
929.323	3896
929.428	3926
929.533	4071
929.638	3892
929.743	3930
929.848	4071
929.953	3991
930.058	3953
930.163	3797
930.267	3838
930.372	3926
930.477	3808
930.581	4101
930.685	3960
930.79	3869
930.894	3873
930.998	3846
931.103	4074
931.207	3724
931.311	3713
931.415	3667
931.519	3564
931.623	3519
