Data from test_V78500241_28.txt Node
Date: Fri Mar 25 16:49:11 CST 2022
User: usil
Spectrometer: V785-0024
Trigger mode: 0
Integration Time (sec): 4.000000E-1
Scans to average: 1
Nonlinearity correction enabled: false
Boxcar width: 0
Storing dark spectrum: false
XAxis mode: Wavelengths
Number of Pixels in Spectrum: 1024
>>>>>Begin Spectral Data<<<<<
801.071	8054
801.214	8130
801.356	8008
801.499	7978
801.641	7902
801.783	7875
801.926	8050
802.068	8027
802.211	8130
802.353	8096
802.496	8073
802.638	8084
802.78	8001
802.923	8062
803.065	7883
803.208	7902
803.35	8035
803.492	8119
803.635	8218
803.777	7978
803.919	8073
804.061	8450
804.204	8248
804.346	8100
804.488	8005
804.63	8145
804.773	8100
804.915	8084
805.057	8252
805.199	8240
805.341	8305
805.483	8347
805.626	8263
805.768	8202
805.91	8294
806.052	8210
806.194	8096
806.336	8381
806.478	8195
806.62	8142
806.762	8145
806.904	8317
807.046	8499
807.188	8404
807.33	8332
807.472	8385
807.614	8214
807.756	8180
807.898	8088
808.04	7967
808.182	7978
808.324	8020
808.465	7947
808.607	8035
808.749	8084
808.891	8195
809.033	8290
809.174	8199
809.316	8043
809.458	8088
809.6	8024
809.741	8035
809.883	8016
810.025	8164
810.166	8138
810.308	8119
810.45	8100
810.591	7967
810.733	7833
810.875	7712
811.016	7601
811.158	7563
811.299	7662
811.441	7845
811.582	7807
811.724	7655
811.865	7605
812.007	7655
812.148	7666
812.29	7689
812.431	7753
812.573	7917
812.714	8020
812.855	8123
812.997	8252
813.138	8366
813.279	8229
813.421	8172
813.562	8157
813.703	7917
813.845	7757
813.986	7571
814.127	7327
814.268	7289
814.41	7297
814.551	7232
814.692	7236
814.833	7198
814.974	7175
815.115	7099
815.256	6985
815.397	6970
815.539	6954
815.68	6859
815.821	6871
815.962	6920
816.103	6856
816.244	6768
816.385	6642
816.526	6681
816.666	6525
816.807	6418
816.948	6437
817.089	6513
817.23	6509
817.371	6464
817.512	6441
817.653	6422
817.793	6445
817.934	6490
818.075	6528
818.216	6486
818.356	6506
818.497	6350
818.638	6155
818.778	6239
818.919	6209
819.06	6163
819.2	6361
819.341	6380
819.481	6456
819.622	6585
819.762	6764
819.903	6753
820.043	6650
820.184	6658
820.324	6642
820.465	6764
820.605	6749
820.746	6662
820.886	6601
821.026	6753
821.167	6802
821.307	6852
821.447	6791
821.588	6726
821.728	6616
821.868	6547
822.008	6319
822.149	6403
822.289	6361
822.429	6254
822.569	6140
822.709	6133
822.849	5950
822.99	5980
823.13	6026
823.27	5984
823.41	5847
823.55	5851
823.69	5847
823.83	5824
823.97	5790
824.11	5585
824.25	5512
824.389	5630
824.529	5630
824.669	5577
824.809	5695
824.949	5729
825.089	5657
825.228	5623
825.368	5459
825.508	5429
825.648	5406
825.787	5478
825.927	5406
826.067	5307
826.206	5425
826.346	5376
826.485	5433
826.625	5455
826.765	5558
826.904	5512
827.044	5296
827.183	5269
827.323	5178
827.462	5288
827.601	5273
827.741	5239
827.88	5307
828.02	5136
828.159	5303
828.298	5383
828.437	5395
828.577	5383
828.716	5547
828.855	5398
828.994	5216
829.134	5166
829.273	5269
829.412	5193
829.551	5204
829.69	5280
829.829	5315
829.968	5421
830.107	5372
830.246	5311
830.385	5216
830.524	5159
830.663	5159
830.802	5071
830.941	4938
831.08	4946
831.219	5090
831.357	5037
831.496	5185
831.635	4965
831.774	4934
831.913	4923
832.051	4755
832.19	4778
832.329	4904
832.467	4729
832.606	4698
832.744	4771
832.883	4763
833.022	4748
833.16	4843
833.299	4900
833.437	4820
833.576	4889
833.714	4934
833.852	4938
833.991	4961
834.129	4957
834.267	5025
834.406	4923
834.544	4991
834.682	5018
834.821	5003
834.959	5258
835.097	5010
835.235	5212
835.373	5136
835.511	5102
835.65	5083
835.788	5105
835.926	4949
836.064	4911
836.202	4984
836.34	5261
836.478	5265
836.615	5197
836.753	5277
836.891	5364
837.029	5318
837.167	5242
837.305	5204
837.443	5193
837.58	5067
837.718	5341
837.856	5261
837.993	5136
838.131	5231
838.269	5235
838.406	5292
838.544	5265
838.681	5083
838.819	5067
838.956	5003
839.094	4972
839.231	4995
839.369	5083
839.506	5474
839.643	5337
839.781	5052
839.918	5086
840.055	5102
840.193	5174
840.33	5197
840.467	5143
840.604	5246
840.742	5486
840.879	5151
841.016	5113
841.153	5220
841.29	5436
841.427	5364
841.564	5391
841.701	5459
841.838	5326
841.975	5265
842.112	5349
842.249	5174
842.385	5178
842.522	5391
842.659	5280
842.796	5261
842.933	5273
843.069	5174
843.206	5212
843.343	5360
843.479	5288
843.616	5349
843.752	5079
843.889	4999
844.025	5239
844.162	5041
844.298	5269
844.435	5162
844.571	5113
844.708	5242
844.844	5330
844.98	5406
845.117	5349
845.253	5189
845.389	5117
845.525	5201
845.661	5170
845.798	5071
845.934	5193
846.07	5128
846.206	5223
846.342	5349
846.478	5212
846.614	5006
846.75	5033
846.886	4949
847.022	5216
847.158	5075
847.294	5147
847.429	5159
847.565	5086
847.701	5330
847.837	4877
847.972	4843
848.108	5006
848.244	4946
848.379	4850
848.515	4771
848.65	4782
848.786	4778
848.921	4797
849.057	4911
849.192	4900
849.328	4889
849.463	4915
849.598	4866
849.734	4820
849.869	4755
850.004	4637
850.14	4660
850.275	4664
850.41	4588
850.545	4630
850.68	4637
850.815	4698
850.95	4710
851.085	4847
851.22	4847
851.355	4714
851.49	4596
851.625	4637
851.76	4736
851.895	4618
852.03	4588
852.165	4702
852.299	4805
852.434	4809
852.569	4828
852.703	4828
852.838	4889
852.973	4946
853.107	4938
853.242	4801
853.376	4755
853.511	4558
853.645	4687
853.78	4866
853.914	4736
854.048	4691
854.183	4675
854.317	4736
854.451	4870
854.585	4748
854.72	4725
854.854	4755
854.988	4615
855.122	4672
855.256	4561
855.39	4672
855.524	4828
855.658	4805
855.792	4759
855.926	4767
856.06	4847
856.194	4873
856.327	4752
856.461	4664
856.595	4660
856.729	4626
856.862	4816
856.996	4755
857.13	4790
857.263	4790
857.397	4877
857.53	4733
857.664	4721
857.797	4839
857.931	4835
858.064	4736
858.197	4786
858.331	4706
858.464	4656
858.597	4554
858.731	4679
858.864	4729
858.997	4645
859.13	4729
859.263	4733
859.396	4786
859.529	4687
859.662	4573
859.795	4588
859.928	4710
860.061	4824
860.194	4870
860.327	4664
860.46	4611
860.592	4744
860.725	4774
860.858	4801
860.99	4649
861.123	4538
861.256	4561
861.388	4656
861.521	5402
861.653	4531
861.786	4504
861.918	4462
862.05	4558
862.183	4618
862.315	4717
862.447	4729
862.58	4599
862.712	4413
862.844	4360
862.976	4485
863.108	4500
863.24	4892
863.372	4375
863.504	4432
863.636	4478
863.768	4512
863.9	4508
864.032	4367
864.164	4432
864.296	4500
864.428	4626
864.559	4599
864.691	4554
864.823	4580
864.954	4519
865.086	4577
865.217	4493
865.349	4459
865.48	4485
865.612	4523
865.743	4687
865.875	4535
866.006	4447
866.137	4550
866.269	4436
866.4	4500
866.531	4481
866.662	4478
866.793	4428
866.924	4470
867.055	4516
867.186	4523
867.317	4470
867.448	4409
867.579	4436
867.71	4478
867.841	4417
867.972	4474
868.103	4493
868.233	4489
868.364	4474
868.495	4523
868.625	4717
868.756	4816
868.886	4592
869.017	4675
869.147	4828
869.278	4797
869.408	4675
869.539	4721
869.669	4763
869.799	4702
869.929	4797
870.06	4778
870.19	5029
870.32	4999
870.45	4976
870.58	5025
870.71	5166
870.84	5113
870.97	4991
871.1	4938
871.23	5227
871.36	5197
871.489	5094
871.619	5136
871.749	5159
871.879	5155
872.008	5273
872.138	5113
872.267	5056
872.397	4915
872.526	4809
872.656	4801
872.785	4824
872.915	5056
873.044	5041
873.173	4968
873.303	4995
873.432	5029
873.561	4965
873.69	4915
873.819	4942
873.948	4965
874.077	4900
874.206	4778
874.335	4843
874.464	4923
874.593	5041
874.722	4976
874.851	5151
874.979	5124
875.108	5056
875.237	4961
875.365	4908
875.494	4934
875.623	5014
875.751	4866
875.88	4911
876.008	4987
876.136	5117
876.265	5189
876.393	5417
876.521	5277
876.65	5273
876.778	5208
876.906	5102
877.034	5071
877.162	5094
877.29	4991
877.418	5132
877.546	5094
877.674	5102
877.802	5018
877.93	5109
878.058	5018
878.185	4908
878.313	5045
878.441	5003
878.568	4854
878.696	4923
878.824	5006
878.951	5029
879.079	5212
879.206	5345
879.333	5193
879.461	5041
879.588	5033
879.715	5155
879.842	5284
879.97	5037
880.097	4866
880.224	4771
880.351	4831
880.478	4900
880.605	4881
880.732	4839
880.859	5143
880.986	4946
881.112	4987
881.239	4828
881.366	4710
881.493	4641
881.619	4634
881.746	4698
881.872	4698
881.999	4729
882.125	4740
882.252	4812
882.378	4896
882.505	5014
882.631	4866
882.757	4721
882.883	4786
883.01	4786
883.136	4702
883.262	4656
883.388	4668
883.514	4896
883.64	4896
883.766	4820
883.892	4702
884.018	4774
884.143	4911
884.269	5041
884.395	4725
884.52	4668
884.646	4698
884.772	4660
884.897	4584
885.023	4714
885.148	4828
885.274	4896
885.399	4782
885.524	4782
885.65	4759
885.775	4786
885.9	4771
886.025	4946
886.15	4793
886.275	4778
886.4	4714
886.525	4748
886.65	4733
886.775	4729
886.9	4915
887.025	5094
887.149	4820
887.274	4698
887.399	4637
887.523	4645
887.648	4615
887.773	4672
887.897	4854
888.021	4816
888.146	4752
888.27	4816
888.395	4976
888.519	4809
888.643	4904
888.767	4908
888.891	4733
889.015	4634
889.139	4725
889.263	4637
889.387	4816
889.511	4892
889.635	4847
889.759	4706
889.883	4683
890.006	4759
890.13	4866
890.254	4717
890.377	4755
890.501	4599
890.624	4588
890.748	4679
890.871	4558
890.995	4417
891.118	4421
891.241	4550
891.364	4611
891.488	4683
891.611	4504
891.734	4584
891.857	4653
891.98	4630
892.103	4687
892.226	4645
892.349	4504
892.471	4459
892.594	4634
892.717	4630
892.839	4607
892.962	4675
893.085	4717
893.207	4637
893.33	4512
893.452	4618
893.575	4653
893.697	4641
893.819	4828
893.941	4850
894.064	4831
894.186	4649
894.308	4653
894.43	4774
894.552	4854
894.674	4816
894.796	4577
894.918	4630
895.04	4588
895.161	4698
895.283	4679
895.405	4584
895.526	4672
895.648	4752
895.769	4736
895.891	4763
896.012	4771
896.134	4786
896.255	4744
896.376	4683
896.498	4649
896.619	4748
896.74	4630
896.861	4653
896.982	4976
897.103	5109
897.224	4870
897.345	4809
897.466	4725
897.587	4812
897.708	4908
897.828	4839
897.949	4714
898.07	4573
898.19	4691
898.311	4862
898.431	4698
898.552	4778
898.672	4881
898.792	4835
898.913	4843
899.033	4687
899.153	4577
899.273	4470
899.393	4569
899.513	4550
899.633	4550
899.753	4626
899.873	4580
899.993	4626
900.113	4573
900.232	4626
900.352	4622
900.472	4519
900.591	4462
900.711	4516
900.83	4451
900.95	4622
901.069	4740
901.189	4577
901.308	4428
901.427	4398
901.546	4379
901.665	4500
901.784	4584
901.904	4405
902.023	4398
902.141	4234
902.26	4204
902.379	4314
902.498	4291
902.617	4318
902.735	4428
902.854	4451
902.973	4390
903.091	4276
903.21	4268
903.328	4375
903.446	4333
903.565	4287
903.683	4383
903.801	4322
903.919	4459
904.038	4466
904.156	4398
904.274	4497
904.392	4428
904.51	4455
904.627	4512
904.745	4618
904.863	4691
904.981	4481
905.098	4402
905.216	4421
905.334	4500
905.451	4538
905.569	4519
905.686	4584
905.803	4592
905.921	4424
906.038	4577
906.155	4516
906.272	4440
906.389	4519
906.506	4402
906.623	4417
906.74	4451
906.857	4329
906.974	4455
907.091	4618
907.208	4725
907.324	4668
907.441	4508
907.557	4356
907.674	4352
907.79	4337
907.907	4459
908.023	4493
908.139	4497
908.256	4440
908.372	4542
908.488	4493
908.604	4417
908.72	4360
908.836	4436
908.952	4440
909.068	4459
909.184	4634
909.3	4535
909.415	4664
909.531	4580
909.647	4383
909.762	4405
909.878	4379
909.993	4485
910.108	4459
910.224	4451
910.339	4470
910.454	4443
910.57	4394
910.685	4322
910.8	4687
910.915	4634
911.03	4550
911.145	4344
911.259	4363
911.374	4379
911.489	4352
911.604	4329
911.718	4207
911.833	4280
911.947	4097
912.062	4101
912.176	4242
912.291	4291
912.405	4314
912.519	4516
912.633	4569
912.748	4485
912.862	4390
912.976	4284
913.09	4105
913.204	4200
913.318	4284
913.431	4417
913.545	4440
913.659	4512
913.772	4383
913.886	4284
914	4272
914.113	4398
914.226	4443
914.34	4413
914.453	4234
914.566	4478
914.68	4348
914.793	4341
914.906	4200
915.019	4196
915.132	4120
915.245	4234
915.358	4234
915.47	4299
915.583	4276
915.696	4363
915.809	4466
915.921	4500
916.034	4299
916.146	4257
916.259	4261
916.371	4386
916.483	4379
916.595	4280
916.708	4329
916.82	4325
916.932	4390
917.044	4371
917.156	4352
917.268	4287
917.38	4314
917.491	4337
917.603	4398
917.715	4451
917.826	4481
917.938	4386
918.049	4242
918.161	4379
918.272	4592
918.384	4588
918.495	4466
918.606	4367
918.717	4276
918.828	4360
918.939	4462
919.05	4306
919.161	4329
919.272	4188
919.383	4246
919.494	4493
919.604	4634
919.715	4462
919.826	4379
919.936	4451
920.047	4531
920.157	4523
920.267	4786
920.378	4550
920.488	4535
920.598	4771
920.708	4923
920.818	4824
920.928	4748
921.038	4980
921.148	4946
921.258	4714
921.368	4599
921.477	4523
921.587	4531
921.697	4428
921.806	4584
921.916	4493
922.025	4337
922.134	4310
922.244	4249
922.353	4394
922.462	4211
922.571	4158
922.68	4040
922.789	4010
922.898	4116
923.007	4044
923.116	4147
923.224	4154
923.333	4082
923.442	4040
923.55	4017
923.659	4086
923.767	4162
923.876	4032
923.984	4112
924.092	4021
924.201	4109
924.309	4139
924.417	4154
924.525	4074
924.633	4169
924.741	5067
924.849	3941
924.956	4200
925.064	3994
925.172	3949
925.279	4006
925.387	4101
925.494	4078
925.602	4227
925.709	4249
925.816	4120
925.924	4166
926.031	4253
926.138	4200
926.245	4230
926.352	4124
926.459	4295
926.566	4333
926.673	4207
926.779	4116
926.886	4120
926.993	4010
927.099	3949
927.206	4021
927.312	4010
927.419	4082
927.525	4093
927.631	4116
927.737	4040
927.843	3926
927.95	3884
928.056	3975
928.162	4036
928.267	4128
928.373	4729
928.479	4147
928.585	3896
928.69	4032
928.796	4154
928.901	4021
929.007	3892
929.112	4101
929.218	4010
929.323	3987
929.428	3987
929.533	4139
929.638	3945
929.743	4010
929.848	4048
929.953	4025
930.058	3983
930.163	3850
930.267	3896
930.372	4010
930.477	3865
930.581	4147
930.685	3983
930.79	3865
930.894	3953
930.998	3907
931.103	4055
931.207	3751
931.311	3720
931.415	3682
931.519	3538
931.623	3610
