Data from test_V78500241_2019.txt Node
Date: Fri Mar 25 17:03:02 CST 2022
User: usil
Spectrometer: V785-0024
Trigger mode: 0
Integration Time (sec): 4.000000E-1
Scans to average: 1
Nonlinearity correction enabled: false
Boxcar width: 0
Storing dark spectrum: false
XAxis mode: Wavelengths
Number of Pixels in Spectrum: 1024
>>>>>Begin Spectral Data<<<<<
801.071	8008
801.214	7993
801.356	7830
801.499	7849
801.641	7795
801.783	7822
801.926	8008
802.068	7936
802.211	8005
802.353	8005
802.496	7883
802.638	7906
802.78	7925
802.923	7902
803.065	7811
803.208	7871
803.35	8020
803.492	8115
803.635	8145
803.777	8012
803.919	8145
804.061	8488
804.204	8180
804.346	8001
804.488	7940
804.63	8107
804.773	8001
804.915	8069
805.057	8381
805.199	8100
805.341	8252
805.483	8218
805.626	8180
805.768	8145
805.91	8240
806.052	8187
806.194	8157
806.336	8286
806.478	8119
806.62	8069
806.762	8153
806.904	8305
807.046	8503
807.188	8336
807.33	8377
807.472	8389
807.614	8195
807.756	8153
807.898	8012
808.04	7849
808.182	7909
808.324	7928
808.465	7871
808.607	8046
808.749	8130
808.891	8252
809.033	8271
809.174	8229
809.316	8081
809.458	8016
809.6	8058
809.741	8046
809.883	8031
810.025	8123
810.166	8115
810.308	8020
810.45	8046
810.591	7871
810.733	7738
810.875	7662
811.016	7548
811.158	7419
811.299	7567
811.441	7772
811.582	7757
811.724	7597
811.865	7540
812.007	7616
812.148	7632
812.29	7655
812.431	7715
812.573	7970
812.714	8008
812.855	8084
812.997	8229
813.138	8339
813.279	8172
813.421	8043
813.562	7974
813.703	7826
813.845	7841
813.986	7419
814.127	7247
814.268	7247
814.41	7103
814.551	7114
814.692	7209
814.833	7118
814.974	7076
815.115	7129
815.256	6970
815.397	6962
815.539	6970
815.68	6791
815.821	6760
815.962	6848
816.103	6783
816.244	6719
816.385	6570
816.526	6669
816.666	6502
816.807	6372
816.948	6464
817.089	6528
817.23	6433
817.371	6342
817.512	6361
817.653	6350
817.793	6395
817.934	6433
818.075	6414
818.216	6437
818.356	6391
818.497	6273
818.638	6167
818.778	6159
818.919	6167
819.06	6159
819.2	6311
819.341	6323
819.481	6399
819.622	6601
819.762	6707
819.903	6757
820.043	6509
820.184	6574
820.324	6604
820.465	6681
820.605	6703
820.746	6627
820.886	6471
821.026	6662
821.167	6734
821.307	6753
821.447	6734
821.588	6627
821.728	6585
821.868	6479
822.008	6338
822.149	6384
822.289	6365
822.429	6205
822.569	6026
822.709	6106
822.849	5950
822.99	5893
823.13	5973
823.27	5965
823.41	5821
823.55	5817
823.69	5790
823.83	5748
823.97	5634
824.11	5532
824.25	5486
824.389	5528
824.529	5615
824.669	5516
824.809	5680
824.949	5649
825.089	5649
825.228	5535
825.368	5417
825.508	5395
825.648	5349
825.787	5414
825.927	5406
826.067	5288
826.206	5299
826.346	5372
826.485	5383
826.625	5402
826.765	5551
826.904	5440
827.044	5223
827.183	5174
827.323	5181
827.462	5254
827.601	5227
827.741	5166
827.88	5227
828.02	5147
828.159	5239
828.298	5341
828.437	5337
828.577	5269
828.716	5577
828.855	5326
828.994	5102
829.134	5159
829.273	5208
829.412	5151
829.551	5147
829.69	5223
829.829	5284
829.968	5410
830.107	5296
830.246	5273
830.385	5151
830.524	5159
830.663	5060
830.802	4999
830.941	4911
831.08	4908
831.219	4984
831.357	4995
831.496	5155
831.635	4938
831.774	4820
831.913	4828
832.051	4767
832.19	4771
832.329	4850
832.467	4653
832.606	4691
832.744	4736
832.883	4694
833.022	4706
833.16	4763
833.299	4831
833.437	4873
833.576	4828
833.714	4866
833.852	4881
833.991	4877
834.129	4946
834.267	4968
834.406	4889
834.544	4957
834.682	4957
834.821	4972
834.959	5185
835.097	4968
835.235	5105
835.373	5048
835.511	5109
835.65	5094
835.788	4995
835.926	4896
836.064	4900
836.202	4896
836.34	5170
836.478	5212
836.615	5113
836.753	5231
836.891	5326
837.029	5273
837.167	5235
837.305	5166
837.443	5147
837.58	5113
837.718	5223
837.856	5159
837.993	5086
838.131	5277
838.269	5204
838.406	5239
838.544	5174
838.681	5018
838.819	4968
838.956	4946
839.094	4862
839.231	5006
839.369	5102
839.506	5395
839.643	5220
839.781	5018
839.918	5025
840.055	5117
840.193	5105
840.33	5102
840.467	5113
840.604	5201
840.742	5433
840.879	5090
841.016	5067
841.153	5143
841.29	5372
841.427	5349
841.564	5303
841.701	5334
841.838	5299
841.975	5185
842.112	5265
842.249	5143
842.385	5109
842.522	5345
842.659	5223
842.796	5136
842.933	5227
843.069	5140
843.206	5166
843.343	5318
843.479	5250
843.616	5277
843.752	5052
843.889	5045
844.025	5189
844.162	5037
844.298	5174
844.435	5117
844.571	5041
844.708	5197
844.844	5349
844.98	5345
845.117	5307
845.253	5166
845.389	5109
845.525	5166
845.661	5181
845.798	5067
845.934	5113
846.07	5045
846.206	5197
846.342	5288
846.478	5166
846.614	5003
846.75	4957
846.886	4972
847.022	5159
847.158	5006
847.294	5067
847.429	5121
847.565	5037
847.701	5284
847.837	4835
847.972	4831
848.108	4915
848.244	4892
848.379	4736
848.515	4771
848.65	4752
848.786	4725
848.921	4755
849.057	4881
849.192	4911
849.328	4835
849.463	4889
849.598	4774
849.734	4752
849.869	4721
850.004	4664
850.14	4683
850.275	4599
850.41	4603
850.545	4588
850.68	4599
850.815	4656
850.95	4618
851.085	4801
851.22	4706
851.355	4660
851.49	4641
851.625	4592
851.76	4645
851.895	4607
852.03	4550
852.165	4675
852.299	4725
852.434	4763
852.569	4782
852.703	4790
852.838	4892
852.973	4900
853.107	4942
853.242	4740
853.376	4649
853.511	4565
853.645	4626
853.78	4812
853.914	4717
854.048	4660
854.183	4660
854.317	4656
854.451	4809
854.585	4649
854.72	4672
854.854	4759
854.988	4637
855.122	4653
855.256	4565
855.39	4637
855.524	4797
855.658	4736
855.792	4660
855.926	4687
856.06	4725
856.194	4797
856.327	4687
856.461	4626
856.595	4599
856.729	4630
856.862	4698
856.996	4641
857.13	4736
857.263	4771
857.397	4812
857.53	4596
857.664	4687
857.797	4801
857.931	4752
858.064	4645
858.197	4706
858.331	4641
858.464	4630
858.597	4516
858.731	4641
858.864	4630
858.997	4538
859.13	4653
859.263	4653
859.396	4668
859.529	4607
859.662	4561
859.795	4535
859.928	4626
860.061	4774
860.194	4759
860.327	4596
860.46	4588
860.592	4740
860.725	4721
860.858	4721
860.99	4542
861.123	4485
861.256	4508
861.388	4588
861.521	5269
861.653	4538
861.786	4489
861.918	4466
862.05	4550
862.183	4554
862.315	4596
862.447	4653
862.58	4565
862.712	4443
862.844	4360
862.976	4474
863.108	4500
863.24	4786
863.372	4352
863.504	4413
863.636	4421
863.768	4489
863.9	4436
864.032	4329
864.164	4421
864.296	4493
864.428	4527
864.559	4580
864.691	4573
864.823	4573
864.954	4466
865.086	4519
865.217	4481
865.349	4413
865.48	4447
865.612	4443
865.743	4592
865.875	4481
866.006	4405
866.137	4462
866.269	4470
866.4	4383
866.531	4394
866.662	4421
866.793	4394
866.924	4394
867.055	4508
867.186	4466
867.317	4386
867.448	4383
867.579	4390
867.71	4424
867.841	4375
867.972	4428
868.103	4459
868.233	4432
868.364	4436
868.495	4459
868.625	4683
868.756	4721
868.886	4538
869.017	4630
869.147	4729
869.278	4778
869.408	4687
869.539	4626
869.669	4706
869.799	4675
869.929	4740
870.06	4736
870.19	4946
870.32	4870
870.45	4930
870.58	5003
870.71	5071
870.84	5090
870.97	4908
871.1	4850
871.23	5117
871.36	5143
871.489	5045
871.619	5079
871.749	5090
871.879	5124
872.008	5159
872.138	5086
872.267	4953
872.397	4858
872.526	4790
872.656	4740
872.785	4839
872.915	4946
873.044	4995
873.173	4904
873.303	4923
873.432	4972
873.561	4961
873.69	4896
873.819	4805
873.948	4911
874.077	4816
874.206	4763
874.335	4771
874.464	4923
874.593	5094
874.722	4972
874.851	5064
874.979	5098
875.108	5060
875.237	4915
875.365	4908
875.494	4870
875.623	4957
875.751	4828
875.88	4847
876.008	4987
876.136	5029
876.265	5174
876.393	5334
876.521	5250
876.65	5235
876.778	5147
876.906	4999
877.034	4980
877.162	5029
877.29	5048
877.418	5064
877.546	5045
877.674	5022
877.802	5029
877.93	5014
878.058	4873
878.185	4877
878.313	4949
878.441	4934
878.568	4839
878.696	4843
878.824	4904
878.951	5029
879.079	5128
879.206	5315
879.333	5067
879.461	4995
879.588	4976
879.715	5064
879.842	5235
879.97	5037
880.097	4755
880.224	4748
880.351	4828
880.478	4858
880.605	4816
880.732	4790
880.859	5102
880.986	4839
881.112	4854
881.239	4771
881.366	4641
881.493	4599
881.619	4580
881.746	4653
881.872	4630
881.999	4687
882.125	4698
882.252	4744
882.378	4809
882.505	4900
882.631	4812
882.757	4664
882.883	4733
883.01	4774
883.136	4626
883.262	4618
883.388	4630
883.514	4809
883.64	4866
883.766	4797
883.892	4683
884.018	4740
884.143	4885
884.269	4995
884.395	4634
884.52	4618
884.646	4626
884.772	4596
884.897	4519
885.023	4664
885.148	4778
885.274	4801
885.399	4816
885.524	4698
885.65	4710
885.775	4729
885.9	4740
886.025	4816
886.15	4771
886.275	4710
886.4	4634
886.525	4771
886.65	4683
886.775	4687
886.9	4892
887.025	5048
887.149	4714
887.274	4637
887.399	4607
887.523	4592
887.648	4538
887.773	4554
887.897	4786
888.021	4801
888.146	4668
888.27	4767
888.395	4850
888.519	4812
888.643	4824
888.767	4843
888.891	4653
889.015	4565
889.139	4668
889.263	4615
889.387	4793
889.511	4889
889.635	4858
889.759	4645
889.883	4668
890.006	4763
890.13	4839
890.254	4596
890.377	4611
890.501	4565
890.624	4531
890.748	4634
890.871	4535
890.995	4421
891.118	4428
891.241	4489
891.364	4508
891.488	4675
891.611	4436
891.734	4519
891.857	4596
891.98	4531
892.103	4653
892.226	4588
892.349	4523
892.471	4432
892.594	4546
892.717	4637
892.839	4550
892.962	4611
893.085	4653
893.207	4599
893.33	4470
893.452	4478
893.575	4630
893.697	4588
893.819	4782
893.941	4847
894.064	4763
894.186	4584
894.308	4592
894.43	4774
894.552	4847
894.674	4725
894.796	4584
894.918	4573
895.04	4599
895.161	4710
895.283	4656
895.405	4554
895.526	4588
895.648	4637
895.769	4649
895.891	4694
896.012	4710
896.134	4733
896.255	4694
896.376	4656
896.498	4584
896.619	4717
896.74	4611
896.861	4664
896.982	4908
897.103	5083
897.224	4805
897.345	4752
897.466	4706
897.587	4687
897.708	4866
897.828	4816
897.949	4668
898.07	4580
898.19	4645
898.311	4809
898.431	4725
898.552	4683
898.672	4839
898.792	4816
898.913	4755
899.033	4634
899.153	4523
899.273	4405
899.393	4508
899.513	4535
899.633	4519
899.753	4489
899.873	4508
899.993	4569
900.113	4550
900.232	4584
900.352	4565
900.472	4462
900.591	4394
900.711	4462
900.83	4443
900.95	4611
901.069	4649
901.189	4538
901.308	4405
901.427	4352
901.546	4344
901.665	4508
901.784	4516
901.904	4383
902.023	4284
902.141	4166
902.26	4162
902.379	4287
902.498	4223
902.617	4227
902.735	4367
902.854	4367
902.973	4341
903.091	4215
903.21	4242
903.328	4246
903.446	4268
903.565	4253
903.683	4329
903.801	4276
903.919	4436
904.038	4440
904.156	4333
904.274	4440
904.392	4383
904.51	4478
904.627	4428
904.745	4550
904.863	4618
904.981	4413
905.098	4272
905.216	4390
905.334	4459
905.451	4413
905.569	4436
905.686	4573
905.803	4527
905.921	4383
906.038	4519
906.155	4489
906.272	4443
906.389	4462
906.506	4352
906.623	4405
906.74	4360
906.857	4295
906.974	4360
907.091	4558
907.208	4675
907.324	4626
907.441	4485
907.557	4367
907.674	4341
907.79	4325
907.907	4379
908.023	4481
908.139	4489
908.256	4409
908.372	4470
908.488	4424
908.604	4363
908.72	4310
908.836	4371
908.952	4356
909.068	4459
909.184	4596
909.3	4516
909.415	4573
909.531	4538
909.647	4383
909.762	4310
909.878	4348
909.993	4436
910.108	4371
910.224	4413
910.339	4481
910.454	4379
910.57	4352
910.685	4318
910.8	4615
910.915	4565
911.03	4481
911.145	4325
911.259	4276
911.374	4344
911.489	4287
911.604	4276
911.718	4204
911.833	4192
911.947	4097
912.062	4017
912.176	4177
912.291	4230
912.405	4261
912.519	4417
912.633	4489
912.748	4386
912.862	4291
912.976	4230
913.09	4112
913.204	4181
913.318	4249
913.431	4363
913.545	4383
913.659	4497
913.772	4363
913.886	4223
914	4230
914.113	4375
914.226	4409
914.34	4417
914.453	4154
914.566	4405
914.68	4325
914.793	4337
914.906	4143
915.019	4120
915.132	4059
915.245	4188
915.358	4219
915.47	4272
915.583	4249
915.696	4272
915.809	4443
915.921	4440
916.034	4246
916.146	4287
916.259	4238
916.371	4409
916.483	4348
916.595	4246
916.708	4333
916.82	4276
916.932	4318
917.044	4299
917.156	4337
917.268	4238
917.38	4268
917.491	4276
917.603	4348
917.715	4421
917.826	4413
917.938	4318
918.049	4280
918.161	4398
918.272	4538
918.384	4542
918.495	4421
918.606	4325
918.717	4261
918.828	4310
918.939	4333
919.05	4257
919.161	4329
919.272	4112
919.383	4230
919.494	4428
919.604	4630
919.715	4405
919.826	4360
919.936	4390
920.047	4554
920.157	4508
920.267	4683
920.378	4554
920.488	4500
920.598	4694
920.708	4877
920.818	4774
920.928	4729
921.038	4900
921.148	4938
921.258	4607
921.368	4542
921.477	4535
921.587	4508
921.697	4379
921.806	4497
921.916	4424
922.025	4253
922.134	4230
922.244	4253
922.353	4348
922.462	4150
922.571	4101
922.68	3987
922.789	3964
922.898	4067
923.007	4010
923.116	4128
923.224	4002
923.333	4086
923.442	3987
923.55	4036
923.659	3987
923.767	4101
923.876	4002
923.984	4090
924.092	4025
924.201	4082
924.309	4101
924.417	4101
924.525	4055
924.633	4086
924.741	5060
924.849	3956
924.956	4120
925.064	3964
925.172	3907
925.279	3968
925.387	4048
925.494	4086
925.602	4215
925.709	4173
925.816	4063
925.924	4150
926.031	4185
926.138	4143
926.245	4227
926.352	4105
926.459	4219
926.566	4329
926.673	4169
926.779	4105
926.886	4082
926.993	3972
927.099	3964
927.206	3915
927.312	3945
927.419	4048
927.525	4044
927.631	4059
927.737	3983
927.843	3934
927.95	3850
928.056	3968
928.162	3998
928.267	4071
928.373	4573
928.479	4093
928.585	3831
928.69	4006
928.796	4086
928.901	3994
929.007	3842
929.112	4010
929.218	3998
929.323	3945
929.428	3956
929.533	4090
929.638	3907
929.743	3934
929.848	4021
929.953	3983
930.058	3934
930.163	3785
930.267	3827
930.372	3972
930.477	3819
930.581	4116
930.685	3880
930.79	3778
930.894	3857
930.998	3823
931.103	3979
931.207	3740
931.311	3709
931.415	3641
931.519	3511
931.623	3557
