Data from test_V78500241_255.txt Node
Date: Fri Mar 25 16:50:46 CST 2022
User: usil
Spectrometer: V785-0024
Trigger mode: 0
Integration Time (sec): 4.000000E-1
Scans to average: 1
Nonlinearity correction enabled: false
Boxcar width: 0
Storing dark spectrum: false
XAxis mode: Wavelengths
Number of Pixels in Spectrum: 1024
>>>>>Begin Spectral Data<<<<<
801.071	7982
801.214	8012
801.356	7868
801.499	7841
801.641	7792
801.783	7883
801.926	8043
802.068	7993
802.211	8016
802.353	8050
802.496	7849
802.638	7833
802.78	7963
802.923	7963
803.065	7890
803.208	7837
803.35	7963
803.492	8050
803.635	8157
803.777	8077
803.919	8142
804.061	8488
804.204	8145
804.346	8084
804.488	8046
804.63	8161
804.773	8035
804.915	8123
805.057	8267
805.199	8126
805.341	8225
805.483	8279
805.626	8225
805.768	8138
805.91	8172
806.052	8130
806.194	8119
806.336	8313
806.478	8164
806.62	8043
806.762	8183
806.904	8229
807.046	8454
807.188	8393
807.33	8282
807.472	8393
807.614	8183
807.756	8119
807.898	7928
808.04	7921
808.182	7902
808.324	7947
808.465	7909
808.607	8069
808.749	8096
808.891	8199
809.033	8317
809.174	8187
809.316	8027
809.458	8088
809.6	8046
809.741	7997
809.883	8027
810.025	8103
810.166	8065
810.308	8077
810.45	8043
810.591	7902
810.733	7795
810.875	7628
811.016	7521
811.158	7502
811.299	7658
811.441	7727
811.582	7658
811.724	7575
811.865	7597
812.007	7594
812.148	7586
812.29	7655
812.431	7765
812.573	7959
812.714	7993
812.855	8134
812.997	8248
813.138	8355
813.279	8202
813.421	8100
813.562	7963
813.703	7898
813.845	7772
813.986	7483
814.127	7270
814.268	7232
814.41	7240
814.551	7137
814.692	7145
814.833	7141
814.974	7107
815.115	7061
815.256	6985
815.397	6935
815.539	6954
815.68	6882
815.821	6798
815.962	6810
816.103	6787
816.244	6734
816.385	6665
816.526	6582
816.666	6547
816.807	6384
816.948	6471
817.089	6448
817.23	6464
817.371	6456
817.512	6369
817.653	6403
817.793	6372
817.934	6414
818.075	6471
818.216	6399
818.356	6384
818.497	6232
818.638	6159
818.778	6125
818.919	6083
819.06	6129
819.2	6327
819.341	6338
819.481	6311
819.622	6509
819.762	6749
819.903	6665
820.043	6559
820.184	6597
820.324	6593
820.465	6711
820.605	6623
820.746	6585
820.886	6490
821.026	6662
821.167	6688
821.307	6783
821.447	6783
821.588	6696
821.728	6601
821.868	6532
822.008	6296
822.149	6350
822.289	6376
822.429	6194
822.569	6129
822.709	6129
822.849	5908
822.99	5973
823.13	5923
823.27	5935
823.41	5771
823.55	5809
823.69	5809
823.83	5786
823.97	5680
824.11	5611
824.25	5463
824.389	5592
824.529	5581
824.669	5585
824.809	5688
824.949	5661
825.089	5619
825.228	5596
825.368	5364
825.508	5379
825.648	5330
825.787	5406
825.927	5364
826.067	5280
826.206	5307
826.346	5345
826.485	5398
826.625	5417
826.765	5539
826.904	5512
827.044	5269
827.183	5223
827.323	5155
827.462	5292
827.601	5223
827.741	5193
827.88	5227
828.02	5151
828.159	5250
828.298	5292
828.437	5337
828.577	5303
828.716	5474
828.855	5364
828.994	5136
829.134	5185
829.273	5223
829.412	5147
829.551	5143
829.69	5155
829.829	5288
829.968	5402
830.107	5280
830.246	5296
830.385	5162
830.524	5143
830.663	5067
830.802	4995
830.941	4911
831.08	4843
831.219	4991
831.357	4999
831.496	5162
831.635	4957
831.774	4911
831.913	4831
832.051	4729
832.19	4744
832.329	4801
832.467	4706
832.606	4615
832.744	4740
832.883	4717
833.022	4717
833.16	4805
833.299	4858
833.437	4854
833.576	4850
833.714	4858
833.852	4862
833.991	4877
834.129	4938
834.267	4968
834.406	4896
834.544	5025
834.682	5018
834.821	4934
834.959	5132
835.097	5052
835.235	5113
835.373	5075
835.511	5048
835.65	5045
835.788	5037
835.926	4938
836.064	4908
836.202	4938
836.34	5178
836.478	5258
836.615	5117
836.753	5223
836.891	5178
837.029	5273
837.167	5189
837.305	5151
837.443	5159
837.58	5113
837.718	5254
837.856	5242
837.993	5162
838.131	5277
838.269	5261
838.406	5227
838.544	5231
838.681	5033
838.819	5064
838.956	4908
839.094	4942
839.231	4961
839.369	5086
839.506	5455
839.643	5273
839.781	5090
839.918	5071
840.055	5159
840.193	5132
840.33	5147
840.467	5132
840.604	5136
840.742	5467
840.879	5128
841.016	5094
841.153	5159
841.29	5376
841.427	5345
841.564	5357
841.701	5414
841.838	5261
841.975	5288
842.112	5280
842.249	5143
842.385	5136
842.522	5357
842.659	5136
842.796	5170
842.933	5227
843.069	5170
843.206	5117
843.343	5311
843.479	5265
843.616	5280
843.752	5014
843.889	4980
844.025	5227
844.162	5083
844.298	5212
844.435	5124
844.571	5064
844.708	5204
844.844	5284
844.98	5337
845.117	5273
845.253	5143
845.389	5102
845.525	5155
845.661	5105
845.798	5067
845.934	5170
846.07	5056
846.206	5223
846.342	5288
846.478	5170
846.614	5079
846.75	4999
846.886	4915
847.022	5140
847.158	5048
847.294	5090
847.429	5113
847.565	5079
847.701	5303
847.837	4839
847.972	4835
848.108	4938
848.244	5029
848.379	4793
848.515	4698
848.65	4691
848.786	4790
848.921	4736
849.057	4904
849.192	4892
849.328	4824
849.463	4854
849.598	4812
849.734	4782
849.869	4698
850.004	4618
850.14	4653
850.275	4626
850.41	4527
850.545	4584
850.68	4656
850.815	4630
850.95	4645
851.085	4782
851.22	4748
851.355	4675
851.49	4611
851.625	4588
851.76	4637
851.895	4577
852.03	4538
852.165	4580
852.299	4725
852.434	4759
852.569	4771
852.703	4740
852.838	4866
852.973	4946
853.107	4927
853.242	4790
853.376	4736
853.511	4565
853.645	4596
853.78	4828
853.914	4653
854.048	4687
854.183	4668
854.317	4672
854.451	4839
854.585	4672
854.72	4618
854.854	4759
854.988	4634
855.122	4653
855.256	4550
855.39	4660
855.524	4778
855.658	4763
855.792	4717
855.926	4679
856.06	4782
856.194	4778
856.327	4672
856.461	4637
856.595	4641
856.729	4653
856.862	4740
856.996	4714
857.13	4717
857.263	4782
857.397	4862
857.53	4675
857.664	4714
857.797	4740
857.931	4721
858.064	4702
858.197	4733
858.331	4672
858.464	4641
858.597	4573
858.731	4641
858.864	4649
858.997	4580
859.13	4664
859.263	4717
859.396	4733
859.529	4603
859.662	4573
859.795	4542
859.928	4607
860.061	4752
860.194	4793
860.327	4622
860.46	4588
860.592	4748
860.725	4759
860.858	4729
860.99	4618
861.123	4519
861.256	4577
861.388	4607
861.521	5406
861.653	4481
861.786	4440
861.918	4478
862.05	4550
862.183	4584
862.315	4618
862.447	4653
862.58	4565
862.712	4451
862.844	4325
862.976	4485
863.108	4500
863.24	4866
863.372	4333
863.504	4432
863.636	4424
863.768	4493
863.9	4443
864.032	4352
864.164	4409
864.296	4459
864.428	4565
864.559	4550
864.691	4485
864.823	4561
864.954	4489
865.086	4519
865.217	4462
865.349	4447
865.48	4485
865.612	4508
865.743	4630
865.875	4516
866.006	4462
866.137	4466
866.269	4428
866.4	4402
866.531	4451
866.662	4421
866.793	4436
866.924	4413
867.055	4504
867.186	4440
867.317	4474
867.448	4352
867.579	4394
867.71	4409
867.841	4318
867.972	4451
868.103	4481
868.233	4493
868.364	4451
868.495	4489
868.625	4691
868.756	4790
868.886	4554
869.017	4618
869.147	4847
869.278	4786
869.408	4630
869.539	4679
869.669	4736
869.799	4656
869.929	4771
870.06	4752
870.19	4980
870.32	4911
870.45	4957
870.58	4965
870.71	5109
870.84	5083
870.97	4968
871.1	4900
871.23	5136
871.36	5117
871.489	5048
871.619	5052
871.749	5071
871.879	5136
872.008	5185
872.138	5037
872.267	4957
872.397	4900
872.526	4820
872.656	4714
872.785	4793
872.915	4965
873.044	5018
873.173	4968
873.303	4942
873.432	4934
873.561	4972
873.69	4881
873.819	4873
873.948	4885
874.077	4854
874.206	4740
874.335	4812
874.464	4927
874.593	5060
874.722	5003
874.851	5086
874.979	5022
875.108	5025
875.237	4923
875.365	4824
875.494	4889
875.623	4995
875.751	4847
875.88	4850
876.008	4980
876.136	5018
876.265	5239
876.393	5318
876.521	5258
876.65	5242
876.778	5181
876.906	5071
877.034	5067
877.162	5056
877.29	5003
877.418	5010
877.546	5052
877.674	5102
877.802	5018
877.93	4957
878.058	4934
878.185	4831
878.313	4915
878.441	4972
878.568	4839
878.696	4915
878.824	4957
878.951	5022
879.079	5124
879.206	5246
879.333	5086
879.461	5022
879.588	5025
879.715	5056
879.842	5269
879.97	4999
880.097	4748
880.224	4793
880.351	4790
880.478	4847
880.605	4816
880.732	4771
880.859	5067
880.986	4843
881.112	4930
881.239	4755
881.366	4653
881.493	4611
881.619	4611
881.746	4637
881.872	4645
881.999	4725
882.125	4698
882.252	4820
882.378	4847
882.505	4991
882.631	4782
882.757	4733
882.883	4740
883.01	4774
883.136	4717
883.262	4626
883.388	4584
883.514	4854
883.64	4820
883.766	4752
883.892	4706
884.018	4717
884.143	4930
884.269	5025
884.395	4622
884.52	4603
884.646	4679
884.772	4622
884.897	4546
885.023	4694
885.148	4824
885.274	4870
885.399	4843
885.524	4672
885.65	4733
885.775	4748
885.9	4767
886.025	4850
886.15	4801
886.275	4698
886.4	4656
886.525	4698
886.65	4672
886.775	4702
886.9	4976
887.025	4999
887.149	4873
887.274	4683
887.399	4615
887.523	4592
887.648	4592
887.773	4546
887.897	4793
888.021	4786
888.146	4679
888.27	4790
888.395	4877
888.519	4786
888.643	4805
888.767	4854
888.891	4664
889.015	4637
889.139	4679
889.263	4641
889.387	4793
889.511	4885
889.635	4831
889.759	4706
889.883	4637
890.006	4763
890.13	4866
890.254	4649
890.377	4740
890.501	4554
890.624	4538
890.748	4664
890.871	4516
890.995	4459
891.118	4443
891.241	4527
891.364	4538
891.488	4641
891.611	4497
891.734	4550
891.857	4607
891.98	4554
892.103	4653
892.226	4603
892.349	4493
892.471	4405
892.594	4592
892.717	4565
892.839	4588
892.962	4622
893.085	4653
893.207	4603
893.33	4443
893.452	4542
893.575	4698
893.697	4592
893.819	4801
893.941	4793
894.064	4771
894.186	4577
894.308	4588
894.43	4733
894.552	4793
894.674	4763
894.796	4558
894.918	4618
895.04	4577
895.161	4759
895.283	4683
895.405	4535
895.526	4626
895.648	4691
895.769	4744
895.891	4729
896.012	4782
896.134	4691
896.255	4637
896.376	4603
896.498	4618
896.619	4679
896.74	4607
896.861	4645
896.982	4965
897.103	5075
897.224	4839
897.345	4740
897.466	4649
897.587	4729
897.708	4896
897.828	4805
897.949	4679
898.07	4554
898.19	4675
898.311	4843
898.431	4668
898.552	4748
898.672	4862
898.792	4790
898.913	4755
899.033	4596
899.153	4455
899.273	4428
899.393	4542
899.513	4565
899.633	4519
899.753	4519
899.873	4516
899.993	4577
900.113	4527
900.232	4599
900.352	4542
900.472	4512
900.591	4398
900.711	4489
900.83	4440
900.95	4618
901.069	4675
901.189	4584
901.308	4363
901.427	4363
901.546	4402
901.665	4466
901.784	4546
901.904	4375
902.023	4333
902.141	4192
902.26	4177
902.379	4322
902.498	4249
902.617	4200
902.735	4363
902.854	4386
902.973	4352
903.091	4234
903.21	4257
903.328	4341
903.446	4272
903.565	4276
903.683	4333
903.801	4268
903.919	4451
904.038	4470
904.156	4284
904.274	4489
904.392	4409
904.51	4436
904.627	4489
904.745	4561
904.863	4596
904.981	4363
905.098	4310
905.216	4375
905.334	4383
905.451	4447
905.569	4451
905.686	4538
905.803	4554
905.921	4440
906.038	4542
906.155	4527
906.272	4443
906.389	4440
906.506	4363
906.623	4360
906.74	4394
906.857	4390
906.974	4367
907.091	4546
907.208	4653
907.324	4565
907.441	4504
907.557	4325
907.674	4344
907.79	4375
907.907	4424
908.023	4474
908.139	4531
908.256	4451
908.372	4466
908.488	4489
908.604	4352
908.72	4310
908.836	4363
908.952	4348
909.068	4417
909.184	4607
909.3	4500
909.415	4565
909.531	4531
909.647	4383
909.762	4371
909.878	4367
909.993	4363
910.108	4432
910.224	4428
910.339	4481
910.454	4363
910.57	4390
910.685	4299
910.8	4664
910.915	4645
911.03	4466
911.145	4322
911.259	4348
911.374	4341
911.489	4295
911.604	4333
911.718	4215
911.833	4223
911.947	4116
912.062	4040
912.176	4230
912.291	4253
912.405	4261
912.519	4409
912.633	4527
912.748	4394
912.862	4310
912.976	4188
913.09	4105
913.204	4200
913.318	4249
913.431	4383
913.545	4371
913.659	4455
913.772	4337
913.886	4238
914	4188
914.113	4421
914.226	4451
914.34	4409
914.453	4265
914.566	4417
914.68	4280
914.793	4318
914.906	4150
915.019	4143
915.132	4139
915.245	4181
915.358	4261
915.47	4261
915.583	4284
915.696	4322
915.809	4432
915.921	4428
916.034	4230
916.146	4223
916.259	4265
916.371	4379
916.483	4375
916.595	4291
916.708	4379
916.82	4337
916.932	4360
917.044	4360
917.156	4360
917.268	4246
917.38	4234
917.491	4234
917.603	4383
917.715	4398
917.826	4459
917.938	4341
918.049	4246
918.161	4417
918.272	4519
918.384	4561
918.495	4481
918.606	4291
918.717	4257
918.828	4367
918.939	4322
919.05	4257
919.161	4306
919.272	4128
919.383	4234
919.494	4432
919.604	4641
919.715	4447
919.826	4363
919.936	4405
920.047	4592
920.157	4558
920.267	4725
920.378	4558
920.488	4535
920.598	4706
920.708	4873
920.818	4736
920.928	4755
921.038	4965
921.148	4942
921.258	4626
921.368	4588
921.477	4550
921.587	4508
921.697	4348
921.806	4516
921.916	4417
922.025	4246
922.134	4287
922.244	4185
922.353	4325
922.462	4173
922.571	4112
922.68	3998
922.789	4002
922.898	4017
923.007	3964
923.116	4112
923.224	4067
923.333	4059
923.442	3994
923.55	3937
923.659	4048
923.767	4086
923.876	4013
923.984	4128
924.092	3975
924.201	4082
924.309	4147
924.417	4147
924.525	4063
924.633	4063
924.741	5048
924.849	3949
924.956	4147
925.064	3987
925.172	3892
925.279	3960
925.387	4055
925.494	4093
925.602	4207
925.709	4158
925.816	3987
925.924	4147
926.031	4265
926.138	4185
926.245	4192
926.352	4090
926.459	4257
926.566	4306
926.673	4124
926.779	4109
926.886	4048
926.993	3983
927.099	3945
927.206	3922
927.312	3937
927.419	4059
927.525	4048
927.631	4067
927.737	3949
927.843	3983
927.95	3823
928.056	3949
928.162	3968
928.267	4086
928.373	4558
928.479	4124
928.585	3880
928.69	3987
928.796	4135
928.901	3937
929.007	3842
929.112	3998
929.218	3975
929.323	3968
929.428	3953
929.533	4097
929.638	3937
929.743	3945
929.848	4067
929.953	4013
930.058	3918
930.163	3789
930.267	3835
930.372	3998
930.477	3823
930.581	4135
930.685	3975
930.79	3835
930.894	3899
930.998	3850
931.103	4036
931.207	3728
931.311	3717
931.415	3671
931.519	3504
931.623	3572
