Data from test_V78500241_324.txt Node
Date: Fri Mar 25 16:51:15 CST 2022
User: usil
Spectrometer: V785-0024
Trigger mode: 0
Integration Time (sec): 4.000000E-1
Scans to average: 1
Nonlinearity correction enabled: false
Boxcar width: 0
Storing dark spectrum: false
XAxis mode: Wavelengths
Number of Pixels in Spectrum: 1024
>>>>>Begin Spectral Data<<<<<
801.071	8081
801.214	8115
801.356	7917
801.499	7909
801.641	7845
801.783	7921
801.926	8005
802.068	7982
802.211	8084
802.353	8088
802.496	7898
802.638	7913
802.78	7936
802.923	7974
803.065	7864
803.208	7890
803.35	8065
803.492	8046
803.635	8138
803.777	8062
803.919	8084
804.061	8442
804.204	8180
804.346	8046
804.488	7959
804.63	8153
804.773	8031
804.915	8024
805.057	8233
805.199	8142
805.341	8248
805.483	8195
805.626	8191
805.768	8084
805.91	8134
806.052	8225
806.194	8100
806.336	8347
806.478	8123
806.62	8123
806.762	8180
806.904	8240
807.046	8484
807.188	8366
807.33	8271
807.472	8290
807.614	8103
807.756	8134
807.898	7963
808.04	7894
808.182	7947
808.324	8024
808.465	7932
808.607	8065
808.749	8153
808.891	8172
809.033	8263
809.174	8237
809.316	8008
809.458	8062
809.6	7955
809.741	8062
809.883	7967
810.025	8180
810.166	8142
810.308	8088
810.45	8062
810.591	7856
810.733	7727
810.875	7632
811.016	7540
811.158	7449
811.299	7643
811.441	7822
811.582	7734
811.724	7613
811.865	7578
812.007	7651
812.148	7628
812.29	7643
812.431	7734
812.573	7875
812.714	7955
812.855	8149
812.997	8157
813.138	8301
813.279	8214
813.421	8142
813.562	8088
813.703	7875
813.845	7769
813.986	7495
814.127	7278
814.268	7270
814.41	7232
814.551	7160
814.692	7175
814.833	7069
814.974	7057
815.115	7099
815.256	6935
815.397	6897
815.539	6973
815.68	6818
815.821	6856
815.962	6875
816.103	6840
816.244	6757
816.385	6684
816.526	6635
816.666	6494
816.807	6304
816.948	6521
817.089	6513
817.23	6452
817.371	6433
817.512	6380
817.653	6395
817.793	6361
817.934	6452
818.075	6456
818.216	6464
818.356	6376
818.497	6201
818.638	6155
818.778	6171
818.919	6144
819.06	6148
819.2	6323
819.341	6304
819.481	6372
819.622	6494
819.762	6722
819.903	6684
820.043	6593
820.184	6544
820.324	6574
820.465	6719
820.605	6684
820.746	6646
820.886	6513
821.026	6677
821.167	6719
821.307	6768
821.447	6776
821.588	6650
821.728	6597
821.868	6483
822.008	6357
822.149	6456
822.289	6376
822.429	6121
822.569	6102
822.709	6155
822.849	5939
822.99	5927
823.13	5904
823.27	5904
823.41	5855
823.55	5809
823.69	5767
823.83	5851
823.97	5676
824.11	5573
824.25	5474
824.389	5592
824.529	5558
824.669	5539
824.809	5634
824.949	5642
825.089	5604
825.228	5562
825.368	5417
825.508	5383
825.648	5315
825.787	5410
825.927	5383
826.067	5303
826.206	5349
826.346	5379
826.485	5406
826.625	5417
826.765	5589
826.904	5482
827.044	5235
827.183	5193
827.323	5151
827.462	5258
827.601	5208
827.741	5117
827.88	5204
828.02	5079
828.159	5280
828.298	5284
828.437	5372
828.577	5273
828.716	5436
828.855	5326
828.994	5197
829.134	5151
829.273	5193
829.412	5128
829.551	5136
829.69	5128
829.829	5269
829.968	5357
830.107	5280
830.246	5261
830.385	5140
830.524	5208
830.663	5090
830.802	4976
830.941	4892
831.08	4831
831.219	4972
831.357	4972
831.496	5143
831.635	4923
831.774	4908
831.913	4835
832.051	4744
832.19	4710
832.329	4793
832.467	4717
832.606	4653
832.744	4706
832.883	4710
833.022	4748
833.16	4786
833.299	4854
833.437	4828
833.576	4847
833.714	4839
833.852	4873
833.991	4949
834.129	4885
834.267	4930
834.406	4908
834.544	4999
834.682	4984
834.821	4972
834.959	5181
835.097	4968
835.235	5140
835.373	5025
835.511	5079
835.65	5056
835.788	5022
835.926	4900
836.064	4839
836.202	4904
836.34	5147
836.478	5265
836.615	5143
836.753	5273
836.891	5223
837.029	5212
837.167	5220
837.305	5170
837.443	5185
837.58	5117
837.718	5223
837.856	5193
837.993	5162
838.131	5231
838.269	5212
838.406	5189
838.544	5155
838.681	5029
838.819	5048
838.956	4919
839.094	4892
839.231	4972
839.369	5094
839.506	5421
839.643	5265
839.781	5067
839.918	4987
840.055	5143
840.193	5098
840.33	5140
840.467	5193
840.604	5189
840.742	5429
840.879	5056
841.016	5098
841.153	5155
841.29	5376
841.427	5376
841.564	5349
841.701	5395
841.838	5303
841.975	5231
842.112	5258
842.249	5143
842.385	5083
842.522	5315
842.659	5204
842.796	5143
842.933	5185
843.069	5178
843.206	5204
843.343	5277
843.479	5204
843.616	5258
843.752	5041
843.889	5048
844.025	5197
844.162	5025
844.298	5235
844.435	5041
844.571	5037
844.708	5212
844.844	5311
844.98	5345
845.117	5239
845.253	5124
845.389	5113
845.525	5140
845.661	5174
845.798	5067
845.934	5117
846.07	5094
846.206	5181
846.342	5288
846.478	5178
846.614	5079
846.75	4976
846.886	4942
847.022	5102
847.158	5121
847.294	5056
847.429	5029
847.565	5075
847.701	5250
847.837	4824
847.972	4870
848.108	4965
848.244	4934
848.379	4786
848.515	4733
848.65	4714
848.786	4786
848.921	4793
849.057	4930
849.192	4881
849.328	4889
849.463	4873
849.598	4816
849.734	4771
849.869	4721
850.004	4618
850.14	4653
850.275	4607
850.41	4493
850.545	4558
850.68	4630
850.815	4649
850.95	4615
851.085	4820
851.22	4698
851.355	4668
851.49	4622
851.625	4611
851.76	4615
851.895	4550
852.03	4481
852.165	4702
852.299	4771
852.434	4782
852.569	4771
852.703	4793
852.838	4828
852.973	4942
853.107	4934
853.242	4774
853.376	4660
853.511	4535
853.645	4630
853.78	4793
853.914	4675
854.048	4634
854.183	4729
854.317	4706
854.451	4847
854.585	4698
854.72	4637
854.854	4767
854.988	4615
855.122	4630
855.256	4500
855.39	4687
855.524	4801
855.658	4767
855.792	4740
855.926	4752
856.06	4759
856.194	4847
856.327	4698
856.461	4573
856.595	4615
856.729	4607
856.862	4698
856.996	4717
857.13	4714
857.263	4729
857.397	4824
857.53	4649
857.664	4721
857.797	4733
857.931	4767
858.064	4755
858.197	4763
858.331	4687
858.464	4622
858.597	4565
858.731	4603
858.864	4618
858.997	4618
859.13	4675
859.263	4710
859.396	4675
859.529	4630
859.662	4546
859.795	4516
859.928	4592
860.061	4744
860.194	4801
860.327	4596
860.46	4569
860.592	4717
860.725	4706
860.858	4733
860.99	4607
861.123	4489
861.256	4519
861.388	4592
861.521	5311
861.653	4478
861.786	4497
861.918	4455
862.05	4519
862.183	4558
862.315	4588
862.447	4683
862.58	4565
862.712	4371
862.844	4284
862.976	4428
863.108	4421
863.24	4767
863.372	4363
863.504	4413
863.636	4409
863.768	4462
863.9	4417
864.032	4333
864.164	4417
864.296	4489
864.428	4554
864.559	4580
864.691	4565
864.823	4538
864.954	4489
865.086	4497
865.217	4443
865.349	4455
865.48	4421
865.612	4500
865.743	4714
865.875	4481
866.006	4379
866.137	4481
866.269	4440
866.4	4462
866.531	4409
866.662	4405
866.793	4462
866.924	4443
867.055	4478
867.186	4440
867.317	4424
867.448	4360
867.579	4367
867.71	4363
867.841	4356
867.972	4432
868.103	4436
868.233	4474
868.364	4424
868.495	4512
868.625	4687
868.756	4767
868.886	4527
869.017	4630
869.147	4831
869.278	4759
869.408	4694
869.539	4637
869.669	4729
869.799	4653
869.929	4740
870.06	4782
870.19	4919
870.32	4934
870.45	4889
870.58	5033
870.71	5102
870.84	5136
870.97	4923
871.1	4870
871.23	5159
871.36	5132
871.489	5029
871.619	5060
871.749	5064
871.879	5090
872.008	5227
872.138	5060
872.267	5022
872.397	4805
872.526	4793
872.656	4759
872.785	4847
872.915	4904
873.044	5060
873.173	4946
873.303	4984
873.432	4965
873.561	4999
873.69	4870
873.819	4858
873.948	4847
874.077	4866
874.206	4786
874.335	4801
874.464	4892
874.593	5086
874.722	4976
874.851	5102
874.979	5098
875.108	5033
875.237	4889
875.365	4843
875.494	4873
875.623	4946
875.751	4847
875.88	4923
876.008	4991
876.136	5037
876.265	5220
876.393	5341
876.521	5246
876.65	5227
876.778	5174
876.906	5067
877.034	4987
877.162	5045
877.29	4984
877.418	5033
877.546	5022
877.674	5079
877.802	5041
877.93	5022
878.058	4900
878.185	4889
878.313	5003
878.441	4919
878.568	4812
878.696	4908
878.824	5003
878.951	4999
879.079	5124
879.206	5299
879.333	5090
879.461	5029
879.588	4984
879.715	5136
879.842	5189
879.97	5018
880.097	4778
880.224	4717
880.351	4801
880.478	4820
880.605	4797
880.732	4793
880.859	5067
880.986	4885
881.112	4949
881.239	4793
881.366	4660
881.493	4561
881.619	4588
881.746	4626
881.872	4691
881.999	4641
882.125	4679
882.252	4774
882.378	4839
882.505	4908
882.631	4771
882.757	4653
882.883	4679
883.01	4679
883.136	4653
883.262	4573
883.388	4611
883.514	4847
883.64	4820
883.766	4793
883.892	4649
884.018	4691
884.143	4850
884.269	4980
884.395	4683
884.52	4569
884.646	4683
884.772	4535
884.897	4519
885.023	4687
885.148	4858
885.274	4847
885.399	4812
885.524	4759
885.65	4710
885.775	4774
885.9	4778
886.025	4828
886.15	4790
886.275	4759
886.4	4664
886.525	4717
886.65	4721
886.775	4714
886.9	4927
887.025	5014
887.149	4824
887.274	4664
887.399	4637
887.523	4618
887.648	4577
887.773	4592
887.897	4771
888.021	4828
888.146	4698
888.27	4847
888.395	4900
888.519	4809
888.643	4790
888.767	4866
888.891	4774
889.015	4653
889.139	4683
889.263	4656
889.387	4816
889.511	4870
889.635	4809
889.759	4698
889.883	4656
890.006	4752
890.13	4824
890.254	4679
890.377	4729
890.501	4615
890.624	4596
890.748	4664
890.871	4550
890.995	4459
891.118	4459
891.241	4603
891.364	4577
891.488	4653
891.611	4497
891.734	4596
891.857	4675
891.98	4622
892.103	4717
892.226	4630
892.349	4577
892.471	4440
892.594	4592
892.717	4668
892.839	4649
892.962	4626
893.085	4714
893.207	4687
893.33	4527
893.452	4569
893.575	4740
893.697	4607
893.819	4885
893.941	4850
894.064	4801
894.186	4615
894.308	4630
894.43	4831
894.552	4896
894.674	4805
894.796	4558
894.918	4618
895.04	4634
895.161	4717
895.283	4672
895.405	4634
895.526	4714
895.648	4729
895.769	4763
895.891	4767
896.012	4831
896.134	4797
896.255	4683
896.376	4672
896.498	4656
896.619	4706
896.74	4675
896.861	4668
896.982	4976
897.103	5128
897.224	4824
897.345	4824
897.466	4679
897.587	4786
897.708	4850
897.828	4778
897.949	4729
898.07	4630
898.19	4668
898.311	4862
898.431	4729
898.552	4759
898.672	4843
898.792	4847
898.913	4767
899.033	4683
899.153	4596
899.273	4485
899.393	4527
899.513	4592
899.633	4527
899.753	4573
899.873	4550
899.993	4577
900.113	4580
900.232	4622
900.352	4577
900.472	4512
900.591	4470
900.711	4516
900.83	4432
900.95	4691
901.069	4736
901.189	4592
901.308	4478
901.427	4341
901.546	4459
901.665	4497
901.784	4569
901.904	4386
902.023	4363
902.141	4242
902.26	4257
902.379	4337
902.498	4253
902.617	4303
902.735	4386
902.854	4417
902.973	4390
903.091	4249
903.21	4276
903.328	4299
903.446	4299
903.565	4310
903.683	4341
903.801	4329
903.919	4470
904.038	4481
904.156	4337
904.274	4443
904.392	4443
904.51	4436
904.627	4512
904.745	4611
904.863	4698
904.981	4428
905.098	4352
905.216	4443
905.334	4417
905.451	4500
905.569	4485
905.686	4611
905.803	4607
905.921	4398
906.038	4580
906.155	4500
906.272	4466
906.389	4493
906.506	4386
906.623	4398
906.74	4390
906.857	4383
906.974	4413
907.091	4569
907.208	4717
907.324	4656
907.441	4531
907.557	4402
907.674	4352
907.79	4363
907.907	4436
908.023	4504
908.139	4538
908.256	4489
908.372	4504
908.488	4489
908.604	4428
908.72	4405
908.836	4402
908.952	4421
909.068	4504
909.184	4626
909.3	4523
909.415	4634
909.531	4565
909.647	4386
909.762	4421
909.878	4360
909.993	4508
910.108	4455
910.224	4497
910.339	4538
910.454	4428
910.57	4398
910.685	4360
910.8	4637
910.915	4664
911.03	4580
911.145	4371
911.259	4379
911.374	4383
911.489	4314
911.604	4310
911.718	4177
911.833	4246
911.947	4101
912.062	4097
912.176	4242
912.291	4314
912.405	4261
912.519	4538
912.633	4535
912.748	4386
912.862	4348
912.976	4242
913.09	4169
913.204	4234
913.318	4318
913.431	4390
913.545	4390
913.659	4493
913.772	4436
913.886	4265
914	4276
914.113	4394
914.226	4447
914.34	4417
914.453	4242
914.566	4440
914.68	4325
914.793	4360
914.906	4204
915.019	4162
915.132	4139
915.245	4204
915.358	4249
915.47	4257
915.583	4291
915.696	4314
915.809	4447
915.921	4504
916.034	4276
916.146	4253
916.259	4230
916.371	4455
916.483	4386
916.595	4310
916.708	4394
916.82	4413
916.932	4367
917.044	4405
917.156	4344
917.268	4265
917.38	4291
917.491	4318
917.603	4360
917.715	4432
917.826	4504
917.938	4386
918.049	4249
918.161	4386
918.272	4538
918.384	4573
918.495	4497
918.606	4318
918.717	4265
918.828	4356
918.939	4432
919.05	4344
919.161	4344
919.272	4154
919.383	4299
919.494	4462
919.604	4634
919.715	4428
919.826	4360
919.936	4417
920.047	4573
920.157	4546
920.267	4717
920.378	4630
920.488	4508
920.598	4736
920.708	4946
920.818	4759
920.928	4771
921.038	4987
921.148	4930
921.258	4603
921.368	4588
921.477	4535
921.587	4500
921.697	4432
921.806	4577
921.916	4417
922.025	4261
922.134	4337
922.244	4230
922.353	4341
922.462	4242
922.571	4131
922.68	4048
922.789	4044
922.898	4048
923.007	4078
923.116	4131
923.224	4059
923.333	4128
923.442	4032
923.55	4010
923.659	4044
923.767	4086
923.876	4032
923.984	4166
924.092	4025
924.201	4082
924.309	4131
924.417	4196
924.525	4097
924.633	4109
924.741	4915
924.849	3956
924.956	4124
925.064	3960
925.172	3956
925.279	3994
925.387	4112
925.494	4071
925.602	4234
925.709	4207
925.816	4078
925.924	4177
926.031	4287
926.138	4227
926.245	4223
926.352	4112
926.459	4291
926.566	4337
926.673	4196
926.779	4120
926.886	4097
926.993	4010
927.099	3994
927.206	3960
927.312	3968
927.419	4082
927.525	4044
927.631	4105
927.737	4002
927.843	3994
927.95	3873
928.056	4002
928.162	3975
928.267	4120
928.373	4694
928.479	4169
928.585	3918
928.69	4021
928.796	4112
928.901	4048
929.007	3876
929.112	4051
929.218	4025
929.323	3926
929.428	4048
929.533	4135
929.638	3915
929.743	4010
929.848	4063
929.953	4044
930.058	3934
930.163	3800
930.267	3861
930.372	4051
930.477	3850
930.581	4078
930.685	3979
930.79	3835
930.894	3922
930.998	3823
931.103	4032
931.207	3728
931.311	3732
931.415	3728
931.519	3580
931.623	3599
