Data from test_V78500241_2344.txt Node
Date: Fri Mar 25 17:05:18 CST 2022
User: usil
Spectrometer: V785-0024
Trigger mode: 0
Integration Time (sec): 4.000000E-1
Scans to average: 1
Nonlinearity correction enabled: false
Boxcar width: 0
Storing dark spectrum: false
XAxis mode: Wavelengths
Number of Pixels in Spectrum: 1024
>>>>>Begin Spectral Data<<<<<
801.071	7993
801.214	7959
801.356	7887
801.499	7871
801.641	7799
801.783	7784
801.926	8001
802.068	7959
802.211	8050
802.353	8069
802.496	7868
802.638	7913
802.78	7894
802.923	7955
803.065	7852
803.208	7852
803.35	8001
803.492	8043
803.635	8145
803.777	8043
803.919	8103
804.061	8514
804.204	8145
804.346	8107
804.488	7925
804.63	8054
804.773	8020
804.915	8119
805.057	8301
805.199	8149
805.341	8149
805.483	8271
805.626	8286
805.768	8115
805.91	8123
806.052	8195
806.194	8123
806.336	8286
806.478	8073
806.62	8027
806.762	8084
806.904	8256
807.046	8476
807.188	8317
807.33	8275
807.472	8279
807.614	8206
807.756	8115
807.898	8020
808.04	7890
808.182	7906
808.324	7909
808.465	7894
808.607	8134
808.749	8096
808.891	8195
809.033	8290
809.174	8191
809.316	8062
809.458	8062
809.6	7974
809.741	8069
809.883	8024
810.025	8103
810.166	8084
810.308	8027
810.45	7978
810.591	7890
810.733	7826
810.875	7731
811.016	7548
811.158	7487
811.299	7537
811.441	7708
811.582	7643
811.724	7556
811.865	7499
812.007	7575
812.148	7594
812.29	7578
812.431	7769
812.573	7849
812.714	7967
812.855	8134
812.997	8202
813.138	8305
813.279	8164
813.421	8107
813.562	7951
813.703	7928
813.845	7772
813.986	7445
814.127	7339
814.268	7122
814.41	7152
814.551	7255
814.692	7194
814.833	7076
814.974	7129
815.115	7076
815.256	6954
815.397	6928
815.539	6932
815.68	6757
815.821	6821
815.962	6882
816.103	6825
816.244	6749
816.385	6635
816.526	6642
816.666	6513
816.807	6365
816.948	6399
817.089	6445
817.23	6445
817.371	6380
817.512	6342
817.653	6395
817.793	6353
817.934	6346
818.075	6441
818.216	6429
818.356	6441
818.497	6251
818.638	6159
818.778	6163
818.919	6178
819.06	6136
819.2	6304
819.341	6331
819.481	6369
819.622	6513
819.762	6764
819.903	6681
820.043	6658
820.184	6570
820.324	6608
820.465	6673
820.605	6681
820.746	6627
820.886	6544
821.026	6650
821.167	6726
821.307	6810
821.447	6779
821.588	6654
821.728	6631
821.868	6509
822.008	6346
822.149	6350
822.289	6327
822.429	6155
822.569	6110
822.709	6129
822.849	5916
822.99	5927
823.13	6003
823.27	5927
823.41	5813
823.55	5805
823.69	5733
823.83	5741
823.97	5615
824.11	5535
824.25	5497
824.389	5528
824.529	5566
824.669	5509
824.809	5592
824.949	5630
825.089	5653
825.228	5532
825.368	5376
825.508	5330
825.648	5326
825.787	5349
825.927	5398
826.067	5311
826.206	5261
826.346	5376
826.485	5433
826.625	5353
826.765	5573
826.904	5532
827.044	5220
827.183	5261
827.323	5113
827.462	5231
827.601	5204
827.741	5162
827.88	5220
828.02	5067
828.159	5258
828.298	5261
828.437	5452
828.577	5326
828.716	5486
828.855	5330
828.994	5170
829.134	5174
829.273	5193
829.412	5121
829.551	5151
829.69	5208
829.829	5265
829.968	5395
830.107	5246
830.246	5318
830.385	5193
830.524	5162
830.663	5124
830.802	4908
830.941	4904
831.08	4850
831.219	4965
831.357	4957
831.496	5197
831.635	4923
831.774	4801
831.913	4809
832.051	4706
832.19	4752
832.329	4831
832.467	4634
832.606	4637
832.744	4653
832.883	4714
833.022	4755
833.16	4767
833.299	4816
833.437	4790
833.576	4828
833.714	4850
833.852	4896
833.991	4896
834.129	4923
834.267	4968
834.406	4942
834.544	4946
834.682	4968
834.821	4927
834.959	5166
835.097	4984
835.235	5121
835.373	5086
835.511	5136
835.65	5086
835.788	5060
835.926	4923
836.064	4908
836.202	4881
836.34	5178
836.478	5235
836.615	5079
836.753	5124
836.891	5273
837.029	5242
837.167	5204
837.305	5143
837.443	5147
837.58	5079
837.718	5220
837.856	5185
837.993	5185
838.131	5254
838.269	5201
838.406	5223
838.544	5166
838.681	4976
838.819	5033
838.956	4927
839.094	4915
839.231	4972
839.369	5033
839.506	5372
839.643	5258
839.781	5060
839.918	4991
840.055	5083
840.193	5079
840.33	5147
840.467	5170
840.604	5193
840.742	5414
840.879	5094
841.016	5045
841.153	5102
841.29	5372
841.427	5372
841.564	5307
841.701	5387
841.838	5292
841.975	5265
842.112	5280
842.249	5143
842.385	5086
842.522	5345
842.659	5216
842.796	5132
842.933	5113
843.069	5155
843.206	5147
843.343	5292
843.479	5250
843.616	5227
843.752	5018
843.889	5056
844.025	5174
844.162	5029
844.298	5197
844.435	5113
844.571	5033
844.708	5170
844.844	5292
844.98	5284
845.117	5239
845.253	5201
845.389	5094
845.525	5124
845.661	5117
845.798	5075
845.934	5155
846.07	5022
846.206	5155
846.342	5197
846.478	5208
846.614	5006
846.75	4976
846.886	4965
847.022	5132
847.158	5029
847.294	5029
847.429	5113
847.565	5064
847.701	5292
847.837	4816
847.972	4831
848.108	4965
848.244	4968
848.379	4816
848.515	4733
848.65	4725
848.786	4729
848.921	4755
849.057	4835
849.192	4858
849.328	4790
849.463	4820
849.598	4767
849.734	4755
849.869	4702
850.004	4626
850.14	4618
850.275	4569
850.41	4535
850.545	4542
850.68	4592
850.815	4569
850.95	4607
851.085	4839
851.22	4717
851.355	4714
851.49	4634
851.625	4615
851.76	4634
851.895	4580
852.03	4538
852.165	4664
852.299	4736
852.434	4816
852.569	4698
852.703	4744
852.838	4828
852.973	4949
853.107	4915
853.242	4717
853.376	4679
853.511	4603
853.645	4641
853.78	4801
853.914	4687
854.048	4702
854.183	4687
854.317	4660
854.451	4820
854.585	4694
854.72	4634
854.854	4744
854.988	4622
855.122	4660
855.256	4554
855.39	4641
855.524	4744
855.658	4721
855.792	4694
855.926	4725
856.06	4767
856.194	4786
856.327	4725
856.461	4641
856.595	4653
856.729	4615
856.862	4759
856.996	4660
857.13	4755
857.263	4717
857.397	4805
857.53	4634
857.664	4687
857.797	4748
857.931	4790
858.064	4679
858.197	4706
858.331	4694
858.464	4626
858.597	4546
858.731	4637
858.864	4675
858.997	4592
859.13	4618
859.263	4618
859.396	4645
859.529	4660
859.662	4607
859.795	4546
859.928	4611
860.061	4755
860.194	4778
860.327	4607
860.46	4573
860.592	4714
860.725	4736
860.858	4679
860.99	4580
861.123	4489
861.256	4512
861.388	4596
861.521	5216
861.653	4474
861.786	4478
861.918	4459
862.05	4462
862.183	4542
862.315	4580
862.447	4634
862.58	4504
862.712	4455
862.844	4303
862.976	4462
863.108	4424
863.24	4923
863.372	4341
863.504	4417
863.636	4424
863.768	4489
863.9	4459
864.032	4352
864.164	4390
864.296	4440
864.428	4527
864.559	4599
864.691	4493
864.823	4485
864.954	4478
865.086	4508
865.217	4497
865.349	4432
865.48	4443
865.612	4516
865.743	4626
865.875	4451
866.006	4436
866.137	4459
866.269	4466
866.4	4459
866.531	4390
866.662	4421
866.793	4470
866.924	4421
867.055	4455
867.186	4462
867.317	4436
867.448	4375
867.579	4360
867.71	4398
867.841	4383
867.972	4421
868.103	4462
868.233	4451
868.364	4440
868.495	4455
868.625	4634
868.756	4733
868.886	4535
869.017	4596
869.147	4748
869.278	4755
869.408	4706
869.539	4637
869.669	4714
869.799	4607
869.929	4694
870.06	4725
870.19	4968
870.32	4896
870.45	4911
870.58	5045
870.71	5048
870.84	5083
870.97	4965
871.1	4915
871.23	5136
871.36	5128
871.489	5048
871.619	5064
871.749	5094
871.879	5124
872.008	5208
872.138	5060
872.267	4965
872.397	4835
872.526	4847
872.656	4729
872.785	4771
872.915	4889
873.044	5037
873.173	4965
873.303	4991
873.432	4911
873.561	4946
873.69	4858
873.819	4908
873.948	4904
874.077	4782
874.206	4759
874.335	4801
874.464	4949
874.593	5060
874.722	4892
874.851	5136
874.979	4968
875.108	5045
875.237	4957
875.365	4873
875.494	4889
875.623	4976
875.751	4858
875.88	4911
876.008	4961
876.136	5006
876.265	5159
876.393	5357
876.521	5280
876.65	5254
876.778	5166
876.906	5075
877.034	5025
877.162	5033
877.29	4972
877.418	5071
877.546	5018
877.674	5075
877.802	5037
877.93	5003
878.058	4953
878.185	4866
878.313	4976
878.441	4942
878.568	4797
878.696	4831
878.824	4984
878.951	5041
879.079	5147
879.206	5299
879.333	5117
879.461	4999
879.588	5056
879.715	5136
879.842	5166
879.97	5010
880.097	4786
880.224	4729
880.351	4767
880.478	4820
880.605	4786
880.732	4748
880.859	5079
880.986	4885
881.112	4847
881.239	4778
881.366	4649
881.493	4592
881.619	4588
881.746	4615
881.872	4656
881.999	4596
882.125	4691
882.252	4771
882.378	4824
882.505	4942
882.631	4801
882.757	4675
882.883	4717
883.01	4702
883.136	4691
883.262	4599
883.388	4626
883.514	4843
883.64	4862
883.766	4797
883.892	4626
884.018	4706
884.143	4896
884.269	5041
884.395	4660
884.52	4607
884.646	4660
884.772	4577
884.897	4565
885.023	4641
885.148	4752
885.274	4908
885.399	4790
885.524	4691
885.65	4656
885.775	4752
885.9	4706
886.025	4835
886.15	4782
886.275	4706
886.4	4664
886.525	4733
886.65	4691
886.775	4725
886.9	4889
887.025	5018
887.149	4824
887.274	4653
887.399	4599
887.523	4588
887.648	4531
887.773	4554
887.897	4744
888.021	4790
888.146	4672
888.27	4809
888.395	4915
888.519	4801
888.643	4767
888.767	4831
888.891	4679
889.015	4546
889.139	4706
889.263	4573
889.387	4797
889.511	4828
889.635	4820
889.759	4664
889.883	4653
890.006	4694
890.13	4820
890.254	4630
890.377	4679
890.501	4512
890.624	4527
890.748	4637
890.871	4519
890.995	4402
891.118	4383
891.241	4489
891.364	4493
891.488	4615
891.611	4485
891.734	4546
891.857	4577
891.98	4523
892.103	4637
892.226	4618
892.349	4497
892.471	4455
892.594	4519
892.717	4512
892.839	4527
892.962	4542
893.085	4675
893.207	4580
893.33	4478
893.452	4535
893.575	4653
893.697	4607
893.819	4778
893.941	4820
894.064	4774
894.186	4569
894.308	4531
894.43	4748
894.552	4797
894.674	4752
894.796	4599
894.918	4596
895.04	4542
895.161	4698
895.283	4645
895.405	4561
895.526	4641
895.648	4683
895.769	4683
895.891	4668
896.012	4725
896.134	4748
896.255	4668
896.376	4592
896.498	4603
896.619	4683
896.74	4656
896.861	4641
896.982	4885
897.103	5045
897.224	4866
897.345	4759
897.466	4641
897.587	4698
897.708	4850
897.828	4755
897.949	4672
898.07	4527
898.19	4592
898.311	4805
898.431	4679
898.552	4714
898.672	4774
898.792	4824
898.913	4717
899.033	4630
899.153	4478
899.273	4455
899.393	4516
899.513	4527
899.633	4538
899.753	4573
899.873	4504
899.993	4580
900.113	4542
900.232	4607
900.352	4558
900.472	4531
900.591	4386
900.711	4577
900.83	4413
900.95	4641
901.069	4706
901.189	4546
901.308	4371
901.427	4325
901.546	4348
901.665	4417
901.784	4554
901.904	4409
902.023	4280
902.141	4219
902.26	4169
902.379	4265
902.498	4284
902.617	4234
902.735	4405
902.854	4371
902.973	4341
903.091	4192
903.21	4246
903.328	4383
903.446	4215
903.565	4242
903.683	4360
903.801	4303
903.919	4390
904.038	4478
904.156	4333
904.274	4455
904.392	4409
904.51	4432
904.627	4500
904.745	4596
904.863	4615
904.981	4394
905.098	4329
905.216	4325
905.334	4443
905.451	4440
905.569	4470
905.686	4596
905.803	4542
905.921	4386
906.038	4561
906.155	4481
906.272	4356
906.389	4470
906.506	4333
906.623	4371
906.74	4443
906.857	4287
906.974	4421
907.091	4592
907.208	4691
907.324	4588
907.441	4535
907.557	4329
907.674	4341
907.79	4329
907.907	4375
908.023	4504
908.139	4497
908.256	4447
908.372	4459
908.488	4424
908.604	4405
908.72	4348
908.836	4398
908.952	4413
909.068	4405
909.184	4493
909.3	4527
909.415	4577
909.531	4542
909.647	4348
909.762	4360
909.878	4348
909.993	4459
910.108	4402
910.224	4447
910.339	4417
910.454	4455
910.57	4310
910.685	4295
910.8	4618
910.915	4588
911.03	4466
911.145	4325
911.259	4303
911.374	4333
911.489	4329
911.604	4230
911.718	4128
911.833	4200
911.947	4124
912.062	4059
912.176	4238
912.291	4238
912.405	4272
912.519	4436
912.633	4516
912.748	4394
912.862	4287
912.976	4200
913.09	4101
913.204	4207
913.318	4246
913.431	4337
913.545	4375
913.659	4417
913.772	4375
913.886	4242
914	4196
914.113	4386
914.226	4424
914.34	4402
914.453	4227
914.566	4398
914.68	4287
914.793	4306
914.906	4177
915.019	4105
915.132	4078
915.245	4169
915.358	4227
915.47	4272
915.583	4265
915.696	4303
915.809	4405
915.921	4428
916.034	4265
916.146	4276
916.259	4227
916.371	4383
916.483	4371
916.595	4265
916.708	4284
916.82	4383
916.932	4314
917.044	4314
917.156	4306
917.268	4242
917.38	4284
917.491	4253
917.603	4352
917.715	4428
917.826	4424
917.938	4333
918.049	4246
918.161	4409
918.272	4519
918.384	4474
918.495	4436
918.606	4284
918.717	4257
918.828	4295
918.939	4402
919.05	4265
919.161	4318
919.272	4143
919.383	4276
919.494	4478
919.604	4607
919.715	4402
919.826	4352
919.936	4405
920.047	4546
920.157	4489
920.267	4710
920.378	4538
920.488	4523
920.598	4721
920.708	4892
920.818	4752
920.928	4736
921.038	4984
921.148	4889
921.258	4618
921.368	4569
921.477	4485
921.587	4421
921.697	4337
921.806	4558
921.916	4436
922.025	4265
922.134	4246
922.244	4253
922.353	4325
922.462	4188
922.571	4120
922.68	3960
922.789	3964
922.898	4044
923.007	3998
923.116	4059
923.224	4074
923.333	4051
923.442	3968
923.55	3960
923.659	4032
923.767	4139
923.876	4025
923.984	4166
924.092	3964
924.201	4090
924.309	4078
924.417	4162
924.525	4017
924.633	4101
924.741	5064
924.849	3918
924.956	4150
925.064	3979
925.172	3888
925.279	3953
925.387	4071
925.494	4090
925.602	4185
925.709	4196
925.816	4044
925.924	4112
926.031	4185
926.138	4181
926.245	4131
926.352	4131
926.459	4272
926.566	4318
926.673	4181
926.779	4109
926.886	4040
926.993	3953
927.099	3960
927.206	3960
927.312	3960
927.419	4101
927.525	3994
927.631	4143
927.737	3975
927.843	3918
927.95	3876
928.056	3953
928.162	3972
928.267	4082
928.373	4588
928.479	4143
928.585	3842
928.69	4059
928.796	4086
928.901	3987
929.007	3842
929.112	3998
929.218	3949
929.323	3926
929.428	3934
929.533	4097
929.638	3926
929.743	3964
929.848	4025
929.953	4040
930.058	3896
930.163	3774
930.267	3835
930.372	3937
930.477	3785
930.581	4093
930.685	3926
930.79	3823
930.894	3903
930.998	3876
931.103	4032
931.207	3686
931.311	3679
931.415	3660
931.519	3515
931.623	3538
