Data from test_V78500241_761.txt Node
Date: Fri Mar 25 16:54:17 CST 2022
User: usil
Spectrometer: V785-0024
Trigger mode: 0
Integration Time (sec): 4.000000E-1
Scans to average: 1
Nonlinearity correction enabled: false
Boxcar width: 0
Storing dark spectrum: false
XAxis mode: Wavelengths
Number of Pixels in Spectrum: 1024
>>>>>Begin Spectral Data<<<<<
801.071	7974
801.214	8031
801.356	7917
801.499	7868
801.641	7887
801.783	7788
801.926	7986
802.068	7932
802.211	8027
802.353	7936
802.496	7826
802.638	7890
802.78	7868
802.923	7963
803.065	7849
803.208	7845
803.35	7970
803.492	8050
803.635	8202
803.777	8008
803.919	8039
804.061	8377
804.204	8111
804.346	8062
804.488	7955
804.63	8077
804.773	8016
804.915	8092
805.057	8279
805.199	8180
805.341	8195
805.483	8256
805.626	8187
805.768	8130
805.91	8161
806.052	8138
806.194	8069
806.336	8313
806.478	8111
806.62	8073
806.762	8195
806.904	8282
807.046	8518
807.188	8412
807.33	8286
807.472	8301
807.614	8107
807.756	8088
807.898	7909
808.04	7811
808.182	7898
808.324	7875
808.465	7890
808.607	7997
808.749	8092
808.891	8149
809.033	8267
809.174	8240
809.316	8107
809.458	8115
809.6	8005
809.741	8077
809.883	8027
810.025	8111
810.166	8115
810.308	7963
810.45	8024
810.591	7875
810.733	7772
810.875	7639
811.016	7476
811.158	7502
811.299	7563
811.441	7681
811.582	7712
811.724	7578
811.865	7483
812.007	7597
812.148	7548
812.29	7624
812.431	7712
812.573	7868
812.714	7928
812.855	8119
812.997	8240
813.138	8267
813.279	8115
813.421	8065
813.562	7967
813.703	7803
813.845	7719
813.986	7422
814.127	7301
814.268	7251
814.41	7221
814.551	7168
814.692	7145
814.833	7061
814.974	7088
815.115	7061
815.256	6951
815.397	6985
815.539	6932
815.68	6844
815.821	6791
815.962	6840
816.103	6840
816.244	6665
816.385	6620
816.526	6620
816.666	6467
816.807	6270
816.948	6445
817.089	6513
817.23	6414
817.371	6380
817.512	6384
817.653	6407
817.793	6342
817.934	6433
818.075	6502
818.216	6407
818.356	6441
818.497	6201
818.638	6121
818.778	6125
818.919	6114
819.06	6136
819.2	6315
819.341	6304
819.481	6342
819.622	6506
819.762	6734
819.903	6696
820.043	6601
820.184	6532
820.324	6547
820.465	6616
820.605	6639
820.746	6547
820.886	6441
821.026	6684
821.167	6688
821.307	6840
821.447	6722
821.588	6658
821.728	6486
821.868	6448
822.008	6365
822.149	6384
822.289	6369
822.429	6144
822.569	6034
822.709	6140
822.849	5912
822.99	5893
823.13	5866
823.27	5897
823.41	5817
823.55	5729
823.69	5764
823.83	5764
823.97	5653
824.11	5444
824.25	5486
824.389	5577
824.529	5520
824.669	5547
824.809	5615
824.949	5703
825.089	5539
825.228	5543
825.368	5372
825.508	5402
825.648	5326
825.787	5334
825.927	5368
826.067	5299
826.206	5311
826.346	5402
826.485	5376
826.625	5372
826.765	5543
826.904	5440
827.044	5315
827.183	5189
827.323	5147
827.462	5246
827.601	5204
827.741	5147
827.88	5197
828.02	5109
828.159	5250
828.298	5277
828.437	5391
828.577	5258
828.716	5486
828.855	5296
828.994	5143
829.134	5143
829.273	5189
829.412	5132
829.551	5083
829.69	5159
829.829	5250
829.968	5387
830.107	5254
830.246	5292
830.385	5128
830.524	5132
830.663	5121
830.802	4991
830.941	4889
831.08	4900
831.219	5003
831.357	5003
831.496	5098
831.635	4896
831.774	4873
831.913	4793
832.051	4725
832.19	4752
832.329	4835
832.467	4702
832.606	4687
832.744	4755
832.883	4702
833.022	4721
833.16	4801
833.299	4854
833.437	4866
833.576	4850
833.714	4839
833.852	4835
833.991	4828
834.129	4930
834.267	4961
834.406	4923
834.544	4968
834.682	4961
834.821	5018
834.959	5113
835.097	4927
835.235	5121
835.373	5037
835.511	5041
835.65	5037
835.788	5014
835.926	4866
836.064	4812
836.202	4949
836.34	5189
836.478	5212
836.615	5105
836.753	5242
836.891	5273
837.029	5242
837.167	5162
837.305	5170
837.443	5178
837.58	5079
837.718	5250
837.856	5166
837.993	5159
838.131	5212
838.269	5197
838.406	5193
838.544	5223
838.681	5048
838.819	5033
838.956	4870
839.094	4900
839.231	4976
839.369	5102
839.506	5417
839.643	5231
839.781	5086
839.918	4995
840.055	5075
840.193	5132
840.33	5143
840.467	5086
840.604	5140
840.742	5448
840.879	5117
841.016	5048
841.153	5121
841.29	5425
841.427	5292
841.564	5334
841.701	5417
841.838	5280
841.975	5220
842.112	5265
842.249	5124
842.385	5109
842.522	5318
842.659	5136
842.796	5147
842.933	5197
843.069	5124
843.206	5166
843.343	5288
843.479	5227
843.616	5261
843.752	5003
843.889	4999
844.025	5147
844.162	5006
844.298	5204
844.435	5086
844.571	5022
844.708	5220
844.844	5277
844.98	5364
845.117	5299
845.253	5136
845.389	5094
845.525	5090
845.661	5155
845.798	5102
845.934	5136
846.07	5029
846.206	5178
846.342	5318
846.478	5166
846.614	4995
846.75	4965
846.886	4949
847.022	5151
847.158	4984
847.294	5060
847.429	5143
847.565	5010
847.701	5311
847.837	4782
847.972	4816
848.108	4976
848.244	4873
848.379	4744
848.515	4702
848.65	4725
848.786	4771
848.921	4759
849.057	4816
849.192	4938
849.328	4831
849.463	4816
849.598	4763
849.734	4740
849.869	4672
850.004	4611
850.14	4687
850.275	4538
850.41	4558
850.545	4527
850.68	4618
850.815	4596
850.95	4641
851.085	4793
851.22	4740
851.355	4675
851.49	4596
851.625	4599
851.76	4656
851.895	4538
852.03	4512
852.165	4675
852.299	4664
852.434	4748
852.569	4759
852.703	4740
852.838	4843
852.973	4919
853.107	4870
853.242	4733
853.376	4698
853.511	4481
853.645	4603
853.78	4752
853.914	4687
854.048	4634
854.183	4649
854.317	4725
854.451	4881
854.585	4668
854.72	4626
854.854	4694
854.988	4599
855.122	4592
855.256	4519
855.39	4649
855.524	4793
855.658	4714
855.792	4721
855.926	4675
856.06	4767
856.194	4816
856.327	4691
856.461	4592
856.595	4630
856.729	4622
856.862	4740
856.996	4714
857.13	4675
857.263	4786
857.397	4839
857.53	4622
857.664	4687
857.797	4744
857.931	4801
858.064	4622
858.197	4733
858.331	4599
858.464	4607
858.597	4504
858.731	4626
858.864	4596
858.997	4603
859.13	4615
859.263	4653
859.396	4660
859.529	4558
859.662	4497
859.795	4542
859.928	4630
860.061	4714
860.194	4733
860.327	4603
860.46	4542
860.592	4706
860.725	4668
860.858	4702
860.99	4580
861.123	4508
861.256	4493
861.388	4599
861.521	5391
861.653	4516
861.786	4466
861.918	4447
862.05	4538
862.183	4550
862.315	4599
862.447	4637
862.58	4512
862.712	4402
862.844	4325
862.976	4459
863.108	4447
863.24	4870
863.372	4360
863.504	4447
863.636	4459
863.768	4478
863.9	4462
864.032	4344
864.164	4402
864.296	4466
864.428	4527
864.559	4523
864.691	4481
864.823	4512
864.954	4527
865.086	4500
865.217	4459
865.349	4417
865.48	4436
865.612	4443
865.743	4615
865.875	4447
866.006	4409
866.137	4451
866.269	4440
866.4	4451
866.531	4462
866.662	4432
866.793	4398
866.924	4409
867.055	4489
867.186	4451
867.317	4386
867.448	4367
867.579	4413
867.71	4409
867.841	4363
867.972	4459
868.103	4466
868.233	4519
868.364	4432
868.495	4462
868.625	4664
868.756	4733
868.886	4577
869.017	4626
869.147	4771
869.278	4774
869.408	4656
869.539	4626
869.669	4668
869.799	4653
869.929	4736
870.06	4763
870.19	4961
870.32	4896
870.45	4911
870.58	4984
870.71	5045
870.84	5083
870.97	4938
871.1	4858
871.23	5128
871.36	5124
871.489	5018
871.619	5086
871.749	5098
871.879	5128
872.008	5159
872.138	5018
872.267	4957
872.397	4809
872.526	4801
872.656	4736
872.785	4797
872.915	4938
873.044	5033
873.173	4927
873.303	4949
873.432	4965
873.561	4946
873.69	4881
873.819	4870
873.948	4908
874.077	4809
874.206	4752
874.335	4778
874.464	4911
874.593	5079
874.722	4946
874.851	5079
874.979	5037
875.108	5014
875.237	4892
875.365	4854
875.494	4915
875.623	5022
875.751	4847
875.88	4870
876.008	4953
876.136	5033
876.265	5220
876.393	5353
876.521	5261
876.65	5185
876.778	5166
876.906	5098
877.034	4984
877.162	5048
877.29	5045
877.418	5048
877.546	5064
877.674	4999
877.802	5003
877.93	5029
878.058	4843
878.185	4892
878.313	4923
878.441	4984
878.568	4774
878.696	4858
878.824	4965
878.951	5006
879.079	5109
879.206	5231
879.333	5109
879.461	5014
879.588	4949
879.715	5102
879.842	5235
879.97	4987
880.097	4755
880.224	4729
880.351	4809
880.478	4763
880.605	4812
880.732	4778
880.859	5128
880.986	4911
881.112	4835
881.239	4786
881.366	4641
881.493	4607
881.619	4592
881.746	4618
881.872	4618
881.999	4656
882.125	4725
882.252	4812
882.378	4801
882.505	4987
882.631	4790
882.757	4698
882.883	4683
883.01	4721
883.136	4649
883.262	4637
883.388	4580
883.514	4828
883.64	4889
883.766	4771
883.892	4710
884.018	4672
884.143	4915
884.269	4995
884.395	4664
884.52	4626
884.646	4645
884.772	4584
884.897	4558
885.023	4649
885.148	4752
885.274	4824
885.399	4812
885.524	4736
885.65	4687
885.775	4755
885.9	4675
886.025	4892
886.15	4778
886.275	4725
886.4	4630
886.525	4706
886.65	4653
886.775	4740
886.9	4889
887.025	4999
887.149	4816
887.274	4649
887.399	4580
887.523	4573
887.648	4607
887.773	4573
887.897	4767
888.021	4763
888.146	4702
888.27	4866
888.395	4885
888.519	4786
888.643	4805
888.767	4820
888.891	4660
889.015	4622
889.139	4634
889.263	4649
889.387	4782
889.511	4866
889.635	4767
889.759	4641
889.883	4683
890.006	4725
890.13	4900
890.254	4607
890.377	4668
890.501	4523
890.624	4512
890.748	4611
890.871	4474
890.995	4386
891.118	4417
891.241	4519
891.364	4527
891.488	4634
891.611	4489
891.734	4538
891.857	4603
891.98	4546
892.103	4645
892.226	4603
892.349	4573
892.471	4428
892.594	4561
892.717	4607
892.839	4577
892.962	4584
893.085	4649
893.207	4580
893.33	4478
893.452	4516
893.575	4630
893.697	4573
893.819	4809
893.941	4847
894.064	4733
894.186	4588
894.308	4573
894.43	4759
894.552	4812
894.674	4744
894.796	4588
894.918	4569
895.04	4561
895.161	4710
895.283	4702
895.405	4554
895.526	4618
895.648	4641
895.769	4736
895.891	4736
896.012	4725
896.134	4725
896.255	4645
896.376	4618
896.498	4622
896.619	4668
896.74	4607
896.861	4637
896.982	4919
897.103	5067
897.224	4824
897.345	4748
897.466	4649
897.587	4721
897.708	4831
897.828	4755
897.949	4691
898.07	4527
898.19	4649
898.311	4831
898.431	4630
898.552	4752
898.672	4809
898.792	4831
898.913	4763
899.033	4618
899.153	4485
899.273	4440
899.393	4424
899.513	4497
899.633	4478
899.753	4535
899.873	4508
899.993	4516
900.113	4577
900.232	4592
900.352	4504
900.472	4474
900.591	4417
900.711	4504
900.83	4405
900.95	4641
901.069	4694
901.189	4523
901.308	4390
901.427	4310
901.546	4405
901.665	4478
901.784	4459
901.904	4417
902.023	4325
902.141	4128
902.26	4173
902.379	4295
902.498	4196
902.617	4227
902.735	4367
902.854	4405
902.973	4325
903.091	4162
903.21	4249
903.328	4310
903.446	4268
903.565	4257
903.683	4306
903.801	4265
903.919	4451
904.038	4405
904.156	4257
904.274	4428
904.392	4398
904.51	4451
904.627	4516
904.745	4596
904.863	4645
904.981	4443
905.098	4325
905.216	4371
905.334	4402
905.451	4451
905.569	4451
905.686	4573
905.803	4580
905.921	4363
906.038	4531
906.155	4440
906.272	4421
906.389	4443
906.506	4318
906.623	4348
906.74	4379
906.857	4310
906.974	4344
907.091	4542
907.208	4672
907.324	4637
907.441	4527
907.557	4322
907.674	4295
907.79	4333
907.907	4383
908.023	4504
908.139	4459
908.256	4424
908.372	4474
908.488	4428
908.604	4352
908.72	4344
908.836	4383
908.952	4341
909.068	4371
909.184	4588
909.3	4443
909.415	4603
909.531	4531
909.647	4299
909.762	4383
909.878	4329
909.993	4398
910.108	4424
910.224	4428
910.339	4512
910.454	4371
910.57	4322
910.685	4280
910.8	4653
910.915	4554
911.03	4451
911.145	4333
911.259	4299
911.374	4344
911.489	4253
911.604	4276
911.718	4147
911.833	4227
911.947	4101
912.062	3991
912.176	4219
912.291	4192
912.405	4295
912.519	4443
912.633	4512
912.748	4390
912.862	4303
912.976	4177
913.09	4063
913.204	4196
913.318	4230
913.431	4344
913.545	4375
913.659	4474
913.772	4363
913.886	4249
914	4249
914.113	4394
914.226	4405
914.34	4413
914.453	4261
914.566	4390
914.68	4310
914.793	4318
914.906	4177
915.019	4143
915.132	4063
915.245	4192
915.358	4204
915.47	4234
915.583	4249
915.696	4291
915.809	4363
915.921	4440
916.034	4272
916.146	4261
916.259	4169
916.371	4360
916.483	4402
916.595	4219
916.708	4314
916.82	4295
916.932	4333
917.044	4375
917.156	4371
917.268	4272
917.38	4227
917.491	4268
917.603	4287
917.715	4402
917.826	4402
917.938	4325
918.049	4223
918.161	4383
918.272	4558
918.384	4542
918.495	4440
918.606	4341
918.717	4234
918.828	4341
918.939	4371
919.05	4265
919.161	4333
919.272	4124
919.383	4223
919.494	4428
919.604	4634
919.715	4379
919.826	4344
919.936	4371
920.047	4542
920.157	4455
920.267	4698
920.378	4523
920.488	4504
920.598	4706
920.708	4824
920.818	4759
920.928	4759
921.038	4949
921.148	4915
921.258	4584
921.368	4573
921.477	4504
921.587	4451
921.697	4333
921.806	4573
921.916	4443
922.025	4284
922.134	4306
922.244	4211
922.353	4318
922.462	4154
922.571	4147
922.68	4002
922.789	3945
922.898	4059
923.007	4017
923.116	4101
923.224	4048
923.333	4093
923.442	3975
923.55	3934
923.659	4044
923.767	4128
923.876	4021
923.984	4147
924.092	3960
924.201	4067
924.309	4097
924.417	4158
924.525	4040
924.633	4109
924.741	4862
924.849	3911
924.956	4078
925.064	3964
925.172	3964
925.279	3930
925.387	4017
925.494	4082
925.602	4188
925.709	4196
925.816	4074
925.924	4101
926.031	4246
926.138	4135
926.245	4181
926.352	4112
926.459	4253
926.566	4348
926.673	4150
926.779	4105
926.886	4090
926.993	3991
927.099	3930
927.206	3930
927.312	3941
927.419	4048
927.525	4044
927.631	4097
927.737	3991
927.843	3934
927.95	3873
928.056	3937
928.162	3949
928.267	4044
928.373	4687
928.479	4078
928.585	3888
928.69	3975
928.796	4093
928.901	3983
929.007	3816
929.112	4021
929.218	3960
929.323	3956
929.428	3930
929.533	4097
929.638	3892
929.743	3975
929.848	4044
929.953	3934
930.058	3896
930.163	3785
930.267	3816
930.372	3991
930.477	3774
930.581	4090
930.685	3991
930.79	3804
930.894	3930
930.998	3857
931.103	4074
931.207	3701
931.311	3675
931.415	3679
931.519	3557
931.623	3587
