Data from test_V78500241_2281.txt Node
Date: Fri Mar 25 17:04:51 CST 2022
User: usil
Spectrometer: V785-0024
Trigger mode: 0
Integration Time (sec): 4.000000E-1
Scans to average: 1
Nonlinearity correction enabled: false
Boxcar width: 0
Storing dark spectrum: false
XAxis mode: Wavelengths
Number of Pixels in Spectrum: 1024
>>>>>Begin Spectral Data<<<<<
801.071	7967
801.214	7997
801.356	7772
801.499	7849
801.641	7814
801.783	7807
801.926	7913
802.068	7894
802.211	7997
802.353	8031
802.496	7807
802.638	7902
802.78	7852
802.923	7947
803.065	7818
803.208	7845
803.35	7955
803.492	8046
803.635	8161
803.777	8020
803.919	8111
804.061	8381
804.204	8172
804.346	8088
804.488	7947
804.63	8069
804.773	8024
804.915	8111
805.057	8275
805.199	8100
805.341	8210
805.483	8305
805.626	8237
805.768	8119
805.91	8225
806.052	8221
806.194	8115
806.336	8191
806.478	8115
806.62	8142
806.762	8103
806.904	8286
807.046	8438
807.188	8339
807.33	8275
807.472	8362
807.614	8153
807.756	8161
807.898	7989
808.04	7936
808.182	7925
808.324	7879
808.465	7837
808.607	8115
808.749	8199
808.891	8233
809.033	8218
809.174	8218
809.316	8126
809.458	8035
809.6	8027
809.741	7989
809.883	8035
810.025	8111
810.166	7997
810.308	8016
810.45	7906
810.591	7913
810.733	7750
810.875	7666
811.016	7552
811.158	7453
811.299	7582
811.441	7742
811.582	7655
811.724	7590
811.865	7495
812.007	7597
812.148	7609
812.29	7575
812.431	7780
812.573	7879
812.714	8020
812.855	8111
812.997	8199
813.138	8355
813.279	8138
813.421	8050
813.562	7921
813.703	7864
813.845	7670
813.986	7441
814.127	7301
814.268	7202
814.41	7202
814.551	7164
814.692	7217
814.833	7103
814.974	7133
815.115	7145
815.256	7012
815.397	6867
815.539	6932
815.68	6783
815.821	6806
815.962	6844
816.103	6825
816.244	6768
816.385	6517
816.526	6559
816.666	6486
816.807	6357
816.948	6483
817.089	6490
817.23	6441
817.371	6372
817.512	6407
817.653	6399
817.793	6376
817.934	6342
818.075	6429
818.216	6391
818.356	6441
818.497	6258
818.638	6117
818.778	6155
818.919	6091
819.06	6133
819.2	6315
819.341	6353
819.481	6346
819.622	6559
819.762	6749
819.903	6696
820.043	6627
820.184	6662
820.324	6555
820.465	6700
820.605	6642
820.746	6593
820.886	6570
821.026	6642
821.167	6662
821.307	6787
821.447	6757
821.588	6684
821.728	6646
821.868	6494
822.008	6388
822.149	6380
822.289	6376
822.429	6144
822.569	6178
822.709	6205
822.849	5980
822.99	5893
823.13	5977
823.27	5923
823.41	5775
823.55	5767
823.69	5771
823.83	5779
823.97	5680
824.11	5524
824.25	5490
824.389	5573
824.529	5589
824.669	5505
824.809	5611
824.949	5653
825.089	5604
825.228	5581
825.368	5417
825.508	5337
825.648	5349
825.787	5387
825.927	5349
826.067	5223
826.206	5311
826.346	5398
826.485	5402
826.625	5414
826.765	5543
826.904	5497
827.044	5277
827.183	5166
827.323	5147
827.462	5280
827.601	5147
827.741	5181
827.88	5212
828.02	5132
828.159	5231
828.298	5269
828.437	5337
828.577	5311
828.716	5444
828.855	5364
828.994	5159
829.134	5147
829.273	5227
829.412	5128
829.551	5143
829.69	5155
829.829	5227
829.968	5360
830.107	5265
830.246	5265
830.385	5166
830.524	5159
830.663	5067
830.802	4949
830.941	4930
831.08	4847
831.219	5003
831.357	4953
831.496	5124
831.635	4930
831.774	4847
831.913	4854
832.051	4694
832.19	4752
832.329	4850
832.467	4725
832.606	4626
832.744	4694
832.883	4721
833.022	4744
833.16	4782
833.299	4835
833.437	4873
833.576	4793
833.714	4847
833.852	4858
833.991	4873
834.129	4938
834.267	4927
834.406	4858
834.544	5006
834.682	4953
834.821	4923
834.959	5140
835.097	4980
835.235	5147
835.373	5064
835.511	5102
835.65	5003
835.788	5022
835.926	4892
836.064	4831
836.202	4953
836.34	5128
836.478	5231
836.615	5155
836.753	5208
836.891	5258
837.029	5204
837.167	5162
837.305	5143
837.443	5113
837.58	5113
837.718	5258
837.856	5220
837.993	5109
838.131	5269
838.269	5197
838.406	5212
838.544	5162
838.681	4987
838.819	5022
838.956	4854
839.094	4885
839.231	4972
839.369	5102
839.506	5414
839.643	5307
839.781	5071
839.918	5029
840.055	5124
840.193	5098
840.33	5140
840.467	5098
840.604	5151
840.742	5478
840.879	5075
841.016	5083
841.153	5151
841.29	5322
841.427	5288
841.564	5299
841.701	5345
841.838	5269
841.975	5261
842.112	5216
842.249	5109
842.385	5105
842.522	5307
842.659	5086
842.796	5140
842.933	5220
843.069	5128
843.206	5174
843.343	5280
843.479	5280
843.616	5246
843.752	5056
843.889	4972
844.025	5235
844.162	5067
844.298	5235
844.435	5064
844.571	5079
844.708	5181
844.844	5284
844.98	5303
845.117	5288
845.253	5128
845.389	5045
845.525	5170
845.661	5113
845.798	5067
845.934	5155
846.07	5064
846.206	5170
846.342	5246
846.478	5189
846.614	4972
846.75	4991
846.886	4915
847.022	5132
847.158	5029
847.294	5029
847.429	5079
847.565	5094
847.701	5307
847.837	4866
847.972	4790
848.108	4934
848.244	4892
848.379	4782
848.515	4740
848.65	4733
848.786	4733
848.921	4717
849.057	4862
849.192	4919
849.328	4835
849.463	4835
849.598	4790
849.734	4755
849.869	4656
850.004	4653
850.14	4615
850.275	4611
850.41	4523
850.545	4538
850.68	4565
850.815	4611
850.95	4634
851.085	4828
851.22	4752
851.355	4653
851.49	4664
851.625	4618
851.76	4656
851.895	4565
852.03	4519
852.165	4656
852.299	4706
852.434	4801
852.569	4656
852.703	4763
852.838	4854
852.973	4877
853.107	4904
853.242	4717
853.376	4653
853.511	4546
853.645	4615
853.78	4748
853.914	4672
854.048	4672
854.183	4584
854.317	4725
854.451	4816
854.585	4656
854.72	4664
854.854	4725
854.988	4637
855.122	4584
855.256	4519
855.39	4645
855.524	4786
855.658	4740
855.792	4714
855.926	4733
856.06	4744
856.194	4839
856.327	4714
856.461	4577
856.595	4607
856.729	4637
856.862	4767
856.996	4733
857.13	4752
857.263	4714
857.397	4786
857.53	4660
857.664	4729
857.797	4767
857.931	4809
858.064	4691
858.197	4721
858.331	4660
858.464	4577
858.597	4546
858.731	4615
858.864	4672
858.997	4550
859.13	4656
859.263	4664
859.396	4767
859.529	4512
859.662	4523
859.795	4538
859.928	4675
860.061	4729
860.194	4797
860.327	4599
860.46	4577
860.592	4660
860.725	4736
860.858	4706
860.99	4565
861.123	4516
861.256	4481
861.388	4577
861.521	5223
861.653	4462
861.786	4455
861.918	4451
862.05	4561
862.183	4493
862.315	4577
862.447	4653
862.58	4558
862.712	4447
862.844	4348
862.976	4447
863.108	4478
863.24	4881
863.372	4322
863.504	4413
863.636	4402
863.768	4447
863.9	4421
864.032	4360
864.164	4386
864.296	4466
864.428	4554
864.559	4535
864.691	4508
864.823	4504
864.954	4500
865.086	4554
865.217	4455
865.349	4371
865.48	4451
865.612	4466
865.743	4615
865.875	4455
866.006	4383
866.137	4447
866.269	4504
866.4	4428
866.531	4413
866.662	4371
866.793	4383
866.924	4424
867.055	4504
867.186	4447
867.317	4432
867.448	4375
867.579	4428
867.71	4356
867.841	4352
867.972	4485
868.103	4455
868.233	4443
868.364	4481
868.495	4508
868.625	4630
868.756	4767
868.886	4546
869.017	4637
869.147	4767
869.278	4771
869.408	4656
869.539	4668
869.669	4721
869.799	4626
869.929	4790
870.06	4721
870.19	4953
870.32	4908
870.45	4965
870.58	4968
870.71	5086
870.84	5060
870.97	4976
871.1	4904
871.23	5143
871.36	5128
871.489	5045
871.619	5067
871.749	5033
871.879	5094
872.008	5193
872.138	5060
872.267	4976
872.397	4824
872.526	4774
872.656	4759
872.785	4824
872.915	4949
873.044	4999
873.173	4934
873.303	5014
873.432	4980
873.561	4949
873.69	4854
873.819	4862
873.948	4862
874.077	4881
874.206	4786
874.335	4805
874.464	4972
874.593	5071
874.722	4953
874.851	5064
874.979	5052
875.108	5041
875.237	4934
875.365	4847
875.494	4862
875.623	5003
875.751	4839
875.88	4949
876.008	4968
876.136	5060
876.265	5193
876.393	5322
876.521	5220
876.65	5254
876.778	5132
876.906	5105
877.034	5010
877.162	5056
877.29	5048
877.418	5071
877.546	5037
877.674	4976
877.802	5025
877.93	5010
878.058	4953
878.185	4854
878.313	4946
878.441	4927
878.568	4812
878.696	4877
878.824	5010
878.951	5033
879.079	5132
879.206	5284
879.333	5060
879.461	5010
879.588	4995
879.715	5071
879.842	5231
879.97	5006
880.097	4755
880.224	4740
880.351	4763
880.478	4843
880.605	4812
880.732	4767
880.859	5090
880.986	4900
881.112	4892
881.239	4778
881.366	4672
881.493	4580
881.619	4554
881.746	4592
881.872	4675
881.999	4634
882.125	4706
882.252	4809
882.378	4809
882.505	4957
882.631	4816
882.757	4649
882.883	4752
883.01	4774
883.136	4592
883.262	4577
883.388	4622
883.514	4835
883.64	4873
883.766	4793
883.892	4622
884.018	4740
884.143	4862
884.269	5033
884.395	4649
884.52	4618
884.646	4683
884.772	4535
884.897	4535
885.023	4626
885.148	4805
885.274	4870
885.399	4778
885.524	4721
885.65	4664
885.775	4752
885.9	4675
886.025	4885
886.15	4839
886.275	4702
886.4	4607
886.525	4710
886.65	4649
886.775	4717
886.9	4911
887.025	5067
887.149	4763
887.274	4577
887.399	4630
887.523	4599
887.648	4580
887.773	4626
887.897	4714
888.021	4793
888.146	4679
888.27	4797
888.395	4896
888.519	4797
888.643	4801
888.767	4820
888.891	4675
889.015	4626
889.139	4637
889.263	4588
889.387	4786
889.511	4873
889.635	4744
889.759	4603
889.883	4637
890.006	4721
890.13	4797
890.254	4592
890.377	4664
890.501	4531
890.624	4550
890.748	4626
890.871	4538
890.995	4432
891.118	4398
891.241	4489
891.364	4569
891.488	4626
891.611	4493
891.734	4546
891.857	4573
891.98	4588
892.103	4656
892.226	4607
892.349	4558
892.471	4413
892.594	4527
892.717	4611
892.839	4558
892.962	4569
893.085	4656
893.207	4634
893.33	4489
893.452	4535
893.575	4637
893.697	4615
893.819	4748
893.941	4763
894.064	4797
894.186	4607
894.308	4615
894.43	4729
894.552	4820
894.674	4702
894.796	4580
894.918	4580
895.04	4550
895.161	4714
895.283	4649
895.405	4588
895.526	4645
895.648	4683
895.769	4702
895.891	4706
896.012	4744
896.134	4748
896.255	4691
896.376	4622
896.498	4599
896.619	4656
896.74	4554
896.861	4649
896.982	4915
897.103	4991
897.224	4839
897.345	4744
897.466	4660
897.587	4691
897.708	4866
897.828	4763
897.949	4668
898.07	4622
898.19	4603
898.311	4828
898.431	4649
898.552	4752
898.672	4824
898.792	4790
898.913	4740
899.033	4649
899.153	4508
899.273	4451
899.393	4478
899.513	4569
899.633	4527
899.753	4470
899.873	4462
899.993	4588
900.113	4527
900.232	4599
900.352	4531
900.472	4481
900.591	4413
900.711	4512
900.83	4447
900.95	4622
901.069	4622
901.189	4451
901.308	4405
901.427	4287
901.546	4333
901.665	4447
901.784	4443
901.904	4409
902.023	4303
902.141	4200
902.26	4109
902.379	4280
902.498	4265
902.617	4181
902.735	4348
902.854	4398
902.973	4390
903.091	4238
903.21	4268
903.328	4280
903.446	4242
903.565	4246
903.683	4329
903.801	4253
903.919	4383
904.038	4360
904.156	4295
904.274	4451
904.392	4428
904.51	4436
904.627	4466
904.745	4558
904.863	4656
904.981	4363
905.098	4314
905.216	4386
905.334	4428
905.451	4390
905.569	4451
905.686	4523
905.803	4512
905.921	4386
906.038	4542
906.155	4497
906.272	4394
906.389	4428
906.506	4363
906.623	4398
906.74	4356
906.857	4291
906.974	4375
907.091	4558
907.208	4641
907.324	4584
907.441	4504
907.557	4367
907.674	4337
907.79	4363
907.907	4421
908.023	4470
908.139	4447
908.256	4459
908.372	4455
908.488	4443
908.604	4329
908.72	4352
908.836	4409
908.952	4371
909.068	4451
909.184	4588
909.3	4424
909.415	4558
909.531	4535
909.647	4337
909.762	4356
909.878	4280
909.993	4424
910.108	4424
910.224	4383
910.339	4443
910.454	4375
910.57	4390
910.685	4325
910.8	4615
910.915	4630
911.03	4504
911.145	4333
911.259	4329
911.374	4356
911.489	4314
911.604	4242
911.718	4207
911.833	4196
911.947	4120
912.062	4021
912.176	4192
912.291	4196
912.405	4242
912.519	4443
912.633	4508
912.748	4352
912.862	4291
912.976	4234
913.09	4093
913.204	4131
913.318	4238
913.431	4367
913.545	4398
913.659	4417
913.772	4356
913.886	4284
914	4261
914.113	4363
914.226	4440
914.34	4363
914.453	4230
914.566	4394
914.68	4284
914.793	4314
914.906	4200
915.019	4109
915.132	4032
915.245	4158
915.358	4223
915.47	4173
915.583	4295
915.696	4276
915.809	4363
915.921	4417
916.034	4280
916.146	4230
916.259	4215
916.371	4337
916.483	4371
916.595	4276
916.708	4306
916.82	4344
916.932	4291
917.044	4344
917.156	4291
917.268	4211
917.38	4268
917.491	4299
917.603	4303
917.715	4424
917.826	4390
917.938	4325
918.049	4249
918.161	4390
918.272	4584
918.384	4500
918.495	4451
918.606	4314
918.717	4227
918.828	4356
918.939	4318
919.05	4268
919.161	4291
919.272	4177
919.383	4227
919.494	4436
919.604	4668
919.715	4432
919.826	4386
919.936	4440
920.047	4561
920.157	4485
920.267	4672
920.378	4523
920.488	4554
920.598	4691
920.708	4896
920.818	4767
920.928	4774
921.038	4889
921.148	4942
921.258	4607
921.368	4546
921.477	4432
921.587	4455
921.697	4352
921.806	4519
921.916	4402
922.025	4265
922.134	4272
922.244	4185
922.353	4325
922.462	4169
922.571	4116
922.68	4021
922.789	3998
922.898	4021
923.007	4017
923.116	4105
923.224	4067
923.333	4067
923.442	3987
923.55	3918
923.659	4006
923.767	4071
923.876	4013
923.984	4063
924.092	3972
924.201	4063
924.309	4063
924.417	4169
924.525	4051
924.633	4074
924.741	5045
924.849	3949
924.956	4112
925.064	3960
925.172	3899
925.279	3960
925.387	4040
925.494	4105
925.602	4181
925.709	4150
925.816	3994
925.924	4090
926.031	4242
926.138	4181
926.245	4253
926.352	4082
926.459	4242
926.566	4303
926.673	4143
926.779	4044
926.886	4071
926.993	3949
927.099	3956
927.206	3949
927.312	3941
927.419	4002
927.525	4006
927.631	4109
927.737	3922
927.843	3991
927.95	3857
928.056	3918
928.162	3956
928.267	4067
928.373	4668
928.479	4101
928.585	3869
928.69	4013
928.796	4040
928.901	3975
929.007	3827
929.112	4006
929.218	3987
929.323	3896
929.428	3975
929.533	4059
929.638	3915
929.743	3926
929.848	4059
929.953	3979
930.058	3930
930.163	3766
930.267	3827
930.372	3972
930.477	3789
930.581	4101
930.685	3922
930.79	3797
930.894	3884
930.998	3861
931.103	4021
931.207	3694
931.311	3660
931.415	3629
931.519	3507
931.623	3481
