Data from test_V78500241_1329.txt Node
Date: Fri Mar 25 16:58:14 CST 2022
User: usil
Spectrometer: V785-0024
Trigger mode: 0
Integration Time (sec): 4.000000E-1
Scans to average: 1
Nonlinearity correction enabled: false
Boxcar width: 0
Storing dark spectrum: false
XAxis mode: Wavelengths
Number of Pixels in Spectrum: 1024
>>>>>Begin Spectral Data<<<<<
801.071	7986
801.214	7993
801.356	7932
801.499	7845
801.641	7803
801.783	7807
801.926	7940
802.068	7909
802.211	7883
802.353	7997
802.496	7788
802.638	7940
802.78	7852
802.923	7970
803.065	7879
803.208	7799
803.35	7974
803.492	8092
803.635	8119
803.777	8005
803.919	8153
804.061	8461
804.204	8161
804.346	8027
804.488	7944
804.63	8054
804.773	8081
804.915	8100
805.057	8252
805.199	8210
805.341	8202
805.483	8271
805.626	8244
805.768	8111
805.91	8191
806.052	8168
806.194	8096
806.336	8286
806.478	8107
806.62	8050
806.762	8092
806.904	8294
807.046	8492
807.188	8358
807.33	8332
807.472	8351
807.614	8111
807.756	8180
807.898	7963
808.04	7902
808.182	7864
808.324	7906
808.465	7947
808.607	8073
808.749	8134
808.891	8218
809.033	8218
809.174	8191
809.316	8069
809.458	8073
809.6	8005
809.741	8031
809.883	8001
810.025	8107
810.166	8024
810.308	8050
810.45	8012
810.591	7883
810.733	7693
810.875	7719
811.016	7540
811.158	7502
811.299	7601
811.441	7731
811.582	7624
811.724	7525
811.865	7460
812.007	7586
812.148	7571
812.29	7609
812.431	7685
812.573	7898
812.714	8008
812.855	8054
812.997	8191
813.138	8301
813.279	8206
813.421	8138
813.562	7967
813.703	7746
813.845	7765
813.986	7495
814.127	7270
814.268	7232
814.41	7194
814.551	7183
814.692	7198
814.833	7129
814.974	7057
815.115	7072
815.256	6958
815.397	6894
815.539	6962
815.68	6829
815.821	6734
815.962	6829
816.103	6791
816.244	6681
816.385	6616
816.526	6597
816.666	6448
816.807	6300
816.948	6407
817.089	6429
817.23	6502
817.371	6376
817.512	6380
817.653	6357
817.793	6376
817.934	6464
818.075	6445
818.216	6407
818.356	6365
818.497	6197
818.638	6136
818.778	6121
818.919	6155
819.06	6136
819.2	6323
819.341	6319
819.481	6353
819.622	6475
819.762	6806
819.903	6673
820.043	6646
820.184	6544
820.324	6593
820.465	6623
820.605	6692
820.746	6642
820.886	6509
821.026	6585
821.167	6688
821.307	6779
821.447	6722
821.588	6631
821.728	6589
821.868	6467
822.008	6319
822.149	6350
822.289	6338
822.429	6140
822.569	6068
822.709	6117
822.849	5939
822.99	5855
823.13	5946
823.27	5912
823.41	5771
823.55	5745
823.69	5699
823.83	5779
823.97	5661
824.11	5566
824.25	5509
824.389	5520
824.529	5532
824.669	5471
824.809	5615
824.949	5665
825.089	5562
825.228	5532
825.368	5429
825.508	5311
825.648	5307
825.787	5330
825.927	5337
826.067	5322
826.206	5303
826.346	5315
826.485	5417
826.625	5368
826.765	5539
826.904	5436
827.044	5265
827.183	5231
827.323	5109
827.462	5284
827.601	5166
827.741	5231
827.88	5235
828.02	5128
828.159	5269
828.298	5322
828.437	5326
828.577	5258
828.716	5459
828.855	5280
828.994	5143
829.134	5117
829.273	5193
829.412	5128
829.551	5090
829.69	5159
829.829	5258
829.968	5391
830.107	5250
830.246	5280
830.385	5181
830.524	5124
830.663	5010
830.802	4984
830.941	4866
831.08	4877
831.219	5045
831.357	4957
831.496	5193
831.635	4904
831.774	4835
831.913	4820
832.051	4736
832.19	4702
832.329	4843
832.467	4672
832.606	4603
832.744	4691
832.883	4759
833.022	4740
833.16	4763
833.299	4767
833.437	4778
833.576	4812
833.714	4812
833.852	4866
833.991	4900
834.129	4919
834.267	5041
834.406	4927
834.544	4942
834.682	4984
834.821	4949
834.959	5132
835.097	4968
835.235	5124
835.373	5094
835.511	5056
835.65	5048
835.788	4999
835.926	4904
836.064	4889
836.202	4873
836.34	5143
836.478	5189
836.615	5067
836.753	5197
836.891	5246
837.029	5246
837.167	5166
837.305	5147
837.443	5124
837.58	5071
837.718	5216
837.856	5189
837.993	5083
838.131	5185
838.269	5242
838.406	5197
838.544	5189
838.681	5048
838.819	4987
838.956	4889
839.094	4923
839.231	4976
839.369	5083
839.506	5395
839.643	5246
839.781	4980
839.918	5025
840.055	5083
840.193	5079
840.33	5083
840.467	5105
840.604	5132
840.742	5417
840.879	5094
841.016	5083
841.153	5155
841.29	5349
841.427	5337
841.564	5322
841.701	5330
841.838	5242
841.975	5227
842.112	5273
842.249	5128
842.385	5102
842.522	5345
842.659	5113
842.796	5166
842.933	5147
843.069	5155
843.206	5151
843.343	5318
843.479	5235
843.616	5250
843.752	4987
843.889	4984
844.025	5197
844.162	5006
844.298	5181
844.435	5037
844.571	5029
844.708	5189
844.844	5269
844.98	5296
845.117	5258
845.253	5113
845.389	5052
845.525	5178
845.661	5201
845.798	5064
845.934	5143
846.07	4991
846.206	5185
846.342	5220
846.478	5174
846.614	4995
846.75	4961
846.886	4873
847.022	5136
847.158	5006
847.294	5048
847.429	5105
847.565	5056
847.701	5307
847.837	4809
847.972	4809
848.108	4938
848.244	4942
848.379	4725
848.515	4691
848.65	4694
848.786	4752
848.921	4790
849.057	4873
849.192	4896
849.328	4771
849.463	4831
849.598	4782
849.734	4755
849.869	4729
850.004	4573
850.14	4653
850.275	4580
850.41	4512
850.545	4550
850.68	4596
850.815	4630
850.95	4596
851.085	4774
851.22	4691
851.355	4641
851.49	4607
851.625	4603
851.76	4603
851.895	4504
852.03	4527
852.165	4675
852.299	4740
852.434	4733
852.569	4706
852.703	4786
852.838	4793
852.973	4972
853.107	4904
853.242	4721
853.376	4698
853.511	4538
853.645	4611
853.78	4771
853.914	4630
854.048	4672
854.183	4653
854.317	4679
854.451	4805
854.585	4672
854.72	4615
854.854	4725
854.988	4596
855.122	4611
855.256	4474
855.39	4626
855.524	4809
855.658	4675
855.792	4672
855.926	4721
856.06	4714
856.194	4812
856.327	4630
856.461	4554
856.595	4596
856.729	4618
856.862	4691
856.996	4675
857.13	4656
857.263	4725
857.397	4767
857.53	4679
857.664	4698
857.797	4763
857.931	4790
858.064	4679
858.197	4733
858.331	4653
858.464	4588
858.597	4516
858.731	4645
858.864	4584
858.997	4622
859.13	4672
859.263	4634
859.396	4717
859.529	4622
859.662	4584
859.795	4497
859.928	4615
860.061	4759
860.194	4786
860.327	4558
860.46	4489
860.592	4656
860.725	4634
860.858	4698
860.99	4550
861.123	4542
861.256	4504
861.388	4592
861.521	5147
861.653	4424
861.786	4409
861.918	4474
862.05	4512
862.183	4561
862.315	4592
862.447	4645
862.58	4550
862.712	4402
862.844	4272
862.976	4459
863.108	4405
863.24	4873
863.372	4303
863.504	4390
863.636	4394
863.768	4478
863.9	4421
864.032	4325
864.164	4348
864.296	4466
864.428	4535
864.559	4550
864.691	4538
864.823	4527
864.954	4455
865.086	4497
865.217	4428
865.349	4436
865.48	4451
865.612	4432
865.743	4687
865.875	4367
866.006	4421
866.137	4432
866.269	4409
866.4	4443
866.531	4375
866.662	4383
866.793	4363
866.924	4470
867.055	4447
867.186	4436
867.317	4383
867.448	4394
867.579	4329
867.71	4386
867.841	4329
867.972	4485
868.103	4459
868.233	4375
868.364	4459
868.495	4462
868.625	4626
868.756	4721
868.886	4535
869.017	4596
869.147	4748
869.278	4774
869.408	4649
869.539	4603
869.669	4672
869.799	4664
869.929	4793
870.06	4752
870.19	4961
870.32	4919
870.45	4934
870.58	5029
870.71	5090
870.84	5067
870.97	4904
871.1	4900
871.23	5155
871.36	5105
871.489	4995
871.619	5083
871.749	5045
871.879	5094
872.008	5162
872.138	5060
872.267	4987
872.397	4866
872.526	4820
872.656	4702
872.785	4748
872.915	4949
873.044	5029
873.173	4904
873.303	4961
873.432	4949
873.561	4923
873.69	4919
873.819	4797
873.948	4923
874.077	4824
874.206	4729
874.335	4763
874.464	4908
874.593	5098
874.722	4923
874.851	5083
874.979	5018
875.108	4976
875.237	4885
875.365	4881
875.494	4862
875.623	5014
875.751	4805
875.88	4877
876.008	4995
876.136	5022
876.265	5189
876.393	5376
876.521	5250
876.65	5254
876.778	5143
876.906	5094
877.034	5045
877.162	5060
877.29	4938
877.418	5025
877.546	5022
877.674	4961
877.802	4980
877.93	5056
878.058	4972
878.185	4812
878.313	4995
878.441	4942
878.568	4782
878.696	4835
878.824	4900
878.951	5003
879.079	5056
879.206	5265
879.333	5041
879.461	4968
879.588	5014
879.715	5159
879.842	5166
879.97	4984
880.097	4729
880.224	4763
880.351	4793
880.478	4790
880.605	4771
880.732	4812
880.859	5143
880.986	4908
881.112	4904
881.239	4763
881.366	4687
881.493	4592
881.619	4577
881.746	4634
881.872	4656
881.999	4664
882.125	4675
882.252	4755
882.378	4752
882.505	4965
882.631	4831
882.757	4672
882.883	4706
883.01	4740
883.136	4668
883.262	4592
883.388	4580
883.514	4805
883.64	4831
883.766	4771
883.892	4694
884.018	4691
884.143	4881
884.269	5033
884.395	4645
884.52	4596
884.646	4618
884.772	4611
884.897	4546
885.023	4653
885.148	4744
885.274	4862
885.399	4797
885.524	4683
885.65	4698
885.775	4717
885.9	4698
886.025	4870
886.15	4763
886.275	4679
886.4	4615
886.525	4721
886.65	4714
886.775	4744
886.9	4908
887.025	5029
887.149	4786
887.274	4691
887.399	4588
887.523	4630
887.648	4569
887.773	4523
887.897	4786
888.021	4790
888.146	4679
888.27	4820
888.395	4892
888.519	4793
888.643	4816
888.767	4771
888.891	4656
889.015	4607
889.139	4694
889.263	4573
889.387	4721
889.511	4805
889.635	4767
889.759	4615
889.883	4664
890.006	4736
890.13	4778
890.254	4592
890.377	4611
890.501	4538
890.624	4474
890.748	4615
890.871	4508
890.995	4459
891.118	4390
891.241	4531
891.364	4512
891.488	4618
891.611	4497
891.734	4565
891.857	4592
891.98	4535
892.103	4622
892.226	4577
892.349	4497
892.471	4424
892.594	4535
892.717	4550
892.839	4531
892.962	4580
893.085	4660
893.207	4577
893.33	4462
893.452	4558
893.575	4660
893.697	4573
893.819	4824
893.941	4809
894.064	4710
894.186	4569
894.308	4535
894.43	4721
894.552	4793
894.674	4771
894.796	4573
894.918	4577
895.04	4573
895.161	4733
895.283	4634
895.405	4561
895.526	4637
895.648	4702
895.769	4645
895.891	4725
896.012	4717
896.134	4687
896.255	4656
896.376	4634
896.498	4580
896.619	4641
896.74	4687
896.861	4656
896.982	4953
897.103	5003
897.224	4805
897.345	4683
897.466	4637
897.587	4679
897.708	4866
897.828	4748
897.949	4649
898.07	4504
898.19	4630
898.311	4809
898.431	4664
898.552	4675
898.672	4824
898.792	4778
898.913	4717
899.033	4554
899.153	4478
899.273	4405
899.393	4424
899.513	4523
899.633	4497
899.753	4542
899.873	4508
899.993	4565
900.113	4550
900.232	4618
900.352	4565
900.472	4466
900.591	4394
900.711	4455
900.83	4375
900.95	4599
901.069	4698
901.189	4523
901.308	4379
901.427	4344
901.546	4356
901.665	4443
901.784	4432
901.904	4371
902.023	4295
902.141	4185
902.26	4166
902.379	4329
902.498	4257
902.617	4211
902.735	4333
902.854	4337
902.973	4348
903.091	4188
903.21	4200
903.328	4314
903.446	4253
903.565	4227
903.683	4375
903.801	4284
903.919	4436
904.038	4409
904.156	4303
904.274	4470
904.392	4363
904.51	4432
904.627	4485
904.745	4546
904.863	4596
904.981	4375
905.098	4268
905.216	4356
905.334	4409
905.451	4390
905.569	4432
905.686	4542
905.803	4474
905.921	4436
906.038	4466
906.155	4462
906.272	4375
906.389	4451
906.506	4329
906.623	4363
906.74	4409
906.857	4303
906.974	4409
907.091	4561
907.208	4752
907.324	4561
907.441	4519
907.557	4352
907.674	4325
907.79	4363
907.907	4318
908.023	4451
908.139	4485
908.256	4421
908.372	4436
908.488	4474
908.604	4348
908.72	4280
908.836	4356
908.952	4341
909.068	4417
909.184	4603
909.3	4440
909.415	4538
909.531	4561
909.647	4352
909.762	4363
909.878	4280
909.993	4436
910.108	4356
910.224	4398
910.339	4481
910.454	4409
910.57	4348
910.685	4306
910.8	4626
910.915	4611
911.03	4512
911.145	4344
911.259	4333
911.374	4394
911.489	4242
911.604	4261
911.718	4192
911.833	4207
911.947	4101
912.062	4006
912.176	4211
912.291	4215
912.405	4230
912.519	4485
912.633	4519
912.748	4367
912.862	4295
912.976	4150
913.09	4078
913.204	4188
913.318	4284
913.431	4352
913.545	4329
913.659	4386
913.772	4344
913.886	4253
914	4246
914.113	4409
914.226	4417
914.34	4383
914.453	4253
914.566	4417
914.68	4306
914.793	4314
914.906	4101
915.019	4124
915.132	4067
915.245	4188
915.358	4200
915.47	4204
915.583	4234
915.696	4287
915.809	4367
915.921	4394
916.034	4238
916.146	4238
916.259	4219
916.371	4352
916.483	4348
916.595	4249
916.708	4314
916.82	4306
916.932	4363
917.044	4318
917.156	4284
917.268	4230
917.38	4268
917.491	4284
917.603	4344
917.715	4424
917.826	4390
917.938	4333
918.049	4265
918.161	4383
918.272	4546
918.384	4508
918.495	4478
918.606	4257
918.717	4207
918.828	4318
918.939	4360
919.05	4257
919.161	4344
919.272	4093
919.383	4223
919.494	4443
919.604	4630
919.715	4459
919.826	4363
919.936	4367
920.047	4535
920.157	4481
920.267	4702
920.378	4546
920.488	4466
920.598	4702
920.708	4900
920.818	4706
920.928	4748
921.038	4946
921.148	4938
921.258	4596
921.368	4512
921.477	4470
921.587	4478
921.697	4341
921.806	4519
921.916	4481
922.025	4242
922.134	4276
922.244	4234
922.353	4310
922.462	4169
922.571	4090
922.68	4059
922.789	3949
922.898	4017
923.007	3979
923.116	4112
923.224	4051
923.333	4044
923.442	3979
923.55	4006
923.659	4071
923.767	4090
923.876	3987
923.984	4135
924.092	3994
924.201	4097
924.309	4071
924.417	4063
924.525	4071
924.633	4090
924.741	5037
924.849	3930
924.956	4082
925.064	3945
925.172	3896
925.279	3922
925.387	4063
925.494	4059
925.602	4249
925.709	4181
925.816	4002
925.924	4112
926.031	4207
926.138	4139
926.245	4169
926.352	4067
926.459	4242
926.566	4261
926.673	4131
926.779	4074
926.886	4036
926.993	4002
927.099	3941
927.206	3964
927.312	3945
927.419	4059
927.525	4029
927.631	4063
927.737	4013
927.843	3922
927.95	3865
928.056	3930
928.162	3975
928.267	4071
928.373	4710
928.479	4150
928.585	3857
928.69	4010
928.796	4071
928.901	3956
929.007	3846
929.112	4013
929.218	3964
929.323	3937
929.428	3972
929.533	4131
929.638	3941
929.743	3972
929.848	4040
929.953	3956
930.058	3960
930.163	3781
930.267	3816
930.372	3998
930.477	3781
930.581	4082
930.685	3960
930.79	3797
930.894	3873
930.998	3835
931.103	3983
931.207	3679
931.311	3694
931.415	3648
931.519	3511
931.623	3526
