Data from test_V78500241_242.txt Node
Date: Fri Mar 25 16:50:41 CST 2022
User: usil
Spectrometer: V785-0024
Trigger mode: 0
Integration Time (sec): 4.000000E-1
Scans to average: 1
Nonlinearity correction enabled: false
Boxcar width: 0
Storing dark spectrum: false
XAxis mode: Wavelengths
Number of Pixels in Spectrum: 1024
>>>>>Begin Spectral Data<<<<<
801.071	8031
801.214	8001
801.356	7849
801.499	7875
801.641	7811
801.783	7849
801.926	8024
802.068	8008
802.211	7906
802.353	8008
802.496	7860
802.638	7890
802.78	7921
802.923	7883
803.065	7807
803.208	7830
803.35	7944
803.492	8039
803.635	8183
803.777	8024
803.919	8130
804.061	8412
804.204	8202
804.346	8024
804.488	7921
804.63	8031
804.773	7997
804.915	8065
805.057	8229
805.199	8096
805.341	8168
805.483	8229
805.626	8195
805.768	8096
805.91	8191
806.052	8214
806.194	8039
806.336	8309
806.478	8149
806.62	8020
806.762	8054
806.904	8187
807.046	8438
807.188	8355
807.33	8221
807.472	8225
807.614	8111
807.756	8054
807.898	7928
808.04	7879
808.182	7830
808.324	7955
808.465	7928
808.607	8065
808.749	8149
808.891	8221
809.033	8336
809.174	8134
809.316	8016
809.458	8012
809.6	7894
809.741	7982
809.883	8035
810.025	8081
810.166	8088
810.308	7989
810.45	8024
810.591	7883
810.733	7757
810.875	7689
811.016	7540
811.158	7400
811.299	7597
811.441	7731
811.582	7700
811.724	7571
811.865	7514
812.007	7670
812.148	7582
812.29	7586
812.431	7803
812.573	7921
812.714	7940
812.855	8077
812.997	8100
813.138	8324
813.279	8214
813.421	8126
813.562	8043
813.703	7849
813.845	7696
813.986	7419
814.127	7236
814.268	7209
814.41	7213
814.551	7160
814.692	7183
814.833	7129
814.974	7065
815.115	7103
815.256	6996
815.397	6886
815.539	6897
815.68	6840
815.821	6833
815.962	6825
816.103	6825
816.244	6684
816.385	6642
816.526	6646
816.666	6559
816.807	6346
816.948	6437
817.089	6437
817.23	6410
817.371	6391
817.512	6384
817.653	6311
817.793	6304
817.934	6369
818.075	6452
818.216	6418
818.356	6391
818.497	6216
818.638	6068
818.778	6163
818.919	6136
819.06	6106
819.2	6319
819.341	6311
819.481	6369
819.622	6506
819.762	6730
819.903	6688
820.043	6616
820.184	6555
820.324	6578
820.465	6722
820.605	6662
820.746	6608
820.886	6559
821.026	6631
821.167	6669
821.307	6810
821.447	6779
821.588	6665
821.728	6559
821.868	6521
822.008	6372
822.149	6403
822.289	6388
822.429	6152
822.569	6110
822.709	6159
822.849	5950
822.99	5950
823.13	5942
823.27	5958
823.41	5824
823.55	5866
823.69	5798
823.83	5809
823.97	5756
824.11	5608
824.25	5570
824.389	5528
824.529	5619
824.669	5535
824.809	5627
824.949	5634
825.089	5661
825.228	5585
825.368	5417
825.508	5417
825.648	5357
825.787	5383
825.927	5444
826.067	5391
826.206	5311
826.346	5383
826.485	5467
826.625	5406
826.765	5577
826.904	5524
827.044	5326
827.183	5284
827.323	5216
827.462	5315
827.601	5181
827.741	5216
827.88	5265
828.02	5143
828.159	5303
828.298	5357
828.437	5398
828.577	5326
828.716	5558
828.855	5402
828.994	5189
829.134	5204
829.273	5250
829.412	5193
829.551	5181
829.69	5178
829.829	5265
829.968	5436
830.107	5311
830.246	5307
830.385	5239
830.524	5220
830.663	5124
830.802	4957
830.941	4946
831.08	4942
831.219	5045
831.357	4987
831.496	5227
831.635	5029
831.774	4911
831.913	4858
832.051	4797
832.19	4782
832.329	4892
832.467	4759
832.606	4649
832.744	4721
832.883	4721
833.022	4767
833.16	4767
833.299	4839
833.437	4820
833.576	4854
833.714	4900
833.852	4900
833.991	4938
834.129	4980
834.267	4965
834.406	4972
834.544	5045
834.682	4984
834.821	4987
834.959	5208
835.097	5037
835.235	5147
835.373	5098
835.511	5185
835.65	5037
835.788	5079
835.926	4953
836.064	4889
836.202	4957
836.34	5201
836.478	5212
836.615	5201
836.753	5258
836.891	5315
837.029	5292
837.167	5246
837.305	5201
837.443	5220
837.58	5132
837.718	5318
837.856	5193
837.993	5185
838.131	5303
838.269	5231
838.406	5231
838.544	5258
838.681	5124
838.819	4995
838.956	4976
839.094	4930
839.231	5010
839.369	5124
839.506	5440
839.643	5265
839.781	5094
839.918	5056
840.055	5170
840.193	5155
840.33	5155
840.467	5143
840.604	5212
840.742	5459
840.879	5117
841.016	5086
841.153	5170
841.29	5402
841.427	5353
841.564	5391
841.701	5398
841.838	5330
841.975	5273
842.112	5288
842.249	5166
842.385	5102
842.522	5326
842.659	5208
842.796	5193
842.933	5242
843.069	5166
843.206	5231
843.343	5353
843.479	5265
843.616	5322
843.752	5083
843.889	5029
844.025	5246
844.162	5105
844.298	5235
844.435	5067
844.571	5071
844.708	5227
844.844	5357
844.98	5379
845.117	5341
845.253	5147
845.389	5075
845.525	5235
845.661	5159
845.798	5033
845.934	5151
846.07	5098
846.206	5216
846.342	5307
846.478	5273
846.614	5029
846.75	5022
846.886	4938
847.022	5143
847.158	5022
847.294	5098
847.429	5109
847.565	5102
847.701	5360
847.837	4904
847.972	4881
848.108	4999
848.244	5010
848.379	4835
848.515	4774
848.65	4721
848.786	4752
848.921	4786
849.057	4873
849.192	5006
849.328	4816
849.463	4892
849.598	4847
849.734	4763
849.869	4763
850.004	4675
850.14	4660
850.275	4687
850.41	4558
850.545	4607
850.68	4672
850.815	4672
850.95	4637
851.085	4877
851.22	4767
851.355	4740
851.49	4660
851.625	4660
851.76	4668
851.895	4611
852.03	4599
852.165	4622
852.299	4721
852.434	4866
852.569	4812
852.703	4767
852.838	4938
852.973	4957
853.107	4976
853.242	4763
853.376	4691
853.511	4634
853.645	4698
853.78	4835
853.914	4752
854.048	4717
854.183	4721
854.317	4702
854.451	4862
854.585	4687
854.72	4641
854.854	4774
854.988	4641
855.122	4683
855.256	4580
855.39	4687
855.524	4835
855.658	4774
855.792	4694
855.926	4755
856.06	4812
856.194	4820
856.327	4706
856.461	4603
856.595	4660
856.729	4641
856.862	4793
856.996	4717
857.13	4797
857.263	4778
857.397	4850
857.53	4679
857.664	4748
857.797	4786
857.931	4820
858.064	4702
858.197	4748
858.331	4736
858.464	4649
858.597	4584
858.731	4664
858.864	4653
858.997	4565
859.13	4702
859.263	4706
859.396	4717
859.529	4622
859.662	4653
859.795	4573
859.928	4664
860.061	4809
860.194	4858
860.327	4672
860.46	4611
860.592	4752
860.725	4740
860.858	4763
860.99	4630
861.123	4531
861.256	4519
861.388	4622
861.521	5414
861.653	4516
861.786	4459
861.918	4478
862.05	4527
862.183	4637
862.315	4611
862.447	4656
862.58	4607
862.712	4413
862.844	4348
862.976	4451
863.108	4398
863.24	4949
863.372	4379
863.504	4462
863.636	4428
863.768	4470
863.9	4455
864.032	4360
864.164	4462
864.296	4489
864.428	4592
864.559	4622
864.691	4596
864.823	4561
864.954	4538
865.086	4527
865.217	4462
865.349	4466
865.48	4474
865.612	4508
865.743	4672
865.875	4519
866.006	4485
866.137	4481
866.269	4500
866.4	4497
866.531	4440
866.662	4421
866.793	4443
866.924	4432
867.055	4516
867.186	4470
867.317	4462
867.448	4386
867.579	4432
867.71	4398
867.841	4386
867.972	4485
868.103	4512
868.233	4535
868.364	4481
868.495	4478
868.625	4698
868.756	4820
868.886	4584
869.017	4649
869.147	4786
869.278	4820
869.408	4721
869.539	4687
869.669	4759
869.799	4740
869.929	4790
870.06	4755
870.19	4919
870.32	4923
870.45	4999
870.58	5041
870.71	5079
870.84	5178
870.97	4984
871.1	4923
871.23	5128
871.36	5140
871.489	5064
871.619	5102
871.749	5143
871.879	5159
872.008	5193
872.138	5098
872.267	5025
872.397	4870
872.526	4873
872.656	4748
872.785	4854
872.915	4999
873.044	5071
873.173	4991
873.303	4949
873.432	4961
873.561	4957
873.69	4904
873.819	4877
873.948	4942
874.077	4881
874.206	4767
874.335	4854
874.464	4965
874.593	5056
874.722	4976
874.851	5136
874.979	5132
875.108	5071
875.237	4991
875.365	4896
875.494	4892
875.623	5052
875.751	4858
875.88	4885
876.008	5003
876.136	5094
876.265	5185
876.393	5372
876.521	5269
876.65	5261
876.778	5178
876.906	5105
877.034	5045
877.162	5105
877.29	5025
877.418	5075
877.546	5090
877.674	5060
877.802	5075
877.93	5010
878.058	4961
878.185	4927
878.313	4965
878.441	5018
878.568	4797
878.696	4896
878.824	4953
878.951	5052
879.079	5178
879.206	5303
879.333	5109
879.461	5010
879.588	5018
879.715	5170
879.842	5250
879.97	4999
880.097	4820
880.224	4767
880.351	4790
880.478	4831
880.605	4809
880.732	4774
880.859	5121
880.986	4938
881.112	4942
881.239	4782
881.366	4706
881.493	4603
881.619	4599
881.746	4645
881.872	4641
881.999	4694
882.125	4694
882.252	4831
882.378	4824
882.505	5025
882.631	4858
882.757	4710
882.883	4721
883.01	4854
883.136	4706
883.262	4645
883.388	4675
883.514	4790
883.64	4858
883.766	4847
883.892	4702
884.018	4755
884.143	4968
884.269	5071
884.395	4683
884.52	4649
884.646	4664
884.772	4637
884.897	4634
885.023	4721
885.148	4839
885.274	4923
885.399	4831
885.524	4752
885.65	4714
885.775	4763
885.9	4710
886.025	4873
886.15	4809
886.275	4797
886.4	4675
886.525	4702
886.65	4725
886.775	4668
886.9	4942
887.025	5067
887.149	4828
887.274	4714
887.399	4660
887.523	4645
887.648	4577
887.773	4641
887.897	4763
888.021	4820
888.146	4714
888.27	4847
888.395	4972
888.519	4828
888.643	4892
888.767	4885
888.891	4668
889.015	4637
889.139	4702
889.263	4615
889.387	4809
889.511	4904
889.635	4820
889.759	4645
889.883	4675
890.006	4801
890.13	4828
890.254	4599
890.377	4736
890.501	4584
890.624	4516
890.748	4641
890.871	4481
890.995	4409
891.118	4413
891.241	4519
891.364	4554
891.488	4656
891.611	4497
891.734	4554
891.857	4558
891.98	4558
892.103	4736
892.226	4592
892.349	4542
892.471	4459
892.594	4596
892.717	4668
892.839	4618
892.962	4618
893.085	4729
893.207	4634
893.33	4474
893.452	4519
893.575	4721
893.697	4660
893.819	4831
893.941	4793
894.064	4786
894.186	4569
894.308	4584
894.43	4771
894.552	4812
894.674	4740
894.796	4577
894.918	4618
895.04	4611
895.161	4706
895.283	4698
895.405	4599
895.526	4622
895.648	4714
895.769	4672
895.891	4744
896.012	4744
896.134	4778
896.255	4622
896.376	4672
896.498	4645
896.619	4679
896.74	4660
896.861	4656
896.982	4919
897.103	5117
897.224	4858
897.345	4748
897.466	4714
897.587	4793
897.708	4870
897.828	4805
897.949	4664
898.07	4569
898.19	4660
898.311	4896
898.431	4721
898.552	4736
898.672	4809
898.792	4790
898.913	4771
899.033	4615
899.153	4535
899.273	4440
899.393	4516
899.513	4535
899.633	4512
899.753	4569
899.873	4516
899.993	4580
900.113	4565
900.232	4599
900.352	4565
900.472	4554
900.591	4443
900.711	4512
900.83	4459
900.95	4580
901.069	4698
901.189	4573
901.308	4409
901.427	4356
901.546	4451
901.665	4500
901.784	4561
901.904	4394
902.023	4375
902.141	4192
902.26	4181
902.379	4352
902.498	4268
902.617	4261
902.735	4367
902.854	4405
902.973	4417
903.091	4257
903.21	4272
903.328	4295
903.446	4314
903.565	4253
903.683	4352
903.801	4261
903.919	4470
904.038	4474
904.156	4360
904.274	4428
904.392	4394
904.51	4447
904.627	4462
904.745	4603
904.863	4683
904.981	4440
905.098	4306
905.216	4383
905.334	4447
905.451	4428
905.569	4466
905.686	4554
905.803	4607
905.921	4432
906.038	4500
906.155	4493
906.272	4390
906.389	4497
906.506	4383
906.623	4428
906.74	4413
906.857	4386
906.974	4405
907.091	4599
907.208	4721
907.324	4599
907.441	4519
907.557	4337
907.674	4352
907.79	4314
907.907	4390
908.023	4466
908.139	4531
908.256	4474
908.372	4470
908.488	4443
908.604	4363
908.72	4356
908.836	4394
908.952	4409
909.068	4402
909.184	4561
909.3	4481
909.415	4599
909.531	4558
909.647	4371
909.762	4402
909.878	4344
909.993	4409
910.108	4440
910.224	4409
910.339	4508
910.454	4440
910.57	4390
910.685	4306
910.8	4637
910.915	4588
911.03	4500
911.145	4371
911.259	4352
911.374	4383
911.489	4318
911.604	4272
911.718	4207
911.833	4249
911.947	4086
912.062	4044
912.176	4223
912.291	4268
912.405	4291
912.519	4493
912.633	4470
912.748	4405
912.862	4295
912.976	4223
913.09	4128
913.204	4188
913.318	4219
913.431	4383
913.545	4413
913.659	4424
913.772	4360
913.886	4242
914	4227
914.113	4432
914.226	4474
914.34	4421
914.453	4249
914.566	4417
914.68	4265
914.793	4329
914.906	4196
915.019	4135
915.132	4139
915.245	4265
915.358	4230
915.47	4219
915.583	4284
915.696	4295
915.809	4432
915.921	4451
916.034	4272
916.146	4284
916.259	4268
916.371	4383
916.483	4371
916.595	4268
916.708	4360
916.82	4325
916.932	4310
917.044	4337
917.156	4329
917.268	4257
917.38	4291
917.491	4306
917.603	4348
917.715	4459
917.826	4497
917.938	4394
918.049	4215
918.161	4443
918.272	4516
918.384	4561
918.495	4462
918.606	4344
918.717	4276
918.828	4375
918.939	4360
919.05	4230
919.161	4360
919.272	4177
919.383	4253
919.494	4497
919.604	4649
919.715	4478
919.826	4344
919.936	4386
920.047	4519
920.157	4508
920.267	4702
920.378	4596
920.488	4497
920.598	4744
920.708	4946
920.818	4759
920.928	4759
921.038	4957
921.148	4911
921.258	4675
921.368	4592
921.477	4485
921.587	4508
921.697	4409
921.806	4531
921.916	4428
922.025	4291
922.134	4242
922.244	4204
922.353	4337
922.462	4219
922.571	4135
922.68	4048
922.789	4010
922.898	4048
923.007	4010
923.116	4124
923.224	4086
923.333	4025
923.442	3979
923.55	4013
923.659	4071
923.767	4090
923.876	3960
923.984	4112
924.092	3994
924.201	4109
924.309	4105
924.417	4124
924.525	4051
924.633	4158
924.741	5067
924.849	3911
924.956	4109
925.064	3994
925.172	3899
925.279	3968
925.387	4112
925.494	4078
925.602	4238
925.709	4192
925.816	4051
925.924	4128
926.031	4242
926.138	4169
926.245	4196
926.352	4086
926.459	4303
926.566	4337
926.673	4143
926.779	4071
926.886	4093
926.993	4021
927.099	3983
927.206	3930
927.312	3945
927.419	4078
927.525	4048
927.631	4120
927.737	3991
927.843	3911
927.95	3842
928.056	3949
928.162	4013
928.267	4055
928.373	4664
928.479	4166
928.585	3896
928.69	4040
928.796	4059
928.901	3983
929.007	3888
929.112	4021
929.218	3975
929.323	3915
929.428	3934
929.533	4109
929.638	3941
929.743	3972
929.848	4090
929.953	3979
930.058	3960
930.163	3823
930.267	3816
930.372	3975
930.477	3816
930.581	4048
930.685	3922
930.79	3819
930.894	3918
930.998	3896
931.103	4040
931.207	3751
931.311	3686
931.415	3667
931.519	3515
931.623	3557
