Data from test_V78500241_1596.txt Node
Date: Fri Mar 25 17:00:05 CST 2022
User: usil
Spectrometer: V785-0024
Trigger mode: 0
Integration Time (sec): 4.000000E-1
Scans to average: 1
Nonlinearity correction enabled: false
Boxcar width: 0
Storing dark spectrum: false
XAxis mode: Wavelengths
Number of Pixels in Spectrum: 1024
>>>>>Begin Spectral Data<<<<<
801.071	8001
801.214	7963
801.356	7940
801.499	7917
801.641	7696
801.783	7826
801.926	7928
802.068	7917
802.211	8035
802.353	7955
802.496	7871
802.638	7868
802.78	7921
802.923	7944
803.065	7875
803.208	7864
803.35	7963
803.492	8126
803.635	8187
803.777	8001
803.919	8103
804.061	8377
804.204	8168
804.346	8069
804.488	7921
804.63	8088
804.773	7986
804.915	8123
805.057	8305
805.199	8206
805.341	8180
805.483	8313
805.626	8145
805.768	7993
805.91	8218
806.052	8187
806.194	8119
806.336	8275
806.478	8161
806.62	8050
806.762	8092
806.904	8248
807.046	8503
807.188	8294
807.33	8301
807.472	8351
807.614	8180
807.756	8138
807.898	8046
808.04	7898
808.182	7917
808.324	7925
808.465	7913
808.607	8103
808.749	8096
808.891	8202
809.033	8244
809.174	8195
809.316	8027
809.458	8069
809.6	8012
809.741	8016
809.883	8039
810.025	8069
810.166	8024
810.308	8008
810.45	7982
810.591	7845
810.733	7715
810.875	7700
811.016	7537
811.158	7480
811.299	7563
811.441	7715
811.582	7639
811.724	7548
811.865	7525
812.007	7563
812.148	7590
812.29	7624
812.431	7734
812.573	7841
812.714	7997
812.855	8123
812.997	8206
813.138	8267
813.279	8221
813.421	8126
813.562	8020
813.703	7803
813.845	7814
813.986	7411
814.127	7255
814.268	7244
814.41	7247
814.551	7183
814.692	7202
814.833	7187
814.974	7088
815.115	7103
815.256	6970
815.397	6920
815.539	6970
815.68	6833
815.821	6764
815.962	6852
816.103	6825
816.244	6757
816.385	6597
816.526	6597
816.666	6513
816.807	6346
816.948	6384
817.089	6437
817.23	6441
817.371	6422
817.512	6391
817.653	6323
817.793	6388
817.934	6429
818.075	6399
818.216	6471
818.356	6418
818.497	6273
818.638	6102
818.778	6148
818.919	6129
819.06	6171
819.2	6323
819.341	6315
819.481	6365
819.622	6547
819.762	6707
819.903	6722
820.043	6604
820.184	6612
820.324	6635
820.465	6764
820.605	6734
820.746	6703
820.886	6563
821.026	6684
821.167	6688
821.307	6757
821.447	6783
821.588	6684
821.728	6544
821.868	6452
822.008	6300
822.149	6315
822.289	6319
822.429	6121
822.569	6152
822.709	6098
822.849	5870
822.99	5920
823.13	5851
823.27	5927
823.41	5760
823.55	5805
823.69	5775
823.83	5786
823.97	5646
824.11	5589
824.25	5497
824.389	5547
824.529	5585
824.669	5535
824.809	5657
824.949	5695
825.089	5646
825.228	5539
825.368	5425
825.508	5318
825.648	5357
825.787	5387
825.927	5414
826.067	5280
826.206	5284
826.346	5402
826.485	5452
826.625	5406
826.765	5493
826.904	5463
827.044	5223
827.183	5162
827.323	5109
827.462	5242
827.601	5193
827.741	5193
827.88	5231
828.02	5094
828.159	5204
828.298	5273
828.437	5376
828.577	5311
828.716	5471
828.855	5307
828.994	5155
829.134	5064
829.273	5227
829.412	5189
829.551	5147
829.69	5140
829.829	5265
829.968	5383
830.107	5261
830.246	5265
830.385	5178
830.524	5136
830.663	5117
830.802	4968
830.941	4881
831.08	4816
831.219	4946
831.357	4999
831.496	5143
831.635	4870
831.774	4793
831.913	4858
832.051	4702
832.19	4748
832.329	4828
832.467	4683
832.606	4656
832.744	4736
832.883	4733
833.022	4736
833.16	4767
833.299	4809
833.437	4782
833.576	4831
833.714	4839
833.852	4847
833.991	4839
834.129	4953
834.267	4923
834.406	4930
834.544	4980
834.682	4991
834.821	4965
834.959	5159
835.097	4991
835.235	5136
835.373	5086
835.511	5079
835.65	5045
835.788	5033
835.926	4889
836.064	4904
836.202	4968
836.34	5128
836.478	5155
836.615	5102
836.753	5201
836.891	5277
837.029	5269
837.167	5246
837.305	5140
837.443	5181
837.58	5037
837.718	5235
837.856	5231
837.993	5143
838.131	5185
838.269	5220
838.406	5201
838.544	5181
838.681	5010
838.819	5018
838.956	4942
839.094	4870
839.231	4972
839.369	5010
839.506	5406
839.643	5299
839.781	5033
839.918	5033
840.055	5071
840.193	5045
840.33	5109
840.467	5094
840.604	5166
840.742	5436
840.879	5064
841.016	5071
841.153	5079
841.29	5376
841.427	5322
841.564	5261
841.701	5353
841.838	5292
841.975	5231
842.112	5223
842.249	5098
842.385	5105
842.522	5258
842.659	5178
842.796	5166
842.933	5223
843.069	5155
843.206	5136
843.343	5296
843.479	5231
843.616	5299
843.752	5056
843.889	4980
844.025	5235
844.162	5003
844.298	5140
844.435	5075
844.571	5067
844.708	5140
844.844	5345
844.98	5391
845.117	5261
845.253	5178
845.389	5086
845.525	5105
845.661	5098
845.798	5056
845.934	5140
846.07	5018
846.206	5197
846.342	5246
846.478	5151
846.614	5025
846.75	4984
846.886	4927
847.022	5140
847.158	5056
847.294	5033
847.429	5075
847.565	5018
847.701	5322
847.837	4820
847.972	4835
848.108	4991
848.244	4976
848.379	4797
848.515	4717
848.65	4691
848.786	4672
848.921	4771
849.057	4843
849.192	4938
849.328	4790
849.463	4850
849.598	4812
849.734	4809
849.869	4694
850.004	4603
850.14	4637
850.275	4611
850.41	4542
850.545	4592
850.68	4584
850.815	4592
850.95	4592
851.085	4854
851.22	4740
851.355	4618
851.49	4683
851.625	4615
851.76	4645
851.895	4531
852.03	4523
852.165	4653
852.299	4729
852.434	4771
852.569	4744
852.703	4752
852.838	4847
852.973	4881
853.107	4908
853.242	4679
853.376	4653
853.511	4565
853.645	4588
853.78	4786
853.914	4714
854.048	4649
854.183	4672
854.317	4611
854.451	4820
854.585	4694
854.72	4645
854.854	4752
854.988	4603
855.122	4626
855.256	4531
855.39	4637
855.524	4767
855.658	4733
855.792	4725
855.926	4725
856.06	4752
856.194	4809
856.327	4710
856.461	4592
856.595	4641
856.729	4577
856.862	4786
856.996	4675
857.13	4740
857.263	4786
857.397	4797
857.53	4672
857.664	4717
857.797	4714
857.931	4733
858.064	4656
858.197	4683
858.331	4694
858.464	4573
858.597	4531
858.731	4634
858.864	4607
858.997	4561
859.13	4660
859.263	4626
859.396	4691
859.529	4542
859.662	4599
859.795	4527
859.928	4618
860.061	4763
860.194	4778
860.327	4588
860.46	4580
860.592	4698
860.725	4710
860.858	4687
860.99	4599
861.123	4542
861.256	4489
861.388	4596
861.521	5269
861.653	4535
861.786	4447
861.918	4413
862.05	4504
862.183	4546
862.315	4634
862.447	4641
862.58	4573
862.712	4447
862.844	4352
862.976	4417
863.108	4447
863.24	4744
863.372	4352
863.504	4398
863.636	4394
863.768	4516
863.9	4390
864.032	4360
864.164	4424
864.296	4432
864.428	4531
864.559	4519
864.691	4554
864.823	4500
864.954	4470
865.086	4474
865.217	4383
865.349	4409
865.48	4466
865.612	4478
865.743	4592
865.875	4474
866.006	4413
866.137	4470
866.269	4440
866.4	4424
866.531	4371
866.662	4405
866.793	4421
866.924	4440
867.055	4485
867.186	4474
867.317	4481
867.448	4383
867.579	4386
867.71	4402
867.841	4367
867.972	4440
868.103	4413
868.233	4455
868.364	4451
868.495	4398
868.625	4668
868.756	4717
868.886	4573
869.017	4577
869.147	4744
869.278	4790
869.408	4653
869.539	4637
869.669	4672
869.799	4634
869.929	4782
870.06	4717
870.19	4946
870.32	4934
870.45	4965
870.58	5014
870.71	5086
870.84	5098
870.97	4915
871.1	4942
871.23	5090
871.36	5067
871.489	4984
871.619	5105
871.749	5094
871.879	5128
872.008	5140
872.138	5045
872.267	4991
872.397	4816
872.526	4801
872.656	4767
872.785	4805
872.915	4911
873.044	4995
873.173	4972
873.303	4976
873.432	4930
873.561	4991
873.69	4885
873.819	4858
873.948	4877
874.077	4805
874.206	4771
874.335	4793
874.464	4911
874.593	5143
874.722	4957
874.851	5064
874.979	5025
875.108	5041
875.237	4934
875.365	4850
875.494	4953
875.623	4934
875.751	4850
875.88	4870
876.008	4930
876.136	5010
876.265	5166
876.393	5284
876.521	5242
876.65	5201
876.778	5136
876.906	5048
877.034	5006
877.162	5014
877.29	4984
877.418	5079
877.546	4995
877.674	5022
877.802	5041
877.93	5033
878.058	4911
878.185	4873
878.313	4999
878.441	4938
878.568	4816
878.696	4820
878.824	4934
878.951	4991
879.079	5178
879.206	5334
879.333	5079
879.461	4984
879.588	5010
879.715	5143
879.842	5185
879.97	5022
880.097	4809
880.224	4752
880.351	4736
880.478	4835
880.605	4748
880.732	4778
880.859	5060
880.986	4904
881.112	4877
881.239	4828
881.366	4668
881.493	4634
881.619	4573
881.746	4637
881.872	4618
881.999	4672
882.125	4698
882.252	4797
882.378	4812
882.505	4911
882.631	4782
882.757	4656
882.883	4736
883.01	4706
883.136	4694
883.262	4607
883.388	4573
883.514	4805
883.64	4866
883.766	4778
883.892	4653
884.018	4698
884.143	4911
884.269	4961
884.395	4683
884.52	4668
884.646	4637
884.772	4577
884.897	4611
885.023	4664
885.148	4782
885.274	4835
885.399	4820
885.524	4694
885.65	4733
885.775	4763
885.9	4710
886.025	4854
886.15	4820
886.275	4683
886.4	4599
886.525	4675
886.65	4683
886.775	4649
886.9	4934
887.025	4980
887.149	4774
887.274	4618
887.399	4599
887.523	4523
887.648	4565
887.773	4596
887.897	4725
888.021	4710
888.146	4656
888.27	4828
888.395	4870
888.519	4793
888.643	4801
888.767	4824
888.891	4645
889.015	4546
889.139	4672
889.263	4577
889.387	4786
889.511	4790
889.635	4774
889.759	4596
889.883	4615
890.006	4748
890.13	4782
890.254	4626
890.377	4706
890.501	4531
890.624	4508
890.748	4630
890.871	4504
890.995	4417
891.118	4367
891.241	4489
891.364	4504
891.488	4626
891.611	4523
891.734	4546
891.857	4607
891.98	4542
892.103	4630
892.226	4584
892.349	4504
892.471	4409
892.594	4573
892.717	4618
892.839	4550
892.962	4618
893.085	4668
893.207	4577
893.33	4455
893.452	4508
893.575	4702
893.697	4542
893.819	4801
893.941	4759
894.064	4733
894.186	4569
894.308	4542
894.43	4740
894.552	4835
894.674	4744
894.796	4531
894.918	4569
895.04	4554
895.161	4729
895.283	4668
895.405	4580
895.526	4592
895.648	4687
895.769	4687
895.891	4687
896.012	4691
896.134	4702
896.255	4630
896.376	4630
896.498	4603
896.619	4698
896.74	4641
896.861	4618
896.982	4968
897.103	5037
897.224	4820
897.345	4744
897.466	4698
897.587	4717
897.708	4862
897.828	4736
897.949	4679
898.07	4580
898.19	4656
898.311	4843
898.431	4691
898.552	4641
898.672	4778
898.792	4767
898.913	4774
899.033	4637
899.153	4489
899.273	4386
899.393	4504
899.513	4523
899.633	4459
899.753	4527
899.873	4485
899.993	4615
900.113	4531
900.232	4554
900.352	4580
900.472	4508
900.591	4413
900.711	4478
900.83	4443
900.95	4561
901.069	4691
901.189	4508
901.308	4325
901.427	4348
901.546	4432
901.665	4493
901.784	4474
901.904	4402
902.023	4314
902.141	4219
902.26	4158
902.379	4322
902.498	4238
902.617	4215
902.735	4432
902.854	4421
902.973	4367
903.091	4185
903.21	4200
903.328	4306
903.446	4261
903.565	4207
903.683	4329
903.801	4291
903.919	4421
904.038	4413
904.156	4299
904.274	4447
904.392	4394
904.51	4424
904.627	4489
904.745	4573
904.863	4622
904.981	4386
905.098	4318
905.216	4371
905.334	4455
905.451	4409
905.569	4440
905.686	4516
905.803	4588
905.921	4436
906.038	4546
906.155	4470
906.272	4409
906.389	4443
906.506	4363
906.623	4386
906.74	4398
906.857	4257
906.974	4379
907.091	4550
907.208	4668
907.324	4558
907.441	4512
907.557	4333
907.674	4329
907.79	4303
907.907	4375
908.023	4493
908.139	4478
908.256	4470
908.372	4417
908.488	4443
908.604	4390
908.72	4325
908.836	4375
908.952	4348
909.068	4405
909.184	4584
909.3	4481
909.415	4569
909.531	4569
909.647	4344
909.762	4341
909.878	4344
909.993	4383
910.108	4394
910.224	4402
910.339	4455
910.454	4424
910.57	4371
910.685	4303
910.8	4649
910.915	4565
911.03	4519
911.145	4356
911.259	4352
911.374	4344
911.489	4295
911.604	4257
911.718	4181
911.833	4253
911.947	4051
912.062	4013
912.176	4223
912.291	4192
912.405	4284
912.519	4455
912.633	4451
912.748	4367
912.862	4280
912.976	4219
913.09	4162
913.204	4135
913.318	4211
913.431	4356
913.545	4371
913.659	4459
913.772	4360
913.886	4246
914	4215
914.113	4341
914.226	4417
914.34	4352
914.453	4215
914.566	4417
914.68	4280
914.793	4383
914.906	4128
915.019	4093
915.132	4090
915.245	4192
915.358	4204
915.47	4238
915.583	4246
915.696	4291
915.809	4428
915.921	4424
916.034	4268
916.146	4242
916.259	4227
916.371	4383
916.483	4341
916.595	4257
916.708	4318
916.82	4337
916.932	4291
917.044	4329
917.156	4386
917.268	4192
917.38	4242
917.491	4242
917.603	4352
917.715	4455
917.826	4417
917.938	4325
918.049	4207
918.161	4383
918.272	4542
918.384	4546
918.495	4405
918.606	4295
918.717	4242
918.828	4386
918.939	4375
919.05	4238
919.161	4306
919.272	4131
919.383	4204
919.494	4428
919.604	4641
919.715	4455
919.826	4337
919.936	4367
920.047	4580
920.157	4508
920.267	4752
920.378	4527
920.488	4485
920.598	4664
920.708	4915
920.818	4755
920.928	4748
921.038	4923
921.148	4915
921.258	4653
921.368	4554
921.477	4481
921.587	4478
921.697	4329
921.806	4527
921.916	4371
922.025	4227
922.134	4234
922.244	4280
922.353	4337
922.462	4196
922.571	4112
922.68	4029
922.789	3968
922.898	4006
923.007	3956
923.116	4093
923.224	4051
923.333	4067
923.442	3983
923.55	3956
923.659	4013
923.767	4158
923.876	3972
923.984	4116
924.092	3964
924.201	4067
924.309	4082
924.417	4124
924.525	4051
924.633	4131
924.741	4843
924.849	3892
924.956	4101
925.064	3941
925.172	3915
925.279	3915
925.387	4048
925.494	4055
925.602	4223
925.709	4185
925.816	4021
925.924	4158
926.031	4230
926.138	4124
926.245	4249
926.352	4124
926.459	4234
926.566	4295
926.673	4169
926.779	4124
926.886	4063
926.993	3956
927.099	3979
927.206	3930
927.312	3956
927.419	4044
927.525	4021
927.631	4090
927.737	3934
927.843	3941
927.95	3850
928.056	3937
928.162	4010
928.267	4112
928.373	4592
928.479	4097
928.585	3873
928.69	4006
928.796	4055
928.901	3987
929.007	3842
929.112	4013
929.218	3964
929.323	3915
929.428	3945
929.533	4109
929.638	3907
929.743	3979
929.848	4067
929.953	3998
930.058	3911
930.163	3774
930.267	3850
930.372	4006
930.477	3808
930.581	4063
930.685	3937
930.79	3797
930.894	3827
930.998	3865
931.103	4055
931.207	3694
931.311	3667
931.415	3694
931.519	3538
931.623	3553
