Data from test_V78500241_1618.txt Node
Date: Fri Mar 25 17:00:15 CST 2022
User: usil
Spectrometer: V785-0024
Trigger mode: 0
Integration Time (sec): 4.000000E-1
Scans to average: 1
Nonlinearity correction enabled: false
Boxcar width: 0
Storing dark spectrum: false
XAxis mode: Wavelengths
Number of Pixels in Spectrum: 1024
>>>>>Begin Spectral Data<<<<<
801.071	8054
801.214	8012
801.356	7944
801.499	7913
801.641	7860
801.783	7852
801.926	7978
802.068	7993
802.211	8001
802.353	7982
802.496	7837
802.638	7860
802.78	7936
802.923	7932
803.065	7932
803.208	7852
803.35	7909
803.492	8111
803.635	8172
803.777	8039
803.919	8126
804.061	8488
804.204	8142
804.346	8100
804.488	7894
804.63	8073
804.773	7993
804.915	8088
805.057	8279
805.199	8187
805.341	8191
805.483	8263
805.626	8138
805.768	8088
805.91	8214
806.052	8240
806.194	8153
806.336	8290
806.478	8088
806.62	8092
806.762	8084
806.904	8324
807.046	8438
807.188	8434
807.33	8271
807.472	8298
807.614	8214
807.756	8126
807.898	8046
808.04	7875
808.182	7913
808.324	7902
808.465	7959
808.607	8130
808.749	8145
808.891	8183
809.033	8279
809.174	8210
809.316	7997
809.458	8126
809.6	8054
809.741	8054
809.883	8092
810.025	8107
810.166	8092
810.308	7997
810.45	7989
810.591	7902
810.733	7712
810.875	7658
811.016	7533
811.158	7540
811.299	7563
811.441	7704
811.582	7715
811.724	7556
811.865	7582
812.007	7563
812.148	7559
812.29	7655
812.431	7753
812.573	7902
812.714	7978
812.855	8138
812.997	8252
813.138	8294
813.279	8145
813.421	8183
813.562	7982
813.703	7826
813.845	7689
813.986	7438
814.127	7240
814.268	7225
814.41	7183
814.551	7168
814.692	7206
814.833	7057
814.974	7069
815.115	7152
815.256	6981
815.397	6966
815.539	6924
815.68	6818
815.821	6772
815.962	6859
816.103	6795
816.244	6776
816.385	6593
816.526	6612
816.666	6506
816.807	6319
816.948	6445
817.089	6483
817.23	6445
817.371	6418
817.512	6384
817.653	6319
817.793	6391
817.934	6414
818.075	6517
818.216	6456
818.356	6414
818.497	6182
818.638	6140
818.778	6155
818.919	6201
819.06	6163
819.2	6327
819.341	6342
819.481	6342
819.622	6498
819.762	6658
819.903	6772
820.043	6612
820.184	6585
820.324	6566
820.465	6715
820.605	6662
820.746	6692
820.886	6513
821.026	6642
821.167	6681
821.307	6829
821.447	6757
821.588	6635
821.728	6528
821.868	6479
822.008	6357
822.149	6388
822.289	6327
822.429	6155
822.569	6148
822.709	6159
822.849	5927
822.99	5885
823.13	5916
823.27	5935
823.41	5798
823.55	5802
823.69	5752
823.83	5809
823.97	5680
824.11	5512
824.25	5497
824.389	5562
824.529	5600
824.669	5562
824.809	5619
824.949	5657
825.089	5627
825.228	5581
825.368	5425
825.508	5357
825.648	5322
825.787	5372
825.927	5398
826.067	5296
826.206	5265
826.346	5406
826.485	5429
826.625	5417
826.765	5543
826.904	5444
827.044	5265
827.183	5178
827.323	5102
827.462	5246
827.601	5197
827.741	5239
827.88	5216
828.02	5128
828.159	5292
828.298	5353
828.437	5410
828.577	5299
828.716	5535
828.855	5284
828.994	5124
829.134	5178
829.273	5185
829.412	5151
829.551	5181
829.69	5159
829.829	5227
829.968	5345
830.107	5261
830.246	5258
830.385	5159
830.524	5121
830.663	5083
830.802	4991
830.941	4896
831.08	4854
831.219	4987
831.357	4984
831.496	5162
831.635	4949
831.774	4809
831.913	4831
832.051	4752
832.19	4698
832.329	4866
832.467	4736
832.606	4653
832.744	4771
832.883	4740
833.022	4752
833.16	4812
833.299	4835
833.437	4850
833.576	4793
833.714	4881
833.852	4850
833.991	4858
834.129	4961
834.267	4908
834.406	4911
834.544	4938
834.682	4972
834.821	4987
834.959	5193
835.097	4961
835.235	5124
835.373	5052
835.511	5117
835.65	4995
835.788	4987
835.926	4927
836.064	4862
836.202	4919
836.34	5136
836.478	5189
836.615	5109
836.753	5201
836.891	5288
837.029	5258
837.167	5193
837.305	5162
837.443	5109
837.58	5098
837.718	5258
837.856	5261
837.993	5193
838.131	5216
838.269	5208
838.406	5208
838.544	5212
838.681	5071
838.819	5048
838.956	4839
839.094	4881
839.231	5014
839.369	5113
839.506	5387
839.643	5231
839.781	5067
839.918	4984
840.055	5090
840.193	5090
840.33	5117
840.467	5162
840.604	5140
840.742	5448
840.879	5151
841.016	5052
841.153	5143
841.29	5372
841.427	5391
841.564	5250
841.701	5341
841.838	5254
841.975	5261
842.112	5280
842.249	5113
842.385	5079
842.522	5318
842.659	5159
842.796	5124
842.933	5212
843.069	5143
843.206	5193
843.343	5307
843.479	5216
843.616	5227
843.752	5010
843.889	5003
844.025	5140
844.162	4999
844.298	5235
844.435	5064
844.571	5003
844.708	5212
844.844	5273
844.98	5376
845.117	5231
845.253	5124
845.389	5075
845.525	5113
845.661	5075
845.798	5033
845.934	5090
846.07	5037
846.206	5193
846.342	5254
846.478	5143
846.614	5018
846.75	4965
846.886	4968
847.022	5155
847.158	4976
847.294	5041
847.429	5155
847.565	5083
847.701	5299
847.837	4858
847.972	4809
848.108	4972
848.244	4980
848.379	4790
848.515	4763
848.65	4725
848.786	4679
848.921	4828
849.057	4850
849.192	4900
849.328	4820
849.463	4816
849.598	4786
849.734	4782
849.869	4687
850.004	4622
850.14	4641
850.275	4630
850.41	4546
850.545	4558
850.68	4622
850.815	4573
850.95	4615
851.085	4801
851.22	4767
851.355	4679
851.49	4615
851.625	4611
851.76	4607
851.895	4527
852.03	4603
852.165	4664
852.299	4710
852.434	4850
852.569	4733
852.703	4782
852.838	4892
852.973	4911
853.107	4919
853.242	4740
853.376	4649
853.511	4565
853.645	4584
853.78	4748
853.914	4763
854.048	4634
854.183	4656
854.317	4710
854.451	4820
854.585	4717
854.72	4603
854.854	4763
854.988	4588
855.122	4656
855.256	4542
855.39	4626
855.524	4736
855.658	4717
855.792	4641
855.926	4763
856.06	4767
856.194	4801
856.327	4714
856.461	4622
856.595	4596
856.729	4622
856.862	4736
856.996	4721
857.13	4740
857.263	4759
857.397	4812
857.53	4599
857.664	4752
857.797	4748
857.931	4729
858.064	4679
858.197	4714
858.331	4630
858.464	4622
858.597	4523
858.731	4668
858.864	4641
858.997	4596
859.13	4660
859.263	4702
859.396	4694
859.529	4592
859.662	4558
859.795	4542
859.928	4607
860.061	4710
860.194	4793
860.327	4683
860.46	4519
860.592	4698
860.725	4706
860.858	4694
860.99	4554
861.123	4527
861.256	4497
861.388	4615
861.521	5132
861.653	4516
861.786	4462
861.918	4508
862.05	4504
862.183	4561
862.315	4630
862.447	4634
862.58	4558
862.712	4348
862.844	4265
862.976	4447
863.108	4508
863.24	4763
863.372	4303
863.504	4440
863.636	4447
863.768	4481
863.9	4447
864.032	4375
864.164	4341
864.296	4455
864.428	4565
864.559	4531
864.691	4470
864.823	4497
864.954	4538
865.086	4516
865.217	4436
865.349	4390
865.48	4428
865.612	4481
865.743	4615
865.875	4474
866.006	4421
866.137	4493
866.269	4409
866.4	4402
866.531	4432
866.662	4436
866.793	4413
866.924	4428
867.055	4497
867.186	4436
867.317	4421
867.448	4390
867.579	4363
867.71	4383
867.841	4322
867.972	4489
868.103	4455
868.233	4447
868.364	4466
868.495	4516
868.625	4691
868.756	4748
868.886	4542
869.017	4596
869.147	4710
869.278	4771
869.408	4641
869.539	4687
869.669	4687
869.799	4664
869.929	4717
870.06	4702
870.19	4942
870.32	4908
870.45	4938
870.58	4991
870.71	5071
870.84	5060
870.97	4919
871.1	4881
871.23	5113
871.36	5151
871.489	5006
871.619	5102
871.749	5113
871.879	5147
872.008	5178
872.138	5056
872.267	4976
872.397	4850
872.526	4771
872.656	4702
872.785	4816
872.915	4927
873.044	4995
873.173	4938
873.303	4991
873.432	4946
873.561	4930
873.69	4877
873.819	4801
873.948	4900
874.077	4873
874.206	4759
874.335	4831
874.464	4923
874.593	4991
874.722	4885
874.851	5067
874.979	5025
875.108	5025
875.237	4862
875.365	4870
875.494	4877
875.623	4987
875.751	4828
875.88	4854
876.008	4938
876.136	5006
876.265	5193
876.393	5395
876.521	5231
876.65	5216
876.778	5140
876.906	5124
877.034	4991
877.162	5064
877.29	4991
877.418	5075
877.546	5067
877.674	5022
877.802	4972
877.93	5010
878.058	4938
878.185	4843
878.313	4927
878.441	4904
878.568	4839
878.696	4877
878.824	5045
878.951	4957
879.079	5124
879.206	5288
879.333	5067
879.461	4965
879.588	4972
879.715	5090
879.842	5223
879.97	4995
880.097	4733
880.224	4710
880.351	4797
880.478	4820
880.605	4812
880.732	4763
880.859	5094
880.986	4911
881.112	4896
881.239	4797
881.366	4656
881.493	4649
881.619	4603
881.746	4672
881.872	4656
881.999	4672
882.125	4714
882.252	4805
882.378	4828
882.505	4965
882.631	4824
882.757	4706
882.883	4710
883.01	4698
883.136	4706
883.262	4599
883.388	4630
883.514	4748
883.64	4839
883.766	4820
883.892	4691
884.018	4694
884.143	4873
884.269	5025
884.395	4675
884.52	4607
884.646	4634
884.772	4554
884.897	4580
885.023	4675
885.148	4809
885.274	4908
885.399	4839
885.524	4702
885.65	4698
885.775	4740
885.9	4694
886.025	4843
886.15	4786
886.275	4710
886.4	4634
886.525	4698
886.65	4691
886.775	4702
886.9	4911
887.025	4987
887.149	4831
887.274	4653
887.399	4584
887.523	4550
887.648	4599
887.773	4546
887.897	4736
888.021	4805
888.146	4653
888.27	4835
888.395	4889
888.519	4812
888.643	4805
888.767	4790
888.891	4706
889.015	4611
889.139	4668
889.263	4573
889.387	4740
889.511	4870
889.635	4793
889.759	4592
889.883	4615
890.006	4683
890.13	4759
890.254	4584
890.377	4683
890.501	4527
890.624	4474
890.748	4622
890.871	4493
890.995	4447
891.118	4375
891.241	4516
891.364	4550
891.488	4630
891.611	4489
891.734	4523
891.857	4577
891.98	4580
892.103	4634
892.226	4569
892.349	4504
892.471	4367
892.594	4546
892.717	4573
892.839	4599
892.962	4634
893.085	4653
893.207	4592
893.33	4421
893.452	4531
893.575	4664
893.697	4550
893.819	4752
893.941	4809
894.064	4786
894.186	4542
894.308	4561
894.43	4702
894.552	4778
894.674	4710
894.796	4580
894.918	4580
895.04	4588
895.161	4752
895.283	4622
895.405	4519
895.526	4710
895.648	4706
895.769	4706
895.891	4717
896.012	4748
896.134	4641
896.255	4637
896.376	4596
896.498	4641
896.619	4706
896.74	4630
896.861	4694
896.982	4949
897.103	5086
897.224	4843
897.345	4706
897.466	4630
897.587	4714
897.708	4824
897.828	4774
897.949	4668
898.07	4580
898.19	4615
898.311	4786
898.431	4672
898.552	4717
898.672	4790
898.792	4820
898.913	4721
899.033	4660
899.153	4569
899.273	4413
899.393	4516
899.513	4508
899.633	4485
899.753	4519
899.873	4554
899.993	4596
900.113	4527
900.232	4588
900.352	4538
900.472	4519
900.591	4409
900.711	4512
900.83	4436
900.95	4641
901.069	4687
901.189	4466
901.308	4402
901.427	4318
901.546	4352
901.665	4462
901.784	4478
901.904	4360
902.023	4272
902.141	4192
902.26	4154
902.379	4325
902.498	4230
902.617	4261
902.735	4394
902.854	4363
902.973	4379
903.091	4223
903.21	4177
903.328	4284
903.446	4230
903.565	4253
903.683	4280
903.801	4261
903.919	4379
904.038	4421
904.156	4314
904.274	4451
904.392	4405
904.51	4428
904.627	4440
904.745	4588
904.863	4653
904.981	4390
905.098	4299
905.216	4360
905.334	4432
905.451	4383
905.569	4436
905.686	4523
905.803	4535
905.921	4363
906.038	4519
906.155	4489
906.272	4341
906.389	4440
906.506	4348
906.623	4367
906.74	4417
906.857	4287
906.974	4383
907.091	4554
907.208	4656
907.324	4603
907.441	4485
907.557	4287
907.674	4314
907.79	4337
907.907	4409
908.023	4455
908.139	4474
908.256	4417
908.372	4470
908.488	4436
908.604	4379
908.72	4306
908.836	4360
908.952	4329
909.068	4436
909.184	4538
909.3	4478
909.415	4584
909.531	4535
909.647	4352
909.762	4390
909.878	4360
909.993	4424
910.108	4428
910.224	4367
910.339	4504
910.454	4383
910.57	4386
910.685	4322
910.8	4702
910.915	4622
911.03	4466
911.145	4287
911.259	4287
911.374	4322
911.489	4299
911.604	4257
911.718	4181
911.833	4207
911.947	4082
912.062	4040
912.176	4204
912.291	4238
912.405	4253
912.519	4478
912.633	4527
912.748	4356
912.862	4306
912.976	4207
913.09	4109
913.204	4150
913.318	4230
913.431	4394
913.545	4325
913.659	4462
913.772	4348
913.886	4219
914	4211
914.113	4409
914.226	4424
914.34	4375
914.453	4242
914.566	4402
914.68	4329
914.793	4341
914.906	4120
915.019	4093
915.132	4105
915.245	4185
915.358	4227
915.47	4249
915.583	4268
915.696	4276
915.809	4428
915.921	4405
916.034	4265
916.146	4272
916.259	4284
916.371	4394
916.483	4348
916.595	4261
916.708	4333
916.82	4367
916.932	4333
917.044	4352
917.156	4337
917.268	4238
917.38	4265
917.491	4268
917.603	4329
917.715	4402
917.826	4459
917.938	4341
918.049	4204
918.161	4348
918.272	4573
918.384	4462
918.495	4413
918.606	4280
918.717	4211
918.828	4363
918.939	4344
919.05	4246
919.161	4333
919.272	4181
919.383	4268
919.494	4440
919.604	4615
919.715	4424
919.826	4363
919.936	4402
920.047	4500
920.157	4485
920.267	4672
920.378	4504
920.488	4527
920.598	4687
920.708	4904
920.818	4702
920.928	4793
921.038	4991
921.148	4896
921.258	4618
921.368	4531
921.477	4554
921.587	4451
921.697	4367
921.806	4535
921.916	4413
922.025	4242
922.134	4291
922.244	4227
922.353	4291
922.462	4173
922.571	4158
922.68	4021
922.789	4006
922.898	4010
923.007	3975
923.116	4067
923.224	4044
923.333	4063
923.442	3956
923.55	3998
923.659	4002
923.767	4093
923.876	4002
923.984	4147
924.092	4021
924.201	4040
924.309	4078
924.417	4112
924.525	4010
924.633	4082
924.741	4870
924.849	3934
924.956	4116
925.064	4002
925.172	3930
925.279	3964
925.387	4078
925.494	4032
925.602	4215
925.709	4101
925.816	4036
925.924	4131
926.031	4223
926.138	4154
926.245	4204
926.352	4090
926.459	4253
926.566	4329
926.673	4166
926.779	4067
926.886	4059
926.993	4010
927.099	3972
927.206	3968
927.312	3937
927.419	4044
927.525	4017
927.631	4131
927.737	3987
927.843	3949
927.95	3865
928.056	3934
928.162	3968
928.267	4044
928.373	4622
928.479	4131
928.585	3892
928.69	3991
928.796	4051
928.901	4010
929.007	3854
929.112	4006
929.218	3937
929.323	3899
929.428	3968
929.533	4109
929.638	3892
929.743	3991
929.848	4051
929.953	3994
930.058	3907
930.163	3800
930.267	3816
930.372	3983
930.477	3797
930.581	4055
930.685	3941
930.79	3865
930.894	3857
930.998	3835
931.103	4032
931.207	3682
931.311	3656
931.415	3663
931.519	3561
931.623	3549
