Data from test_V78500241_2216.txt Node
Date: Fri Mar 25 17:04:24 CST 2022
User: usil
Spectrometer: V785-0024
Trigger mode: 0
Integration Time (sec): 4.000000E-1
Scans to average: 1
Nonlinearity correction enabled: false
Boxcar width: 0
Storing dark spectrum: false
XAxis mode: Wavelengths
Number of Pixels in Spectrum: 1024
>>>>>Begin Spectral Data<<<<<
801.071	7989
801.214	7978
801.356	7868
801.499	7868
801.641	7841
801.783	7856
801.926	7951
802.068	7940
802.211	7947
802.353	7936
802.496	7856
802.638	7925
802.78	7925
802.923	7959
803.065	7868
803.208	7795
803.35	7982
803.492	8088
803.635	8161
803.777	8005
803.919	8164
804.061	8480
804.204	8195
804.346	8126
804.488	7986
804.63	8130
804.773	7997
804.915	8069
805.057	8305
805.199	8145
805.341	8218
805.483	8218
805.626	8180
805.768	8130
805.91	8210
806.052	8240
806.194	8107
806.336	8336
806.478	8050
806.62	8039
806.762	8096
806.904	8263
807.046	8522
807.188	8347
807.33	8313
807.472	8347
807.614	8183
807.756	8153
807.898	7997
808.04	7894
808.182	7856
808.324	7932
808.465	7944
808.607	8092
808.749	8119
808.891	8180
809.033	8286
809.174	8172
809.316	8065
809.458	8115
809.6	8005
809.741	8065
809.883	8027
810.025	8031
810.166	8065
810.308	7993
810.45	7936
810.591	7860
810.733	7727
810.875	7636
811.016	7491
811.158	7544
811.299	7563
811.441	7693
811.582	7670
811.724	7548
811.865	7525
812.007	7590
812.148	7620
812.29	7643
812.431	7750
812.573	7917
812.714	7909
812.855	8115
812.997	8187
813.138	8317
813.279	8130
813.421	8065
813.562	7989
813.703	7807
813.845	7708
813.986	7434
814.127	7274
814.268	7190
814.41	7118
814.551	7152
814.692	7209
814.833	7080
814.974	7095
815.115	7118
815.256	7004
815.397	6954
815.539	6916
815.68	6795
815.821	6730
815.962	6863
816.103	6798
816.244	6741
816.385	6612
816.526	6639
816.666	6589
816.807	6319
816.948	6407
817.089	6456
817.23	6437
817.371	6365
817.512	6342
817.653	6448
817.793	6361
817.934	6437
818.075	6456
818.216	6426
818.356	6365
818.497	6258
818.638	6125
818.778	6178
818.919	6159
819.06	6106
819.2	6353
819.341	6399
819.481	6399
819.622	6570
819.762	6768
819.903	6711
820.043	6570
820.184	6608
820.324	6566
820.465	6642
820.605	6582
820.746	6620
820.886	6547
821.026	6715
821.167	6707
821.307	6802
821.447	6798
821.588	6669
821.728	6574
821.868	6437
822.008	6353
822.149	6342
822.289	6346
822.429	6190
822.569	6106
822.709	6106
822.849	5916
822.99	5893
823.13	5939
823.27	5927
823.41	5767
823.55	5779
823.69	5824
823.83	5760
823.97	5680
824.11	5554
824.25	5516
824.389	5562
824.529	5665
824.669	5535
824.809	5596
824.949	5657
825.089	5615
825.228	5589
825.368	5444
825.508	5372
825.648	5330
825.787	5417
825.927	5387
826.067	5273
826.206	5311
826.346	5364
826.485	5395
826.625	5376
826.765	5543
826.904	5433
827.044	5326
827.183	5235
827.323	5155
827.462	5303
827.601	5143
827.741	5178
827.88	5201
828.02	5094
828.159	5254
828.298	5273
828.437	5345
828.577	5315
828.716	5436
828.855	5353
828.994	5117
829.134	5128
829.273	5231
829.412	5162
829.551	5083
829.69	5159
829.829	5250
829.968	5414
830.107	5292
830.246	5261
830.385	5201
830.524	5121
830.663	5083
830.802	4976
830.941	4919
831.08	4831
831.219	4877
831.357	4991
831.496	5147
831.635	4980
831.774	4892
831.913	4839
832.051	4774
832.19	4755
832.329	4786
832.467	4698
832.606	4630
832.744	4683
832.883	4736
833.022	4694
833.16	4759
833.299	4854
833.437	4862
833.576	4816
833.714	4820
833.852	4892
833.991	4915
834.129	4980
834.267	4961
834.406	4927
834.544	5064
834.682	4980
834.821	4984
834.959	5147
835.097	5018
835.235	5166
835.373	5098
835.511	5109
835.65	5010
835.788	5014
835.926	4896
836.064	4911
836.202	4923
836.34	5170
836.478	5250
836.615	5117
836.753	5197
836.891	5334
837.029	5242
837.167	5185
837.305	5136
837.443	5128
837.58	5037
837.718	5246
837.856	5212
837.993	5117
838.131	5299
838.269	5220
838.406	5193
838.544	5201
838.681	5025
838.819	5052
838.956	4900
839.094	4942
839.231	4934
839.369	5090
839.506	5406
839.643	5258
839.781	5010
839.918	5094
840.055	5083
840.193	5105
840.33	5124
840.467	5117
840.604	5181
840.742	5429
840.879	5056
841.016	5102
841.153	5155
841.29	5402
841.427	5360
841.564	5326
841.701	5334
841.838	5261
841.975	5201
842.112	5307
842.249	5090
842.385	5155
842.522	5265
842.659	5220
842.796	5178
842.933	5143
843.069	5151
843.206	5147
843.343	5330
843.479	5223
843.616	5311
843.752	5003
843.889	5029
844.025	5174
844.162	4980
844.298	5208
844.435	5064
844.571	5056
844.708	5201
844.844	5345
844.98	5311
845.117	5326
845.253	5166
845.389	5079
845.525	5166
845.661	5155
845.798	5041
845.934	5113
846.07	5052
846.206	5250
846.342	5277
846.478	5178
846.614	4987
846.75	4953
846.886	4949
847.022	5075
847.158	4980
847.294	5071
847.429	5037
847.565	5029
847.701	5330
847.837	4847
847.972	4797
848.108	4972
848.244	4881
848.379	4759
848.515	4729
848.65	4687
848.786	4736
848.921	4778
849.057	4847
849.192	4843
849.328	4828
849.463	4877
849.598	4839
849.734	4710
849.869	4694
850.004	4664
850.14	4653
850.275	4626
850.41	4516
850.545	4523
850.68	4664
850.815	4599
850.95	4626
851.085	4820
851.22	4725
851.355	4710
851.49	4561
851.625	4622
851.76	4588
851.895	4569
852.03	4516
852.165	4637
852.299	4721
852.434	4793
852.569	4752
852.703	4759
852.838	4839
852.973	4976
853.107	4919
853.242	4710
853.376	4691
853.511	4523
853.645	4622
853.78	4839
853.914	4710
854.048	4649
854.183	4630
854.317	4702
854.451	4828
854.585	4744
854.72	4653
854.854	4702
854.988	4584
855.122	4626
855.256	4603
855.39	4653
855.524	4782
855.658	4694
855.792	4725
855.926	4710
856.06	4748
856.194	4828
856.327	4683
856.461	4588
856.595	4611
856.729	4634
856.862	4714
856.996	4649
857.13	4729
857.263	4771
857.397	4801
857.53	4653
857.664	4736
857.797	4744
857.931	4763
858.064	4691
858.197	4733
858.331	4618
858.464	4611
858.597	4485
858.731	4580
858.864	4637
858.997	4573
859.13	4645
859.263	4668
859.396	4656
859.529	4577
859.662	4558
859.795	4497
859.928	4637
860.061	4752
860.194	4748
860.327	4641
860.46	4535
860.592	4698
860.725	4683
860.858	4729
860.99	4611
861.123	4538
861.256	4546
861.388	4573
861.521	5311
861.653	4462
861.786	4405
861.918	4459
862.05	4519
862.183	4584
862.315	4618
862.447	4687
862.58	4588
862.712	4379
862.844	4306
862.976	4443
863.108	4432
863.24	4858
863.372	4303
863.504	4383
863.636	4371
863.768	4462
863.9	4447
864.032	4352
864.164	4470
864.296	4500
864.428	4550
864.559	4565
864.691	4512
864.823	4508
864.954	4470
865.086	4523
865.217	4417
865.349	4424
865.48	4466
865.612	4497
865.743	4607
865.875	4481
866.006	4474
866.137	4451
866.269	4462
866.4	4451
866.531	4432
866.662	4394
866.793	4421
866.924	4398
867.055	4481
867.186	4436
867.317	4432
867.448	4394
867.579	4371
867.71	4405
867.841	4329
867.972	4451
868.103	4478
868.233	4447
868.364	4519
868.495	4493
868.625	4656
868.756	4740
868.886	4599
869.017	4626
869.147	4744
869.278	4752
869.408	4683
869.539	4622
869.669	4664
869.799	4672
869.929	4740
870.06	4725
870.19	5006
870.32	4900
870.45	4900
870.58	5003
870.71	5075
870.84	5170
870.97	4999
871.1	4896
871.23	5178
871.36	5067
871.489	4980
871.619	5037
871.749	5094
871.879	5121
872.008	5201
872.138	4987
872.267	4961
872.397	4831
872.526	4820
872.656	4679
872.785	4824
872.915	4942
873.044	4999
873.173	4919
873.303	4957
873.432	4976
873.561	4946
873.69	4896
873.819	4889
873.948	4904
874.077	4763
874.206	4717
874.335	4828
874.464	4911
874.593	5006
874.722	4938
874.851	5140
874.979	5090
875.108	4968
875.237	4934
875.365	4896
875.494	4881
875.623	4942
875.751	4862
875.88	4892
876.008	5003
876.136	5022
876.265	5174
876.393	5357
876.521	5250
876.65	5201
876.778	5155
876.906	5022
877.034	5033
877.162	5075
877.29	4972
877.418	5083
877.546	5045
877.674	5033
877.802	4972
877.93	5018
878.058	4953
878.185	4858
878.313	5006
878.441	4957
878.568	4820
878.696	4896
878.824	4999
878.951	4980
879.079	5174
879.206	5288
879.333	5094
879.461	4965
879.588	5003
879.715	5140
879.842	5265
879.97	5018
880.097	4805
880.224	4767
880.351	4828
880.478	4786
880.605	4839
880.732	4767
880.859	5090
880.986	4885
881.112	4911
881.239	4786
881.366	4683
881.493	4668
881.619	4569
881.746	4660
881.872	4660
881.999	4649
882.125	4729
882.252	4809
882.378	4812
882.505	4934
882.631	4790
882.757	4637
882.883	4736
883.01	4721
883.136	4645
883.262	4630
883.388	4611
883.514	4835
883.64	4889
883.766	4797
883.892	4733
884.018	4698
884.143	4927
884.269	5025
884.395	4656
884.52	4615
884.646	4611
884.772	4573
884.897	4584
885.023	4691
885.148	4771
885.274	4858
885.399	4778
885.524	4714
885.65	4675
885.775	4733
885.9	4740
886.025	4858
886.15	4774
886.275	4733
886.4	4679
886.525	4763
886.65	4679
886.775	4679
886.9	4866
887.025	5014
887.149	4812
887.274	4653
887.399	4626
887.523	4592
887.648	4573
887.773	4599
887.897	4755
888.021	4763
888.146	4679
888.27	4786
888.395	4866
888.519	4736
888.643	4805
888.767	4839
888.891	4653
889.015	4626
889.139	4637
889.263	4599
889.387	4759
889.511	4835
889.635	4793
889.759	4618
889.883	4584
890.006	4725
890.13	4831
890.254	4630
890.377	4717
890.501	4489
890.624	4493
890.748	4645
890.871	4493
890.995	4409
891.118	4348
891.241	4497
891.364	4554
891.488	4599
891.611	4512
891.734	4531
891.857	4615
891.98	4508
892.103	4626
892.226	4580
892.349	4485
892.471	4421
892.594	4554
892.717	4584
892.839	4527
892.962	4622
893.085	4645
893.207	4637
893.33	4417
893.452	4542
893.575	4596
893.697	4531
893.819	4752
893.941	4858
894.064	4748
894.186	4535
894.308	4561
894.43	4729
894.552	4774
894.674	4721
894.796	4565
894.918	4584
895.04	4550
895.161	4706
895.283	4691
895.405	4573
895.526	4622
895.648	4691
895.769	4660
895.891	4698
896.012	4714
896.134	4710
896.255	4653
896.376	4702
896.498	4607
896.619	4675
896.74	4603
896.861	4634
896.982	4923
897.103	5045
897.224	4793
897.345	4717
897.466	4656
897.587	4748
897.708	4908
897.828	4736
897.949	4649
898.07	4561
898.19	4626
898.311	4824
898.431	4626
898.552	4736
898.672	4843
898.792	4767
898.913	4736
899.033	4626
899.153	4504
899.273	4447
899.393	4470
899.513	4516
899.633	4523
899.753	4527
899.873	4470
899.993	4569
900.113	4512
900.232	4565
900.352	4538
900.472	4451
900.591	4360
900.711	4493
900.83	4432
900.95	4615
901.069	4645
901.189	4504
901.308	4367
901.427	4310
901.546	4386
901.665	4432
901.784	4466
901.904	4352
902.023	4341
902.141	4188
902.26	4131
902.379	4306
902.498	4246
902.617	4223
902.735	4322
902.854	4386
902.973	4356
903.091	4219
903.21	4204
903.328	4352
903.446	4253
903.565	4246
903.683	4348
903.801	4234
903.919	4462
904.038	4436
904.156	4337
904.274	4443
904.392	4379
904.51	4424
904.627	4478
904.745	4573
904.863	4630
904.981	4379
905.098	4318
905.216	4356
905.334	4432
905.451	4462
905.569	4424
905.686	4561
905.803	4599
905.921	4409
906.038	4519
906.155	4504
906.272	4417
906.389	4481
906.506	4348
906.623	4363
906.74	4394
906.857	4276
906.974	4375
907.091	4592
907.208	4653
907.324	4584
907.441	4542
907.557	4325
907.674	4360
907.79	4344
907.907	4413
908.023	4466
908.139	4519
908.256	4409
908.372	4466
908.488	4466
908.604	4348
908.72	4360
908.836	4386
908.952	4383
909.068	4421
909.184	4588
909.3	4478
909.415	4577
909.531	4527
909.647	4375
909.762	4394
909.878	4341
909.993	4405
910.108	4402
910.224	4409
910.339	4497
910.454	4383
910.57	4394
910.685	4284
910.8	4656
910.915	4577
911.03	4485
911.145	4280
911.259	4295
911.374	4402
911.489	4291
911.604	4299
911.718	4162
911.833	4207
911.947	4090
912.062	4055
912.176	4219
912.291	4181
912.405	4227
912.519	4462
912.633	4508
912.748	4356
912.862	4295
912.976	4135
913.09	4116
913.204	4131
913.318	4261
913.431	4379
913.545	4413
913.659	4402
913.772	4356
913.886	4287
914	4234
914.113	4356
914.226	4466
914.34	4455
914.453	4230
914.566	4428
914.68	4276
914.793	4325
914.906	4169
915.019	4162
915.132	4048
915.245	4196
915.358	4200
915.47	4204
915.583	4230
915.696	4299
915.809	4432
915.921	4379
916.034	4234
916.146	4196
916.259	4238
916.371	4379
916.483	4386
916.595	4276
916.708	4337
916.82	4344
916.932	4325
917.044	4371
917.156	4360
917.268	4211
917.38	4246
917.491	4230
917.603	4303
917.715	4417
917.826	4428
917.938	4360
918.049	4215
918.161	4356
918.272	4512
918.384	4485
918.495	4470
918.606	4284
918.717	4276
918.828	4318
918.939	4375
919.05	4200
919.161	4325
919.272	4147
919.383	4249
919.494	4443
919.604	4607
919.715	4481
919.826	4402
919.936	4390
920.047	4512
920.157	4470
920.267	4714
920.378	4493
920.488	4500
920.598	4717
920.708	4885
920.818	4721
920.928	4717
921.038	4927
921.148	4915
921.258	4603
921.368	4512
921.477	4516
921.587	4474
921.697	4352
921.806	4554
921.916	4428
922.025	4299
922.134	4249
922.244	4249
922.353	4344
922.462	4147
922.571	4143
922.68	4013
922.789	3972
922.898	4017
923.007	3998
923.116	4082
923.224	4048
923.333	4074
923.442	3972
923.55	3979
923.659	3975
923.767	4082
923.876	3987
923.984	4093
924.092	3945
924.201	4044
924.309	4101
924.417	4109
924.525	4051
924.633	4082
924.741	5022
924.849	3907
924.956	4169
925.064	3918
925.172	3892
925.279	3941
925.387	4067
925.494	4086
925.602	4219
925.709	4192
925.816	4010
925.924	4120
926.031	4234
926.138	4162
926.245	4185
926.352	4090
926.459	4272
926.566	4314
926.673	4200
926.779	4021
926.886	4044
926.993	3972
927.099	3972
927.206	3930
927.312	3937
927.419	4040
927.525	4002
927.631	4078
927.737	3991
927.843	3975
927.95	3827
928.056	3945
928.162	3956
928.267	4055
928.373	4721
928.479	4116
928.585	3903
928.69	4010
928.796	4090
928.901	3941
929.007	3857
929.112	3968
929.218	3968
929.323	3945
929.428	3949
929.533	4116
929.638	3953
929.743	3960
929.848	4090
929.953	3991
930.058	3922
930.163	3789
930.267	3819
930.372	3975
930.477	3797
930.581	4131
930.685	3968
930.79	3797
930.894	3876
930.998	3831
931.103	4071
931.207	3717
931.311	3682
931.415	3682
931.519	3504
931.623	3545
