Data from test_V78500241_2826.txt Node
Date: Fri Mar 25 17:08:39 CST 2022
User: usil
Spectrometer: V785-0024
Trigger mode: 0
Integration Time (sec): 4.000000E-1
Scans to average: 1
Nonlinearity correction enabled: false
Boxcar width: 0
Storing dark spectrum: false
XAxis mode: Wavelengths
Number of Pixels in Spectrum: 1024
>>>>>Begin Spectral Data<<<<<
801.071	7974
801.214	7944
801.356	7925
801.499	7879
801.641	7799
801.783	7860
801.926	7974
802.068	7932
802.211	7967
802.353	8039
802.496	7890
802.638	7917
802.78	7989
802.923	7947
803.065	7864
803.208	7792
803.35	7974
803.492	8107
803.635	8183
803.777	8088
803.919	8176
804.061	8434
804.204	8084
804.346	8024
804.488	7986
804.63	8054
804.773	8020
804.915	8107
805.057	8309
805.199	8145
805.341	8164
805.483	8229
805.626	8164
805.768	8107
805.91	8218
806.052	8187
806.194	8183
806.336	8282
806.478	8126
806.62	8046
806.762	8126
806.904	8252
807.046	8457
807.188	8343
807.33	8351
807.472	8400
807.614	8221
807.756	8149
807.898	8020
808.04	7917
808.182	7959
808.324	7875
808.465	8008
808.607	8088
808.749	8164
808.891	8210
809.033	8381
809.174	8176
809.316	8092
809.458	8031
809.6	8024
809.741	8016
809.883	8054
810.025	8100
810.166	8111
810.308	7959
810.45	7967
810.591	7890
810.733	7753
810.875	7670
811.016	7601
811.158	7502
811.299	7647
811.441	7742
811.582	7776
811.724	7567
811.865	7594
812.007	7567
812.148	7662
812.29	7647
812.431	7689
812.573	7928
812.714	8005
812.855	8073
812.997	8225
813.138	8366
813.279	8191
813.421	8123
813.562	8043
813.703	7890
813.845	7807
813.986	7483
814.127	7297
814.268	7244
814.41	7202
814.551	7145
814.692	7221
814.833	7133
814.974	7152
815.115	7152
815.256	6985
815.397	6928
815.539	6935
815.68	6859
815.821	6719
815.962	6924
816.103	6829
816.244	6741
816.385	6677
816.526	6658
816.666	6490
816.807	6338
816.948	6456
817.089	6528
817.23	6410
817.371	6376
817.512	6361
817.653	6384
817.793	6331
817.934	6418
818.075	6441
818.216	6452
818.356	6365
818.497	6243
818.638	6133
818.778	6186
818.919	6133
819.06	6159
819.2	6296
819.341	6285
819.481	6422
819.622	6551
819.762	6734
819.903	6719
820.043	6585
820.184	6642
820.324	6631
820.465	6620
820.605	6646
820.746	6639
820.886	6525
821.026	6692
821.167	6684
821.307	6787
821.447	6795
821.588	6658
821.728	6578
821.868	6494
822.008	6327
822.149	6372
822.289	6334
822.429	6102
822.569	6106
822.709	6095
822.849	5988
822.99	5874
823.13	5961
823.27	5946
823.41	5733
823.55	5813
823.69	5729
823.83	5726
823.97	5699
824.11	5543
824.25	5520
824.389	5520
824.529	5528
824.669	5554
824.809	5627
824.949	5691
825.089	5627
825.228	5581
825.368	5406
825.508	5402
825.648	5383
825.787	5334
825.927	5395
826.067	5284
826.206	5273
826.346	5368
826.485	5376
826.625	5429
826.765	5554
826.904	5482
827.044	5254
827.183	5147
827.323	5143
827.462	5284
827.601	5170
827.741	5174
827.88	5235
828.02	5124
828.159	5242
828.298	5292
828.437	5364
828.577	5296
828.716	5471
828.855	5391
828.994	5155
829.134	5075
829.273	5204
829.412	5132
829.551	5143
829.69	5201
829.829	5265
829.968	5341
830.107	5189
830.246	5280
830.385	5151
830.524	5181
830.663	5121
830.802	4927
830.941	4927
831.08	4900
831.219	4953
831.357	4957
831.496	5162
831.635	4927
831.774	4847
831.913	4820
832.051	4694
832.19	4736
832.329	4835
832.467	4672
832.606	4637
832.744	4748
832.883	4714
833.022	4774
833.16	4805
833.299	4801
833.437	4831
833.576	4873
833.714	4866
833.852	4873
833.991	4862
834.129	4934
834.267	4892
834.406	4900
834.544	4976
834.682	5003
834.821	4934
834.959	5147
835.097	4930
835.235	5162
835.373	5079
835.511	5121
835.65	5018
835.788	4999
835.926	4843
836.064	4812
836.202	4904
836.34	5201
836.478	5231
836.615	5147
836.753	5235
836.891	5318
837.029	5288
837.167	5216
837.305	5197
837.443	5159
837.58	5075
837.718	5250
837.856	5166
837.993	5208
838.131	5216
838.269	5193
838.406	5136
838.544	5193
838.681	5014
838.819	5003
838.956	4885
839.094	4870
839.231	4991
839.369	5121
839.506	5444
839.643	5239
839.781	5048
839.918	4968
840.055	5086
840.193	5105
840.33	5064
840.467	5159
840.604	5181
840.742	5482
840.879	5094
841.016	5064
841.153	5151
841.29	5372
841.427	5303
841.564	5261
841.701	5372
841.838	5341
841.975	5246
842.112	5254
842.249	5155
842.385	5132
842.522	5334
842.659	5162
842.796	5151
842.933	5170
843.069	5147
843.206	5155
843.343	5349
843.479	5235
843.616	5265
843.752	5018
843.889	4972
844.025	5261
844.162	5075
844.298	5204
844.435	5079
844.571	5071
844.708	5162
844.844	5269
844.98	5288
845.117	5292
845.253	5174
845.389	5109
845.525	5151
845.661	5124
845.798	5079
845.934	5105
846.07	5052
846.206	5162
846.342	5250
846.478	5204
846.614	5025
846.75	4972
846.886	4942
847.022	5121
847.158	4942
847.294	5025
847.429	5067
847.565	5045
847.701	5288
847.837	4828
847.972	4801
848.108	4953
848.244	4965
848.379	4782
848.515	4702
848.65	4698
848.786	4755
848.921	4801
849.057	4938
849.192	4885
849.328	4812
849.463	4877
849.598	4786
849.734	4809
849.869	4683
850.004	4580
850.14	4664
850.275	4603
850.41	4516
850.545	4561
850.68	4599
850.815	4630
850.95	4653
851.085	4839
851.22	4801
851.355	4649
851.49	4653
851.625	4630
851.76	4637
851.895	4588
852.03	4493
852.165	4622
852.299	4725
852.434	4782
852.569	4744
852.703	4755
852.838	4850
852.973	4987
853.107	4904
853.242	4733
853.376	4603
853.511	4546
853.645	4603
853.78	4828
853.914	4679
854.048	4637
854.183	4675
854.317	4702
854.451	4885
854.585	4622
854.72	4634
854.854	4771
854.988	4626
855.122	4599
855.256	4519
855.39	4641
855.524	4797
855.658	4763
855.792	4679
855.926	4736
856.06	4733
856.194	4866
856.327	4694
856.461	4596
856.595	4641
856.729	4683
856.862	4755
856.996	4675
857.13	4714
857.263	4748
857.397	4771
857.53	4675
857.664	4717
857.797	4778
857.931	4786
858.064	4706
858.197	4763
858.331	4634
858.464	4702
858.597	4550
858.731	4630
858.864	4584
858.997	4615
859.13	4660
859.263	4660
859.396	4725
859.529	4584
859.662	4558
859.795	4554
859.928	4645
860.061	4736
860.194	4717
860.327	4588
860.46	4611
860.592	4691
860.725	4725
860.858	4774
860.99	4596
861.123	4504
861.256	4470
861.388	4626
861.521	5303
861.653	4493
861.786	4451
861.918	4451
862.05	4569
862.183	4558
862.315	4554
862.447	4626
862.58	4523
862.712	4409
862.844	4341
862.976	4470
863.108	4462
863.24	4767
863.372	4337
863.504	4383
863.636	4398
863.768	4478
863.9	4451
864.032	4352
864.164	4398
864.296	4497
864.428	4561
864.559	4611
864.691	5847
864.823	4980
864.954	4542
865.086	4573
865.217	4504
865.349	4413
865.48	4428
865.612	4538
865.743	4588
865.875	4489
866.006	4409
866.137	4474
866.269	4424
866.4	4474
866.531	4424
866.662	4405
866.793	4428
866.924	4436
867.055	4500
867.186	4413
867.317	4424
867.448	4417
867.579	4363
867.71	4413
867.841	4367
867.972	4474
868.103	4474
868.233	4466
868.364	4459
868.495	4531
868.625	4683
868.756	4755
868.886	4561
869.017	4645
869.147	4748
869.278	4805
869.408	4702
869.539	4637
869.669	4767
869.799	4656
869.929	4778
870.06	4759
870.19	4957
870.32	4930
870.45	4949
870.58	4995
870.71	5132
870.84	5090
870.97	4999
871.1	4915
871.23	5246
871.36	5140
871.489	5014
871.619	5056
871.749	5117
871.879	5102
872.008	5162
872.138	5037
872.267	4991
872.397	4873
872.526	4835
872.656	4721
872.785	4824
872.915	4980
873.044	5060
873.173	4908
873.303	4980
873.432	4946
873.561	4957
873.69	4866
873.819	4870
873.948	4881
874.077	4862
874.206	4767
874.335	4748
874.464	4934
874.593	5102
874.722	4984
874.851	5121
874.979	5045
875.108	4980
875.237	4877
875.365	4896
875.494	4919
875.623	4965
875.751	4870
875.88	4911
876.008	4965
876.136	5018
876.265	5170
876.393	5299
876.521	5273
876.65	5239
876.778	5151
876.906	5143
877.034	4976
877.162	5060
877.29	4968
877.418	5083
877.546	5079
877.674	5022
877.802	5029
877.93	5045
878.058	4972
878.185	4866
878.313	5010
878.441	4946
878.568	4797
878.696	4923
878.824	4980
878.951	5003
879.079	5090
879.206	5239
879.333	5117
879.461	4953
879.588	5010
879.715	5079
879.842	5181
879.97	5041
880.097	4725
880.224	4759
880.351	4778
880.478	4831
880.605	4790
880.732	4740
880.859	5124
880.986	4934
881.112	4900
881.239	4801
881.366	4611
881.493	4615
881.619	4584
881.746	4626
881.872	4641
881.999	4656
882.125	4702
882.252	4824
882.378	4786
882.505	4908
882.631	4820
882.757	4660
882.883	4744
883.01	4752
883.136	4702
883.262	4637
883.388	4615
883.514	4793
883.64	4812
883.766	4767
883.892	4641
884.018	4744
884.143	4873
884.269	4995
884.395	4679
884.52	4637
884.646	4645
884.772	4573
884.897	4493
885.023	4694
885.148	4812
885.274	4843
885.399	4805
885.524	4714
885.65	4733
885.775	4668
885.9	4725
886.025	4820
886.15	4824
886.275	4740
886.4	4656
886.525	4656
886.65	4710
886.775	4653
886.9	4904
887.025	4995
887.149	4801
887.274	4691
887.399	4618
887.523	4611
887.648	4603
887.773	4565
887.897	4759
888.021	4755
888.146	4702
888.27	4839
888.395	4835
888.519	4759
888.643	4828
888.767	4816
888.891	4729
889.015	4615
889.139	4615
889.263	4660
889.387	4725
889.511	4839
889.635	4729
889.759	4683
889.883	4702
890.006	4759
890.13	4839
890.254	4653
890.377	4664
890.501	4542
890.624	4558
890.748	4622
890.871	4531
890.995	4424
891.118	4428
891.241	4516
891.364	4554
891.488	4634
891.611	4478
891.734	4542
891.857	4607
891.98	4561
892.103	4630
892.226	4618
892.349	4519
892.471	4360
892.594	4531
892.717	4637
892.839	4508
892.962	4546
893.085	4672
893.207	4558
893.33	4421
893.452	4508
893.575	4618
893.697	4569
893.819	4835
893.941	4824
894.064	4748
894.186	4599
894.308	4527
894.43	4733
894.552	4801
894.674	4740
894.796	4569
894.918	4577
895.04	4569
895.161	4740
895.283	4687
895.405	4592
895.526	4664
895.648	4702
895.769	4641
895.891	4740
896.012	4717
896.134	4729
896.255	4710
896.376	4618
896.498	4653
896.619	4645
896.74	4573
896.861	4691
896.982	4953
897.103	5109
897.224	4831
897.345	4725
897.466	4660
897.587	4694
897.708	4839
897.828	4809
897.949	4637
898.07	4558
898.19	4630
898.311	4847
898.431	4641
898.552	4714
898.672	4820
898.792	4854
898.913	4736
899.033	4645
899.153	4500
899.273	4421
899.393	4519
899.513	4527
899.633	4508
899.753	4596
899.873	4523
899.993	4588
900.113	4538
900.232	4550
900.352	4519
900.472	4493
900.591	4398
900.711	4508
900.83	4436
900.95	4634
901.069	4683
901.189	4558
901.308	4386
901.427	4322
901.546	4363
901.665	4470
901.784	4508
901.904	4424
902.023	4360
902.141	4215
902.26	4173
902.379	4344
902.498	4284
902.617	4169
902.735	4417
902.854	4394
902.973	4363
903.091	4234
903.21	4188
903.328	4299
903.446	4284
903.565	4261
903.683	4398
903.801	4280
903.919	4436
904.038	4394
904.156	4363
904.274	4424
904.392	4394
904.51	4421
904.627	4481
904.745	4584
904.863	4634
904.981	4383
905.098	4299
905.216	4375
905.334	4440
905.451	4413
905.569	4462
905.686	4538
905.803	4634
905.921	4428
906.038	4542
906.155	4462
906.272	4386
906.389	4493
906.506	4352
906.623	4386
906.74	4402
906.857	4337
906.974	4348
907.091	4573
907.208	4714
907.324	4569
907.441	4474
907.557	4329
907.674	4356
907.79	4314
907.907	4379
908.023	4489
908.139	4466
908.256	4459
908.372	4470
908.488	4531
908.604	4344
908.72	4322
908.836	4424
908.952	4413
909.068	4421
909.184	4596
909.3	4459
909.415	4611
909.531	4516
909.647	4386
909.762	4344
909.878	4337
909.993	4436
910.108	4394
910.224	4424
910.339	4481
910.454	4459
910.57	4386
910.685	4333
910.8	4626
910.915	4592
911.03	4481
911.145	4344
911.259	4344
911.374	4451
911.489	4306
911.604	4284
911.718	4181
911.833	4211
911.947	4071
912.062	3994
912.176	4188
912.291	4246
912.405	4257
912.519	4436
912.633	4485
912.748	4432
912.862	4299
912.976	4181
913.09	4078
913.204	4207
913.318	4196
913.431	4348
913.545	4375
913.659	4405
913.772	4405
913.886	4207
914	4230
914.113	4383
914.226	4424
914.34	4360
914.453	4257
914.566	4398
914.68	4280
914.793	4356
914.906	4185
915.019	4097
915.132	4051
915.245	4192
915.358	4253
915.47	4234
915.583	4272
915.696	4344
915.809	4390
915.921	4375
916.034	4287
916.146	4257
916.259	4242
916.371	4371
916.483	4363
916.595	4257
916.708	4333
916.82	4318
916.932	4295
917.044	4314
917.156	4329
917.268	4223
917.38	4268
917.491	4280
917.603	4402
917.715	4447
917.826	4455
917.938	4367
918.049	4242
918.161	4394
918.272	4561
918.384	4550
918.495	4436
918.606	4280
918.717	4192
918.828	4322
918.939	4352
919.05	4261
919.161	4333
919.272	4112
919.383	4238
919.494	4432
919.604	4596
919.715	4451
919.826	4356
919.936	4402
920.047	4561
920.157	4497
920.267	4660
920.378	4531
920.488	4485
920.598	4668
920.708	4877
920.818	4736
920.928	4740
921.038	4949
921.148	4923
921.258	4641
921.368	4508
921.477	4523
921.587	4466
921.697	4379
921.806	4535
921.916	4390
922.025	4314
922.134	4253
922.244	4215
922.353	4337
922.462	4181
922.571	4101
922.68	3998
922.789	3987
922.898	4025
923.007	3983
923.116	4063
923.224	4105
923.333	4059
923.442	3960
923.55	3975
923.659	4059
923.767	4067
923.876	3998
923.984	4135
924.092	3987
924.201	4051
924.309	4120
924.417	4143
924.525	4090
924.633	4105
924.741	4934
924.849	3884
924.956	4166
925.064	4029
925.172	3880
925.279	3949
925.387	4055
925.494	4044
925.602	4143
925.709	4147
925.816	4090
925.924	4120
926.031	4246
926.138	4188
926.245	4181
926.352	4097
926.459	4207
926.566	4310
926.673	4135
926.779	4074
926.886	4067
926.993	4010
927.099	3960
927.206	3930
927.312	3994
927.419	4032
927.525	4025
927.631	4109
927.737	3953
927.843	3956
927.95	3876
928.056	3922
928.162	3968
928.267	4093
928.373	4603
928.479	4169
928.585	3854
928.69	4048
928.796	4097
928.901	4010
929.007	3854
929.112	4051
929.218	3979
929.323	3953
929.428	3907
929.533	4128
929.638	3888
929.743	3979
929.848	4074
929.953	4013
930.058	3960
930.163	3755
930.267	3816
930.372	3926
930.477	3827
930.581	4120
930.685	3941
930.79	3823
930.894	3865
930.998	3888
931.103	4025
931.207	3690
931.311	3679
931.415	3701
931.519	3500
931.623	3538
