Data from test_V78500241_1835.txt Node
Date: Fri Mar 25 17:01:45 CST 2022
User: usil
Spectrometer: V785-0024
Trigger mode: 0
Integration Time (sec): 4.000000E-1
Scans to average: 1
Nonlinearity correction enabled: false
Boxcar width: 0
Storing dark spectrum: false
XAxis mode: Wavelengths
Number of Pixels in Spectrum: 1024
>>>>>Begin Spectral Data<<<<<
801.071	8016
801.214	7970
801.356	7852
801.499	7841
801.641	7795
801.783	7830
801.926	7913
802.068	7814
802.211	7925
802.353	7989
802.496	7788
802.638	7849
802.78	7879
802.923	7906
803.065	7776
803.208	7875
803.35	7932
803.492	8020
803.635	8123
803.777	8058
803.919	8126
804.061	8427
804.204	8142
804.346	8065
804.488	7917
804.63	8027
804.773	8020
804.915	8073
805.057	8301
805.199	8134
805.341	8161
805.483	8240
805.626	8115
805.768	8134
805.91	8214
806.052	8229
806.194	8142
806.336	8351
806.478	8043
806.62	8065
806.762	8115
806.904	8221
807.046	8476
807.188	8381
807.33	8317
807.472	8381
807.614	8168
807.756	8062
807.898	7951
808.04	7875
808.182	7936
808.324	7856
808.465	7902
808.607	8077
808.749	8084
808.891	8176
809.033	8309
809.174	8172
809.316	8008
809.458	8077
809.6	8001
809.741	8012
809.883	8084
810.025	8027
810.166	8008
810.308	8016
810.45	8001
810.591	7849
810.733	7696
810.875	7776
811.016	7518
811.158	7426
811.299	7529
811.441	7674
811.582	7712
811.724	7624
811.865	7518
812.007	7597
812.148	7590
812.29	7632
812.431	7807
812.573	7883
812.714	7967
812.855	8096
812.997	8206
813.138	8313
813.279	8157
813.421	8008
813.562	7970
813.703	7814
813.845	7734
813.986	7434
814.127	7236
814.268	7198
814.41	7232
814.551	7198
814.692	7251
814.833	7088
814.974	7069
815.115	7076
815.256	6958
815.397	6894
815.539	6943
815.68	6795
815.821	6730
815.962	6924
816.103	6806
816.244	6696
816.385	6604
816.526	6589
816.666	6448
816.807	6300
816.948	6391
817.089	6418
817.23	6471
817.371	6361
817.512	6350
817.653	6372
817.793	6346
817.934	6365
818.075	6448
818.216	6399
818.356	6399
818.497	6289
818.638	6102
818.778	6121
818.919	6140
819.06	6152
819.2	6277
819.341	6296
819.481	6304
819.622	6502
819.762	6703
819.903	6730
820.043	6563
820.184	6582
820.324	6616
820.465	6696
820.605	6719
820.746	6700
820.886	6517
821.026	6620
821.167	6688
821.307	6814
821.447	6734
821.588	6665
821.728	6521
821.868	6547
822.008	6311
822.149	6365
822.289	6334
822.429	6152
822.569	6079
822.709	6140
822.849	5863
822.99	5855
823.13	5904
823.27	5851
823.41	5752
823.55	5729
823.69	5767
823.83	5844
823.97	5634
824.11	5532
824.25	5452
824.389	5551
824.529	5543
824.669	5497
824.809	5646
824.949	5608
825.089	5592
825.228	5509
825.368	5337
825.508	5379
825.648	5330
825.787	5421
825.927	5402
826.067	5345
826.206	5322
826.346	5345
826.485	5379
826.625	5376
826.765	5512
826.904	5425
827.044	5208
827.183	5212
827.323	5121
827.462	5208
827.601	5185
827.741	5162
827.88	5181
828.02	5117
828.159	5189
828.298	5337
828.437	5337
828.577	5284
828.716	5463
828.855	5322
828.994	5193
829.134	5170
829.273	5201
829.412	5124
829.551	5079
829.69	5143
829.829	5250
829.968	5417
830.107	5250
830.246	5299
830.385	5223
830.524	5117
830.663	5033
830.802	4915
830.941	4877
831.08	4862
831.219	4965
831.357	4987
831.496	5143
831.635	4946
831.774	4820
831.913	4835
832.051	4729
832.19	4771
832.329	4782
832.467	4683
832.606	4641
832.744	4721
832.883	4725
833.022	4672
833.16	4740
833.299	4782
833.437	4793
833.576	4835
833.714	4850
833.852	4831
833.991	4870
834.129	4908
834.267	4911
834.406	4870
834.544	4957
834.682	4919
834.821	4980
834.959	5155
835.097	4980
835.235	5128
835.373	5109
835.511	5083
835.65	5010
835.788	4995
835.926	4934
836.064	4831
836.202	4904
836.34	5162
836.478	5189
836.615	5128
836.753	5208
836.891	5246
837.029	5250
837.167	5140
837.305	5098
837.443	5140
837.58	5041
837.718	5170
837.856	5197
837.993	5121
838.131	5204
838.269	5201
838.406	5162
838.544	5147
838.681	4984
838.819	4991
838.956	4835
839.094	4873
839.231	4949
839.369	5052
839.506	5376
839.643	5303
839.781	5010
839.918	4984
840.055	5067
840.193	5079
840.33	5105
840.467	5083
840.604	5197
840.742	5398
840.879	5071
841.016	5117
841.153	5113
841.29	5364
841.427	5318
841.564	5341
841.701	5292
841.838	5261
841.975	5197
842.112	5239
842.249	5117
842.385	5124
842.522	5364
842.659	5124
842.796	5128
842.933	5128
843.069	5178
843.206	5102
843.343	5280
843.479	5147
843.616	5231
843.752	5006
843.889	4965
844.025	5189
844.162	5010
844.298	5204
844.435	5067
844.571	5014
844.708	5140
844.844	5250
844.98	5345
845.117	5235
845.253	5109
845.389	5098
845.525	5174
845.661	5105
845.798	5060
845.934	5090
846.07	5098
846.206	5166
846.342	5303
846.478	5178
846.614	5006
846.75	4908
846.886	4904
847.022	5159
847.158	5010
847.294	5048
847.429	5064
847.565	5056
847.701	5277
847.837	4835
847.972	4824
848.108	4919
848.244	4930
848.379	4790
848.515	4729
848.65	4702
848.786	4744
848.921	4797
849.057	4847
849.192	4904
849.328	4767
849.463	4812
849.598	4816
849.734	4790
849.869	4656
850.004	4618
850.14	4630
850.275	4679
850.41	4554
850.545	4561
850.68	4573
850.815	4656
850.95	4584
851.085	4850
851.22	4706
851.355	4645
851.49	4592
851.625	4607
851.76	4630
851.895	4542
852.03	4523
852.165	4637
852.299	4698
852.434	4801
852.569	4725
852.703	4759
852.838	4843
852.973	4946
853.107	4900
853.242	4706
853.376	4649
853.511	4569
853.645	4630
853.78	4767
853.914	4706
854.048	4683
854.183	4656
854.317	4664
854.451	4854
854.585	4675
854.72	4618
854.854	4744
854.988	4580
855.122	4588
855.256	4554
855.39	4645
855.524	4767
855.658	4744
855.792	4664
855.926	4706
856.06	4767
856.194	4778
856.327	4714
856.461	4599
856.595	4626
856.729	4603
856.862	4733
856.996	4706
857.13	4687
857.263	4717
857.397	4767
857.53	4618
857.664	4691
857.797	4767
857.931	4752
858.064	4710
858.197	4714
858.331	4607
858.464	4561
858.597	4489
858.731	4626
858.864	4596
858.997	4615
859.13	4611
859.263	4607
859.396	4645
859.529	4538
859.662	4550
859.795	4538
859.928	4592
860.061	4706
860.194	4763
860.327	4626
860.46	4535
860.592	4725
860.725	4698
860.858	4710
860.99	4554
861.123	4470
861.256	4512
861.388	4584
861.521	5410
861.653	4493
861.786	4447
861.918	4432
862.05	4493
862.183	4554
862.315	4550
862.447	4626
862.58	4542
862.712	4363
862.844	4341
862.976	4424
863.108	4451
863.24	4923
863.372	4318
863.504	4363
863.636	4356
863.768	4424
863.9	4360
864.032	4337
864.164	4421
864.296	4493
864.428	4573
864.559	4580
864.691	4550
864.823	4535
864.954	4481
865.086	4485
865.217	4432
865.349	4413
865.48	4440
865.612	4519
865.743	4599
865.875	4462
866.006	4432
866.137	4462
866.269	4417
866.4	4436
866.531	4424
866.662	4436
866.793	4455
866.924	4440
867.055	4504
867.186	4443
867.317	4443
867.448	4398
867.579	4390
867.71	4386
867.841	4398
867.972	4474
868.103	4527
868.233	4466
868.364	4474
868.495	4504
868.625	4706
868.756	4721
868.886	4611
869.017	4672
869.147	4809
869.278	4763
869.408	4710
869.539	4691
869.669	4679
869.799	4717
869.929	4767
870.06	4767
870.19	4953
870.32	4946
870.45	5014
870.58	5037
870.71	5162
870.84	5109
870.97	5033
871.1	4942
871.23	5220
871.36	5140
871.489	5064
871.619	5105
871.749	5121
871.879	5140
872.008	5231
872.138	5083
872.267	5029
872.397	4900
872.526	4816
872.656	4782
872.785	4820
872.915	5014
873.044	5048
873.173	4953
873.303	4972
873.432	5022
873.561	5041
873.69	4896
873.819	4904
873.948	4938
874.077	4881
874.206	4809
874.335	4862
874.464	4984
874.593	5109
874.722	5014
874.851	5128
874.979	5102
875.108	5071
875.237	4953
875.365	4930
875.494	4873
875.623	5041
875.751	4801
875.88	4923
876.008	5006
876.136	5079
876.265	5231
876.393	5364
876.521	5296
876.65	5277
876.778	5201
876.906	5102
877.034	5029
877.162	5041
877.29	5037
877.418	5067
877.546	5060
877.674	5037
877.802	5086
877.93	5014
878.058	4984
878.185	4900
878.313	5025
878.441	4987
878.568	4854
878.696	4873
878.824	5010
878.951	4999
879.079	5162
879.206	5296
879.333	5136
879.461	5022
879.588	5060
879.715	5136
879.842	5258
879.97	5048
880.097	4828
880.224	4786
880.351	4862
880.478	4854
880.605	4850
880.732	4812
880.859	5147
880.986	4877
881.112	4919
881.239	4790
881.366	4702
881.493	4645
881.619	4626
881.746	4687
881.872	4694
881.999	4694
882.125	4740
882.252	4843
882.378	4873
882.505	4968
882.631	4862
882.757	4706
882.883	4786
883.01	4763
883.136	4675
883.262	4618
883.388	4634
883.514	4828
883.64	4904
883.766	4820
883.892	4694
884.018	4717
884.143	4896
884.269	5025
884.395	4664
884.52	4668
884.646	4618
884.772	4607
884.897	4607
885.023	4653
885.148	4774
885.274	4877
885.399	4831
885.524	4744
885.65	4668
885.775	4755
885.9	4736
886.025	4873
886.15	4816
886.275	4725
886.4	4717
886.525	4736
886.65	4683
886.775	4725
886.9	4919
887.025	5060
887.149	4812
887.274	4641
887.399	4588
887.523	4618
887.648	4630
887.773	4554
887.897	4733
888.021	4889
888.146	4675
888.27	4862
888.395	4942
888.519	4816
888.643	4870
888.767	4839
888.891	4744
889.015	4626
889.139	4717
889.263	4641
889.387	4786
889.511	4835
889.635	4866
889.759	4660
889.883	4687
890.006	4725
890.13	4858
890.254	4664
890.377	4710
890.501	4519
890.624	4523
890.748	4668
890.871	4550
890.995	4470
891.118	4405
891.241	4554
891.364	4573
891.488	4634
891.611	4558
891.734	4592
891.857	4596
891.98	4569
892.103	4660
892.226	4580
892.349	4542
892.471	4447
892.594	4538
892.717	4645
892.839	4592
892.962	4607
893.085	4683
893.207	4668
893.33	4466
893.452	4558
893.575	4675
893.697	4611
893.819	4797
893.941	4858
894.064	4816
894.186	4615
894.308	4607
894.43	4725
894.552	4843
894.674	4740
894.796	4618
894.918	4584
895.04	4584
895.161	4694
895.283	4645
895.405	4588
895.526	4656
895.648	4664
895.769	4729
895.891	4752
896.012	4771
896.134	4710
896.255	4721
896.376	4714
896.498	4694
896.619	4736
896.74	4626
896.861	4630
896.982	4965
897.103	5166
897.224	4892
897.345	4714
897.466	4698
897.587	4752
897.708	4881
897.828	4774
897.949	4672
898.07	4592
898.19	4637
898.311	4858
898.431	4668
898.552	4744
898.672	4843
898.792	4809
898.913	4774
899.033	4656
899.153	4508
899.273	4421
899.393	4512
899.513	4516
899.633	4512
899.753	4596
899.873	4596
899.993	4607
900.113	4588
900.232	4637
900.352	4611
900.472	4508
900.591	4409
900.711	4500
900.83	4459
900.95	4634
901.069	4729
901.189	4550
901.308	4371
901.427	4390
901.546	4367
901.665	4500
901.784	4508
901.904	4398
902.023	4341
902.141	4253
902.26	4211
902.379	4356
902.498	4211
902.617	4246
902.735	4409
902.854	4443
902.973	4363
903.091	4200
903.21	4253
903.328	4329
903.446	4306
903.565	4261
903.683	4409
903.801	4314
903.919	4398
904.038	4451
904.156	4337
904.274	4447
904.392	4398
904.51	4432
904.627	4459
904.745	4653
904.863	4649
904.981	4394
905.098	4325
905.216	4402
905.334	4447
905.451	4493
905.569	4466
905.686	4569
905.803	4599
905.921	4363
906.038	4592
906.155	4474
906.272	4470
906.389	4451
906.506	4352
906.623	4432
906.74	4424
906.857	4337
906.974	4402
907.091	4538
907.208	4683
907.324	4615
907.441	4531
907.557	4428
907.674	4386
907.79	4394
907.907	4428
908.023	4523
908.139	4516
908.256	4424
908.372	4542
908.488	4519
908.604	4390
908.72	4352
908.836	4352
908.952	4390
909.068	4470
909.184	4596
909.3	4497
909.415	4641
909.531	4569
909.647	4402
909.762	4386
909.878	4356
909.993	4489
910.108	4390
910.224	4440
910.339	4489
910.454	4402
910.57	4409
910.685	4329
910.8	4668
910.915	4607
911.03	4500
911.145	4318
911.259	4367
911.374	4436
911.489	4325
911.604	4276
911.718	4207
911.833	4166
911.947	4128
912.062	4040
912.176	4223
912.291	4261
912.405	4268
912.519	4424
912.633	4516
912.748	4356
912.862	4322
912.976	4238
913.09	4158
913.204	4207
913.318	4280
913.431	4432
913.545	4405
913.659	4527
913.772	4386
913.886	4215
914	4272
914.113	4440
914.226	4451
914.34	4405
914.453	4276
914.566	4470
914.68	4344
914.793	4333
914.906	4207
915.019	4124
915.132	4067
915.245	4188
915.358	4173
915.47	4246
915.583	4284
915.696	4341
915.809	4371
915.921	4428
916.034	4280
916.146	4249
916.259	4215
916.371	4383
916.483	4371
916.595	4284
916.708	4352
916.82	4333
916.932	4367
917.044	4363
917.156	4325
917.268	4261
917.38	4295
917.491	4295
917.603	4344
917.715	4512
917.826	4440
917.938	4363
918.049	4238
918.161	4383
918.272	4588
918.384	4592
918.495	4417
918.606	4356
918.717	4230
918.828	4341
918.939	4375
919.05	4242
919.161	4344
919.272	4120
919.383	4227
919.494	4485
919.604	4645
919.715	4424
919.826	4394
919.936	4428
920.047	4519
920.157	4527
920.267	4694
920.378	4599
920.488	4478
920.598	4675
920.708	4911
920.818	4752
920.928	4752
921.038	4953
921.148	4930
921.258	4656
921.368	4538
921.477	4466
921.587	4500
921.697	4390
921.806	4565
921.916	4440
922.025	4261
922.134	4291
922.244	4230
922.353	4356
922.462	4158
922.571	4158
922.68	4013
922.789	4017
922.898	4055
923.007	4017
923.116	4086
923.224	4074
923.333	4124
923.442	3987
923.55	4002
923.659	4029
923.767	4112
923.876	4025
923.984	4158
924.092	3998
924.201	4147
924.309	4082
924.417	4150
924.525	4101
924.633	4116
924.741	5071
924.849	3937
924.956	4143
925.064	3972
925.172	3892
925.279	4002
925.387	4029
925.494	4063
925.602	4207
925.709	4173
925.816	4025
925.924	4128
926.031	4211
926.138	4166
926.245	4196
926.352	4135
926.459	4280
926.566	4287
926.673	4169
926.779	4090
926.886	4063
926.993	4002
927.099	3949
927.206	3922
927.312	3945
927.419	4048
927.525	4051
927.631	4078
927.737	4006
927.843	3937
927.95	3838
928.056	3987
928.162	4002
928.267	4090
928.373	4565
928.479	4082
928.585	3896
928.69	4032
928.796	4090
928.901	3979
929.007	3846
929.112	4044
929.218	3975
929.323	3953
929.428	3998
929.533	4071
929.638	3915
929.743	3983
929.848	4048
929.953	3983
930.058	3953
930.163	3770
930.267	3876
930.372	4002
930.477	3808
930.581	4059
930.685	3953
930.79	3816
930.894	3880
930.998	3861
931.103	4093
931.207	3728
931.311	3686
931.415	3713
931.519	3496
931.623	3523
