Data from test_V78500241_2116.txt Node
Date: Fri Mar 25 17:03:42 CST 2022
User: usil
Spectrometer: V785-0024
Trigger mode: 0
Integration Time (sec): 4.000000E-1
Scans to average: 1
Nonlinearity correction enabled: false
Boxcar width: 0
Storing dark spectrum: false
XAxis mode: Wavelengths
Number of Pixels in Spectrum: 1024
>>>>>Begin Spectral Data<<<<<
801.071	7970
801.214	7997
801.356	7807
801.499	7883
801.641	7852
801.783	7902
801.926	7913
802.068	7959
802.211	8001
802.353	8039
802.496	7845
802.638	7890
802.78	7986
802.923	7875
803.065	7856
803.208	7978
803.35	8035
803.492	8100
803.635	8237
803.777	7986
803.919	8168
804.061	8499
804.204	8168
804.346	8119
804.488	8020
804.63	8145
804.773	8065
804.915	8107
805.057	8332
805.199	8172
805.341	8275
805.483	8237
805.626	8218
805.768	8202
805.91	8214
806.052	8309
806.194	8081
806.336	8301
806.478	8115
806.62	8096
806.762	8149
806.904	8317
807.046	8518
807.188	8389
807.33	8290
807.472	8343
807.614	8164
807.756	8172
807.898	7997
808.04	7936
808.182	7932
808.324	7811
808.465	7875
808.607	8024
808.749	8157
808.891	8248
809.033	8328
809.174	8237
809.316	8111
809.458	8039
809.6	8016
809.741	8069
809.883	8081
810.025	8134
810.166	8164
810.308	7970
810.45	7986
810.591	7799
810.733	7742
810.875	7666
811.016	7491
811.158	7460
811.299	7616
811.441	7704
811.582	7677
811.724	7567
811.865	7567
812.007	7632
812.148	7601
812.29	7628
812.431	7776
812.573	7868
812.714	7963
812.855	8142
812.997	8210
813.138	8279
813.279	8119
813.421	8100
813.562	7970
813.703	7795
813.845	7742
813.986	7426
814.127	7244
814.268	7282
814.41	7213
814.551	7168
814.692	7213
814.833	7107
814.974	7072
815.115	7149
815.256	6977
815.397	6977
815.539	6916
815.68	6772
815.821	6787
815.962	6837
816.103	6806
816.244	6734
816.385	6578
816.526	6608
816.666	6490
816.807	6353
816.948	6437
817.089	6448
817.23	6445
817.371	6357
817.512	6372
817.653	6452
817.793	6369
817.934	6414
818.075	6422
818.216	6467
818.356	6429
818.497	6266
818.638	6175
818.778	6114
818.919	6163
819.06	6186
819.2	6331
819.341	6311
819.481	6490
819.622	6547
819.762	6688
819.903	6730
820.043	6563
820.184	6566
820.324	6589
820.465	6719
820.605	6791
820.746	6585
820.886	6563
821.026	6673
821.167	6722
821.307	6795
821.447	6825
821.588	6654
821.728	6642
821.868	6547
822.008	6300
822.149	6365
822.289	6391
822.429	6163
822.569	6091
822.709	6079
822.849	5939
822.99	5946
823.13	5912
823.27	5961
823.41	5798
823.55	5851
823.69	5771
823.83	5832
823.97	5642
824.11	5505
824.25	5512
824.389	5600
824.529	5524
824.669	5497
824.809	5589
824.949	5657
825.089	5615
825.228	5551
825.368	5395
825.508	5341
825.648	5372
825.787	5372
825.927	5322
826.067	5326
826.206	5303
826.346	5425
826.485	5345
826.625	5425
826.765	5562
826.904	5532
827.044	5235
827.183	5208
827.323	5143
827.462	5258
827.601	5174
827.741	5159
827.88	5273
828.02	5147
828.159	5254
828.298	5261
828.437	5360
828.577	5277
828.716	5490
828.855	5330
828.994	5181
829.134	5132
829.273	5185
829.412	5147
829.551	5201
829.69	5166
829.829	5254
829.968	5349
830.107	5284
830.246	5292
830.385	5185
830.524	5147
830.663	5022
830.802	5006
830.941	4930
831.08	4911
831.219	4984
831.357	5033
831.496	5140
831.635	4927
831.774	4862
831.913	4889
832.051	4755
832.19	4744
832.329	4847
832.467	4755
832.606	4653
832.744	4721
832.883	4740
833.022	4786
833.16	4744
833.299	4870
833.437	4847
833.576	4896
833.714	4877
833.852	4858
833.991	4915
834.129	4927
834.267	4927
834.406	4911
834.544	5022
834.682	5010
834.821	4965
834.959	5140
835.097	5006
835.235	5132
835.373	5067
835.511	5102
835.65	4965
835.788	5045
835.926	4892
836.064	4892
836.202	4908
836.34	5147
836.478	5250
836.615	5159
836.753	5254
836.891	5383
837.029	5280
837.167	5143
837.305	5155
837.443	5155
837.58	5083
837.718	5261
837.856	5212
837.993	5151
838.131	5235
838.269	5189
838.406	5227
838.544	5189
838.681	5048
838.819	4987
838.956	4881
839.094	4908
839.231	4957
839.369	5018
839.506	5387
839.643	5315
839.781	5060
839.918	5041
840.055	5067
840.193	5117
840.33	5075
840.467	5166
840.604	5170
840.742	5425
840.879	5102
841.016	5113
841.153	5128
841.29	5379
841.427	5383
841.564	5273
841.701	5360
841.838	5265
841.975	5242
842.112	5269
842.249	5124
842.385	5121
842.522	5303
842.659	5178
842.796	5227
842.933	5124
843.069	5109
843.206	5132
843.343	5284
843.479	5212
843.616	5261
843.752	5022
843.889	5052
844.025	5185
844.162	4968
844.298	5223
844.435	5056
844.571	5045
844.708	5223
844.844	5296
844.98	5341
845.117	5269
845.253	5143
845.389	5083
845.525	5170
845.661	5151
845.798	5006
845.934	5181
846.07	5079
846.206	5181
846.342	5277
846.478	5220
846.614	5018
846.75	5006
846.886	4942
847.022	5155
847.158	5060
847.294	5117
847.429	5064
847.565	5075
847.701	5315
847.837	4877
847.972	4816
848.108	4987
848.244	4976
848.379	4744
848.515	4748
848.65	4710
848.786	4717
848.921	4790
849.057	4900
849.192	4904
849.328	4755
849.463	4816
849.598	4774
849.734	4812
849.869	4729
850.004	4626
850.14	4706
850.275	4596
850.41	4550
850.545	4565
850.68	4641
850.815	4630
850.95	4637
851.085	4850
851.22	4725
851.355	4660
851.49	4649
851.625	4634
851.76	4607
851.895	4580
852.03	4519
852.165	4649
852.299	4721
852.434	4767
852.569	4729
852.703	4733
852.838	4873
852.973	4965
853.107	4927
853.242	4721
853.376	4664
853.511	4577
853.645	4645
853.78	4812
853.914	4675
854.048	4748
854.183	4588
854.317	4714
854.451	4839
854.585	4717
854.72	4622
854.854	4786
854.988	4668
855.122	4660
855.256	4512
855.39	4641
855.524	4763
855.658	4683
855.792	4702
855.926	4736
856.06	4767
856.194	4767
856.327	4748
856.461	4615
856.595	4615
856.729	4580
856.862	4763
856.996	4721
857.13	4725
857.263	4729
857.397	4786
857.53	4645
857.664	4752
857.797	4778
857.931	4786
858.064	4664
858.197	4698
858.331	4645
858.464	4615
858.597	4508
858.731	4603
858.864	4694
858.997	4630
859.13	4672
859.263	4679
859.396	4672
859.529	4573
859.662	4580
859.795	4550
859.928	4660
860.061	4710
860.194	4729
860.327	4550
860.46	4573
860.592	4683
860.725	4706
860.858	4668
860.99	4592
861.123	4573
861.256	4573
861.388	4634
861.521	5459
861.653	4497
861.786	4443
861.918	4443
862.05	4497
862.183	4577
862.315	4622
862.447	4618
862.58	4538
862.712	4398
862.844	4280
862.976	4462
863.108	4443
863.24	4748
863.372	4325
863.504	4375
863.636	4405
863.768	4485
863.9	4405
864.032	4413
864.164	4390
864.296	4481
864.428	4554
864.559	4542
864.691	4558
864.823	4558
864.954	4474
865.086	4489
865.217	4485
865.349	4386
865.48	4470
865.612	4462
865.743	4637
865.875	4481
866.006	4379
866.137	4455
866.269	4436
866.4	4455
866.531	4432
866.662	4367
866.793	4390
866.924	4443
867.055	4493
867.186	4443
867.317	4409
867.448	4417
867.579	4337
867.71	4360
867.841	4371
867.972	4447
868.103	4497
868.233	4466
868.364	4451
868.495	4485
868.625	4660
868.756	4759
868.886	4554
869.017	4637
869.147	4767
869.278	4721
869.408	4668
869.539	4641
869.669	4691
869.799	4679
869.929	4752
870.06	4740
870.19	4938
870.32	4900
870.45	4892
870.58	4987
870.71	5102
870.84	5132
870.97	4968
871.1	4889
871.23	5185
871.36	5090
871.489	5037
871.619	5083
871.749	5136
871.879	5136
872.008	5117
872.138	5079
872.267	5025
872.397	4843
872.526	4812
872.656	4767
872.785	4805
872.915	4923
873.044	5022
873.173	4953
873.303	4968
873.432	4946
873.561	4930
873.69	4862
873.819	4831
873.948	4919
874.077	4809
874.206	4729
874.335	4729
874.464	4885
874.593	5029
874.722	4984
874.851	5094
874.979	5045
875.108	5056
875.237	4896
875.365	4862
875.494	4858
875.623	4995
875.751	4839
875.88	4847
876.008	5006
876.136	5022
876.265	5170
876.393	5353
876.521	5201
876.65	5197
876.778	5174
876.906	5056
877.034	4980
877.162	5075
877.29	5029
877.418	5067
877.546	5060
877.674	5041
877.802	4999
877.93	5060
878.058	4934
878.185	4866
878.313	4953
878.441	4972
878.568	4790
878.696	4847
878.824	4942
878.951	4987
879.079	5121
879.206	5337
879.333	5060
879.461	4995
879.588	5003
879.715	5124
879.842	5212
879.97	5003
880.097	4744
880.224	4759
880.351	4797
880.478	4870
880.605	4767
880.732	4790
880.859	5143
880.986	4911
881.112	4892
881.239	4771
881.366	4691
881.493	4615
881.619	4546
881.746	4668
881.872	4626
881.999	4592
882.125	4679
882.252	4824
882.378	4839
882.505	4961
882.631	4805
882.757	4672
882.883	4714
883.01	4767
883.136	4634
883.262	4607
883.388	4694
883.514	4824
883.64	4892
883.766	4744
883.892	4687
884.018	4714
884.143	4911
884.269	5029
884.395	4653
884.52	4580
884.646	4645
884.772	4561
884.897	4546
885.023	4683
885.148	4755
885.274	4892
885.399	4797
885.524	4763
885.65	4691
885.775	4748
885.9	4691
886.025	4786
886.15	4752
886.275	4714
886.4	4596
886.525	4759
886.65	4706
886.775	4653
886.9	4968
887.025	4995
887.149	4809
887.274	4664
887.399	4596
887.523	4618
887.648	4554
887.773	4588
887.897	4759
888.021	4755
888.146	4675
888.27	4793
888.395	4980
888.519	4744
888.643	4820
888.767	4790
888.891	4691
889.015	4584
889.139	4637
889.263	4588
889.387	4786
889.511	4854
889.635	4782
889.759	4653
889.883	4653
890.006	4714
890.13	4828
890.254	4611
890.377	4649
890.501	4573
890.624	4504
890.748	4637
890.871	4504
890.995	4413
891.118	4394
891.241	4519
891.364	4493
891.488	4615
891.611	4455
891.734	4546
891.857	4577
891.98	4519
892.103	4645
892.226	4565
892.349	4546
892.471	4428
892.594	4558
892.717	4584
892.839	4546
892.962	4618
893.085	4660
893.207	4599
893.33	4459
893.452	4546
893.575	4637
893.697	4550
893.819	4778
893.941	4824
894.064	4793
894.186	4580
894.308	4546
894.43	4729
894.552	4831
894.674	4774
894.796	4599
894.918	4535
895.04	4558
895.161	4717
895.283	4675
895.405	4607
895.526	4683
895.648	4683
895.769	4649
895.891	4706
896.012	4740
896.134	4683
896.255	4687
896.376	4626
896.498	4618
896.619	4672
896.74	4607
896.861	4615
896.982	4915
897.103	5064
897.224	4824
897.345	4725
897.466	4668
897.587	4733
897.708	4831
897.828	4793
897.949	4672
898.07	4538
898.19	4672
898.311	4816
898.431	4687
898.552	4710
898.672	4824
898.792	4835
898.913	4733
899.033	4641
899.153	4512
899.273	4398
899.393	4470
899.513	4531
899.633	4531
899.753	4519
899.873	4466
899.993	4603
900.113	4538
900.232	4596
900.352	4508
900.472	4481
900.591	4436
900.711	4478
900.83	4402
900.95	4660
901.069	4660
901.189	4527
901.308	4394
901.427	4337
901.546	4371
901.665	4489
901.784	4474
901.904	4371
902.023	4303
902.141	4173
902.26	4162
902.379	4299
902.498	4249
902.617	4265
902.735	4363
902.854	4402
902.973	4318
903.091	4188
903.21	4219
903.328	4303
903.446	4268
903.565	4268
903.683	4367
903.801	4257
903.919	4394
904.038	4451
904.156	4314
904.274	4417
904.392	4379
904.51	4424
904.627	4402
904.745	4558
904.863	4637
904.981	4428
905.098	4356
905.216	4367
905.334	4424
905.451	4417
905.569	4421
905.686	4588
905.803	4542
905.921	4363
906.038	4531
906.155	4443
906.272	4417
906.389	4436
906.506	4352
906.623	4352
906.74	4424
906.857	4246
906.974	4310
907.091	4546
907.208	4733
907.324	4599
907.441	4512
907.557	4333
907.674	4306
907.79	4295
907.907	4409
908.023	4443
908.139	4508
908.256	4424
908.372	4436
908.488	4455
908.604	4379
908.72	4299
908.836	4394
908.952	4375
909.068	4421
909.184	4584
909.3	4462
909.415	4588
909.531	4508
909.647	4344
909.762	4371
909.878	4341
909.993	4424
910.108	4421
910.224	4432
910.339	4466
910.454	4375
910.57	4348
910.685	4291
910.8	4649
910.915	4596
911.03	4466
911.145	4303
911.259	4337
911.374	4383
911.489	4295
911.604	4261
911.718	4185
911.833	4219
911.947	4105
912.062	4040
912.176	4227
912.291	4223
912.405	4257
912.519	4485
912.633	4447
912.748	4390
912.862	4295
912.976	4188
913.09	4082
913.204	4150
913.318	4238
913.431	4322
913.545	4398
913.659	4417
913.772	4344
913.886	4257
914	4242
914.113	4314
914.226	4447
914.34	4394
914.453	4253
914.566	4455
914.68	4322
914.793	4318
914.906	4169
915.019	4097
915.132	4078
915.245	4150
915.358	4181
915.47	4223
915.583	4257
915.696	4314
915.809	4398
915.921	4428
916.034	4219
916.146	4207
916.259	4211
916.371	4394
916.483	4322
916.595	4261
916.708	4276
916.82	4287
916.932	4337
917.044	4303
917.156	4398
917.268	4200
917.38	4234
917.491	4276
917.603	4352
917.715	4440
917.826	4485
917.938	4352
918.049	4246
918.161	4352
918.272	4535
918.384	4504
918.495	4424
918.606	4287
918.717	4253
918.828	4383
918.939	4379
919.05	4257
919.161	4303
919.272	4131
919.383	4242
919.494	4478
919.604	4615
919.715	4367
919.826	4344
919.936	4386
920.047	4519
920.157	4474
920.267	4733
920.378	4535
920.488	4481
920.598	4717
920.708	4892
920.818	4725
920.928	4790
921.038	4923
921.148	4915
921.258	4542
921.368	4558
921.477	4443
921.587	4485
921.697	4386
921.806	4546
921.916	4390
922.025	4265
922.134	4268
922.244	4196
922.353	4322
922.462	4173
922.571	4101
922.68	3991
922.789	3945
922.898	4055
923.007	3975
923.116	4120
923.224	4029
923.333	4093
923.442	3975
923.55	3968
923.659	3983
923.767	4010
923.876	3975
923.984	4090
924.092	3972
924.201	4044
924.309	4055
924.417	4109
924.525	4067
924.633	4120
924.741	5045
924.849	3934
924.956	4120
925.064	3994
925.172	3865
925.279	3953
925.387	4051
925.494	4082
925.602	4204
925.709	4169
925.816	4044
925.924	4124
926.031	4219
926.138	4158
926.245	4207
926.352	4051
926.459	4253
926.566	4287
926.673	4131
926.779	4017
926.886	4044
926.993	3956
927.099	3922
927.206	3934
927.312	3930
927.419	4086
927.525	3998
927.631	4109
927.737	3987
927.843	3949
927.95	3842
928.056	3960
928.162	3998
928.267	4040
928.373	4596
928.479	4139
928.585	3823
928.69	4025
928.796	4097
928.901	3972
929.007	3865
929.112	4021
929.218	3975
929.323	3945
929.428	3915
929.533	4112
929.638	3911
929.743	3949
929.848	4059
929.953	4017
930.058	3983
930.163	3751
930.267	3842
930.372	4013
930.477	3823
930.581	4086
930.685	3964
930.79	3861
930.894	3861
930.998	3854
931.103	4071
931.207	3720
931.311	3728
931.415	3690
931.519	3564
931.623	3538
