Data from test_V78500241_380.txt Node
Date: Fri Mar 25 16:51:38 CST 2022
User: usil
Spectrometer: V785-0024
Trigger mode: 0
Integration Time (sec): 4.000000E-1
Scans to average: 1
Nonlinearity correction enabled: false
Boxcar width: 0
Storing dark spectrum: false
XAxis mode: Wavelengths
Number of Pixels in Spectrum: 1024
>>>>>Begin Spectral Data<<<<<
801.071	8005
801.214	8024
801.356	7944
801.499	7928
801.641	7845
801.783	7792
801.926	7993
802.068	8008
802.211	8088
802.353	8027
802.496	7871
802.638	7822
802.78	7944
802.923	8005
803.065	7860
803.208	7845
803.35	7997
803.492	8096
803.635	8134
803.777	8050
803.919	8107
804.061	8423
804.204	8088
804.346	8008
804.488	7989
804.63	8069
804.773	8077
804.915	8096
805.057	8332
805.199	8218
805.341	8256
805.483	8218
805.626	8153
805.768	8043
805.91	8153
806.052	8240
806.194	8077
806.336	8366
806.478	8126
806.62	8168
806.762	8164
806.904	8294
807.046	8446
807.188	8351
807.33	8244
807.472	8320
807.614	8199
807.756	8172
807.898	8084
808.04	7909
808.182	7993
808.324	8001
808.465	7936
808.607	8069
808.749	8153
808.891	8164
809.033	8317
809.174	8210
809.316	8027
809.458	8001
809.6	8035
809.741	8111
809.883	8046
810.025	8134
810.166	8084
810.308	8054
810.45	8001
810.591	7864
810.733	7811
810.875	7666
811.016	7556
811.158	7510
811.299	7685
811.441	7750
811.582	7776
811.724	7700
811.865	7597
812.007	7693
812.148	7609
812.29	7571
812.431	7776
812.573	7959
812.714	7997
812.855	8138
812.997	8229
813.138	8324
813.279	8202
813.421	8168
813.562	8077
813.703	7928
813.845	7811
813.986	7510
814.127	7346
814.268	7285
814.41	7263
814.551	7183
814.692	7247
814.833	7107
814.974	7152
815.115	7126
815.256	6985
815.397	6913
815.539	7012
815.68	6837
815.821	6783
815.962	6916
816.103	6852
816.244	6802
816.385	6677
816.526	6658
816.666	6574
816.807	6426
816.948	6441
817.089	6502
817.23	6471
817.371	6448
817.512	6376
817.653	6395
817.793	6323
817.934	6384
818.075	6486
818.216	6445
818.356	6456
818.497	6247
818.638	6239
818.778	6163
818.919	6205
819.06	6163
819.2	6334
819.341	6384
819.481	6365
819.622	6555
819.762	6791
819.903	6684
820.043	6593
820.184	6601
820.324	6654
820.465	6665
820.605	6703
820.746	6681
820.886	6502
821.026	6722
821.167	6741
821.307	6840
821.447	6764
821.588	6707
821.728	6566
821.868	6551
822.008	6353
822.149	6365
822.289	6414
822.429	6163
822.569	6102
822.709	6102
822.849	5969
822.99	5855
823.13	5999
823.27	5977
823.41	5775
823.55	5764
823.69	5813
823.83	5748
823.97	5703
824.11	5532
824.25	5558
824.389	5535
824.529	5634
824.669	5558
824.809	5623
824.949	5646
825.089	5627
825.228	5566
825.368	5402
825.508	5337
825.648	5379
825.787	5372
825.927	5433
826.067	5307
826.206	5288
826.346	5357
826.485	5391
826.625	5391
826.765	5566
826.904	5501
827.044	5246
827.183	5235
827.323	5162
827.462	5239
827.601	5189
827.741	5204
827.88	5220
828.02	5121
828.159	5250
828.298	5341
828.437	5330
828.577	5307
828.716	5497
828.855	5353
828.994	5189
829.134	5159
829.273	5204
829.412	5159
829.551	5155
829.69	5162
829.829	5265
829.968	5364
830.107	5269
830.246	5326
830.385	5208
830.524	5117
830.663	5083
830.802	4991
830.941	4889
831.08	4873
831.219	4991
831.357	4911
831.496	5178
831.635	4915
831.774	4881
831.913	4862
832.051	4752
832.19	4771
832.329	4870
832.467	4706
832.606	4664
832.744	4752
832.883	4736
833.022	4759
833.16	4835
833.299	4828
833.437	4831
833.576	4774
833.714	4870
833.852	4850
833.991	4896
834.129	4984
834.267	4961
834.406	4911
834.544	4968
834.682	5018
834.821	4968
834.959	5193
835.097	5014
835.235	5174
835.373	5056
835.511	5113
835.65	4999
835.788	5037
835.926	4877
836.064	4862
836.202	4949
836.34	5162
836.478	5235
836.615	5105
836.753	5235
836.891	5284
837.029	5250
837.167	5208
837.305	5151
837.443	5124
837.58	5109
837.718	5242
837.856	5201
837.993	5155
838.131	5231
838.269	5216
838.406	5216
838.544	5159
838.681	5033
838.819	5041
838.956	4930
839.094	4896
839.231	4991
839.369	5094
839.506	5436
839.643	5223
839.781	5075
839.918	4999
840.055	5102
840.193	5128
840.33	5132
840.467	5185
840.604	5204
840.742	5452
840.879	5151
841.016	5071
841.153	5201
841.29	5357
841.427	5318
841.564	5307
841.701	5322
841.838	5277
841.975	5239
842.112	5254
842.249	5178
842.385	5151
842.522	5341
842.659	5201
842.796	5197
842.933	5193
843.069	5189
843.206	5204
843.343	5322
843.479	5326
843.616	5254
843.752	4995
843.889	4995
844.025	5231
844.162	4995
844.298	5216
844.435	5064
844.571	5029
844.708	5223
844.844	5296
844.98	5360
845.117	5273
845.253	5216
845.389	5113
845.525	5170
845.661	5094
845.798	5067
845.934	5128
846.07	5060
846.206	5231
846.342	5303
846.478	5185
846.614	5060
846.75	5033
846.886	4889
847.022	5174
847.158	5079
847.294	5006
847.429	5170
847.565	5098
847.701	5299
847.837	4858
847.972	4835
848.108	4980
848.244	4976
848.379	4778
848.515	4748
848.65	4710
848.786	4767
848.921	4782
849.057	4908
849.192	4908
849.328	4831
849.463	4854
849.598	4809
849.734	4698
849.869	4679
850.004	4615
850.14	4721
850.275	4596
850.41	4519
850.545	4558
850.68	4607
850.815	4607
850.95	4634
851.085	4911
851.22	4801
851.355	4675
851.49	4611
851.625	4649
851.76	4664
851.895	4611
852.03	4500
852.165	4626
852.299	4721
852.434	4805
852.569	4778
852.703	4771
852.838	4858
852.973	4930
853.107	4915
853.242	4759
853.376	4706
853.511	4603
853.645	4634
853.78	4786
853.914	4694
854.048	4672
854.183	4637
854.317	4679
854.451	4835
854.585	4702
854.72	4664
854.854	4790
854.988	4565
855.122	4615
855.256	4512
855.39	4698
855.524	4843
855.658	4767
855.792	4706
855.926	4733
856.06	4687
856.194	4793
856.327	4714
856.461	4668
856.595	4641
856.729	4615
856.862	4774
856.996	4687
857.13	4755
857.263	4847
857.397	4847
857.53	4626
857.664	4771
857.797	4774
857.931	4824
858.064	4672
858.197	4744
858.331	4687
858.464	4626
858.597	4519
858.731	4630
858.864	4626
858.997	4599
859.13	4645
859.263	4721
859.396	4694
859.529	4649
859.662	4596
859.795	4573
859.928	4607
860.061	4740
860.194	4763
860.327	4588
860.46	4561
860.592	4698
860.725	4702
860.858	4717
860.99	4588
861.123	4519
861.256	4516
861.388	4611
861.521	5349
861.653	4493
861.786	4478
861.918	4466
862.05	4500
862.183	4542
862.315	4607
862.447	4599
862.58	4550
862.712	4432
862.844	4363
862.976	4481
863.108	4443
863.24	4771
863.372	4348
863.504	4478
863.636	4440
863.768	4478
863.9	4455
864.032	4402
864.164	4398
864.296	4451
864.428	4538
864.559	4599
864.691	4561
864.823	4573
864.954	4554
865.086	4512
865.217	4451
865.349	4417
865.48	4512
865.612	4474
865.743	4622
865.875	4459
866.006	4447
866.137	4485
866.269	4440
866.4	4455
866.531	4413
866.662	4402
866.793	4440
866.924	4398
867.055	4466
867.186	4417
867.317	4421
867.448	4424
867.579	4405
867.71	4390
867.841	4394
867.972	4478
868.103	4535
868.233	4478
868.364	4512
868.495	4489
868.625	4649
868.756	4767
868.886	4561
869.017	4622
869.147	4774
869.278	4759
869.408	4660
869.539	4679
869.669	4740
869.799	4710
869.929	4759
870.06	4706
870.19	4953
870.32	4900
870.45	4946
870.58	5048
870.71	5079
870.84	5102
870.97	5006
871.1	4885
871.23	5098
871.36	5151
871.489	4976
871.619	5090
871.749	5083
871.879	5075
872.008	5178
872.138	5037
872.267	4991
872.397	4862
872.526	4828
872.656	4721
872.785	4778
872.915	4942
873.044	5022
873.173	4976
873.303	4968
873.432	4987
873.561	4949
873.69	4911
873.819	4881
873.948	4957
874.077	4843
874.206	4729
874.335	4771
874.464	4889
874.593	5094
874.722	4976
874.851	5105
874.979	5102
875.108	5022
875.237	4987
875.365	4850
875.494	4892
875.623	4972
875.751	4843
875.88	4866
876.008	4961
876.136	4999
876.265	5212
876.393	5292
876.521	5273
876.65	5273
876.778	5155
876.906	5136
877.034	5003
877.162	5048
877.29	5048
877.418	5022
877.546	5033
877.674	4995
877.802	5071
877.93	5041
878.058	4946
878.185	4934
878.313	5010
878.441	4968
878.568	4816
878.696	4858
878.824	4968
878.951	4999
879.079	5140
879.206	5273
879.333	5147
879.461	4976
879.588	5003
879.715	5174
879.842	5201
879.97	4995
880.097	4744
880.224	4759
880.351	4824
880.478	4862
880.605	4801
880.732	4744
880.859	5083
880.986	4934
881.112	4911
881.239	4744
881.366	4634
881.493	4653
881.619	4565
881.746	4653
881.872	4698
881.999	4641
882.125	4679
882.252	4824
882.378	4824
882.505	4972
882.631	4809
882.757	4687
882.883	4752
883.01	4721
883.136	4664
883.262	4603
883.388	4611
883.514	4816
883.64	4896
883.766	4805
883.892	4675
884.018	4683
884.143	4858
884.269	4987
884.395	4706
884.52	4618
884.646	4645
884.772	4584
884.897	4584
885.023	4634
885.148	4771
885.274	4862
885.399	4778
885.524	4714
885.65	4702
885.775	4755
885.9	4759
886.025	4850
886.15	4854
886.275	4702
886.4	4672
886.525	4721
886.65	4672
886.775	4698
886.9	4919
887.025	5064
887.149	4782
887.274	4653
887.399	4577
887.523	4622
887.648	4588
887.773	4561
887.897	4755
888.021	4839
888.146	4694
888.27	4820
888.395	4873
888.519	4797
888.643	4759
888.767	4870
888.891	4706
889.015	4550
889.139	4588
889.263	4615
889.387	4778
889.511	4904
889.635	4862
889.759	4626
889.883	4637
890.006	4725
890.13	4797
890.254	4630
890.377	4687
890.501	4580
890.624	4523
890.748	4649
890.871	4542
890.995	4421
891.118	4417
891.241	4516
891.364	4512
891.488	4656
891.611	4535
891.734	4584
891.857	4588
891.98	4577
892.103	4645
892.226	4626
892.349	4512
892.471	4451
892.594	4531
892.717	4584
892.839	4607
892.962	4653
893.085	4675
893.207	4649
893.33	4447
893.452	4535
893.575	4622
893.697	4607
893.819	4816
893.941	4881
894.064	4778
894.186	4558
894.308	4588
894.43	4767
894.552	4831
894.674	4759
894.796	4542
894.918	4622
895.04	4561
895.161	4691
895.283	4683
895.405	4603
895.526	4634
895.648	4656
895.769	4717
895.891	4721
896.012	4679
896.134	4748
896.255	4694
896.376	4634
896.498	4596
896.619	4736
896.74	4592
896.861	4618
896.982	4957
897.103	5083
897.224	4809
897.345	4771
897.466	4698
897.587	4736
897.708	4843
897.828	4755
897.949	4675
898.07	4558
898.19	4653
898.311	4801
898.431	4634
898.552	4729
898.672	4809
898.792	4793
898.913	4763
899.033	4588
899.153	4493
899.273	4417
899.393	4447
899.513	4607
899.633	4516
899.753	4577
899.873	4516
899.993	4569
900.113	4527
900.232	4584
900.352	4504
900.472	4508
900.591	4402
900.711	4455
900.83	4466
900.95	4588
901.069	4668
901.189	4508
901.308	4390
901.427	4291
901.546	4375
901.665	4474
901.784	4527
901.904	4344
902.023	4287
902.141	4219
902.26	4154
902.379	4272
902.498	4196
902.617	4211
902.735	4344
902.854	4371
902.973	4360
903.091	4234
903.21	4227
903.328	4291
903.446	4261
903.565	4261
903.683	4344
903.801	4325
903.919	4409
904.038	4398
904.156	4337
904.274	4405
904.392	4383
904.51	4436
904.627	4489
904.745	4607
904.863	4634
904.981	4417
905.098	4337
905.216	4371
905.334	4443
905.451	4474
905.569	4436
905.686	4584
905.803	4558
905.921	4421
906.038	4561
906.155	4466
906.272	4356
906.389	4436
906.506	4405
906.623	4436
906.74	4352
906.857	4322
906.974	4363
907.091	4531
907.208	4740
907.324	4550
907.441	4508
907.557	4295
907.674	4325
907.79	4265
907.907	4379
908.023	4478
908.139	4512
908.256	4421
908.372	4447
908.488	4436
908.604	4337
908.72	4295
908.836	4398
908.952	4383
909.068	4409
909.184	4561
909.3	4466
909.415	4596
909.531	4588
909.647	4390
909.762	4383
909.878	4363
909.993	4451
910.108	4409
910.224	4428
910.339	4497
910.454	4390
910.57	4356
910.685	4367
910.8	4702
910.915	4580
911.03	4527
911.145	4341
911.259	4341
911.374	4367
911.489	4322
911.604	4295
911.718	4215
911.833	4265
911.947	4116
912.062	4051
912.176	4268
912.291	4299
912.405	4306
912.519	4478
912.633	4519
912.748	4386
912.862	4398
912.976	4265
913.09	4135
913.204	4234
913.318	4333
913.431	4428
913.545	4428
913.659	4493
913.772	4375
913.886	4299
914	4268
914.113	4485
914.226	4485
914.34	4436
914.453	4318
914.566	4451
914.68	4375
914.793	4379
914.906	4211
915.019	4219
915.132	4124
915.245	4223
915.358	4230
915.47	4276
915.583	4310
915.696	4344
915.809	4497
915.921	4497
916.034	4287
916.146	4337
916.259	4268
916.371	4432
916.483	4428
916.595	4344
916.708	4394
916.82	4386
916.932	4371
917.044	4394
917.156	4375
917.268	4306
917.38	4314
917.491	4299
917.603	4421
917.715	4478
917.826	4493
917.938	4409
918.049	4276
918.161	4470
918.272	4596
918.384	4588
918.495	4523
918.606	4428
918.717	4265
918.828	4371
918.939	4436
919.05	4337
919.161	4310
919.272	4185
919.383	4230
919.494	4497
919.604	4694
919.715	4497
919.826	4421
919.936	4390
920.047	4558
920.157	4558
920.267	4729
920.378	4630
920.488	4554
920.598	4782
920.708	4949
920.818	4763
920.928	4809
921.038	4991
921.148	4972
921.258	4634
921.368	4573
921.477	4561
921.587	4489
921.697	4421
921.806	4584
921.916	4474
922.025	4284
922.134	4284
922.244	4295
922.353	4367
922.462	4246
922.571	4158
922.68	4074
922.789	4044
922.898	4051
923.007	3994
923.116	4143
923.224	4173
923.333	4097
923.442	4010
923.55	4048
923.659	4074
923.767	4120
923.876	4051
923.984	4207
924.092	4032
924.201	4131
924.309	4131
924.417	4181
924.525	4116
924.633	4173
924.741	4965
924.849	3949
924.956	4150
925.064	4010
925.172	3918
925.279	3994
925.387	4109
925.494	4109
925.602	4249
925.709	4253
925.816	4086
925.924	4192
926.031	4223
926.138	4185
926.245	4227
926.352	4150
926.459	4329
926.566	4383
926.673	4207
926.779	4131
926.886	4139
926.993	4013
927.099	4044
927.206	3949
927.312	3979
927.419	4067
927.525	4048
927.631	4101
927.737	4021
927.843	3998
927.95	3819
928.056	3956
928.162	4051
928.267	4116
928.373	4736
928.479	4143
928.585	3907
928.69	4029
928.796	4093
928.901	4036
929.007	3896
929.112	4036
929.218	4055
929.323	4002
929.428	3964
929.533	4128
929.638	3968
929.743	3979
929.848	4067
929.953	3991
930.058	3991
930.163	3854
930.267	3857
930.372	4025
930.477	3854
930.581	4112
930.685	3979
930.79	3876
930.894	3915
930.998	3953
931.103	4074
931.207	3766
931.311	3755
931.415	3720
931.519	3542
931.623	3603
