Data from test_V78500241_212.txt Node
Date: Fri Mar 25 16:50:28 CST 2022
User: usil
Spectrometer: V785-0024
Trigger mode: 0
Integration Time (sec): 4.000000E-1
Scans to average: 1
Nonlinearity correction enabled: false
Boxcar width: 0
Storing dark spectrum: false
XAxis mode: Wavelengths
Number of Pixels in Spectrum: 1024
>>>>>Begin Spectral Data<<<<<
801.071	8005
801.214	7936
801.356	7909
801.499	7864
801.641	7772
801.783	7871
801.926	7947
802.068	7883
802.211	7940
802.353	8008
802.496	7894
802.638	7890
802.78	7978
802.923	7917
803.065	7921
803.208	7879
803.35	7951
803.492	8081
803.635	8126
803.777	8020
803.919	8062
804.061	8480
804.204	8084
804.346	8062
804.488	7989
804.63	8157
804.773	7982
804.915	8123
805.057	8294
805.199	8153
805.341	8237
805.483	8237
805.626	8142
805.768	7989
805.91	8172
806.052	8180
806.194	8046
806.336	8317
806.478	8092
806.62	8043
806.762	8043
806.904	8130
807.046	8381
807.188	8294
807.33	8229
807.472	8317
807.614	8077
807.756	8161
807.898	8050
808.04	7871
808.182	8024
808.324	7890
808.465	7917
808.607	8100
808.749	8088
808.891	8233
809.033	8298
809.174	8168
809.316	8039
809.458	8183
809.6	8024
809.741	8050
809.883	8008
810.025	8084
810.166	8123
810.308	7963
810.45	8024
810.591	7833
810.733	7746
810.875	7571
811.016	7525
811.158	7487
811.299	7582
811.441	7662
811.582	7666
811.724	7548
811.865	7529
812.007	7647
812.148	7578
812.29	7681
812.431	7761
812.573	7955
812.714	8062
812.855	8195
812.997	8202
813.138	8336
813.279	8164
813.421	8092
813.562	7993
813.703	7917
813.845	7765
813.986	7491
814.127	7202
814.268	7232
814.41	7255
814.551	7179
814.692	7160
814.833	7046
814.974	7202
815.115	7137
815.256	6970
815.397	6905
815.539	6943
815.68	6810
815.821	6783
815.962	6867
816.103	6798
816.244	6730
816.385	6688
816.526	6646
816.666	6506
816.807	6353
816.948	6369
817.089	6471
817.23	6414
817.371	6361
817.512	6369
817.653	6338
817.793	6334
817.934	6426
818.075	6441
818.216	6429
818.356	6388
818.497	6216
818.638	6064
818.778	6110
818.919	6129
819.06	6117
819.2	6277
819.341	6300
819.481	6346
819.622	6513
819.762	6726
819.903	6684
820.043	6563
820.184	6517
820.324	6536
820.465	6665
820.605	6665
820.746	6627
820.886	6498
821.026	6620
821.167	6703
821.307	6848
821.447	6749
821.588	6677
821.728	6612
821.868	6490
822.008	6327
822.149	6372
822.289	6296
822.429	6171
822.569	6019
822.709	6133
822.849	5942
822.99	5935
823.13	5935
823.27	5874
823.41	5802
823.55	5764
823.69	5805
823.83	5813
823.97	5707
824.11	5539
824.25	5505
824.389	5566
824.529	5566
824.669	5490
824.809	5608
824.949	5642
825.089	5653
825.228	5577
825.368	5421
825.508	5322
825.648	5345
825.787	5368
825.927	5414
826.067	5284
826.206	5277
826.346	5360
826.485	5402
826.625	5444
826.765	5551
826.904	5452
827.044	5231
827.183	5242
827.323	5174
827.462	5239
827.601	5151
827.741	5181
827.88	5204
828.02	5067
828.159	5269
828.298	5322
828.437	5353
828.577	5326
828.716	5467
828.855	5372
828.994	5159
829.134	5132
829.273	5162
829.412	5204
829.551	5162
829.69	5197
829.829	5277
829.968	5345
830.107	5280
830.246	5246
830.385	5128
830.524	5147
830.663	5060
830.802	4949
830.941	4885
831.08	4854
831.219	4953
831.357	5003
831.496	5121
831.635	4927
831.774	4828
831.913	4923
832.051	4763
832.19	4736
832.329	4835
832.467	4672
832.606	4641
832.744	4702
832.883	4714
833.022	4710
833.16	4816
833.299	4820
833.437	4831
833.576	4839
833.714	4866
833.852	4839
833.991	4900
834.129	4927
834.267	4961
834.406	4904
834.544	4987
834.682	5025
834.821	4984
834.959	5189
835.097	4942
835.235	5162
835.373	5094
835.511	5128
835.65	5006
835.788	5037
835.926	4877
836.064	4923
836.202	4968
836.34	5170
836.478	5201
836.615	5113
836.753	5254
836.891	5318
837.029	5261
837.167	5162
837.305	5181
837.443	5155
837.58	5109
837.718	5258
837.856	5151
837.993	5155
838.131	5258
838.269	5216
838.406	5204
838.544	5208
838.681	5071
838.819	5048
838.956	4908
839.094	4923
839.231	5010
839.369	5094
839.506	5478
839.643	5280
839.781	5033
839.918	5014
840.055	5121
840.193	5071
840.33	5075
840.467	5151
840.604	5178
840.742	5452
840.879	5079
841.016	5109
841.153	5147
841.29	5425
841.427	5303
841.564	5360
841.701	5372
841.838	5261
841.975	5242
842.112	5273
842.249	5151
842.385	5117
842.522	5311
842.659	5124
842.796	5174
842.933	5208
843.069	5132
843.206	5136
843.343	5296
843.479	5277
843.616	5284
843.752	4987
843.889	4957
844.025	5174
844.162	5056
844.298	5261
844.435	5094
844.571	5029
844.708	5239
844.844	5280
844.98	5353
845.117	5364
845.253	5151
845.389	5098
845.525	5151
845.661	5147
845.798	5033
845.934	5147
846.07	5014
846.206	5189
846.342	5292
846.478	5235
846.614	4999
846.75	4976
846.886	4949
847.022	5178
847.158	5033
847.294	5071
847.429	5071
847.565	5071
847.701	5345
847.837	4850
847.972	4843
848.108	4961
848.244	4968
848.379	4763
848.515	4698
848.65	4740
848.786	4752
848.921	4755
849.057	4862
849.192	4900
849.328	4820
849.463	4862
849.598	4816
849.734	4759
849.869	4675
850.004	4630
850.14	4656
850.275	4622
850.41	4504
850.545	4577
850.68	4596
850.815	4634
850.95	4622
851.085	4828
851.22	4729
851.355	4668
851.49	4679
851.625	4641
851.76	4603
851.895	4516
852.03	4493
852.165	4668
852.299	4687
852.434	4763
852.569	4744
852.703	4771
852.838	4835
852.973	4946
853.107	4942
853.242	4763
853.376	4702
853.511	4588
853.645	4618
853.78	4809
853.914	4664
854.048	4641
854.183	4668
854.317	4687
854.451	4862
854.585	4675
854.72	4672
854.854	4774
854.988	4607
855.122	4679
855.256	4493
855.39	4710
855.524	4816
855.658	4774
855.792	4691
855.926	4714
856.06	4744
856.194	4782
856.327	4725
856.461	4615
856.595	4626
856.729	4653
856.862	4710
856.996	4656
857.13	4740
857.263	4755
857.397	4820
857.53	4668
857.664	4767
857.797	4740
857.931	4725
858.064	4694
858.197	4744
858.331	4679
858.464	4637
858.597	4531
858.731	4653
858.864	4641
858.997	4607
859.13	4656
859.263	4694
859.396	4714
859.529	4584
859.662	4550
859.795	4516
859.928	4649
860.061	4759
860.194	4812
860.327	4584
860.46	4573
860.592	4649
860.725	4706
860.858	4736
860.99	4607
861.123	4523
861.256	4512
861.388	4611
861.521	5273
861.653	4497
861.786	4470
861.918	4489
862.05	4531
862.183	4550
862.315	4588
862.447	4649
862.58	4531
862.712	4375
862.844	4329
862.976	4542
863.108	4436
863.24	4873
863.372	4318
863.504	4405
863.636	4402
863.768	4481
863.9	4413
864.032	4363
864.164	4405
864.296	4497
864.428	4516
864.559	4588
864.691	4550
864.823	4596
864.954	4481
865.086	4558
865.217	4462
865.349	4447
865.48	4466
865.612	4493
865.743	4641
865.875	4443
866.006	4432
866.137	4508
866.269	4516
866.4	4432
866.531	4455
866.662	4398
866.793	4409
866.924	4481
867.055	4485
867.186	4428
867.317	4405
867.448	4379
867.579	4405
867.71	4383
867.841	4398
867.972	4474
868.103	4462
868.233	4421
868.364	4462
868.495	4485
868.625	4618
868.756	4744
868.886	4588
869.017	4664
869.147	4786
869.278	4828
869.408	4645
869.539	4668
869.669	4729
869.799	4660
869.929	4755
870.06	4752
870.19	4942
870.32	4896
870.45	4961
870.58	4965
870.71	5117
870.84	5090
870.97	4946
871.1	4896
871.23	5162
871.36	5162
871.489	5003
871.619	5060
871.749	5086
871.879	5105
872.008	5159
872.138	5090
872.267	5033
872.397	4831
872.526	4847
872.656	4759
872.785	4835
872.915	4991
873.044	5029
873.173	4889
873.303	4953
873.432	4968
873.561	4938
873.69	4889
873.819	4831
873.948	4946
874.077	4820
874.206	4710
874.335	4812
874.464	4995
874.593	5102
874.722	4965
874.851	5178
874.979	5098
875.108	5014
875.237	4953
875.365	4923
875.494	4889
875.623	4965
875.751	4824
875.88	4839
876.008	4972
876.136	5048
876.265	5155
876.393	5364
876.521	5197
876.65	5265
876.778	5166
876.906	5071
877.034	5060
877.162	5037
877.29	5010
877.418	5029
877.546	5022
877.674	5014
877.802	4972
877.93	5022
878.058	4911
878.185	4824
878.313	4965
878.441	4915
878.568	4778
878.696	4866
878.824	4999
878.951	5014
879.079	5105
879.206	5273
879.333	5151
879.461	5010
879.588	5014
879.715	5128
879.842	5181
879.97	5025
880.097	4820
880.224	4755
880.351	4797
880.478	4850
880.605	4816
880.732	4793
880.859	5083
880.986	4873
881.112	4949
881.239	4812
881.366	4653
881.493	4607
881.619	4630
881.746	4618
881.872	4687
881.999	4668
882.125	4691
882.252	4812
882.378	4843
882.505	5006
882.631	4839
882.757	4645
882.883	4729
883.01	4729
883.136	4656
883.262	4618
883.388	4622
883.514	4847
883.64	4885
883.766	4797
883.892	4687
884.018	4691
884.143	4889
884.269	4987
884.395	4702
884.52	4637
884.646	4691
884.772	4584
884.897	4592
885.023	4626
885.148	4839
885.274	4889
885.399	4759
885.524	4736
885.65	4698
885.775	4698
885.9	4672
886.025	4870
886.15	4782
886.275	4714
886.4	4622
886.525	4698
886.65	4721
886.775	4710
886.9	4923
887.025	5037
887.149	4812
887.274	4687
887.399	4592
887.523	4634
887.648	4626
887.773	4611
887.897	4733
888.021	4812
888.146	4706
888.27	4816
888.395	4881
888.519	4820
888.643	4824
888.767	4835
888.891	4702
889.015	4603
889.139	4679
889.263	4615
889.387	4755
889.511	4866
889.635	4797
889.759	4645
889.883	4622
890.006	4725
890.13	4850
890.254	4607
890.377	4694
890.501	4573
890.624	4500
890.748	4634
890.871	4542
890.995	4417
891.118	4413
891.241	4516
891.364	4538
891.488	4675
891.611	4519
891.734	4504
891.857	4607
891.98	4527
892.103	4630
892.226	4607
892.349	4558
892.471	4432
892.594	4558
892.717	4580
892.839	4569
892.962	4584
893.085	4694
893.207	4603
893.33	4508
893.452	4516
893.575	4630
893.697	4596
893.819	4786
893.941	4839
894.064	4786
894.186	4615
894.308	4599
894.43	4725
894.552	4763
894.674	4759
894.796	4580
894.918	4653
895.04	4584
895.161	4698
895.283	4733
895.405	4558
895.526	4618
895.648	4698
895.769	4714
895.891	4675
896.012	4736
896.134	4771
896.255	4672
896.376	4698
896.498	4622
896.619	4725
896.74	4641
896.861	4656
896.982	4987
897.103	5067
897.224	4835
897.345	4744
897.466	4710
897.587	4748
897.708	4870
897.828	4774
897.949	4706
898.07	4573
898.19	4675
898.311	4866
898.431	4637
898.552	4782
898.672	4801
898.792	4831
898.913	4778
899.033	4596
899.153	4516
899.273	4436
899.393	4519
899.513	4519
899.633	4577
899.753	4497
899.873	4497
899.993	4573
900.113	4535
900.232	4622
900.352	4546
900.472	4455
900.591	4451
900.711	4485
900.83	4493
900.95	4649
901.069	4660
901.189	4546
901.308	4367
901.427	4375
901.546	4371
901.665	4451
901.784	4500
901.904	4421
902.023	4344
902.141	4207
902.26	4188
902.379	4344
902.498	4253
902.617	4272
902.735	4432
902.854	4417
902.973	4363
903.091	4207
903.21	4227
903.328	4276
903.446	4284
903.565	4280
903.683	4337
903.801	4337
903.919	4421
904.038	4462
904.156	4325
904.274	4436
904.392	4409
904.51	4409
904.627	4466
904.745	4565
904.863	4649
904.981	4405
905.098	4337
905.216	4398
905.334	4440
905.451	4402
905.569	4390
905.686	4519
905.803	4577
905.921	4462
906.038	4527
906.155	4516
906.272	4360
906.389	4497
906.506	4470
906.623	4390
906.74	4424
906.857	4299
906.974	4432
907.091	4558
907.208	4641
907.324	4592
907.441	4504
907.557	4417
907.674	4299
907.79	4329
907.907	4398
908.023	4512
908.139	4474
908.256	4470
908.372	4500
908.488	4474
908.604	4367
908.72	4314
908.836	4383
908.952	4383
909.068	4402
909.184	4634
909.3	4466
909.415	4611
909.531	4561
909.647	4375
909.762	4337
909.878	4363
909.993	4462
910.108	4436
910.224	4443
910.339	4523
910.454	4394
910.57	4386
910.685	4291
910.8	4717
910.915	4599
911.03	4512
911.145	4314
911.259	4371
911.374	4390
911.489	4287
911.604	4280
911.718	4150
911.833	4207
911.947	4105
912.062	3991
912.176	4234
912.291	4276
912.405	4303
912.519	4470
912.633	4584
912.748	4413
912.862	4291
912.976	4223
913.09	4128
913.204	4139
913.318	4261
913.431	4363
913.545	4375
913.659	4455
913.772	4432
913.886	4261
914	4246
914.113	4363
914.226	4474
914.34	4390
914.453	4242
914.566	4485
914.68	4329
914.793	4329
914.906	4188
915.019	4090
915.132	4109
915.245	4204
915.358	4230
915.47	4227
915.583	4306
915.696	4287
915.809	4436
915.921	4451
916.034	4276
916.146	4280
916.259	4261
916.371	4379
916.483	4375
916.595	4253
916.708	4356
916.82	4337
916.932	4360
917.044	4341
917.156	4322
917.268	4230
917.38	4306
917.491	4268
917.603	4363
917.715	4474
917.826	4447
917.938	4348
918.049	4246
918.161	4405
918.272	4565
918.384	4599
918.495	4466
918.606	4276
918.717	4265
918.828	4356
918.939	4379
919.05	4234
919.161	4337
919.272	4162
919.383	4223
919.494	4478
919.604	4649
919.715	4436
919.826	4383
919.936	4451
920.047	4519
920.157	4512
920.267	4752
920.378	4561
920.488	4531
920.598	4721
920.708	4881
920.818	4771
920.928	4786
921.038	4934
921.148	4908
921.258	4603
921.368	4573
921.477	4497
921.587	4459
921.697	4356
921.806	4603
921.916	4413
922.025	4291
922.134	4257
922.244	4219
922.353	4341
922.462	4200
922.571	4112
922.68	4051
922.789	4010
922.898	4051
923.007	4010
923.116	4139
923.224	4059
923.333	4074
923.442	3998
923.55	3991
923.659	4044
923.767	4128
923.876	3994
923.984	4154
924.092	3994
924.201	4097
924.309	4101
924.417	4105
924.525	4071
924.633	4112
924.741	5052
924.849	3953
924.956	4154
925.064	3975
925.172	3945
925.279	3975
925.387	4048
925.494	4063
925.602	4200
925.709	4242
925.816	4055
925.924	4112
926.031	4238
926.138	4200
926.245	4204
926.352	4090
926.459	4265
926.566	4337
926.673	4215
926.779	4071
926.886	4074
926.993	3998
927.099	4010
927.206	3956
927.312	3960
927.419	4032
927.525	4078
927.631	4105
927.737	3972
927.843	3918
927.95	3823
928.056	3964
928.162	3991
928.267	4086
928.373	4717
928.479	4150
928.585	3903
928.69	4029
928.796	4063
928.901	3972
929.007	3869
929.112	3964
929.218	3991
929.323	3941
929.428	3983
929.533	4131
929.638	3922
929.743	4002
929.848	4082
929.953	3964
930.058	3915
930.163	3797
930.267	3831
930.372	3968
930.477	3831
930.581	4139
930.685	3964
930.79	3808
930.894	3884
930.998	3865
931.103	4029
931.207	3701
931.311	3724
931.415	3671
931.519	3523
931.623	3553
