Data from test_V78500241_870.txt Node
Date: Fri Mar 25 16:55:03 CST 2022
User: usil
Spectrometer: V785-0024
Trigger mode: 0
Integration Time (sec): 4.000000E-1
Scans to average: 1
Nonlinearity correction enabled: false
Boxcar width: 0
Storing dark spectrum: false
XAxis mode: Wavelengths
Number of Pixels in Spectrum: 1024
>>>>>Begin Spectral Data<<<<<
801.071	7989
801.214	8027
801.356	8020
801.499	7894
801.641	7833
801.783	7879
801.926	7967
802.068	7932
802.211	8020
802.353	8046
802.496	7913
802.638	7868
802.78	7974
802.923	7925
803.065	7913
803.208	7890
803.35	8069
803.492	8123
803.635	8183
803.777	8115
803.919	8161
804.061	8507
804.204	8115
804.346	8077
804.488	7909
804.63	8195
804.773	8043
804.915	8107
805.057	8252
805.199	8183
805.341	8161
805.483	8267
805.626	8259
805.768	8145
805.91	8210
806.052	8191
806.194	8081
806.336	8290
806.478	8138
806.62	8119
806.762	8138
806.904	8320
807.046	8507
807.188	8339
807.33	8343
807.472	8343
807.614	8195
807.756	8225
807.898	8012
808.04	7913
808.182	7871
808.324	7890
808.465	7852
808.607	8024
808.749	8058
808.891	8294
809.033	8313
809.174	8233
809.316	8073
809.458	8123
809.6	8008
809.741	8046
809.883	8001
810.025	8115
810.166	8107
810.308	8054
810.45	8012
810.591	7928
810.733	7784
810.875	7738
811.016	7537
811.158	7525
811.299	7544
811.441	7761
811.582	7658
811.724	7575
811.865	7495
812.007	7586
812.148	7594
812.29	7620
812.431	7734
812.573	7909
812.714	7970
812.855	8157
812.997	8218
813.138	8362
813.279	8229
813.421	8081
813.562	8035
813.703	7909
813.845	7757
813.986	7483
814.127	7350
814.268	7282
814.41	7160
814.551	7141
814.692	7164
814.833	7015
814.974	7027
815.115	7156
815.256	6962
815.397	6916
815.539	6977
815.68	6863
815.821	6776
815.962	6886
816.103	6787
816.244	6772
816.385	6665
816.526	6635
816.666	6494
816.807	6334
816.948	6456
817.089	6509
817.23	6452
817.371	6399
817.512	6429
817.653	6460
817.793	6365
817.934	6403
818.075	6471
818.216	6407
818.356	6376
818.497	6277
818.638	6152
818.778	6190
818.919	6144
819.06	6125
819.2	6327
819.341	6350
819.481	6391
819.622	6547
819.762	6722
819.903	6662
820.043	6536
820.184	6555
820.324	6616
820.465	6650
820.605	6730
820.746	6669
820.886	6551
821.026	6639
821.167	6684
821.307	6768
821.447	6768
821.588	6779
821.728	6578
821.868	6471
822.008	6353
822.149	6410
822.289	6315
822.429	6220
822.569	6106
822.709	6102
822.849	5969
822.99	5939
823.13	5939
823.27	5946
823.41	5840
823.55	5802
823.69	5699
823.83	5832
823.97	5680
824.11	5532
824.25	5497
824.389	5585
824.529	5573
824.669	5501
824.809	5657
824.949	5672
825.089	5638
825.228	5551
825.368	5398
825.508	5334
825.648	5357
825.787	5357
825.927	5379
826.067	5322
826.206	5299
826.346	5402
826.485	5398
826.625	5410
826.765	5566
826.904	5482
827.044	5265
827.183	5235
827.323	5132
827.462	5277
827.601	5159
827.741	5197
827.88	5212
828.02	5147
828.159	5208
828.298	5288
828.437	5345
828.577	5299
828.716	5455
828.855	5341
828.994	5220
829.134	5170
829.273	5220
829.412	5151
829.551	5189
829.69	5159
829.829	5212
829.968	5383
830.107	5288
830.246	5280
830.385	5151
830.524	5155
830.663	5037
830.802	4991
830.941	4889
831.08	4911
831.219	4984
831.357	4999
831.496	5147
831.635	4938
831.774	4782
831.913	4847
832.051	4778
832.19	4740
832.329	4904
832.467	4641
832.606	4577
832.744	4759
832.883	4714
833.022	4706
833.16	4831
833.299	4843
833.437	4816
833.576	4873
833.714	4927
833.852	4862
833.991	4938
834.129	4976
834.267	4976
834.406	4938
834.544	5037
834.682	4938
834.821	4984
834.959	5170
835.097	4984
835.235	5128
835.373	5033
835.511	5060
835.65	5052
835.788	5029
835.926	4904
836.064	4870
836.202	4908
836.34	5178
836.478	5227
836.615	5128
836.753	5231
836.891	5288
837.029	5223
837.167	5197
837.305	5094
837.443	5117
837.58	5102
837.718	5277
837.856	5220
837.993	5143
838.131	5201
838.269	5185
838.406	5235
838.544	5204
838.681	5060
838.819	5079
838.956	4866
839.094	4927
839.231	4961
839.369	5083
839.506	5433
839.643	5239
839.781	5086
839.918	5014
840.055	5121
840.193	5033
840.33	5124
840.467	5124
840.604	5174
840.742	5387
840.879	5098
841.016	5105
841.153	5185
841.29	5349
841.427	5307
841.564	5292
841.701	5376
841.838	5273
841.975	5239
842.112	5246
842.249	5121
842.385	5109
842.522	5353
842.659	5128
842.796	5189
842.933	5220
843.069	5189
843.206	5193
843.343	5357
843.479	5299
843.616	5242
843.752	5033
843.889	5029
844.025	5265
844.162	5033
844.298	5239
844.435	5041
844.571	5105
844.708	5204
844.844	5307
844.98	5311
845.117	5372
845.253	5124
845.389	5109
845.525	5181
845.661	5113
845.798	5041
845.934	5140
846.07	5037
846.206	5216
846.342	5250
846.478	5185
846.614	5018
846.75	4968
846.886	4965
847.022	5086
847.158	5029
847.294	5075
847.429	5121
847.565	5022
847.701	5353
847.837	4805
847.972	4839
848.108	4946
848.244	4881
848.379	4801
848.515	4725
848.65	4771
848.786	4729
848.921	4778
849.057	4866
849.192	4839
849.328	4866
849.463	4843
849.598	4786
849.734	4748
849.869	4672
850.004	4622
850.14	4702
850.275	4611
850.41	4550
850.545	4565
850.68	4622
850.815	4596
850.95	4645
851.085	4797
851.22	4774
851.355	4698
851.49	4607
851.625	4615
851.76	4599
851.895	4558
852.03	4508
852.165	4626
852.299	4683
852.434	4763
852.569	4736
852.703	4771
852.838	4866
852.973	4976
853.107	4896
853.242	4767
853.376	4653
853.511	4561
853.645	4584
853.78	4801
853.914	4740
854.048	4645
854.183	4664
854.317	4748
854.451	4812
854.585	4691
854.72	4668
854.854	4759
854.988	4558
855.122	4637
855.256	4500
855.39	4649
855.524	4763
855.658	4816
855.792	4702
855.926	4763
856.06	4771
856.194	4778
856.327	4656
856.461	4618
856.595	4622
856.729	4622
856.862	4755
856.996	4763
857.13	4721
857.263	4755
857.397	4801
857.53	4664
857.664	4694
857.797	4740
857.931	4721
858.064	4664
858.197	4706
858.331	4683
858.464	4630
858.597	4462
858.731	4634
858.864	4675
858.997	4622
859.13	4637
859.263	4675
859.396	4714
859.529	4577
859.662	4592
859.795	4554
859.928	4615
860.061	4771
860.194	4725
860.327	4645
860.46	4565
860.592	4641
860.725	4721
860.858	4725
860.99	4611
861.123	4504
861.256	4470
861.388	4618
861.521	5307
861.653	4493
861.786	4459
861.918	4493
862.05	4512
862.183	4554
862.315	4569
862.447	4634
862.58	4527
862.712	4405
862.844	4329
862.976	4466
863.108	4466
863.24	4774
863.372	4375
863.504	4447
863.636	4363
863.768	4485
863.9	4421
864.032	4375
864.164	4398
864.296	4459
864.428	4542
864.559	4580
864.691	4531
864.823	4577
864.954	4481
865.086	4493
865.217	4424
865.349	4409
865.48	4447
865.612	4519
865.743	4653
865.875	4459
866.006	4447
866.137	4459
866.269	4424
866.4	4443
866.531	4379
866.662	4363
866.793	4394
866.924	4402
867.055	4485
867.186	4440
867.317	4413
867.448	4352
867.579	4443
867.71	4379
867.841	4375
867.972	4485
868.103	4421
868.233	4455
868.364	4466
868.495	4462
868.625	4653
868.756	4729
868.886	4573
869.017	4603
869.147	4790
869.278	4748
869.408	4664
869.539	4618
869.669	4733
869.799	4626
869.929	4725
870.06	4710
870.19	4919
870.32	4877
870.45	4900
870.58	5048
870.71	5083
870.84	5052
870.97	4946
871.1	4881
871.23	5181
871.36	5132
871.489	5022
871.619	5075
871.749	5117
871.879	5124
872.008	5166
872.138	5060
872.267	4984
872.397	4797
872.526	4850
872.656	4774
872.785	4771
872.915	4957
873.044	5014
873.173	4938
873.303	4991
873.432	4930
873.561	4896
873.69	4885
873.819	4828
873.948	4904
874.077	4885
874.206	4706
874.335	4850
874.464	4957
874.593	5075
874.722	4949
874.851	5071
874.979	5048
875.108	5067
875.237	4862
875.365	4877
875.494	4881
875.623	4953
875.751	4839
875.88	4847
876.008	4980
876.136	5060
876.265	5170
876.393	5345
876.521	5280
876.65	5197
876.778	5174
876.906	5113
877.034	4984
877.162	5037
877.29	4957
877.418	5018
877.546	5041
877.674	5010
877.802	5037
877.93	4999
878.058	4938
878.185	4858
878.313	4927
878.441	4904
878.568	4782
878.696	4858
878.824	4938
878.951	4984
879.079	5166
879.206	5235
879.333	5102
879.461	5010
879.588	5003
879.715	5105
879.842	5201
879.97	4957
880.097	4763
880.224	4733
880.351	4771
880.478	4816
880.605	4797
880.732	4752
880.859	5124
880.986	4881
881.112	4927
881.239	4824
881.366	4672
881.493	4607
881.619	4558
881.746	4618
881.872	4694
881.999	4645
882.125	4683
882.252	4771
882.378	4831
882.505	4938
882.631	4812
882.757	4626
882.883	4759
883.01	4725
883.136	4653
883.262	4592
883.388	4573
883.514	4786
883.64	4816
883.766	4778
883.892	4641
884.018	4687
884.143	4938
884.269	4965
884.395	4653
884.52	4656
884.646	4641
884.772	4580
884.897	4523
885.023	4634
885.148	4778
885.274	4820
885.399	4793
885.524	4752
885.65	4740
885.775	4736
885.9	4691
886.025	4854
886.15	4809
886.275	4710
886.4	4675
886.525	4702
886.65	4664
886.775	4641
886.9	4881
887.025	5006
887.149	4850
887.274	4618
887.399	4577
887.523	4561
887.648	4542
887.773	4538
887.897	4763
888.021	4729
888.146	4641
888.27	4759
888.395	4866
888.519	4797
888.643	4824
888.767	4873
888.891	4717
889.015	4653
889.139	4611
889.263	4618
889.387	4797
889.511	4858
889.635	4786
889.759	4622
889.883	4615
890.006	4706
890.13	4828
890.254	4637
890.377	4683
890.501	4535
890.624	4554
890.748	4603
890.871	4535
890.995	4383
891.118	4409
891.241	4508
891.364	4485
891.488	4603
891.611	4493
891.734	4519
891.857	4630
891.98	4577
892.103	4656
892.226	4565
892.349	4527
892.471	4413
892.594	4519
892.717	4531
892.839	4542
892.962	4611
893.085	4607
893.207	4577
893.33	4447
893.452	4523
893.575	4588
893.697	4596
893.819	4744
893.941	4839
894.064	4763
894.186	4584
894.308	4565
894.43	4679
894.552	4763
894.674	4740
894.796	4523
894.918	4603
895.04	4508
895.161	4683
895.283	4641
895.405	4550
895.526	4607
895.648	4668
895.769	4672
895.891	4679
896.012	4702
896.134	4759
896.255	4622
896.376	4611
896.498	4607
896.619	4668
896.74	4577
896.861	4607
896.982	4915
897.103	5094
897.224	4809
897.345	4755
897.466	4675
897.587	4729
897.708	4862
897.828	4744
897.949	4656
898.07	4538
898.19	4668
898.311	4828
898.431	4615
898.552	4717
898.672	4763
898.792	4774
898.913	4755
899.033	4611
899.153	4466
899.273	4405
899.393	4516
899.513	4500
899.633	4500
899.753	4523
899.873	4516
899.993	4603
900.113	4542
900.232	4542
900.352	4607
900.472	4478
900.591	4383
900.711	4440
900.83	4398
900.95	4611
901.069	4714
901.189	4497
901.308	4303
901.427	4322
901.546	4383
901.665	4478
901.784	4523
901.904	4379
902.023	4337
902.141	4154
902.26	4200
902.379	4291
902.498	4234
902.617	4154
902.735	4352
902.854	4356
902.973	4360
903.091	4219
903.21	4242
903.328	4329
903.446	4253
903.565	4287
903.683	4363
903.801	4287
903.919	4394
904.038	4474
904.156	4291
904.274	4443
904.392	4398
904.51	4409
904.627	4424
904.745	4584
904.863	4615
904.981	4371
905.098	4303
905.216	4344
905.334	4386
905.451	4428
905.569	4424
905.686	4546
905.803	4588
905.921	4421
906.038	4542
906.155	4470
906.272	4375
906.389	4466
906.506	4310
906.623	4363
906.74	4405
906.857	4291
906.974	4398
907.091	4580
907.208	4660
907.324	4611
907.441	4512
907.557	4318
907.674	4329
907.79	4310
907.907	4375
908.023	4447
908.139	4413
908.256	4421
908.372	4459
908.488	4421
908.604	4333
908.72	4344
908.836	4390
908.952	4409
909.068	4413
909.184	4573
909.3	4497
909.415	4538
909.531	4546
909.647	4398
909.762	4402
909.878	4386
909.993	4398
910.108	4386
910.224	4379
910.339	4474
910.454	4440
910.57	4322
910.685	4295
910.8	4641
910.915	4626
911.03	4493
911.145	4352
911.259	4367
911.374	4344
911.489	4268
911.604	4291
911.718	4173
911.833	4204
911.947	4082
912.062	4002
912.176	4185
912.291	4246
912.405	4211
912.519	4470
912.633	4474
912.748	4344
912.862	4337
912.976	4242
913.09	4101
913.204	4169
913.318	4253
913.431	4375
913.545	4371
913.659	4447
913.772	4363
913.886	4227
914	4207
914.113	4409
914.226	4470
914.34	4379
914.453	4207
914.566	4398
914.68	4314
914.793	4303
914.906	4181
915.019	4097
915.132	4093
915.245	4166
915.358	4173
915.47	4230
915.583	4234
915.696	4348
915.809	4386
915.921	4379
916.034	4242
916.146	4219
916.259	4211
916.371	4383
916.483	4314
916.595	4230
916.708	4257
916.82	4341
916.932	4318
917.044	4303
917.156	4337
917.268	4295
917.38	4291
917.491	4303
917.603	4390
917.715	4394
917.826	4440
917.938	4337
918.049	4253
918.161	4333
918.272	4611
918.384	4519
918.495	4474
918.606	4333
918.717	4219
918.828	4329
918.939	4303
919.05	4207
919.161	4306
919.272	4097
919.383	4223
919.494	4455
919.604	4622
919.715	4436
919.826	4325
919.936	4344
920.047	4508
920.157	4489
920.267	4710
920.378	4584
920.488	4470
920.598	4694
920.708	4870
920.818	4725
920.928	4748
921.038	4972
921.148	4854
921.258	4656
921.368	4599
921.477	4481
921.587	4424
921.697	4390
921.806	4558
921.916	4462
922.025	4318
922.134	4249
922.244	4200
922.353	4310
922.462	4181
922.571	4135
922.68	4013
922.789	3960
922.898	4013
923.007	3972
923.116	4093
923.224	4036
923.333	4093
923.442	3987
923.55	3983
923.659	4044
923.767	4086
923.876	3991
923.984	4150
924.092	3964
924.201	4067
924.309	4074
924.417	4086
924.525	4074
924.633	4101
924.741	4881
924.849	3953
924.956	4097
925.064	3934
925.172	3907
925.279	3972
925.387	4017
925.494	4059
925.602	4211
925.709	4192
925.816	4044
925.924	4105
926.031	4238
926.138	4162
926.245	4162
926.352	4048
926.459	4227
926.566	4268
926.673	4173
926.779	4074
926.886	4071
926.993	3968
927.099	3964
927.206	3915
927.312	3964
927.419	4055
927.525	4051
927.631	4051
927.737	3926
927.843	3930
927.95	3785
928.056	3941
928.162	3979
928.267	4025
928.373	4588
928.479	4055
928.585	3903
928.69	4036
928.796	4044
928.901	3922
929.007	3880
929.112	3953
929.218	3972
929.323	3953
929.428	3896
929.533	4093
929.638	3945
929.743	3972
929.848	4040
929.953	4002
930.058	3911
930.163	3770
930.267	3854
930.372	3956
930.477	3804
930.581	4055
930.685	3926
930.79	3812
930.894	3880
930.998	3857
931.103	4036
931.207	3728
931.311	3682
931.415	3652
931.519	3511
931.623	3519
