Data from test_V78500241_681.txt Node
Date: Fri Mar 25 16:53:44 CST 2022
User: usil
Spectrometer: V785-0024
Trigger mode: 0
Integration Time (sec): 4.000000E-1
Scans to average: 1
Nonlinearity correction enabled: false
Boxcar width: 0
Storing dark spectrum: false
XAxis mode: Wavelengths
Number of Pixels in Spectrum: 1024
>>>>>Begin Spectral Data<<<<<
801.071	8016
801.214	7997
801.356	7845
801.499	7830
801.641	7807
801.783	7860
801.926	7951
802.068	7940
802.211	7959
802.353	7917
802.496	7913
802.638	7875
802.78	7940
802.923	7951
803.065	7845
803.208	7807
803.35	7906
803.492	8043
803.635	8111
803.777	8035
803.919	8107
804.061	8393
804.204	8092
804.346	8024
804.488	7967
804.63	8084
804.773	7936
804.915	8016
805.057	8176
805.199	8157
805.341	8176
805.483	8267
805.626	8259
805.768	8134
805.91	8225
806.052	8244
806.194	8031
806.336	8267
806.478	8050
806.62	8035
806.762	8058
806.904	8202
807.046	8423
807.188	8358
807.33	8313
807.472	8339
807.614	8161
807.756	8123
807.898	7944
808.04	7788
808.182	7856
808.324	7921
808.465	7928
808.607	7947
808.749	8065
808.891	8100
809.033	8298
809.174	8195
809.316	8027
809.458	8103
809.6	8062
809.741	7963
809.883	7989
810.025	8081
810.166	8054
810.308	8024
810.45	7997
810.591	7845
810.733	7738
810.875	7616
811.016	7495
811.158	7453
811.299	7571
811.441	7715
811.582	7704
811.724	7601
811.865	7430
812.007	7552
812.148	7624
812.29	7609
812.431	7674
812.573	7856
812.714	7936
812.855	8084
812.997	8225
813.138	8271
813.279	8123
813.421	8100
813.562	8035
813.703	7845
813.845	7727
813.986	7426
814.127	7305
814.268	7217
814.41	7217
814.551	7065
814.692	7141
814.833	7046
814.974	7019
815.115	7095
815.256	6958
815.397	6913
815.539	6962
815.68	6783
815.821	6776
815.962	6894
816.103	6833
816.244	6768
816.385	6589
816.526	6627
816.666	6471
816.807	6289
816.948	6437
817.089	6532
817.23	6441
817.371	6357
817.512	6361
817.653	6448
817.793	6388
817.934	6464
818.075	6479
818.216	6414
818.356	6331
818.497	6247
818.638	6114
818.778	6133
818.919	6213
819.06	6136
819.2	6338
819.341	6273
819.481	6346
819.622	6483
819.762	6722
819.903	6646
820.043	6585
820.184	6551
820.324	6536
820.465	6669
820.605	6608
820.746	6616
820.886	6410
821.026	6703
821.167	6707
821.307	6730
821.447	6707
821.588	6673
821.728	6486
821.868	6494
822.008	6292
822.149	6327
822.289	6338
822.429	6121
822.569	6068
822.709	6083
822.849	5866
822.99	5931
823.13	5920
823.27	5927
823.41	5794
823.55	5779
823.69	5710
823.83	5756
823.97	5695
824.11	5459
824.25	5486
824.389	5501
824.529	5585
824.669	5471
824.809	5638
824.949	5718
825.089	5634
825.228	5520
825.368	5364
825.508	5387
825.648	5349
825.787	5326
825.927	5330
826.067	5311
826.206	5280
826.346	5349
826.485	5379
826.625	5364
826.765	5543
826.904	5486
827.044	5258
827.183	5208
827.323	5155
827.462	5212
827.601	5178
827.741	5174
827.88	5189
828.02	5124
828.159	5216
828.298	5242
828.437	5353
828.577	5246
828.716	5452
828.855	5341
828.994	5121
829.134	5162
829.273	5143
829.412	5117
829.551	5094
829.69	5151
829.829	5201
829.968	5318
830.107	5250
830.246	5273
830.385	5181
830.524	5113
830.663	5090
830.802	4949
830.941	4870
831.08	4850
831.219	4953
831.357	4965
831.496	5155
831.635	4949
831.774	4809
831.913	4812
832.051	4733
832.19	4786
832.329	4866
832.467	4717
832.606	4664
832.744	4725
832.883	4702
833.022	4706
833.16	4778
833.299	4812
833.437	4790
833.576	4793
833.714	4843
833.852	4835
833.991	4908
834.129	4919
834.267	4946
834.406	4896
834.544	4927
834.682	4957
834.821	4949
834.959	5193
835.097	4949
835.235	5128
835.373	5060
835.511	5079
835.65	5033
835.788	5025
835.926	4835
836.064	4847
836.202	4862
836.34	5170
836.478	5197
836.615	5102
836.753	5216
836.891	5223
837.029	5235
837.167	5079
837.305	5151
837.443	5121
837.58	5029
837.718	5254
837.856	5155
837.993	5105
838.131	5258
838.269	5185
838.406	5204
838.544	5132
838.681	4999
838.819	4995
838.956	4858
839.094	4866
839.231	5010
839.369	5045
839.506	5372
839.643	5235
839.781	5048
839.918	4980
840.055	5083
840.193	5064
840.33	5083
840.467	5124
840.604	5178
840.742	5425
840.879	5064
841.016	5025
841.153	5075
841.29	5357
841.427	5318
841.564	5337
841.701	5326
841.838	5235
841.975	5223
842.112	5246
842.249	5124
842.385	5102
842.522	5318
842.659	5132
842.796	5151
842.933	5147
843.069	5193
843.206	5109
843.343	5288
843.479	5239
843.616	5197
843.752	5029
843.889	5022
844.025	5223
844.162	4965
844.298	5189
844.435	5052
844.571	5052
844.708	5185
844.844	5280
844.98	5311
845.117	5250
845.253	5143
845.389	5079
845.525	5143
845.661	5075
845.798	5025
845.934	5048
846.07	5041
846.206	5178
846.342	5254
846.478	5159
846.614	5033
846.75	4949
846.886	4911
847.022	5079
847.158	5029
847.294	5045
847.429	5064
847.565	5041
847.701	5318
847.837	4828
847.972	4850
848.108	4949
848.244	4881
848.379	4786
848.515	4664
848.65	4694
848.786	4710
848.921	4786
849.057	4873
849.192	4881
849.328	4812
849.463	4816
849.598	4816
849.734	4733
849.869	4679
850.004	4637
850.14	4645
850.275	4626
850.41	4565
850.545	4546
850.68	4622
850.815	4641
850.95	4630
851.085	4828
851.22	4736
851.355	4694
851.49	4668
851.625	4618
851.76	4634
851.895	4531
852.03	4519
852.165	4653
852.299	4725
852.434	4786
852.569	4744
852.703	4805
852.838	4839
852.973	4911
853.107	4961
853.242	4778
853.376	4698
853.511	4569
853.645	4675
853.78	4828
853.914	4710
854.048	4725
854.183	4687
854.317	4725
854.451	4854
854.585	4744
854.72	4702
854.854	4809
854.988	4637
855.122	4660
855.256	4523
855.39	4675
855.524	4790
855.658	4748
855.792	4740
855.926	4740
856.06	4714
856.194	4843
856.327	4717
856.461	4649
856.595	4668
856.729	4702
856.862	4816
856.996	4729
857.13	4801
857.263	4755
857.397	4881
857.53	4641
857.664	4714
857.797	4835
857.931	4820
858.064	4725
858.197	4797
858.331	4691
858.464	4706
858.597	4535
858.731	4668
858.864	4687
858.997	4683
859.13	4710
859.263	4656
859.396	4698
859.529	4645
859.662	4630
859.795	4577
859.928	4664
860.061	4767
860.194	4828
860.327	4660
860.46	4538
860.592	4736
860.725	4774
860.858	4740
860.99	4622
861.123	4554
861.256	4546
861.388	4672
861.521	5284
861.653	4558
861.786	4417
861.918	4474
862.05	4516
862.183	4622
862.315	4641
862.447	4672
862.58	4580
862.712	4462
862.844	4329
862.976	4516
863.108	4523
863.24	4850
863.372	4367
863.504	4432
863.636	4459
863.768	4500
863.9	4466
864.032	4394
864.164	4455
864.296	4493
864.428	4596
864.559	4622
864.691	4569
864.823	4519
864.954	4516
865.086	4603
865.217	4481
865.349	4436
865.48	4481
865.612	4493
865.743	4653
865.875	4519
866.006	4447
866.137	4516
866.269	4478
866.4	4447
866.531	4417
866.662	4432
866.793	4424
866.924	4409
867.055	4542
867.186	4497
867.317	4474
867.448	4402
867.579	4428
867.71	4405
867.841	4405
867.972	4527
868.103	4462
868.233	4497
868.364	4462
868.495	4508
868.625	4668
868.756	4759
868.886	4561
869.017	4622
869.147	4767
869.278	4809
869.408	4634
869.539	4626
869.669	4725
869.799	4698
869.929	4759
870.06	4752
870.19	4995
870.32	4930
870.45	4934
870.58	5006
870.71	5174
870.84	5151
870.97	4972
871.1	4938
871.23	5170
871.36	5155
871.489	5052
871.619	5147
871.749	5121
871.879	5128
872.008	5201
872.138	5102
872.267	5010
872.397	4873
872.526	4843
872.656	4759
872.785	4790
872.915	4995
873.044	5045
873.173	4915
873.303	5025
873.432	4965
873.561	4953
873.69	4889
873.819	4908
873.948	4965
874.077	4866
874.206	4755
874.335	4839
874.464	4961
874.593	5151
874.722	4961
874.851	5197
874.979	5117
875.108	5086
875.237	4892
875.365	4972
875.494	4896
875.623	5010
875.751	4862
875.88	4991
876.008	4987
876.136	5048
876.265	5197
876.393	5326
876.521	5265
876.65	5216
876.778	5204
876.906	5113
877.034	5056
877.162	5048
877.29	5033
877.418	5090
877.546	5071
877.674	5060
877.802	5029
877.93	5052
878.058	4961
878.185	4911
878.313	5006
878.441	4946
878.568	4801
878.696	4908
878.824	4968
878.951	4999
879.079	5162
879.206	5357
879.333	5113
879.461	4980
879.588	5018
879.715	5162
879.842	5216
879.97	4991
880.097	4801
880.224	4816
880.351	4828
880.478	4839
880.605	4850
880.732	4824
880.859	5102
880.986	4877
881.112	4934
881.239	4843
881.366	4653
881.493	4641
881.619	4630
881.746	4664
881.872	4683
881.999	4641
882.125	4683
882.252	4812
882.378	4850
882.505	5003
882.631	4828
882.757	4717
882.883	4805
883.01	4740
883.136	4729
883.262	4611
883.388	4603
883.514	4850
883.64	4820
883.766	4805
883.892	4721
884.018	4782
884.143	4915
884.269	5018
884.395	4683
884.52	4649
884.646	4691
884.772	4630
884.897	4558
885.023	4710
885.148	4824
885.274	4915
885.399	4828
885.524	4729
885.65	4771
885.775	4778
885.9	4744
886.025	4870
886.15	4854
886.275	4702
886.4	4664
886.525	4771
886.65	4702
886.775	4717
886.9	4934
887.025	5094
887.149	4816
887.274	4660
887.399	4588
887.523	4615
887.648	4607
887.773	4599
887.897	4782
888.021	4793
888.146	4702
888.27	4854
888.395	4934
888.519	4824
888.643	4850
888.767	4831
888.891	4668
889.015	4630
889.139	4660
889.263	4656
889.387	4816
889.511	4854
889.635	4824
889.759	4683
889.883	4672
890.006	4767
890.13	4862
890.254	4649
890.377	4668
890.501	4535
890.624	4538
890.748	4717
890.871	4558
890.995	4489
891.118	4390
891.241	4531
891.364	4569
891.488	4694
891.611	4577
891.734	4561
891.857	4645
891.98	4542
892.103	4649
892.226	4611
892.349	4558
892.471	4447
892.594	4588
892.717	4607
892.839	4611
892.962	4626
893.085	4698
893.207	4588
893.33	4466
893.452	4565
893.575	4714
893.697	4550
893.819	4805
893.941	4824
894.064	4801
894.186	4622
894.308	4577
894.43	4763
894.552	4793
894.674	4767
894.796	4577
894.918	4584
895.04	4580
895.161	4729
895.283	4660
895.405	4645
895.526	4664
895.648	4706
895.769	4660
895.891	4755
896.012	4786
896.134	4736
896.255	4641
896.376	4626
896.498	4660
896.619	4698
896.74	4603
896.861	4656
896.982	4961
897.103	5086
897.224	4892
897.345	4748
897.466	4683
897.587	4778
897.708	4850
897.828	4763
897.949	4694
898.07	4584
898.19	4630
898.311	4889
898.431	4687
898.552	4778
898.672	4881
898.792	4805
898.913	4748
899.033	4607
899.153	4550
899.273	4440
899.393	4489
899.513	4497
899.633	4531
899.753	4584
899.873	4516
899.993	4592
900.113	4546
900.232	4637
900.352	4531
900.472	4531
900.591	4402
900.711	4504
900.83	4481
900.95	4611
901.069	4694
901.189	4531
901.308	4402
901.427	4341
901.546	4402
901.665	4500
901.784	4531
901.904	4440
902.023	4360
902.141	4192
902.26	4207
902.379	4348
902.498	4272
902.617	4280
902.735	4428
902.854	4375
902.973	4344
903.091	4242
903.21	4238
903.328	4371
903.446	4333
903.565	4299
903.683	4409
903.801	4322
903.919	4344
904.038	4455
904.156	4352
904.274	4481
904.392	4390
904.51	4451
904.627	4432
904.745	4577
904.863	4626
904.981	4413
905.098	4352
905.216	4329
905.334	4455
905.451	4466
905.569	4470
905.686	4546
905.803	4615
905.921	4462
906.038	4588
906.155	4508
906.272	4386
906.389	4466
906.506	4394
906.623	4360
906.74	4409
906.857	4333
906.974	4333
907.091	4592
907.208	4698
907.324	4630
907.441	4558
907.557	4398
907.674	4394
907.79	4280
907.907	4383
908.023	4493
908.139	4527
908.256	4440
908.372	4481
908.488	4443
908.604	4375
908.72	4344
908.836	4405
908.952	4428
909.068	4417
909.184	4577
909.3	4519
909.415	4615
909.531	4569
909.647	4386
909.762	4363
909.878	4363
909.993	4440
910.108	4432
910.224	4470
910.339	4478
910.454	4421
910.57	4394
910.685	4303
910.8	4660
910.915	4611
911.03	4493
911.145	4367
911.259	4310
911.374	4383
911.489	4314
911.604	4280
911.718	4162
911.833	4207
911.947	4067
912.062	4040
912.176	4246
912.291	4295
912.405	4261
912.519	4447
912.633	4504
912.748	4337
912.862	4299
912.976	4238
913.09	4109
913.204	4158
913.318	4234
913.431	4348
913.545	4379
913.659	4459
913.772	4398
913.886	4299
914	4268
914.113	4386
914.226	4428
914.34	4383
914.453	4299
914.566	4440
914.68	4337
914.793	4352
914.906	4181
915.019	4150
915.132	4097
915.245	4154
915.358	4257
915.47	4238
915.583	4272
915.696	4306
915.809	4455
915.921	4485
916.034	4276
916.146	4287
916.259	4230
916.371	4402
916.483	4375
916.595	4306
916.708	4310
916.82	4352
916.932	4322
917.044	4295
917.156	4367
917.268	4280
917.38	4291
917.491	4246
917.603	4344
917.715	4421
917.826	4398
917.938	4360
918.049	4276
918.161	4398
918.272	4523
918.384	4542
918.495	4421
918.606	4306
918.717	4242
918.828	4352
918.939	4356
919.05	4299
919.161	4352
919.272	4177
919.383	4253
919.494	4523
919.604	4626
919.715	4478
919.826	4363
919.936	4451
920.047	4531
920.157	4519
920.267	4755
920.378	4573
920.488	4538
920.598	4763
920.708	4877
920.818	4797
920.928	4774
921.038	4976
921.148	4957
921.258	4637
921.368	4558
921.477	4577
921.587	4489
921.697	4383
921.806	4599
921.916	4447
922.025	4314
922.134	4375
922.244	4268
922.353	4398
922.462	4242
922.571	4204
922.68	4048
922.789	4013
922.898	4093
923.007	4048
923.116	4105
923.224	4101
923.333	4128
923.442	4063
923.55	4078
923.659	4074
923.767	4154
923.876	4082
923.984	4135
924.092	4013
924.201	4093
924.309	4120
924.417	4154
924.525	4120
924.633	4139
924.741	5105
924.849	3972
924.956	4192
925.064	3987
925.172	3975
925.279	4029
925.387	4055
925.494	4074
925.602	4276
925.709	4204
925.816	4086
925.924	4147
926.031	4280
926.138	4230
926.245	4272
926.352	4188
926.459	4318
926.566	4379
926.673	4215
926.779	4147
926.886	4158
926.993	3998
927.099	4006
927.206	3972
927.312	4002
927.419	4147
927.525	4082
927.631	4158
927.737	3987
927.843	4006
927.95	3899
928.056	4006
928.162	4055
928.267	4101
928.373	4736
928.479	4154
928.585	3960
928.69	4067
928.796	4128
928.901	4032
929.007	3903
929.112	4048
929.218	4006
929.323	3945
929.428	3964
929.533	4143
929.638	3918
929.743	4036
929.848	4090
929.953	3998
930.058	3968
930.163	3831
930.267	3888
930.372	3994
930.477	3835
930.581	4124
930.685	3994
930.79	3850
930.894	3896
930.998	3861
931.103	4097
931.207	3793
931.311	3713
931.415	3717
931.519	3595
931.623	3572
