Data from test_V78500241_1285.txt Node
Date: Fri Mar 25 16:57:56 CST 2022
User: usil
Spectrometer: V785-0024
Trigger mode: 0
Integration Time (sec): 4.000000E-1
Scans to average: 1
Nonlinearity correction enabled: false
Boxcar width: 0
Storing dark spectrum: false
XAxis mode: Wavelengths
Number of Pixels in Spectrum: 1024
>>>>>Begin Spectral Data<<<<<
801.071	7917
801.214	8016
801.356	7909
801.499	7830
801.641	7833
801.783	7875
801.926	7974
802.068	7978
802.211	7993
802.353	7951
802.496	7818
802.638	7898
802.78	7947
802.923	7925
803.065	7868
803.208	7883
803.35	7970
803.492	8054
803.635	8164
803.777	8035
803.919	8088
804.061	8412
804.204	8157
804.346	8065
804.488	7951
804.63	8115
804.773	8046
804.915	8191
805.057	8305
805.199	8183
805.341	8225
805.483	8282
805.626	8157
805.768	8058
805.91	8176
806.052	8252
806.194	8035
806.336	8313
806.478	8119
806.62	8046
806.762	8123
806.904	8301
807.046	8511
807.188	8347
807.33	8275
807.472	8313
807.614	8115
807.756	8119
807.898	8016
808.04	7951
808.182	7925
808.324	7932
808.465	7871
808.607	8176
808.749	8176
808.891	8164
809.033	8275
809.174	8168
809.316	8073
809.458	8107
809.6	8016
809.741	8084
809.883	8039
810.025	8043
810.166	8058
810.308	8069
810.45	7982
810.591	7860
810.733	7746
810.875	7681
811.016	7544
811.158	7495
811.299	7597
811.441	7765
811.582	7719
811.724	7628
811.865	7502
812.007	7563
812.148	7620
812.29	7609
812.431	7734
812.573	7875
812.714	7944
812.855	8062
812.997	8195
813.138	8301
813.279	8218
813.421	8084
813.562	8016
813.703	7890
813.845	7761
813.986	7396
814.127	7270
814.268	7213
814.41	7263
814.551	7175
814.692	7202
814.833	7057
814.974	7110
815.115	7050
815.256	6951
815.397	6935
815.539	6939
815.68	6848
815.821	6757
815.962	6852
816.103	6806
816.244	6715
816.385	6601
816.526	6604
816.666	6471
816.807	6285
816.948	6483
817.089	6429
817.23	6422
817.371	6308
817.512	6365
817.653	6407
817.793	6361
817.934	6376
818.075	6388
818.216	6399
818.356	6361
818.497	6258
818.638	6125
818.778	6155
818.919	6098
819.06	6182
819.2	6311
819.341	6281
819.481	6300
819.622	6551
819.762	6730
819.903	6673
820.043	6551
820.184	6589
820.324	6540
820.465	6692
820.605	6635
820.746	6646
820.886	6433
821.026	6582
821.167	6673
821.307	6749
821.447	6719
821.588	6623
821.728	6517
821.868	6467
822.008	6300
822.149	6391
822.289	6376
822.429	6095
822.569	6068
822.709	6167
822.849	5916
822.99	5893
823.13	5878
823.27	5863
823.41	5718
823.55	5733
823.69	5760
823.83	5771
823.97	5688
824.11	5558
824.25	5490
824.389	5528
824.529	5592
824.669	5543
824.809	5665
824.949	5649
825.089	5623
825.228	5547
825.368	5391
825.508	5391
825.648	5345
825.787	5440
825.927	5383
826.067	5261
826.206	5318
826.346	5395
826.485	5433
826.625	5436
826.765	5562
826.904	5463
827.044	5261
827.183	5269
827.323	5174
827.462	5284
827.601	5181
827.741	5227
827.88	5258
828.02	5113
828.159	5231
828.298	5368
828.437	5387
828.577	5288
828.716	5505
828.855	5372
828.994	5174
829.134	5189
829.273	5197
829.412	5109
829.551	5162
829.69	5208
829.829	5185
829.968	5410
830.107	5280
830.246	5307
830.385	5242
830.524	5143
830.663	5056
830.802	5022
830.941	4911
831.08	4900
831.219	5041
831.357	5037
831.496	5159
831.635	4934
831.774	4835
831.913	4854
832.051	4797
832.19	4793
832.329	4831
832.467	4752
832.606	4664
832.744	4759
832.883	4702
833.022	4786
833.16	4847
833.299	4839
833.437	4843
833.576	4828
833.714	4908
833.852	4889
833.991	4930
834.129	4961
834.267	4961
834.406	4968
834.544	4995
834.682	4949
834.821	5022
834.959	5189
835.097	5014
835.235	5170
835.373	5121
835.511	5185
835.65	5037
835.788	5052
835.926	4866
836.064	4877
836.202	4927
836.34	5231
836.478	5193
836.615	5140
836.753	5280
836.891	5311
837.029	5254
837.167	5197
837.305	5227
837.443	5140
837.58	5140
837.718	5265
837.856	5204
837.993	5197
838.131	5269
838.269	5223
838.406	5212
838.544	5121
838.681	5113
838.819	5025
838.956	4904
839.094	4923
839.231	5037
839.369	5124
839.506	5421
839.643	5280
839.781	5094
839.918	5052
840.055	5151
840.193	5143
840.33	5121
840.467	5121
840.604	5227
840.742	5482
840.879	5075
841.016	5140
841.153	5162
841.29	5433
841.427	5364
841.564	5368
841.701	5391
841.838	5318
841.975	5261
842.112	5315
842.249	5094
842.385	5155
842.522	5345
842.659	5212
842.796	5181
842.933	5166
843.069	5189
843.206	5170
843.343	5334
843.479	5269
843.616	5269
843.752	5056
843.889	5033
844.025	5162
844.162	5056
844.298	5181
844.435	5102
844.571	5075
844.708	5235
844.844	5296
844.98	5360
845.117	5311
845.253	5140
845.389	5140
845.525	5140
845.661	5193
845.798	5022
845.934	5166
846.07	5037
846.206	5235
846.342	5250
846.478	5181
846.614	5060
846.75	4957
846.886	4961
847.022	5140
847.158	5079
847.294	5067
847.429	5136
847.565	5075
847.701	5337
847.837	4915
847.972	4850
848.108	5025
848.244	4987
848.379	4774
848.515	4786
848.65	4744
848.786	4748
848.921	4835
849.057	4862
849.192	4900
849.328	4831
849.463	4866
849.598	4790
849.734	4767
849.869	4771
850.004	4634
850.14	4706
850.275	4611
850.41	4554
850.545	4626
850.68	4592
850.815	4626
850.95	4618
851.085	4889
851.22	4782
851.355	4672
851.49	4664
851.625	4672
851.76	4622
851.895	4615
852.03	4577
852.165	4675
852.299	4729
852.434	4797
852.569	4824
852.703	4809
852.838	4866
852.973	4968
853.107	4885
853.242	4771
853.376	4729
853.511	4607
853.645	4653
853.78	4835
853.914	4725
854.048	4672
854.183	4615
854.317	4729
854.451	4854
854.585	4664
854.72	4672
854.854	4744
854.988	4607
855.122	4664
855.256	4527
855.39	4656
855.524	4748
855.658	4736
855.792	4717
855.926	4748
856.06	4805
856.194	4771
856.327	4694
856.461	4653
856.595	4649
856.729	4630
856.862	4736
856.996	4694
857.13	4786
857.263	4778
857.397	4839
857.53	4683
857.664	4793
857.797	4778
857.931	4748
858.064	4694
858.197	4797
858.331	4672
858.464	4622
858.597	4508
858.731	4634
858.864	4649
858.997	4622
859.13	4725
859.263	4752
859.396	4729
859.529	4618
859.662	4577
859.795	4512
859.928	4664
860.061	4782
860.194	4790
860.327	4660
860.46	4584
860.592	4710
860.725	4774
860.858	4729
860.99	4596
861.123	4550
861.256	4535
861.388	4611
861.521	5178
861.653	4527
861.786	4470
861.918	4500
862.05	4523
862.183	4577
862.315	4580
862.447	4714
862.58	4542
862.712	4386
862.844	4341
862.976	4478
863.108	4451
863.24	4938
863.372	4329
863.504	4481
863.636	4386
863.768	4508
863.9	4451
864.032	4402
864.164	4451
864.296	4519
864.428	4542
864.559	4527
864.691	4561
864.823	4527
864.954	4535
865.086	4538
865.217	4481
865.349	4459
865.48	4504
865.612	4455
865.743	4656
865.875	4470
866.006	4462
866.137	4474
866.269	4455
866.4	4470
866.531	4462
866.662	4432
866.793	4421
866.924	4428
867.055	4500
867.186	4440
867.317	4459
867.448	4424
867.579	4440
867.71	4367
867.841	4367
867.972	4470
868.103	4424
868.233	4470
868.364	4481
868.495	4481
868.625	4675
868.756	4774
868.886	4599
869.017	4645
869.147	4763
869.278	4786
869.408	4660
869.539	4656
869.669	4744
869.799	4698
869.929	4759
870.06	4744
870.19	5014
870.32	4927
870.45	4972
870.58	5041
870.71	5060
870.84	5041
870.97	4949
871.1	4892
871.23	5128
871.36	5140
871.489	4987
871.619	5098
871.749	5086
871.879	5140
872.008	5143
872.138	5067
872.267	4965
872.397	4870
872.526	4812
872.656	4771
872.785	4805
872.915	4972
873.044	5052
873.173	4938
873.303	4942
873.432	4946
873.561	4957
873.69	4911
873.819	4850
873.948	4923
874.077	4820
874.206	4755
874.335	4828
874.464	4927
874.593	5071
874.722	4972
874.851	5124
874.979	5056
875.108	5029
875.237	4930
875.365	4949
875.494	4923
875.623	4976
875.751	4839
875.88	4934
876.008	4965
876.136	5022
876.265	5277
876.393	5372
876.521	5288
876.65	5239
876.778	5174
876.906	5105
877.034	5067
877.162	5113
877.29	4957
877.418	5048
877.546	5037
877.674	5060
877.802	5006
877.93	5071
878.058	4904
878.185	4919
878.313	4961
878.441	4896
878.568	4816
878.696	4812
878.824	4946
878.951	4965
879.079	5090
879.206	5311
879.333	5098
879.461	4961
879.588	5022
879.715	5151
879.842	5231
879.97	4999
880.097	4744
880.224	4755
880.351	4801
880.478	4812
880.605	4805
880.732	4824
880.859	5075
880.986	4862
881.112	4946
881.239	4801
881.366	4641
881.493	4641
881.619	4596
881.746	4675
881.872	4645
881.999	4649
882.125	4694
882.252	4774
882.378	4828
882.505	4965
882.631	4816
882.757	4698
882.883	4759
883.01	4679
883.136	4618
883.262	4607
883.388	4588
883.514	4885
883.64	4870
883.766	4782
883.892	4687
884.018	4767
884.143	4870
884.269	5018
884.395	4660
884.52	4584
884.646	4649
884.772	4603
884.897	4535
885.023	4679
885.148	4771
885.274	4904
885.399	4790
885.524	4771
885.65	4683
885.775	4740
885.9	4691
886.025	4831
886.15	4812
886.275	4767
886.4	4626
886.525	4744
886.65	4698
886.775	4679
886.9	4927
887.025	5083
887.149	4809
887.274	4694
887.399	4577
887.523	4592
887.648	4603
887.773	4664
887.897	4752
888.021	4725
888.146	4660
888.27	4782
888.395	4908
888.519	4839
888.643	4847
888.767	4839
888.891	4698
889.015	4599
889.139	4698
889.263	4607
889.387	4790
889.511	4877
889.635	4801
889.759	4691
889.883	4656
890.006	4717
890.13	4889
890.254	4607
890.377	4675
890.501	4508
890.624	4508
890.748	4641
890.871	4554
890.995	4424
891.118	4447
891.241	4485
891.364	4561
891.488	4641
891.611	4504
891.734	4565
891.857	4618
891.98	4535
892.103	4637
892.226	4618
892.349	4535
892.471	4451
892.594	4558
892.717	4561
892.839	4569
892.962	4626
893.085	4637
893.207	4596
893.33	4459
893.452	4535
893.575	4664
893.697	4569
893.819	4759
893.941	4866
894.064	4771
894.186	4573
894.308	4527
894.43	4763
894.552	4862
894.674	4767
894.796	4565
894.918	4630
895.04	4577
895.161	4687
895.283	4630
895.405	4588
895.526	4653
895.648	4694
895.769	4675
895.891	4721
896.012	4752
896.134	4740
896.255	4679
896.376	4641
896.498	4546
896.619	4717
896.74	4580
896.861	4634
896.982	4930
897.103	5102
897.224	4835
897.345	4763
897.466	4698
897.587	4717
897.708	4881
897.828	4790
897.949	4687
898.07	4630
898.19	4675
898.311	4847
898.431	4736
898.552	4797
898.672	4862
898.792	4767
898.913	4752
899.033	4622
899.153	4485
899.273	4443
899.393	4508
899.513	4531
899.633	4500
899.753	4580
899.873	4550
899.993	4565
900.113	4538
900.232	4592
900.352	4523
900.472	4497
900.591	4417
900.711	4497
900.83	4386
900.95	4565
901.069	4714
901.189	4558
901.308	4348
901.427	4314
901.546	4337
901.665	4470
901.784	4478
901.904	4341
902.023	4352
902.141	4207
902.26	4185
902.379	4284
902.498	4215
902.617	4257
902.735	4333
902.854	4383
902.973	4375
903.091	4158
903.21	4215
903.328	4310
903.446	4265
903.565	4272
903.683	4371
903.801	4291
903.919	4379
904.038	4413
904.156	4325
904.274	4371
904.392	4390
904.51	4432
904.627	4459
904.745	4592
904.863	4637
904.981	4394
905.098	4318
905.216	4371
905.334	4432
905.451	4417
905.569	4481
905.686	4565
905.803	4561
905.921	4417
906.038	4546
906.155	4474
906.272	4398
906.389	4485
906.506	4314
906.623	4360
906.74	4409
906.857	4291
906.974	4363
907.091	4596
907.208	4714
907.324	4565
907.441	4504
907.557	4367
907.674	4383
907.79	4363
907.907	4394
908.023	4443
908.139	4447
908.256	4436
908.372	4466
908.488	4405
908.604	4405
908.72	4322
908.836	4352
908.952	4394
909.068	4432
909.184	4550
909.3	4478
909.415	4615
909.531	4565
909.647	4333
909.762	4337
909.878	4386
909.993	4424
910.108	4375
910.224	4443
910.339	4489
910.454	4390
910.57	4390
910.685	4310
910.8	4637
910.915	4584
911.03	4478
911.145	4341
911.259	4333
911.374	4363
911.489	4325
911.604	4238
911.718	4169
911.833	4207
911.947	4059
912.062	4010
912.176	4196
912.291	4223
912.405	4284
912.519	4462
912.633	4474
912.748	4333
912.862	4295
912.976	4196
913.09	4067
913.204	4162
913.318	4280
913.431	4356
913.545	4405
913.659	4424
913.772	4337
913.886	4242
914	4234
914.113	4363
914.226	4432
914.34	4390
914.453	4196
914.566	4432
914.68	4284
914.793	4356
914.906	4147
915.019	4105
915.132	4074
915.245	4150
915.358	4238
915.47	4261
915.583	4268
915.696	4341
915.809	4375
915.921	4447
916.034	4287
916.146	4276
916.259	4230
916.371	4402
916.483	4390
916.595	4242
916.708	4295
916.82	4299
916.932	4322
917.044	4276
917.156	4356
917.268	4230
917.38	4310
917.491	4284
917.603	4306
917.715	4451
917.826	4462
917.938	4356
918.049	4268
918.161	4405
918.272	4542
918.384	4558
918.495	4432
918.606	4344
918.717	4265
918.828	4318
918.939	4386
919.05	4303
919.161	4295
919.272	4090
919.383	4215
919.494	4428
919.604	4656
919.715	4383
919.826	4344
919.936	4432
920.047	4478
920.157	4466
920.267	4710
920.378	4565
920.488	4512
920.598	4687
920.708	4904
920.818	4733
920.928	4774
921.038	4938
921.148	4881
921.258	4675
921.368	4512
921.477	4474
921.587	4462
921.697	4371
921.806	4527
921.916	4421
922.025	4261
922.134	4299
922.244	4234
922.353	4314
922.462	4162
922.571	4059
922.68	4010
922.789	3953
922.898	4002
923.007	4036
923.116	4131
923.224	4040
923.333	4101
923.442	3964
923.55	4002
923.659	4086
923.767	4109
923.876	3960
923.984	4044
924.092	3983
924.201	4105
924.309	4029
924.417	4101
924.525	4071
924.633	4048
924.741	5029
924.849	3937
924.956	4112
925.064	3960
925.172	3876
925.279	3922
925.387	4071
925.494	4040
925.602	4219
925.709	4154
925.816	4040
925.924	4101
926.031	4227
926.138	4109
926.245	4230
926.352	4067
926.459	4242
926.566	4310
926.673	4158
926.779	4074
926.886	4112
926.993	3941
927.099	3949
927.206	3884
927.312	3968
927.419	4048
927.525	4013
927.631	4044
927.737	4013
927.843	3968
927.95	3850
928.056	3941
928.162	3968
928.267	4063
928.373	4710
928.479	4131
928.585	3876
928.69	4017
928.796	4063
928.901	3949
929.007	3819
929.112	3983
929.218	3972
929.323	3934
929.428	3998
929.533	4063
929.638	3880
929.743	3956
929.848	4063
929.953	3953
930.058	3903
930.163	3755
930.267	3857
930.372	3972
930.477	3819
930.581	4048
930.685	3941
930.79	3854
930.894	3888
930.998	3842
931.103	4010
931.207	3679
931.311	3675
931.415	3656
931.519	3523
931.623	3568
