Data from test_V78500241_1379.txt Node
Date: Fri Mar 25 16:58:35 CST 2022
User: usil
Spectrometer: V785-0024
Trigger mode: 0
Integration Time (sec): 4.000000E-1
Scans to average: 1
Nonlinearity correction enabled: false
Boxcar width: 0
Storing dark spectrum: false
XAxis mode: Wavelengths
Number of Pixels in Spectrum: 1024
>>>>>Begin Spectral Data<<<<<
801.071	7894
801.214	7970
801.356	7860
801.499	7868
801.641	7807
801.783	7776
801.926	7955
802.068	7932
802.211	7967
802.353	7970
802.496	7788
802.638	7826
802.78	7856
802.923	7970
803.065	7864
803.208	7814
803.35	7997
803.492	8119
803.635	8123
803.777	8065
803.919	8119
804.061	8423
804.204	8153
804.346	8046
804.488	7925
804.63	8111
804.773	8039
804.915	8096
805.057	8298
805.199	8130
805.341	8206
805.483	8275
805.626	8225
805.768	8142
805.91	8149
806.052	8161
806.194	8088
806.336	8267
806.478	8077
806.62	8096
806.762	8081
806.904	8275
807.046	8507
807.188	8362
807.33	8267
807.472	8347
807.614	8123
807.756	8046
807.898	8008
808.04	7879
808.182	7883
808.324	7944
808.465	7974
808.607	8058
808.749	8088
808.891	8183
809.033	8309
809.174	8157
809.316	8077
809.458	8065
809.6	7982
809.741	8031
809.883	8005
810.025	8050
810.166	8065
810.308	8107
810.45	8001
810.591	7887
810.733	7731
810.875	7597
811.016	7544
811.158	7483
811.299	7620
811.441	7639
811.582	7712
811.724	7601
811.865	7533
812.007	7525
812.148	7605
812.29	7628
812.431	7814
812.573	7883
812.714	7982
812.855	8092
812.997	8183
813.138	8279
813.279	8134
813.421	8107
813.562	7928
813.703	7826
813.845	7731
813.986	7434
814.127	7266
814.268	7285
814.41	7202
814.551	7183
814.692	7190
814.833	7099
814.974	7080
815.115	7061
815.256	6970
815.397	6844
815.539	6996
815.68	6818
815.821	6787
815.962	6901
816.103	6886
816.244	6707
816.385	6597
816.526	6631
816.666	6490
816.807	6357
816.948	6395
817.089	6486
817.23	6418
817.371	6422
817.512	6353
817.653	6380
817.793	6361
817.934	6338
818.075	6445
818.216	6399
818.356	6289
818.497	6224
818.638	6117
818.778	6197
818.919	6136
819.06	6175
819.2	6270
819.341	6315
819.481	6315
819.622	6589
819.762	6669
819.903	6749
820.043	6585
820.184	6544
820.324	6517
820.465	6658
820.605	6673
820.746	6627
820.886	6506
821.026	6593
821.167	6688
821.307	6768
821.447	6814
821.588	6665
821.728	6559
821.868	6502
822.008	6289
822.149	6353
822.289	6334
822.429	6182
822.569	6083
822.709	6076
822.849	5923
822.99	5866
823.13	5912
823.27	5931
823.41	5756
823.55	5714
823.69	5756
823.83	5726
823.97	5665
824.11	5547
824.25	5516
824.389	5539
824.529	5539
824.669	5520
824.809	5600
824.949	5649
825.089	5604
825.228	5505
825.368	5414
825.508	5353
825.648	5360
825.787	5383
825.927	5341
826.067	5330
826.206	5269
826.346	5349
826.485	5425
826.625	5391
826.765	5482
826.904	5478
827.044	5216
827.183	5220
827.323	5140
827.462	5193
827.601	5143
827.741	5193
827.88	5143
828.02	5117
828.159	5220
828.298	5246
828.437	5391
828.577	5288
828.716	5429
828.855	5269
828.994	5113
829.134	5170
829.273	5166
829.412	5136
829.551	5121
829.69	5162
829.829	5269
829.968	5349
830.107	5246
830.246	5299
830.385	5086
830.524	5140
830.663	5105
830.802	4946
830.941	4847
831.08	4854
831.219	4980
831.357	4908
831.496	5105
831.635	4900
831.774	4824
831.913	4790
832.051	4725
832.19	4752
832.329	4782
832.467	4679
832.606	4622
832.744	4771
832.883	4717
833.022	4664
833.16	4854
833.299	4801
833.437	4790
833.576	4820
833.714	4847
833.852	4877
833.991	4854
834.129	4972
834.267	4957
834.406	4934
834.544	4911
834.682	4995
834.821	4934
834.959	5090
835.097	4972
835.235	5102
835.373	5067
835.511	5094
835.65	5064
835.788	5041
835.926	4915
836.064	4889
836.202	4873
836.34	5151
836.478	5239
836.615	5094
836.753	5208
836.891	5273
837.029	5261
837.167	5185
837.305	5151
837.443	5155
837.58	5048
837.718	5231
837.856	5155
837.993	5113
838.131	5178
838.269	5208
838.406	5181
838.544	5189
838.681	5037
838.819	5022
838.956	4892
839.094	4896
839.231	4995
839.369	5071
839.506	5417
839.643	5197
839.781	5025
839.918	5056
840.055	5052
840.193	5105
840.33	5105
840.467	5159
840.604	5185
840.742	5417
840.879	5052
841.016	5033
841.153	5102
841.29	5303
841.427	5326
841.564	5288
841.701	5296
841.838	5235
841.975	5212
842.112	5261
842.249	5143
842.385	5083
842.522	5284
842.659	5208
842.796	5083
842.933	5181
843.069	5094
843.206	5181
843.343	5311
843.479	5265
843.616	5250
843.752	5003
843.889	4987
844.025	5170
844.162	5067
844.298	5159
844.435	5010
844.571	4999
844.708	5231
844.844	5311
844.98	5277
845.117	5231
845.253	5174
845.389	5064
845.525	5151
845.661	5170
845.798	5052
845.934	5121
846.07	5086
846.206	5162
846.342	5246
846.478	5193
846.614	4976
846.75	5006
846.886	4915
847.022	5090
847.158	4995
847.294	5037
847.429	5124
847.565	5048
847.701	5280
847.837	4854
847.972	4828
848.108	4900
848.244	4900
848.379	4706
848.515	4721
848.65	4687
848.786	4752
848.921	4774
849.057	4828
849.192	4904
849.328	4782
849.463	4816
849.598	4771
849.734	4748
849.869	4649
850.004	4641
850.14	4683
850.275	4573
850.41	4516
850.545	4558
850.68	4569
850.815	4596
850.95	4626
851.085	4820
851.22	4736
851.355	4675
851.49	4577
851.625	4634
851.76	4607
851.895	4516
852.03	4535
852.165	4622
852.299	4691
852.434	4793
852.569	4725
852.703	4725
852.838	4828
852.973	4904
853.107	4915
853.242	4717
853.376	4668
853.511	4519
853.645	4558
853.78	4790
853.914	4721
854.048	4626
854.183	4672
854.317	4672
854.451	4797
854.585	4645
854.72	4683
854.854	4752
854.988	4672
855.122	4630
855.256	4462
855.39	4653
855.524	4736
855.658	4698
855.792	4698
855.926	4660
856.06	4755
856.194	4831
856.327	4660
856.461	4584
856.595	4588
856.729	4626
856.862	4668
856.996	4691
857.13	4691
857.263	4755
857.397	4786
857.53	4660
857.664	4698
857.797	4778
857.931	4740
858.064	4668
858.197	4744
858.331	4637
858.464	4584
858.597	4546
858.731	4615
858.864	4622
858.997	4618
859.13	4618
859.263	4653
859.396	4755
859.529	4588
859.662	4546
859.795	4512
859.928	4626
860.061	4736
860.194	4740
860.327	4580
860.46	4550
860.592	4755
860.725	4755
860.858	4679
860.99	4580
861.123	4500
861.256	4504
861.388	4577
861.521	5414
861.653	4443
861.786	4436
861.918	4455
862.05	4474
862.183	4596
862.315	4538
862.447	4588
862.58	4546
862.712	4386
862.844	4318
862.976	4512
863.108	4402
863.24	4870
863.372	4306
863.504	4402
863.636	4405
863.768	4470
863.9	4428
864.032	4333
864.164	4440
864.296	4459
864.428	4565
864.559	4531
864.691	4542
864.823	4531
864.954	4436
865.086	4508
865.217	4417
865.349	4405
865.48	4451
865.612	4470
865.743	4599
865.875	4493
866.006	4436
866.137	4470
866.269	4462
866.4	4409
866.531	4421
866.662	4367
866.793	4398
866.924	4421
867.055	4500
867.186	4489
867.317	4451
867.448	4402
867.579	4348
867.71	4394
867.841	4363
867.972	4417
868.103	4462
868.233	4447
868.364	4440
868.495	4485
868.625	4618
868.756	4820
868.886	4580
869.017	4641
869.147	4733
869.278	4759
869.408	4656
869.539	4596
869.669	4687
869.799	4603
869.929	4767
870.06	4672
870.19	4938
870.32	4915
870.45	4961
870.58	4991
870.71	5083
870.84	5056
870.97	4946
871.1	4854
871.23	5166
871.36	5094
871.489	5022
871.619	4999
871.749	5083
871.879	5105
872.008	5121
872.138	5083
872.267	4949
872.397	4854
872.526	4793
872.656	4725
872.785	4816
872.915	4949
873.044	4965
873.173	4934
873.303	4934
873.432	4896
873.561	4949
873.69	4812
873.819	4850
873.948	4892
874.077	4786
874.206	4748
874.335	4782
874.464	4911
874.593	5037
874.722	4987
874.851	5086
874.979	5029
875.108	5060
875.237	4896
875.365	4828
875.494	4843
875.623	4984
875.751	4839
875.88	4930
876.008	4957
876.136	5006
876.265	5159
876.393	5357
876.521	5284
876.65	5208
876.778	5151
876.906	5086
877.034	5018
877.162	4991
877.29	4957
877.418	5075
877.546	5029
877.674	5025
877.802	4961
877.93	5045
878.058	4961
878.185	4877
878.313	4942
878.441	4927
878.568	4790
878.696	4858
878.824	4980
878.951	4995
879.079	5124
879.206	5273
879.333	5086
879.461	4984
879.588	4972
879.715	5151
879.842	5178
879.97	5029
880.097	4778
880.224	4714
880.351	4778
880.478	4820
880.605	4752
880.732	4759
880.859	5105
880.986	4881
881.112	4885
881.239	4759
881.366	4645
881.493	4573
881.619	4565
881.746	4615
881.872	4645
881.999	4675
882.125	4683
882.252	4771
882.378	4812
882.505	4984
882.631	4835
882.757	4641
882.883	4763
883.01	4778
883.136	4656
883.262	4561
883.388	4565
883.514	4767
883.64	4824
883.766	4752
883.892	4672
884.018	4721
884.143	4854
884.269	5003
884.395	4607
884.52	4592
884.646	4653
884.772	4561
884.897	4516
885.023	4622
885.148	4771
885.274	4839
885.399	4782
885.524	4698
885.65	4683
885.775	4717
885.9	4672
886.025	4828
886.15	4778
886.275	4706
886.4	4626
886.525	4698
886.65	4714
886.775	4668
886.9	4881
887.025	5071
887.149	4801
887.274	4599
887.399	4615
887.523	4649
887.648	4599
887.773	4565
887.897	4771
888.021	4782
888.146	4656
888.27	4828
888.395	4885
888.519	4771
888.643	4801
888.767	4824
888.891	4653
889.015	4592
889.139	4596
889.263	4523
889.387	4736
889.511	4866
889.635	4752
889.759	4607
889.883	4622
890.006	4729
890.13	4831
890.254	4630
890.377	4683
890.501	4546
890.624	4542
890.748	4634
890.871	4489
890.995	4409
891.118	4333
891.241	4516
891.364	4497
891.488	4618
891.611	4478
891.734	4558
891.857	4592
891.98	4554
892.103	4641
892.226	4577
892.349	4531
892.471	4417
892.594	4489
892.717	4596
892.839	4550
892.962	4596
893.085	4668
893.207	4596
893.33	4447
893.452	4451
893.575	4656
893.697	4542
893.819	4812
893.941	4805
894.064	4752
894.186	4596
894.308	4531
894.43	4733
894.552	4759
894.674	4733
894.796	4577
894.918	4554
895.04	4565
895.161	4702
895.283	4611
895.405	4512
895.526	4618
895.648	4702
895.769	4691
895.891	4702
896.012	4729
896.134	4706
896.255	4645
896.376	4622
896.498	4580
896.619	4641
896.74	4596
896.861	4649
896.982	4915
897.103	5014
897.224	4812
897.345	4736
897.466	4679
897.587	4725
897.708	4816
897.828	4790
897.949	4630
898.07	4573
898.19	4588
898.311	4816
898.431	4637
898.552	4755
898.672	4782
898.792	4805
898.913	4771
899.033	4573
899.153	4489
899.273	4390
899.393	4512
899.513	4535
899.633	4531
899.753	4596
899.873	4493
899.993	4615
900.113	4516
900.232	4565
900.352	4531
900.472	4478
900.591	4394
900.711	4512
900.83	4421
900.95	4615
901.069	4622
901.189	4500
901.308	4367
901.427	4306
901.546	4344
901.665	4512
901.784	4523
901.904	4356
902.023	4348
902.141	4147
902.26	4181
902.379	4329
902.498	4234
902.617	4242
902.735	4356
902.854	4428
902.973	4390
903.091	4227
903.21	4215
903.328	4318
903.446	4249
903.565	4261
903.683	4356
903.801	4268
903.919	4394
904.038	4405
904.156	4333
904.274	4402
904.392	4428
904.51	4459
904.627	4455
904.745	4599
904.863	4611
904.981	4394
905.098	4341
905.216	4402
905.334	4443
905.451	4375
905.569	4440
905.686	4580
905.803	4603
905.921	4402
906.038	4497
906.155	4481
906.272	4436
906.389	4470
906.506	4303
906.623	4348
906.74	4398
906.857	4291
906.974	4371
907.091	4569
907.208	4637
907.324	4554
907.441	4451
907.557	4337
907.674	4299
907.79	4375
907.907	4386
908.023	4462
908.139	4447
908.256	4405
908.372	4462
908.488	4424
908.604	4348
908.72	4371
908.836	4356
908.952	4440
909.068	4402
909.184	4569
909.3	4489
909.415	4611
909.531	4554
909.647	4379
909.762	4360
909.878	4344
909.993	4383
910.108	4417
910.224	4379
910.339	4489
910.454	4398
910.57	4352
910.685	4314
910.8	4668
910.915	4599
911.03	4485
911.145	4284
911.259	4383
911.374	4383
911.489	4272
911.604	4268
911.718	4166
911.833	4204
911.947	4093
912.062	4002
912.176	4192
912.291	4257
912.405	4200
912.519	4413
912.633	4478
912.748	4325
912.862	4291
912.976	4234
913.09	4071
913.204	4162
913.318	4284
913.431	4341
913.545	4390
913.659	4436
913.772	4352
913.886	4284
914	4181
914.113	4360
914.226	4394
914.34	4367
914.453	4227
914.566	4417
914.68	4310
914.793	4291
914.906	4158
915.019	4082
915.132	4071
915.245	4158
915.358	4211
915.47	4253
915.583	4230
915.696	4280
915.809	4440
915.921	4394
916.034	4276
916.146	4268
916.259	4230
916.371	4352
916.483	4344
916.595	4272
916.708	4341
916.82	4303
916.932	4344
917.044	4303
917.156	4306
917.268	4204
917.38	4272
917.491	4227
917.603	4306
917.715	4398
917.826	4402
917.938	4329
918.049	4246
918.161	4398
918.272	4546
918.384	4512
918.495	4428
918.606	4291
918.717	4207
918.828	4284
918.939	4329
919.05	4234
919.161	4295
919.272	4128
919.383	4200
919.494	4466
919.604	4577
919.715	4436
919.826	4303
919.936	4367
920.047	4512
920.157	4478
920.267	4683
920.378	4565
920.488	4508
920.598	4694
920.708	4850
920.818	4767
920.928	4755
921.038	4892
921.148	4911
921.258	4599
921.368	4565
921.477	4500
921.587	4428
921.697	4375
921.806	4596
921.916	4417
922.025	4265
922.134	4265
922.244	4207
922.353	4291
922.462	4173
922.571	4051
922.68	3991
922.789	3968
922.898	4071
923.007	3972
923.116	4120
923.224	4063
923.333	4063
923.442	3956
923.55	4002
923.659	4036
923.767	4105
923.876	4002
923.984	4128
924.092	3968
924.201	4105
924.309	4067
924.417	4090
924.525	4055
924.633	4097
924.741	4995
924.849	3953
924.956	4135
925.064	3968
925.172	3899
925.279	3979
925.387	4051
925.494	3994
925.602	4215
925.709	4128
925.816	4051
925.924	4135
926.031	4234
926.138	4166
926.245	4192
926.352	4093
926.459	4230
926.566	4287
926.673	4158
926.779	4048
926.886	4063
926.993	3987
927.099	3953
927.206	3941
927.312	3945
927.419	4025
927.525	3998
927.631	4078
927.737	3975
927.843	3941
927.95	3778
928.056	3941
928.162	4029
928.267	4051
928.373	4717
928.479	4078
928.585	3865
928.69	3975
928.796	4051
928.901	3956
929.007	3831
929.112	3994
929.218	3987
929.323	3953
929.428	3953
929.533	4071
929.638	3896
929.743	3987
929.848	4021
929.953	4032
930.058	3964
930.163	3774
930.267	3789
930.372	3972
930.477	3835
930.581	4082
930.685	3949
930.79	3827
930.894	3880
930.998	3854
931.103	4017
931.207	3705
931.311	3705
931.415	3625
931.519	3504
931.623	3557
