Data from test_V78500241_1077.txt Node
Date: Fri Mar 25 16:56:29 CST 2022
User: usil
Spectrometer: V785-0024
Trigger mode: 0
Integration Time (sec): 4.000000E-1
Scans to average: 1
Nonlinearity correction enabled: false
Boxcar width: 0
Storing dark spectrum: false
XAxis mode: Wavelengths
Number of Pixels in Spectrum: 1024
>>>>>Begin Spectral Data<<<<<
801.071	8005
801.214	8008
801.356	7913
801.499	7799
801.641	7708
801.783	7792
801.926	7928
802.068	7875
802.211	7909
802.353	7967
802.496	7765
802.638	7845
802.78	7909
802.923	7963
803.065	7852
803.208	7902
803.35	7970
803.492	8092
803.635	8225
803.777	8062
803.919	8126
804.061	8385
804.204	8134
804.346	8027
804.488	7974
804.63	8107
804.773	8027
804.915	8218
805.057	8252
805.199	8221
805.341	8218
805.483	8199
805.626	8210
805.768	8062
805.91	8153
806.052	8195
806.194	8115
806.336	8252
806.478	8020
806.62	8073
806.762	8111
806.904	8256
807.046	8374
807.188	8301
807.33	8271
807.472	8271
807.614	8138
807.756	8111
807.898	8012
808.04	7936
808.182	7887
808.324	7871
808.465	7837
808.607	8005
808.749	8081
808.891	8191
809.033	8298
809.174	8199
809.316	8058
809.458	7944
809.6	7944
809.741	8001
809.883	8001
810.025	8050
810.166	8043
810.308	7974
810.45	8012
810.591	7883
810.733	7788
810.875	7685
811.016	7476
811.158	7521
811.299	7643
811.441	7723
811.582	7677
811.724	7544
811.865	7499
812.007	7548
812.148	7616
812.29	7616
812.431	7746
812.573	7883
812.714	7963
812.855	8069
812.997	8210
813.138	8332
813.279	8123
813.421	8058
813.562	8054
813.703	7856
813.845	7757
813.986	7411
814.127	7206
814.268	7209
814.41	7213
814.551	7110
814.692	7160
814.833	7012
814.974	7061
815.115	7091
815.256	6943
815.397	6924
815.539	6916
815.68	6840
815.821	6726
815.962	6821
816.103	6848
816.244	6715
816.385	6601
816.526	6608
816.666	6464
816.807	6243
816.948	6407
817.089	6471
817.23	6418
817.371	6346
817.512	6414
817.653	6486
817.793	6357
817.934	6357
818.075	6372
818.216	6456
818.356	6475
818.497	6243
818.638	6095
818.778	6133
818.919	6140
819.06	6144
819.2	6232
819.341	6350
819.481	6369
819.622	6494
819.762	6768
819.903	6722
820.043	6623
820.184	6574
820.324	6544
820.465	6696
820.605	6665
820.746	6635
820.886	6506
821.026	6635
821.167	6703
821.307	6829
821.447	6760
821.588	6646
821.728	6525
821.868	6494
822.008	6319
822.149	6422
822.289	6357
822.429	6152
822.569	6022
822.709	6034
822.849	5893
822.99	5935
823.13	5912
823.27	5844
823.41	5821
823.55	5790
823.69	5726
823.83	5794
823.97	5638
824.11	5509
824.25	5539
824.389	5520
824.529	5562
824.669	5497
824.809	5627
824.949	5592
825.089	5573
825.228	5524
825.368	5406
825.508	5357
825.648	5326
825.787	5417
825.927	5337
826.067	5261
826.206	5269
826.346	5383
826.485	5391
826.625	5360
826.765	5482
826.904	5444
827.044	5235
827.183	5193
827.323	5079
827.462	5181
827.601	5170
827.741	5193
827.88	5231
828.02	5098
828.159	5162
828.298	5280
828.437	5326
828.577	5254
828.716	5425
828.855	5250
828.994	5155
829.134	5178
829.273	5174
829.412	5151
829.551	5121
829.69	5170
829.829	5227
829.968	5318
830.107	5258
830.246	5292
830.385	5136
830.524	5071
830.663	5067
830.802	4915
830.941	4847
831.08	4805
831.219	4987
831.357	4938
831.496	5083
831.635	4908
831.774	4889
831.913	4801
832.051	4733
832.19	4694
832.329	4812
832.467	4687
832.606	4611
832.744	4725
832.883	4694
833.022	4733
833.16	4805
833.299	4816
833.437	4793
833.576	4805
833.714	4850
833.852	4835
833.991	4858
834.129	4942
834.267	4923
834.406	4923
834.544	4965
834.682	4999
834.821	4938
834.959	5178
835.097	4942
835.235	5109
835.373	5060
835.511	5094
835.65	5064
835.788	5006
835.926	4923
836.064	4831
836.202	4885
836.34	5181
836.478	5235
836.615	5071
836.753	5204
836.891	5269
837.029	5204
837.167	5216
837.305	5128
837.443	5121
837.58	5067
837.718	5162
837.856	5121
837.993	5155
838.131	5227
838.269	5193
838.406	5170
838.544	5094
838.681	4984
838.819	5018
838.956	4877
839.094	4923
839.231	4953
839.369	5045
839.506	5357
839.643	5235
839.781	5090
839.918	4987
840.055	5121
840.193	5014
840.33	5109
840.467	5117
840.604	5189
840.742	5433
840.879	5098
841.016	5113
841.153	5105
841.29	5330
841.427	5318
841.564	5318
841.701	5357
841.838	5254
841.975	5265
842.112	5258
842.249	5086
842.385	5075
842.522	5303
842.659	5174
842.796	5143
842.933	5170
843.069	5121
843.206	5117
843.343	5258
843.479	5227
843.616	5239
843.752	5014
843.889	5014
844.025	5170
844.162	5022
844.298	5166
844.435	5056
844.571	5014
844.708	5162
844.844	5311
844.98	5349
845.117	5292
845.253	5064
845.389	5048
845.525	5128
845.661	5193
845.798	5060
845.934	5155
846.07	5025
846.206	5159
846.342	5250
846.478	5166
846.614	4953
846.75	4957
846.886	4892
847.022	5075
847.158	5014
847.294	5045
847.429	5105
847.565	5060
847.701	5330
847.837	4793
847.972	4793
848.108	4980
848.244	4927
848.379	4752
848.515	4717
848.65	4725
848.786	4710
848.921	4717
849.057	4885
849.192	4870
849.328	4809
849.463	4801
849.598	4729
849.734	4729
849.869	4683
850.004	4634
850.14	4634
850.275	4599
850.41	4542
850.545	4535
850.68	4611
850.815	4596
850.95	4615
851.085	4820
851.22	4714
851.355	4649
851.49	4569
851.625	4641
851.76	4596
851.895	4519
852.03	4523
852.165	4634
852.299	4721
852.434	4763
852.569	4721
852.703	4687
852.838	4831
852.973	4919
853.107	4930
853.242	4774
853.376	4649
853.511	4573
853.645	4615
853.78	4797
853.914	4664
854.048	4645
854.183	4611
854.317	4679
854.451	4809
854.585	4645
854.72	4615
854.854	4748
854.988	4626
855.122	4649
855.256	4455
855.39	4626
855.524	4774
855.658	4679
855.792	4675
855.926	4698
856.06	4774
856.194	4809
856.327	4645
856.461	4573
856.595	4592
856.729	4656
856.862	4714
856.996	4653
857.13	4736
857.263	4740
857.397	4797
857.53	4653
857.664	4675
857.797	4790
857.931	4778
858.064	4664
858.197	4748
858.331	4622
858.464	4596
858.597	4497
858.731	4584
858.864	4622
858.997	4596
859.13	4649
859.263	4698
859.396	4679
859.529	4527
859.662	4542
859.795	4508
859.928	4630
860.061	4725
860.194	4774
860.327	4618
860.46	4565
860.592	4725
860.725	4702
860.858	4710
860.99	4588
861.123	4504
861.256	4493
861.388	4592
861.521	5433
861.653	4497
861.786	4440
861.918	4440
862.05	4481
862.183	4497
862.315	4592
862.447	4660
862.58	4523
862.712	4424
862.844	4325
862.976	4436
863.108	4447
863.24	4892
863.372	4337
863.504	4394
863.636	4421
863.768	4443
863.9	4443
864.032	4379
864.164	4390
864.296	4500
864.428	4516
864.559	4561
864.691	4523
864.823	4512
864.954	4470
865.086	4535
865.217	4436
865.349	4371
865.48	4474
865.612	4462
865.743	4527
865.875	4432
866.006	4402
866.137	4497
866.269	4436
866.4	4451
866.531	4428
866.662	4413
866.793	4356
866.924	4462
867.055	4470
867.186	4451
867.317	4394
867.448	4367
867.579	4398
867.71	4398
867.841	4402
867.972	4474
868.103	4508
868.233	4443
868.364	4428
868.495	4428
868.625	4668
868.756	4717
868.886	4531
869.017	4596
869.147	4778
869.278	4702
869.408	4675
869.539	4588
869.669	4691
869.799	4645
869.929	4714
870.06	4725
870.19	4934
870.32	4862
870.45	4934
870.58	5003
870.71	5071
870.84	5048
870.97	4934
871.1	4923
871.23	5151
871.36	5071
871.489	5052
871.619	5048
871.749	5056
871.879	5124
872.008	5170
872.138	5117
872.267	4965
872.397	4809
872.526	4850
872.656	4748
872.785	4782
872.915	4961
873.044	5010
873.173	4927
873.303	4927
873.432	4934
873.561	4953
873.69	4831
873.819	4843
873.948	4953
874.077	4805
874.206	4733
874.335	4759
874.464	4900
874.593	5033
874.722	5014
874.851	5071
874.979	4984
875.108	5018
875.237	4896
875.365	4839
875.494	4877
875.623	4953
875.751	4843
875.88	4866
876.008	4980
876.136	4984
876.265	5223
876.393	5288
876.521	5220
876.65	5201
876.778	5132
876.906	5006
877.034	5045
877.162	5025
877.29	5041
877.418	5056
877.546	5029
877.674	5079
877.802	4987
877.93	4991
878.058	4870
878.185	4801
878.313	4946
878.441	4908
878.568	4774
878.696	4824
878.824	4911
878.951	4946
879.079	5086
879.206	5254
879.333	5109
879.461	5018
879.588	4942
879.715	5083
879.842	5193
879.97	4965
880.097	4774
880.224	4714
880.351	4793
880.478	4774
880.605	4736
880.732	4778
880.859	5067
880.986	4870
881.112	4877
881.239	4778
881.366	4626
881.493	4599
881.619	4599
881.746	4618
881.872	4596
881.999	4656
882.125	4672
882.252	4778
882.378	4885
882.505	4870
882.631	4793
882.757	4637
882.883	4767
883.01	4702
883.136	4668
883.262	4580
883.388	4603
883.514	4824
883.64	4801
883.766	4763
883.892	4653
884.018	4748
884.143	4904
884.269	4999
884.395	4679
884.52	4660
884.646	4630
884.772	4599
884.897	4512
885.023	4668
885.148	4767
885.274	4850
885.399	4793
885.524	4706
885.65	4691
885.775	4752
885.9	4702
886.025	4771
886.15	4793
886.275	4706
886.4	4672
886.525	4714
886.65	4672
886.775	4660
886.9	4911
887.025	5006
887.149	4805
887.274	4668
887.399	4535
887.523	4592
887.648	4546
887.773	4618
887.897	4744
888.021	4752
888.146	4637
888.27	4801
888.395	4919
888.519	4759
888.643	4828
888.767	4809
888.891	4630
889.015	4550
889.139	4592
889.263	4599
889.387	4752
889.511	4873
889.635	4748
889.759	4592
889.883	4668
890.006	4736
890.13	4854
890.254	4607
890.377	4641
890.501	4550
890.624	4481
890.748	4618
890.871	4500
890.995	4432
891.118	4409
891.241	4508
891.364	4531
891.488	4580
891.611	4478
891.734	4489
891.857	4630
891.98	4542
892.103	4660
892.226	4603
892.349	4481
892.471	4394
892.594	4618
892.717	4607
892.839	4596
892.962	4550
893.085	4653
893.207	4577
893.33	4421
893.452	4523
893.575	4664
893.697	4535
893.819	4771
893.941	4778
894.064	4763
894.186	4596
894.308	4580
894.43	4744
894.552	4797
894.674	4706
894.796	4497
894.918	4592
895.04	4550
895.161	4687
895.283	4675
895.405	4558
895.526	4626
895.648	4641
895.769	4691
895.891	4717
896.012	4714
896.134	4710
896.255	4672
896.376	4637
896.498	4550
896.619	4672
896.74	4611
896.861	4603
896.982	4870
897.103	5048
897.224	4812
897.345	4752
897.466	4672
897.587	4710
897.708	4835
897.828	4721
897.949	4656
898.07	4519
898.19	4611
898.311	4828
898.431	4626
898.552	4725
898.672	4744
898.792	4755
898.913	4759
899.033	4592
899.153	4523
899.273	4440
899.393	4478
899.513	4546
899.633	4481
899.753	4523
899.873	4493
899.993	4573
900.113	4470
900.232	4603
900.352	4531
900.472	4481
900.591	4390
900.711	4481
900.83	4455
900.95	4615
901.069	4649
901.189	4497
901.308	4379
901.427	4215
901.546	4398
901.665	4489
901.784	4478
901.904	4344
902.023	4306
902.141	4150
902.26	4143
902.379	4287
902.498	4253
902.617	4230
902.735	4383
902.854	4394
902.973	4344
903.091	4169
903.21	4211
903.328	4276
903.446	4280
903.565	4303
903.683	4333
903.801	4249
903.919	4329
904.038	4390
904.156	4329
904.274	4402
904.392	4363
904.51	4428
904.627	4409
904.745	4580
904.863	4592
904.981	4337
905.098	4314
905.216	4367
905.334	4413
905.451	4440
905.569	4432
905.686	4550
905.803	4558
905.921	4383
906.038	4512
906.155	4478
906.272	4371
906.389	4455
906.506	4325
906.623	4352
906.74	4375
906.857	4280
906.974	4356
907.091	4504
907.208	4653
907.324	4615
907.441	4478
907.557	4322
907.674	4341
907.79	4318
907.907	4341
908.023	4462
908.139	4481
908.256	4466
908.372	4466
908.488	4413
908.604	4337
908.72	4284
908.836	4341
908.952	4394
909.068	4436
909.184	4550
909.3	4447
909.415	4531
909.531	4618
909.647	4363
909.762	4299
909.878	4306
909.993	4398
910.108	4371
910.224	4405
910.339	4417
910.454	4390
910.57	4306
910.685	4352
910.8	4637
910.915	4607
911.03	4462
911.145	4325
911.259	4318
911.374	4322
911.489	4276
911.604	4219
911.718	4128
911.833	4185
911.947	4109
912.062	4013
912.176	4162
912.291	4219
912.405	4211
912.519	4455
912.633	4527
912.748	4344
912.862	4284
912.976	4196
913.09	4029
913.204	4147
913.318	4227
913.431	4360
913.545	4318
913.659	4352
913.772	4344
913.886	4249
914	4215
914.113	4383
914.226	4409
914.34	4409
914.453	4238
914.566	4383
914.68	4280
914.793	4299
914.906	4143
915.019	4128
915.132	4097
915.245	4166
915.358	4207
915.47	4249
915.583	4246
915.696	4318
915.809	4402
915.921	4455
916.034	4242
916.146	4276
916.259	4188
916.371	4348
916.483	4348
916.595	4314
916.708	4367
916.82	4303
916.932	4329
917.044	4314
917.156	4379
917.268	4238
917.38	4272
917.491	4287
917.603	4325
917.715	4409
917.826	4500
917.938	4379
918.049	4234
918.161	4383
918.272	4512
918.384	4554
918.495	4462
918.606	4299
918.717	4268
918.828	4398
918.939	4360
919.05	4280
919.161	4333
919.272	4166
919.383	4265
919.494	4489
919.604	4649
919.715	4485
919.826	4428
919.936	4478
920.047	4558
920.157	4542
920.267	4744
920.378	4527
920.488	4527
920.598	4702
920.708	4885
920.818	4820
920.928	4793
921.038	4995
921.148	4908
921.258	4675
921.368	4550
921.477	4512
921.587	4489
921.697	4455
921.806	4565
921.916	4512
922.025	4299
922.134	4310
922.244	4276
922.353	4325
922.462	4192
922.571	4147
922.68	4067
922.789	4017
922.898	4067
923.007	4055
923.116	4128
923.224	4097
923.333	4116
923.442	4010
923.55	4021
923.659	4071
923.767	4105
923.876	4040
923.984	4154
924.092	4032
924.201	4109
924.309	4120
924.417	4181
924.525	4093
924.633	4131
924.741	5094
924.849	3949
924.956	4169
925.064	3983
925.172	3975
925.279	3983
925.387	4082
925.494	4112
925.602	4223
925.709	4196
925.816	4048
925.924	4150
926.031	4265
926.138	4219
926.245	4238
926.352	4105
926.459	4280
926.566	4367
926.673	4223
926.779	4112
926.886	4086
926.993	4017
927.099	4017
927.206	4017
927.312	3953
927.419	4040
927.525	4086
927.631	4154
927.737	3983
927.843	3953
927.95	3850
928.056	3941
928.162	4021
928.267	4074
928.373	4656
928.479	4128
928.585	3888
928.69	4093
928.796	4097
928.901	4055
929.007	3869
929.112	3998
929.218	4021
929.323	4006
929.428	4017
929.533	4101
929.638	3926
929.743	3983
929.848	4086
929.953	3994
930.058	3911
930.163	3797
930.267	3831
930.372	4010
930.477	3823
930.581	4112
930.685	3953
930.79	3857
930.894	3903
930.998	3884
931.103	4074
931.207	3751
931.311	3747
931.415	3709
931.519	3553
931.623	3572
