Data from test_V78500241_2362.txt Node
Date: Fri Mar 25 17:05:25 CST 2022
User: usil
Spectrometer: V785-0024
Trigger mode: 0
Integration Time (sec): 4.000000E-1
Scans to average: 1
Nonlinearity correction enabled: false
Boxcar width: 0
Storing dark spectrum: false
XAxis mode: Wavelengths
Number of Pixels in Spectrum: 1024
>>>>>Begin Spectral Data<<<<<
801.071	8043
801.214	7970
801.356	7826
801.499	7811
801.641	7811
801.783	7818
801.926	7917
802.068	7868
802.211	8035
802.353	8012
802.496	7807
802.638	7883
802.78	7887
802.923	7887
803.065	7902
803.208	7902
803.35	7951
803.492	8153
803.635	8233
803.777	8050
803.919	8145
804.061	8492
804.204	8111
804.346	8084
804.488	7955
804.63	8096
804.773	8031
804.915	8134
805.057	8305
805.199	8145
805.341	8161
805.483	8248
805.626	8237
805.768	8142
805.91	8096
806.052	8225
806.194	8180
806.336	8286
806.478	8088
806.62	8183
806.762	8100
806.904	8218
807.046	8480
807.188	8427
807.33	8275
807.472	8305
807.614	8183
807.756	8084
807.898	8039
808.04	7887
808.182	7868
808.324	7841
808.465	7959
808.607	8084
808.749	8100
808.891	8252
809.033	8358
809.174	8275
809.316	8039
809.458	8065
809.6	8005
809.741	8031
809.883	8107
810.025	8180
810.166	8062
810.308	8054
810.45	8020
810.591	7852
810.733	7708
810.875	7696
811.016	7506
811.158	7438
811.299	7575
811.441	7734
811.582	7632
811.724	7636
811.865	7514
812.007	7518
812.148	7666
812.29	7681
812.431	7715
812.573	7906
812.714	7970
812.855	8149
812.997	8237
813.138	8313
813.279	8191
813.421	8058
813.562	7997
813.703	7807
813.845	7776
813.986	7438
814.127	7244
814.268	7202
814.41	7137
814.551	7160
814.692	7213
814.833	7095
814.974	7107
815.115	7088
815.256	6932
815.397	6973
815.539	6954
815.68	6768
815.821	6760
815.962	6890
816.103	6783
816.244	6749
816.385	6604
816.526	6608
816.666	6467
816.807	6300
816.948	6418
817.089	6490
817.23	6429
817.371	6437
817.512	6410
817.653	6403
817.793	6403
817.934	6407
818.075	6471
818.216	6441
818.356	6433
818.497	6292
818.638	6144
818.778	6178
818.919	6159
819.06	6159
819.2	6357
819.341	6331
819.481	6399
819.622	6547
819.762	6738
819.903	6662
820.043	6623
820.184	6566
820.324	6585
820.465	6711
820.605	6730
820.746	6642
820.886	6509
821.026	6658
821.167	6745
821.307	6779
821.447	6764
821.588	6627
821.728	6608
821.868	6490
822.008	6315
822.149	6395
822.289	6403
822.429	6163
822.569	6148
822.709	6155
822.849	5980
822.99	5897
823.13	5923
823.27	5927
823.41	5779
823.55	5809
823.69	5756
823.83	5790
823.97	5642
824.11	5539
824.25	5482
824.389	5532
824.529	5627
824.669	5516
824.809	5634
824.949	5611
825.089	5589
825.228	5577
825.368	5436
825.508	5383
825.648	5364
825.787	5372
825.927	5353
826.067	5265
826.206	5246
826.346	5345
826.485	5391
826.625	5406
826.765	5471
826.904	5509
827.044	5254
827.183	5258
827.323	5140
827.462	5269
827.601	5201
827.741	5162
827.88	5216
828.02	5140
828.159	5242
828.298	5280
828.437	5337
828.577	5246
828.716	5459
828.855	5330
828.994	5109
829.134	5159
829.273	5235
829.412	5174
829.551	5136
829.69	5170
829.829	5212
829.968	5452
830.107	5265
830.246	5303
830.385	5174
830.524	5136
830.663	5060
830.802	4968
830.941	4889
831.08	4858
831.219	4995
831.357	4923
831.496	5223
831.635	4976
831.774	4900
831.913	4831
832.051	4759
832.19	4710
832.329	4786
832.467	4748
832.606	4618
832.744	4702
832.883	4675
833.022	4679
833.16	4809
833.299	4809
833.437	4797
833.576	4835
833.714	4885
833.852	4831
833.991	4858
834.129	4957
834.267	4927
834.406	4904
834.544	4995
834.682	4995
834.821	4987
834.959	5128
835.097	5010
835.235	5159
835.373	5041
835.511	5121
835.65	5022
835.788	5006
835.926	4896
836.064	4900
836.202	4927
836.34	5178
836.478	5231
836.615	5143
836.753	5223
836.891	5311
837.029	5227
837.167	5124
837.305	5151
837.443	5189
837.58	5052
837.718	5273
837.856	5170
837.993	5094
838.131	5265
838.269	5235
838.406	5208
838.544	5159
838.681	5048
838.819	4930
838.956	4908
839.094	4892
839.231	4919
839.369	5098
839.506	5455
839.643	5231
839.781	5056
839.918	4987
840.055	5079
840.193	5071
840.33	5151
840.467	5166
840.604	5174
840.742	5425
840.879	5117
841.016	5098
841.153	5128
841.29	5364
841.427	5296
841.564	5292
841.701	5368
841.838	5303
841.975	5231
842.112	5273
842.249	5121
842.385	5090
842.522	5296
842.659	5178
842.796	5151
842.933	5201
843.069	5136
843.206	5143
843.343	5307
843.479	5280
843.616	5265
843.752	5029
843.889	5018
844.025	5185
844.162	5022
844.298	5185
844.435	5083
844.571	5052
844.708	5231
844.844	5277
844.98	5288
845.117	5269
845.253	5159
845.389	5048
845.525	5155
845.661	5136
845.798	5041
845.934	5079
846.07	5067
846.206	5185
846.342	5280
846.478	5170
846.614	5022
846.75	5010
846.886	4934
847.022	5132
847.158	5022
847.294	5067
847.429	5071
847.565	5037
847.701	5303
847.837	4862
847.972	4797
848.108	4968
848.244	4938
848.379	4782
848.515	4725
848.65	4698
848.786	4744
848.921	4809
849.057	4847
849.192	4904
849.328	4870
849.463	4805
849.598	4736
849.734	4763
849.869	4637
850.004	4618
850.14	4660
850.275	4565
850.41	4538
850.545	4565
850.68	4656
850.815	4599
850.95	4584
851.085	4824
851.22	4729
851.355	4668
851.49	4538
851.625	4611
851.76	4672
851.895	4569
852.03	4569
852.165	4634
852.299	4721
852.434	4748
852.569	4763
852.703	4744
852.838	4771
852.973	4968
853.107	4927
853.242	4744
853.376	4672
853.511	4584
853.645	4565
853.78	4809
853.914	4664
854.048	4687
854.183	4637
854.317	4706
854.451	4862
854.585	4672
854.72	4656
854.854	4725
854.988	4588
855.122	4656
855.256	4531
855.39	4653
855.524	4790
855.658	4740
855.792	4691
855.926	4725
856.06	4759
856.194	4790
856.327	4656
856.461	4641
856.595	4588
856.729	4607
856.862	4725
856.996	4672
857.13	4736
857.263	4759
857.397	4816
857.53	4656
857.664	4740
857.797	4797
857.931	4763
858.064	4702
858.197	4733
858.331	4641
858.464	4622
858.597	4542
858.731	4592
858.864	4653
858.997	4569
859.13	4660
859.263	4694
859.396	4660
859.529	4535
859.662	4580
859.795	4481
859.928	4641
860.061	4729
860.194	4759
860.327	4607
860.46	4569
860.592	4668
860.725	4706
860.858	4706
860.99	4607
861.123	4535
861.256	4531
861.388	4546
861.521	5322
861.653	4440
861.786	4466
861.918	4443
862.05	4550
862.183	4588
862.315	4592
862.447	4698
862.58	4538
862.712	4367
862.844	4379
862.976	4470
863.108	4447
863.24	4885
863.372	4325
863.504	4386
863.636	4409
863.768	4504
863.9	4462
864.032	4344
864.164	4383
864.296	4474
864.428	4538
864.559	4558
864.691	4516
864.823	4523
864.954	4478
865.086	4538
865.217	4493
865.349	4398
865.48	4474
865.612	4493
865.743	4618
865.875	4432
866.006	4443
866.137	4474
866.269	4447
866.4	4455
866.531	4394
866.662	4417
866.793	4402
866.924	4424
867.055	4485
867.186	4455
867.317	4421
867.448	4375
867.579	4390
867.71	4386
867.841	4383
867.972	4443
868.103	4436
868.233	4443
868.364	4432
868.495	4470
868.625	4645
868.756	4740
868.886	4622
869.017	4611
869.147	4774
869.278	4725
869.408	4683
869.539	4660
869.669	4763
869.799	4710
869.929	4786
870.06	4717
870.19	5018
870.32	4953
870.45	4892
870.58	5025
870.71	5086
870.84	5105
870.97	4976
871.1	4877
871.23	5159
871.36	5075
871.489	5033
871.619	5060
871.749	5079
871.879	5136
872.008	5147
872.138	5060
872.267	5010
872.397	4847
872.526	4858
872.656	4710
872.785	4816
872.915	4885
873.044	5018
873.173	4915
873.303	4980
873.432	4957
873.561	4980
873.69	4870
873.819	4847
873.948	4965
874.077	4835
874.206	4790
874.335	4797
874.464	4919
874.593	5060
874.722	4892
874.851	5098
874.979	5022
875.108	5029
875.237	4942
875.365	4866
875.494	4885
875.623	4961
875.751	4820
875.88	4881
876.008	4976
876.136	5041
876.265	5174
876.393	5326
876.521	5235
876.65	5193
876.778	5117
876.906	5067
877.034	5083
877.162	5014
877.29	4980
877.418	5060
877.546	4999
877.674	5018
877.802	5037
877.93	5029
878.058	4915
878.185	4866
878.313	4927
878.441	4942
878.568	4820
878.696	4854
878.824	4942
878.951	4972
879.079	5109
879.206	5292
879.333	5098
879.461	5022
879.588	5037
879.715	5155
879.842	5170
879.97	4995
880.097	4782
880.224	4763
880.351	4782
880.478	4835
880.605	4767
880.732	4820
880.859	5117
880.986	4877
881.112	4896
881.239	4767
881.366	4645
881.493	4645
881.619	4550
881.746	4592
881.872	4679
881.999	4645
882.125	4698
882.252	4733
882.378	4816
882.505	4938
882.631	4793
882.757	4668
882.883	4698
883.01	4717
883.136	4675
883.262	4565
883.388	4649
883.514	4831
883.64	4854
883.766	4755
883.892	4618
884.018	4725
884.143	4866
884.269	5041
884.395	4694
884.52	4618
884.646	4626
884.772	4565
884.897	4546
885.023	4634
885.148	4805
885.274	4854
885.399	4793
885.524	4683
885.65	4656
885.775	4725
885.9	4721
886.025	4866
886.15	4721
886.275	4733
886.4	4611
886.525	4755
886.65	4710
886.775	4683
886.9	4881
887.025	4987
887.149	4820
887.274	4626
887.399	4527
887.523	4607
887.648	4550
887.773	4584
887.897	4736
888.021	4786
888.146	4679
888.27	4820
888.395	4927
888.519	4797
888.643	4812
888.767	4828
888.891	4645
889.015	4630
889.139	4687
889.263	4630
889.387	4755
889.511	4889
889.635	4812
889.759	4637
889.883	4607
890.006	4752
890.13	4839
890.254	4634
890.377	4649
890.501	4577
890.624	4561
890.748	4637
890.871	4500
890.995	4390
891.118	4402
891.241	4497
891.364	4512
891.488	4596
891.611	4474
891.734	4538
891.857	4599
891.98	4535
892.103	4630
892.226	4561
892.349	4599
892.471	4417
892.594	4504
892.717	4584
892.839	4615
892.962	4615
893.085	4664
893.207	4596
893.33	4470
893.452	4447
893.575	4637
893.697	4596
893.819	4778
893.941	4870
894.064	4759
894.186	4569
894.308	4554
894.43	4729
894.552	4786
894.674	4748
894.796	4554
894.918	4599
895.04	4531
895.161	4679
895.283	4649
895.405	4565
895.526	4653
895.648	4683
895.769	4675
895.891	4675
896.012	4744
896.134	4694
896.255	4668
896.376	4653
896.498	4603
896.619	4672
896.74	4626
896.861	4649
896.982	4930
897.103	5094
897.224	4824
897.345	4721
897.466	4668
897.587	4725
897.708	4892
897.828	4820
897.949	4649
898.07	4546
898.19	4565
898.311	4816
898.431	4626
898.552	4725
898.672	4812
898.792	4778
898.913	4748
899.033	4649
899.153	4459
899.273	4424
899.393	4470
899.513	4500
899.633	4565
899.753	4516
899.873	4508
899.993	4561
900.113	4527
900.232	4611
900.352	4542
900.472	4451
900.591	4413
900.711	4466
900.83	4417
900.95	4584
901.069	4668
901.189	4577
901.308	4333
901.427	4318
901.546	4394
901.665	4481
901.784	4508
901.904	4398
902.023	4310
902.141	4188
902.26	4166
902.379	4299
902.498	4246
902.617	4211
902.735	4367
902.854	4386
902.973	4356
903.091	4215
903.21	4223
903.328	4325
903.446	4287
903.565	4227
903.683	4333
903.801	4322
903.919	4390
904.038	4451
904.156	4322
904.274	4443
904.392	4390
904.51	4474
904.627	4436
904.745	4523
904.863	4611
904.981	4402
905.098	4318
905.216	4344
905.334	4413
905.451	4421
905.569	4493
905.686	4554
905.803	4546
905.921	4383
906.038	4516
906.155	4470
906.272	4386
906.389	4440
906.506	4371
906.623	4337
906.74	4398
906.857	4306
906.974	4322
907.091	4565
907.208	4683
907.324	4599
907.441	4462
907.557	4325
907.674	4344
907.79	4352
907.907	4394
908.023	4516
908.139	4474
908.256	4451
908.372	4440
908.488	4421
908.604	4356
908.72	4287
908.836	4379
908.952	4383
909.068	4367
909.184	4554
909.3	4447
909.415	4596
909.531	4523
909.647	4329
909.762	4390
909.878	4337
909.993	4428
910.108	4424
910.224	4398
910.339	4447
910.454	4409
910.57	4367
910.685	4306
910.8	4641
910.915	4580
911.03	4481
911.145	4325
911.259	4295
911.374	4341
911.489	4322
911.604	4261
911.718	4177
911.833	4162
911.947	4029
912.062	4067
912.176	4211
912.291	4280
912.405	4242
912.519	4440
912.633	4531
912.748	4371
912.862	4325
912.976	4188
913.09	4048
913.204	4173
913.318	4272
913.431	4367
913.545	4447
913.659	4436
913.772	4337
913.886	4276
914	4162
914.113	4367
914.226	4428
914.34	4421
914.453	4287
914.566	4417
914.68	4310
914.793	4356
914.906	4185
915.019	4139
915.132	4090
915.245	4188
915.358	4173
915.47	4211
915.583	4261
915.696	4314
915.809	4398
915.921	4421
916.034	4276
916.146	4242
916.259	4196
916.371	4360
916.483	4341
916.595	4295
916.708	4352
916.82	4348
916.932	4379
917.044	4287
917.156	4310
917.268	4177
917.38	4303
917.491	4242
917.603	4352
917.715	4436
917.826	4436
917.938	4341
918.049	4249
918.161	4371
918.272	4561
918.384	4519
918.495	4462
918.606	4295
918.717	4219
918.828	4352
918.939	4402
919.05	4211
919.161	4333
919.272	4154
919.383	4223
919.494	4436
919.604	4607
919.715	4421
919.826	4352
919.936	4398
920.047	4519
920.157	4531
920.267	4706
920.378	4565
920.488	4500
920.598	4706
920.708	4843
920.818	4774
920.928	4801
921.038	4930
921.148	4870
921.258	4694
921.368	4565
921.477	4508
921.587	4447
921.697	4318
921.806	4565
921.916	4443
922.025	4249
922.134	4287
922.244	4211
922.353	4310
922.462	4192
922.571	4112
922.68	3998
922.789	3998
922.898	4032
923.007	3994
923.116	4074
923.224	4036
923.333	4067
923.442	4002
923.55	3964
923.659	3956
923.767	4097
923.876	4002
923.984	4105
924.092	3975
924.201	4059
924.309	4078
924.417	4147
924.525	4067
924.633	4093
924.741	5075
924.849	3968
924.956	4105
925.064	3979
925.172	3892
925.279	3899
925.387	4048
925.494	4021
925.602	4207
925.709	4169
925.816	4021
925.924	4143
926.031	4196
926.138	4150
926.245	4204
926.352	4139
926.459	4253
926.566	4310
926.673	4124
926.779	4097
926.886	4120
926.993	3964
927.099	3953
927.206	3968
927.312	3941
927.419	4071
927.525	4021
927.631	4059
927.737	3983
927.843	3918
927.95	3819
928.056	3922
928.162	3941
928.267	4086
928.373	4550
928.479	4093
928.585	3850
928.69	3994
928.796	4036
928.901	3960
929.007	3842
929.112	4013
929.218	3983
929.323	3903
929.428	3922
929.533	4051
929.638	3937
929.743	3975
929.848	4067
929.953	4006
930.058	3953
930.163	3766
930.267	3823
930.372	3983
930.477	3823
930.581	4105
930.685	3956
930.79	3857
930.894	3907
930.998	3876
931.103	4051
931.207	3728
931.311	3690
931.415	3682
931.519	3519
931.623	3545
