Data from test_V78500241_512.txt Node
Date: Fri Mar 25 16:52:33 CST 2022
User: usil
Spectrometer: V785-0024
Trigger mode: 0
Integration Time (sec): 4.000000E-1
Scans to average: 1
Nonlinearity correction enabled: false
Boxcar width: 0
Storing dark spectrum: false
XAxis mode: Wavelengths
Number of Pixels in Spectrum: 1024
>>>>>Begin Spectral Data<<<<<
801.071	7982
801.214	7978
801.356	7841
801.499	7845
801.641	7795
801.783	7860
801.926	8016
802.068	7967
802.211	8054
802.353	7959
802.496	7875
802.638	7845
802.78	7887
802.923	7906
803.065	7822
803.208	7826
803.35	7925
803.492	7963
803.635	8092
803.777	8054
803.919	8077
804.061	8320
804.204	8134
804.346	8054
804.488	7879
804.63	8088
804.773	7898
804.915	8084
805.057	8229
805.199	8157
805.341	8263
805.483	8225
805.626	8138
805.768	8107
805.91	8145
806.052	8176
806.194	8062
806.336	8279
806.478	8065
806.62	8088
806.762	8172
806.904	8233
807.046	8389
807.188	8320
807.33	8252
807.472	8290
807.614	8229
807.756	8024
807.898	8008
808.04	7776
808.182	7928
808.324	7906
808.465	7852
808.607	7989
808.749	8062
808.891	8172
809.033	8324
809.174	8142
809.316	8043
809.458	8065
809.6	7963
809.741	7982
809.883	8062
810.025	8069
810.166	8115
810.308	7936
810.45	7963
810.591	7845
810.733	7757
810.875	7674
811.016	7552
811.158	7476
811.299	7605
811.441	7761
811.582	7746
811.724	7563
811.865	7563
812.007	7613
812.148	7563
812.29	7590
812.431	7772
812.573	7909
812.714	8088
812.855	8157
812.997	8240
813.138	8396
813.279	8244
813.421	8183
813.562	8046
813.703	7925
813.845	7784
813.986	7491
814.127	7320
814.268	7297
814.41	7255
814.551	7206
814.692	7217
814.833	7122
814.974	7110
815.115	7103
815.256	6943
815.397	6943
815.539	6943
815.68	6829
815.821	6844
815.962	6928
816.103	6787
816.244	6741
816.385	6616
816.526	6627
816.666	6494
816.807	6338
816.948	6483
817.089	6376
817.23	6418
817.371	6388
817.512	6467
817.653	6445
817.793	6384
817.934	6361
818.075	6483
818.216	6418
818.356	6372
818.497	6277
818.638	6133
818.778	6159
818.919	6083
819.06	6197
819.2	6300
819.341	6289
819.481	6311
819.622	6525
819.762	6665
819.903	6719
820.043	6540
820.184	6513
820.324	6574
820.465	6673
820.605	6601
820.746	6658
820.886	6555
821.026	6650
821.167	6707
821.307	6741
821.447	6772
821.588	6593
821.728	6563
821.868	6509
822.008	6304
822.149	6357
822.289	6380
822.429	6152
822.569	6098
822.709	6102
822.849	5855
822.99	5901
823.13	5965
823.27	5908
823.41	5767
823.55	5802
823.69	5771
823.83	5783
823.97	5653
824.11	5532
824.25	5478
824.389	5547
824.529	5600
824.669	5558
824.809	5642
824.949	5627
825.089	5566
825.228	5554
825.368	5433
825.508	5337
825.648	5360
825.787	5368
825.927	5337
826.067	5280
826.206	5273
826.346	5391
826.485	5398
826.625	5421
826.765	5528
826.904	5436
827.044	5208
827.183	5185
827.323	5140
827.462	5250
827.601	5151
827.741	5178
827.88	5189
828.02	5086
828.159	5227
828.298	5315
828.437	5425
828.577	5227
828.716	5459
828.855	5334
828.994	5201
829.134	5090
829.273	5147
829.412	5166
829.551	5143
829.69	5159
829.829	5220
829.968	5345
830.107	5273
830.246	5296
830.385	5181
830.524	5109
830.663	5037
830.802	4949
830.941	4889
831.08	4934
831.219	4995
831.357	4968
831.496	5178
831.635	4938
831.774	4835
831.913	4873
832.051	4691
832.19	4733
832.329	4824
832.467	4694
832.606	4649
832.744	4725
832.883	4717
833.022	4778
833.16	4812
833.299	4866
833.437	4824
833.576	4835
833.714	4862
833.852	4843
833.991	4877
834.129	4908
834.267	4972
834.406	4892
834.544	5010
834.682	4915
834.821	4942
834.959	5174
835.097	4976
835.235	5113
835.373	5029
835.511	5132
835.65	5052
835.788	5045
835.926	4908
836.064	4877
836.202	4949
836.34	5185
836.478	5193
836.615	5121
836.753	5166
836.891	5330
837.029	5231
837.167	5223
837.305	5166
837.443	5083
837.58	5045
837.718	5239
837.856	5170
837.993	5159
838.131	5246
838.269	5185
838.406	5174
838.544	5155
838.681	5006
838.819	4961
838.956	4847
839.094	4850
839.231	5003
839.369	5041
839.506	5429
839.643	5258
839.781	5067
839.918	5048
840.055	5060
840.193	5083
840.33	5052
840.467	5136
840.604	5201
840.742	5429
840.879	5056
841.016	5045
841.153	5136
841.29	5315
841.427	5307
841.564	5307
841.701	5326
841.838	5246
841.975	5235
842.112	5261
842.249	5113
842.385	5067
842.522	5337
842.659	5128
842.796	5140
842.933	5155
843.069	5140
843.206	5178
843.343	5303
843.479	5258
843.616	5242
843.752	5041
843.889	4984
844.025	5212
844.162	5006
844.298	5216
844.435	5071
844.571	4995
844.708	5136
844.844	5299
844.98	5345
845.117	5250
845.253	5159
845.389	5029
845.525	5181
845.661	5109
845.798	5056
845.934	5159
846.07	5109
846.206	5208
846.342	5303
846.478	5159
846.614	5045
846.75	5029
846.886	4930
847.022	5117
847.158	5041
847.294	5094
847.429	5162
847.565	5037
847.701	5318
847.837	4866
847.972	4816
848.108	4953
848.244	4942
848.379	4801
848.515	4755
848.65	4710
848.786	4702
848.921	4801
849.057	4938
849.192	4885
849.328	4843
849.463	4850
849.598	4786
849.734	4698
849.869	4618
850.004	4618
850.14	4706
850.275	4599
850.41	4504
850.545	4523
850.68	4630
850.815	4653
850.95	4653
851.085	4850
851.22	4752
851.355	4660
851.49	4596
851.625	4596
851.76	4630
851.895	4531
852.03	4558
852.165	4672
852.299	4694
852.434	4790
852.569	4771
852.703	4759
852.838	4866
852.973	4919
853.107	4892
853.242	4691
853.376	4656
853.511	4554
853.645	4622
853.78	4839
853.914	4687
854.048	4725
854.183	4622
854.317	4668
854.451	4850
854.585	4698
854.72	4656
854.854	4752
854.988	4592
855.122	4687
855.256	4516
855.39	4664
855.524	4824
855.658	4748
855.792	4706
855.926	4698
856.06	4782
856.194	4786
856.327	4668
856.461	4584
856.595	4607
856.729	4634
856.862	4786
856.996	4698
857.13	4710
857.263	4786
857.397	4812
857.53	4656
857.664	4691
857.797	4771
857.931	4816
858.064	4706
858.197	4786
858.331	4641
858.464	4599
858.597	4542
858.731	4615
858.864	4630
858.997	4584
859.13	4664
859.263	4656
859.396	4649
859.529	4611
859.662	4573
859.795	4497
859.928	4592
860.061	4721
860.194	4816
860.327	4546
860.46	4558
860.592	4683
860.725	4733
860.858	4698
860.99	4580
861.123	4516
861.256	4523
861.388	4641
861.521	5402
861.653	4493
861.786	4443
861.918	4489
862.05	4466
862.183	4580
862.315	4615
862.447	4649
862.58	4489
862.712	4405
862.844	4325
862.976	4478
863.108	4455
863.24	4831
863.372	4348
863.504	4417
863.636	4398
863.768	4474
863.9	4409
864.032	4367
864.164	4405
864.296	4538
864.428	4584
864.559	4554
864.691	4596
864.823	4538
864.954	4489
865.086	4474
865.217	4455
865.349	4413
865.48	4459
865.612	4485
865.743	4615
865.875	4462
866.006	4455
866.137	4493
866.269	4440
866.4	4489
866.531	4379
866.662	4394
866.793	4398
866.924	4379
867.055	4512
867.186	4466
867.317	4402
867.448	4413
867.579	4352
867.71	4367
867.841	4417
867.972	4443
868.103	4478
868.233	4504
868.364	4443
868.495	4478
868.625	4675
868.756	4744
868.886	4546
869.017	4611
869.147	4759
869.278	4774
869.408	4683
869.539	4649
869.669	4774
869.799	4729
869.929	4759
870.06	4771
870.19	4949
870.32	4927
870.45	4915
870.58	5041
870.71	5083
870.84	5136
870.97	4957
871.1	4896
871.23	5102
871.36	5147
871.489	5010
871.619	5083
871.749	5117
871.879	5098
872.008	5193
872.138	5086
872.267	4987
872.397	4793
872.526	4778
872.656	4694
872.785	4824
872.915	4949
873.044	5025
873.173	4949
873.303	4965
873.432	4961
873.561	4923
873.69	4881
873.819	4889
873.948	4934
874.077	4778
874.206	4778
874.335	4782
874.464	4927
874.593	5079
874.722	4949
874.851	5128
874.979	5064
875.108	5056
875.237	4854
875.365	4889
875.494	4866
875.623	4946
875.751	4839
875.88	4900
876.008	5029
876.136	4995
876.265	5185
876.393	5307
876.521	5227
876.65	5220
876.778	5147
876.906	5094
877.034	5014
877.162	5067
877.29	5029
877.418	5105
877.546	5064
877.674	5045
877.802	4972
877.93	5025
878.058	4949
878.185	4858
878.313	4965
878.441	4965
878.568	4809
878.696	4889
878.824	4915
878.951	5048
879.079	5105
879.206	5292
879.333	5098
879.461	4968
879.588	5003
879.715	5136
879.842	5250
879.97	5041
880.097	4763
880.224	4771
880.351	4805
880.478	4843
880.605	4801
880.732	4828
880.859	5121
880.986	4927
881.112	4911
881.239	4721
881.366	4641
881.493	4573
881.619	4596
881.746	4634
881.872	4649
881.999	4596
882.125	4687
882.252	4797
882.378	4805
882.505	4980
882.631	4782
882.757	4683
882.883	4721
883.01	4729
883.136	4675
883.262	4588
883.388	4607
883.514	4801
883.64	4877
883.766	4820
883.892	4675
884.018	4714
884.143	4927
884.269	5037
884.395	4660
884.52	4599
884.646	4660
884.772	4603
884.897	4565
885.023	4717
885.148	4759
885.274	4847
885.399	4774
885.524	4725
885.65	4736
885.775	4725
885.9	4691
886.025	4889
886.15	4786
886.275	4717
886.4	4641
886.525	4694
886.65	4721
886.775	4759
886.9	4892
887.025	5025
887.149	4801
887.274	4615
887.399	4599
887.523	4687
887.648	4542
887.773	4592
887.897	4782
888.021	4767
888.146	4717
888.27	4812
888.395	4923
888.519	4801
888.643	4809
888.767	4828
888.891	4698
889.015	4577
889.139	4691
889.263	4603
889.387	4767
889.511	4877
889.635	4767
889.759	4622
889.883	4603
890.006	4729
890.13	4820
890.254	4622
890.377	4702
890.501	4554
890.624	4535
890.748	4611
890.871	4508
890.995	4413
891.118	4367
891.241	4565
891.364	4535
891.488	4603
891.611	4497
891.734	4516
891.857	4603
891.98	4527
892.103	4603
892.226	4592
892.349	4527
892.471	4398
892.594	4542
892.717	4660
892.839	4531
892.962	4599
893.085	4717
893.207	4569
893.33	4508
893.452	4512
893.575	4706
893.697	4573
893.819	4809
893.941	4801
894.064	4790
894.186	4577
894.308	4573
894.43	4778
894.552	4850
894.674	4736
894.796	4535
894.918	4580
895.04	4558
895.161	4706
895.283	4626
895.405	4580
895.526	4618
895.648	4706
895.769	4698
895.891	4706
896.012	4740
896.134	4771
896.255	4664
896.376	4634
896.498	4592
896.619	4683
896.74	4592
896.861	4672
896.982	4911
897.103	5037
897.224	4755
897.345	4733
897.466	4683
897.587	4740
897.708	4854
897.828	4824
897.949	4653
898.07	4565
898.19	4584
898.311	4793
898.431	4634
898.552	4736
898.672	4828
898.792	4816
898.913	4740
899.033	4653
899.153	4508
899.273	4432
899.393	4519
899.513	4550
899.633	4512
899.753	4527
899.873	4523
899.993	4588
900.113	4577
900.232	4622
900.352	4565
900.472	4504
900.591	4402
900.711	4519
900.83	4428
900.95	4580
901.069	4664
901.189	4538
901.308	4356
901.427	4348
901.546	4409
901.665	4436
901.784	4504
901.904	4371
902.023	4333
902.141	4158
902.26	4181
902.379	4287
902.498	4234
902.617	4249
902.735	4367
902.854	4398
902.973	4356
903.091	4230
903.21	4253
903.328	4348
903.446	4211
903.565	4261
903.683	4295
903.801	4280
903.919	4428
904.038	4405
904.156	4344
904.274	4451
904.392	4451
904.51	4485
904.627	4443
904.745	4584
904.863	4634
904.981	4375
905.098	4314
905.216	4318
905.334	4485
905.451	4478
905.569	4466
905.686	4561
905.803	4554
905.921	4451
906.038	4542
906.155	4504
906.272	4413
906.389	4466
906.506	4337
906.623	4405
906.74	4390
906.857	4318
906.974	4333
907.091	4535
907.208	4672
907.324	4561
907.441	4489
907.557	4333
907.674	4329
907.79	4375
907.907	4409
908.023	4481
908.139	4523
908.256	4470
908.372	4462
908.488	4424
908.604	4367
908.72	4329
908.836	4383
908.952	4367
909.068	4402
909.184	4535
909.3	4512
909.415	4504
909.531	4569
909.647	4367
909.762	4405
909.878	4314
909.993	4402
910.108	4440
910.224	4394
910.339	4474
910.454	4402
910.57	4363
910.685	4295
910.8	4668
910.915	4592
911.03	4474
911.145	4333
911.259	4329
911.374	4386
911.489	4310
911.604	4291
911.718	4158
911.833	4211
911.947	4124
912.062	4059
912.176	4227
912.291	4246
912.405	4322
912.519	4436
912.633	4504
912.748	4375
912.862	4371
912.976	4223
913.09	4090
913.204	4147
913.318	4200
913.431	4383
913.545	4363
913.659	4459
913.772	4367
913.886	4261
914	4230
914.113	4363
914.226	4466
914.34	4360
914.453	4242
914.566	4417
914.68	4344
914.793	4341
914.906	4173
915.019	4135
915.132	4086
915.245	4154
915.358	4219
915.47	4219
915.583	4265
915.696	4253
915.809	4424
915.921	4443
916.034	4253
916.146	4280
916.259	4215
916.371	4367
916.483	4367
916.595	4249
916.708	4325
916.82	4318
916.932	4337
917.044	4371
917.156	4325
917.268	4265
917.38	4295
917.491	4318
917.603	4360
917.715	4409
917.826	4443
917.938	4352
918.049	4291
918.161	4367
918.272	4558
918.384	4546
918.495	4451
918.606	4257
918.717	4219
918.828	4333
918.939	4348
919.05	4280
919.161	4329
919.272	4124
919.383	4246
919.494	4375
919.604	4656
919.715	4432
919.826	4360
919.936	4383
920.047	4508
920.157	4504
920.267	4706
920.378	4554
920.488	4493
920.598	4733
920.708	4900
920.818	4755
920.928	4774
921.038	4942
921.148	4949
921.258	4664
921.368	4546
921.477	4504
921.587	4436
921.697	4394
921.806	4535
921.916	4455
922.025	4268
922.134	4268
922.244	4223
922.353	4325
922.462	4147
922.571	4135
922.68	4025
922.789	3975
922.898	4044
923.007	3987
923.116	4097
923.224	4044
923.333	4044
923.442	3983
923.55	3968
923.659	4051
923.767	4109
923.876	4029
923.984	4093
924.092	3945
924.201	4143
924.309	4059
924.417	4173
924.525	4017
924.633	4101
924.741	5056
924.849	3953
924.956	4128
925.064	3949
925.172	3922
925.279	3949
925.387	4059
925.494	4067
925.602	4204
925.709	4169
925.816	4086
925.924	4097
926.031	4246
926.138	4143
926.245	4211
926.352	4124
926.459	4230
926.566	4322
926.673	4185
926.779	4112
926.886	4097
926.993	3953
927.099	3964
927.206	3930
927.312	3953
927.419	4048
927.525	4055
927.631	4105
927.737	3953
927.843	3926
927.95	3842
928.056	3926
928.162	4040
928.267	4044
928.373	4675
928.479	4128
928.585	3869
928.69	4055
928.796	4071
928.901	3987
929.007	3827
929.112	3994
929.218	3987
929.323	3937
929.428	3979
929.533	4158
929.638	3937
929.743	3979
929.848	4002
929.953	4006
930.058	3937
930.163	3800
930.267	3800
930.372	3979
930.477	3812
930.581	4082
930.685	4013
930.79	3846
930.894	3884
930.998	3846
931.103	4029
931.207	3720
931.311	3720
931.415	3667
931.519	3553
931.623	3553
