Data from test_V78500241_479.txt Node
Date: Fri Mar 25 16:52:19 CST 2022
User: usil
Spectrometer: V785-0024
Trigger mode: 0
Integration Time (sec): 4.000000E-1
Scans to average: 1
Nonlinearity correction enabled: false
Boxcar width: 0
Storing dark spectrum: false
XAxis mode: Wavelengths
Number of Pixels in Spectrum: 1024
>>>>>Begin Spectral Data<<<<<
801.071	7989
801.214	7917
801.356	7921
801.499	7852
801.641	7799
801.783	7860
801.926	7959
802.068	7951
802.211	8001
802.353	7951
802.496	7879
802.638	7860
802.78	7906
802.923	7887
803.065	7856
803.208	7864
803.35	7928
803.492	8012
803.635	8123
803.777	7978
803.919	8088
804.061	8396
804.204	8123
804.346	8012
804.488	7917
804.63	8020
804.773	7883
804.915	8058
805.057	8256
805.199	8199
805.341	8229
805.483	8168
805.626	8130
805.768	8027
805.91	8157
806.052	8130
806.194	8077
806.336	8279
806.478	8134
806.62	8077
806.762	8096
806.904	8290
807.046	8450
807.188	8271
807.33	8187
807.472	8259
807.614	8092
807.756	8092
807.898	7993
808.04	7856
808.182	7879
808.324	7883
808.465	7826
808.607	7967
808.749	8050
808.891	8233
809.033	8187
809.174	8126
809.316	8054
809.458	8016
809.6	8005
809.741	8035
809.883	8050
810.025	8100
810.166	8088
810.308	8008
810.45	8005
810.591	7868
810.733	7712
810.875	7689
811.016	7529
811.158	7468
811.299	7643
811.441	7734
811.582	7620
811.724	7594
811.865	7525
812.007	7544
812.148	7582
812.29	7632
812.431	7742
812.573	7944
812.714	8031
812.855	8161
812.997	8202
813.138	8355
813.279	8263
813.421	8073
813.562	7993
813.703	7894
813.845	7757
813.986	7449
814.127	7384
814.268	7266
814.41	7244
814.551	7145
814.692	7175
814.833	7061
814.974	7069
815.115	7069
815.256	6916
815.397	6935
815.539	6913
815.68	6779
815.821	6745
815.962	6840
816.103	6867
816.244	6730
816.385	6612
816.526	6589
816.666	6445
816.807	6319
816.948	6422
817.089	6490
817.23	6414
817.371	6460
817.512	6395
817.653	6376
817.793	6346
817.934	6380
818.075	6410
818.216	6399
818.356	6445
818.497	6254
818.638	6117
818.778	6110
818.919	6148
819.06	6159
819.2	6342
819.341	6266
819.481	6327
819.622	6479
819.762	6734
819.903	6696
820.043	6551
820.184	6540
820.324	6563
820.465	6635
820.605	6711
820.746	6597
820.886	6555
821.026	6669
821.167	6681
821.307	6798
821.447	6745
821.588	6662
821.728	6506
821.868	6456
822.008	6289
822.149	6365
822.289	6334
822.429	6163
822.569	6022
822.709	6068
822.849	5863
822.99	5859
823.13	5878
823.27	5897
823.41	5748
823.55	5817
823.69	5748
823.83	5718
823.97	5684
824.11	5535
824.25	5505
824.389	5516
824.529	5608
824.669	5532
824.809	5623
824.949	5619
825.089	5615
825.228	5585
825.368	5364
825.508	5334
825.648	5315
825.787	5391
825.927	5383
826.067	5315
826.206	5345
826.346	5379
826.485	5459
826.625	5425
826.765	5630
826.904	5490
827.044	5258
827.183	5220
827.323	5128
827.462	5315
827.601	5223
827.741	5242
827.88	5220
828.02	5113
828.159	5280
828.298	5383
828.437	5349
828.577	5322
828.716	5535
828.855	5307
828.994	5227
829.134	5246
829.273	5208
829.412	5216
829.551	5109
829.69	5185
829.829	5242
829.968	5414
830.107	5326
830.246	5296
830.385	5159
830.524	5151
830.663	5136
830.802	5029
830.941	4889
831.08	4908
831.219	5014
831.357	5025
831.496	5242
831.635	4953
831.774	4873
831.913	4885
832.051	4767
832.19	4767
832.329	4854
832.467	4729
832.606	4706
832.744	4805
832.883	4809
833.022	4771
833.16	4801
833.299	4866
833.437	4843
833.576	4877
833.714	4858
833.852	4908
833.991	4949
834.129	5010
834.267	5014
834.406	4961
834.544	4991
834.682	5014
834.821	4976
834.959	5239
835.097	4999
835.235	5185
835.373	5121
835.511	5174
835.65	5033
835.788	5098
835.926	5006
836.064	4919
836.202	4980
836.34	5220
836.478	5239
836.615	5216
836.753	5246
836.891	5277
837.029	5246
837.167	5181
837.305	5189
837.443	5178
837.58	5128
837.718	5284
837.856	5250
837.993	5136
838.131	5242
838.269	5246
838.406	5265
838.544	5185
838.681	5067
838.819	5045
838.956	4949
839.094	4942
839.231	5018
839.369	5090
839.506	5429
839.643	5269
839.781	5098
839.918	5022
840.055	5166
840.193	5124
840.33	5143
840.467	5223
840.604	5239
840.742	5486
840.879	5109
841.016	5124
841.153	5185
841.29	5455
841.427	5322
841.564	5376
841.701	5402
841.838	5280
841.975	5273
842.112	5318
842.249	5178
842.385	5155
842.522	5341
842.659	5189
842.796	5147
842.933	5242
843.069	5155
843.206	5181
843.343	5311
843.479	5265
843.616	5322
843.752	5090
843.889	5121
844.025	5258
844.162	5041
844.298	5261
844.435	5132
844.571	5045
844.708	5227
844.844	5322
844.98	5402
845.117	5315
845.253	5162
845.389	5094
845.525	5147
845.661	5181
845.798	5086
845.934	5140
846.07	5109
846.206	5220
846.342	5322
846.478	5223
846.614	5094
846.75	4991
846.886	4965
847.022	5178
847.158	5022
847.294	5094
847.429	5121
847.565	5083
847.701	5357
847.837	4900
847.972	4843
848.108	4984
848.244	4938
848.379	4801
848.515	4771
848.65	4767
848.786	4748
848.921	4828
849.057	4870
849.192	4934
849.328	4862
849.463	4831
849.598	4839
849.734	4790
849.869	4748
850.004	4649
850.14	4736
850.275	4664
850.41	4573
850.545	4592
850.68	4641
850.815	4592
850.95	4630
851.085	4847
851.22	4763
851.355	4702
851.49	4653
851.625	4637
851.76	4672
851.895	4641
852.03	4546
852.165	4698
852.299	4706
852.434	4793
852.569	4744
852.703	4790
852.838	4862
852.973	4980
853.107	5010
853.242	4744
853.376	4721
853.511	4615
853.645	4637
853.78	4858
853.914	4755
854.048	4706
854.183	4687
854.317	4740
854.451	4854
854.585	4759
854.72	4664
854.854	4755
854.988	4645
855.122	4725
855.256	4538
855.39	4668
855.524	4839
855.658	4748
855.792	4729
855.926	4729
856.06	4843
856.194	4801
856.327	4714
856.461	4637
856.595	4687
856.729	4641
856.862	4812
856.996	4710
857.13	4778
857.263	4801
857.397	4828
857.53	4698
857.664	4793
857.797	4809
857.931	4843
858.064	4759
858.197	4767
858.331	4687
858.464	4710
858.597	4497
858.731	4645
858.864	4694
858.997	4622
859.13	4675
859.263	4694
859.396	4714
859.529	4660
859.662	4607
859.795	4607
859.928	4679
860.061	4759
860.194	4801
860.327	4664
860.46	4531
860.592	4721
860.725	4706
860.858	4748
860.99	4596
861.123	4531
861.256	4546
861.388	4637
861.521	5360
861.653	4538
861.786	4451
861.918	4497
862.05	4565
862.183	4577
862.315	4641
862.447	4672
862.58	4611
862.712	4398
862.844	4318
862.976	4500
863.108	4474
863.24	4831
863.372	4375
863.504	4455
863.636	4443
863.768	4500
863.9	4447
864.032	4424
864.164	4421
864.296	4519
864.428	4577
864.559	4550
864.691	4580
864.823	4538
864.954	4462
865.086	4569
865.217	4493
865.349	4493
865.48	4432
865.612	4523
865.743	4641
865.875	4523
866.006	4493
866.137	4519
866.269	4497
866.4	4443
866.531	4436
866.662	4417
866.793	4424
866.924	4466
867.055	4558
867.186	4512
867.317	4428
867.448	4436
867.579	4417
867.71	4413
867.841	4409
867.972	4519
868.103	4462
868.233	4489
868.364	4478
868.495	4512
868.625	4710
868.756	4771
868.886	4630
869.017	4672
869.147	4828
869.278	4797
869.408	4729
869.539	4679
869.669	4691
869.799	4748
869.929	4801
870.06	4774
870.19	4987
870.32	4942
870.45	4919
870.58	4976
870.71	5143
870.84	5079
870.97	4987
871.1	4957
871.23	5170
871.36	5147
871.489	5094
871.619	5060
871.749	5109
871.879	5166
872.008	5216
872.138	5067
872.267	4991
872.397	4900
872.526	4889
872.656	4786
872.785	4850
872.915	4972
873.044	5033
873.173	4953
873.303	5033
873.432	4961
873.561	4995
873.69	4942
873.819	4873
873.948	4934
874.077	4877
874.206	4824
874.335	4828
874.464	4908
874.593	5109
874.722	4999
874.851	5098
874.979	5117
875.108	5029
875.237	4942
875.365	4911
875.494	4980
875.623	4999
875.751	4854
875.88	4938
876.008	5010
876.136	5033
876.265	5193
876.393	5326
876.521	5292
876.65	5303
876.778	5201
876.906	5060
877.034	5056
877.162	5041
877.29	5014
877.418	5064
877.546	5037
877.674	5079
877.802	5029
877.93	5071
878.058	4942
878.185	4885
878.313	4991
878.441	4976
878.568	4774
878.696	4866
878.824	4953
878.951	5045
879.079	5166
879.206	5337
879.333	5128
879.461	5006
879.588	5029
879.715	5204
879.842	5277
879.97	5041
880.097	4824
880.224	4763
880.351	4820
880.478	4908
880.605	4820
880.732	4774
880.859	5128
880.986	4919
881.112	4991
881.239	4805
881.366	4664
881.493	4615
881.619	4599
881.746	4679
881.872	4641
881.999	4649
882.125	4714
882.252	4759
882.378	4881
882.505	4949
882.631	4820
882.757	4714
882.883	4763
883.01	4748
883.136	4649
883.262	4637
883.388	4622
883.514	4839
883.64	4915
883.766	4828
883.892	4653
884.018	4752
884.143	4915
884.269	5025
884.395	4729
884.52	4630
884.646	4653
884.772	4611
884.897	4584
885.023	4694
885.148	4816
885.274	4850
885.399	4824
885.524	4793
885.65	4752
885.775	4744
885.9	4740
886.025	4870
886.15	4790
886.275	4774
886.4	4702
886.525	4752
886.65	4687
886.775	4725
886.9	4942
887.025	5083
887.149	4877
887.274	4672
887.399	4573
887.523	4630
887.648	4634
887.773	4596
887.897	4805
888.021	4778
888.146	4752
888.27	4866
888.395	4987
888.519	4828
888.643	4824
888.767	4831
888.891	4736
889.015	4611
889.139	4729
889.263	4588
889.387	4824
889.511	4881
889.635	4824
889.759	4664
889.883	4714
890.006	4782
890.13	4805
890.254	4649
890.377	4733
890.501	4577
890.624	4561
890.748	4672
890.871	4542
890.995	4474
891.118	4417
891.241	4531
891.364	4554
891.488	4672
891.611	4523
891.734	4542
891.857	4615
891.98	4554
892.103	4679
892.226	4622
892.349	4588
892.471	4451
892.594	4516
892.717	4649
892.839	4535
892.962	4645
893.085	4660
893.207	4630
893.33	4443
893.452	4516
893.575	4706
893.697	4580
893.819	4831
893.941	4862
894.064	4767
894.186	4603
894.308	4577
894.43	4733
894.552	4850
894.674	4778
894.796	4596
894.918	4630
895.04	4535
895.161	4702
895.283	4630
895.405	4622
895.526	4698
895.648	4733
895.769	4740
895.891	4771
896.012	4744
896.134	4710
896.255	4649
896.376	4634
896.498	4637
896.619	4714
896.74	4664
896.861	4698
896.982	4919
897.103	5140
897.224	4881
897.345	4767
897.466	4660
897.587	4725
897.708	4870
897.828	4790
897.949	4679
898.07	4592
898.19	4637
898.311	4816
898.431	4717
898.552	4740
898.672	4801
898.792	4809
898.913	4759
899.033	4634
899.153	4519
899.273	4413
899.393	4504
899.513	4493
899.633	4516
899.753	4558
899.873	4527
899.993	4599
900.113	4527
900.232	4626
900.352	4542
900.472	4409
900.591	4428
900.711	4538
900.83	4462
900.95	4618
901.069	4706
901.189	4573
901.308	4390
901.427	4329
901.546	4413
901.665	4470
901.784	4535
901.904	4390
902.023	4405
902.141	4238
902.26	4219
902.379	4341
902.498	4249
902.617	4268
902.735	4383
902.854	4390
902.973	4443
903.091	4242
903.21	4284
903.328	4379
903.446	4318
903.565	4344
903.683	4417
903.801	4333
903.919	4421
904.038	4489
904.156	4348
904.274	4478
904.392	4402
904.51	4459
904.627	4527
904.745	4607
904.863	4653
904.981	4432
905.098	4363
905.216	4428
905.334	4478
905.451	4531
905.569	4470
905.686	4645
905.803	4580
905.921	4440
906.038	4607
906.155	4535
906.272	4440
906.389	4508
906.506	4413
906.623	4432
906.74	4428
906.857	4371
906.974	4409
907.091	4584
907.208	4748
907.324	4683
907.441	4500
907.557	4417
907.674	4390
907.79	4360
907.907	4413
908.023	4512
908.139	4519
908.256	4455
908.372	4523
908.488	4504
908.604	4447
908.72	4348
908.836	4413
908.952	4398
909.068	4527
909.184	4622
909.3	4497
909.415	4641
909.531	4596
909.647	4405
909.762	4405
909.878	4390
909.993	4504
910.108	4451
910.224	4466
910.339	4542
910.454	4474
910.57	4447
910.685	4341
910.8	4691
910.915	4626
911.03	4500
911.145	4344
911.259	4424
911.374	4432
911.489	4299
911.604	4318
911.718	4219
911.833	4268
911.947	4109
912.062	4086
912.176	4249
912.291	4322
912.405	4310
912.519	4474
912.633	4554
912.748	4455
912.862	4375
912.976	4223
913.09	4150
913.204	4200
913.318	4303
913.431	4436
913.545	4417
913.659	4485
913.772	4428
913.886	4306
914	4272
914.113	4413
914.226	4535
914.34	4451
914.453	4280
914.566	4470
914.68	4379
914.793	4363
914.906	4200
915.019	4192
915.132	4105
915.245	4227
915.358	4238
915.47	4280
915.583	4310
915.696	4367
915.809	4447
915.921	4459
916.034	4287
916.146	4280
916.259	4253
916.371	4489
916.483	4440
916.595	4329
916.708	4367
916.82	4348
916.932	4337
917.044	4367
917.156	4386
917.268	4272
917.38	4310
917.491	4314
917.603	4383
917.715	4500
917.826	4459
917.938	4383
918.049	4287
918.161	4466
918.272	4611
918.384	4546
918.495	4470
918.606	4318
918.717	4325
918.828	4394
918.939	4421
919.05	4314
919.161	4325
919.272	4200
919.383	4238
919.494	4474
919.604	4683
919.715	4500
919.826	4371
919.936	4402
920.047	4580
920.157	4554
920.267	4744
920.378	4603
920.488	4523
920.598	4759
920.708	4873
920.818	4820
920.928	4816
921.038	5010
921.148	4968
921.258	4653
921.368	4615
921.477	4516
921.587	4485
921.697	4436
921.806	4554
921.916	4481
922.025	4261
922.134	4337
922.244	4287
922.353	4413
922.462	4246
922.571	4219
922.68	4097
922.789	3998
922.898	4063
923.007	3968
923.116	4154
923.224	4139
923.333	4139
923.442	4010
923.55	4029
923.659	4093
923.767	4150
923.876	4029
923.984	4200
924.092	4032
924.201	4105
924.309	4116
924.417	4188
924.525	4135
924.633	4162
924.741	5140
924.849	3975
924.956	4166
925.064	3994
925.172	3937
925.279	4013
925.387	4082
925.494	4112
925.602	4249
925.709	4272
925.816	4105
925.924	4169
926.031	4238
926.138	4188
926.245	4261
926.352	4112
926.459	4314
926.566	4329
926.673	4196
926.779	4120
926.886	4086
926.993	4048
927.099	3968
927.206	3937
927.312	3998
927.419	4101
927.525	4063
927.631	4124
927.737	4017
927.843	3941
927.95	3842
928.056	3949
928.162	4010
928.267	4086
928.373	4736
928.479	4162
928.585	3968
928.69	4044
928.796	4063
928.901	3983
929.007	3869
929.112	4006
929.218	3998
929.323	4013
929.428	3953
929.533	4124
929.638	3937
929.743	4017
929.848	4063
929.953	4059
930.058	3907
930.163	3835
930.267	3827
930.372	4025
930.477	3831
930.581	4082
930.685	3979
930.79	3861
930.894	3956
930.998	3869
931.103	4051
931.207	3732
931.311	3713
931.415	3701
931.519	3572
931.623	3557
