Data from test_V78500241_1202.txt Node
Date: Fri Mar 25 16:57:21 CST 2022
User: usil
Spectrometer: V785-0024
Trigger mode: 0
Integration Time (sec): 4.000000E-1
Scans to average: 1
Nonlinearity correction enabled: false
Boxcar width: 0
Storing dark spectrum: false
XAxis mode: Wavelengths
Number of Pixels in Spectrum: 1024
>>>>>Begin Spectral Data<<<<<
801.071	7993
801.214	8035
801.356	7967
801.499	7833
801.641	7757
801.783	7837
801.926	7894
802.068	7890
802.211	7944
802.353	8001
802.496	7909
802.638	7902
802.78	7925
802.923	8005
803.065	7860
803.208	7921
803.35	7974
803.492	8069
803.635	8180
803.777	8054
803.919	8218
804.061	8503
804.204	8164
804.346	8065
804.488	7951
804.63	8130
804.773	8012
804.915	8096
805.057	8294
805.199	8168
805.341	8240
805.483	8240
805.626	8202
805.768	8115
805.91	8191
806.052	8157
806.194	8103
806.336	8282
806.478	8096
806.62	8024
806.762	8142
806.904	8286
807.046	8476
807.188	8317
807.33	8309
807.472	8347
807.614	8199
807.756	8077
807.898	8024
808.04	7913
808.182	7951
808.324	7890
808.465	7955
808.607	8092
808.749	8161
808.891	8145
809.033	8244
809.174	8149
809.316	7989
809.458	7970
809.6	7906
809.741	8031
809.883	8008
810.025	8092
810.166	8005
810.308	8001
810.45	8046
810.591	7837
810.733	7693
810.875	7651
811.016	7518
811.158	7559
811.299	7670
811.441	7704
811.582	7662
811.724	7605
811.865	7567
812.007	7525
812.148	7616
812.29	7556
812.431	7715
812.573	7849
812.714	7970
812.855	8115
812.997	8199
813.138	8290
813.279	8225
813.421	8081
813.562	7978
813.703	7936
813.845	7750
813.986	7510
814.127	7194
814.268	7156
814.41	7213
814.551	7069
814.692	7190
814.833	7084
814.974	7107
815.115	7050
815.256	6981
815.397	6939
815.539	6928
815.68	6798
815.821	6768
815.962	6859
816.103	6795
816.244	6734
816.385	6559
816.526	6639
816.666	6506
816.807	6285
816.948	6410
817.089	6467
817.23	6418
817.371	6422
817.512	6399
817.653	6391
817.793	6342
817.934	6407
818.075	6433
818.216	6426
818.356	6403
818.497	6224
818.638	6087
818.778	6194
818.919	6091
819.06	6178
819.2	6323
819.341	6289
819.481	6308
819.622	6525
819.762	6760
819.903	6749
820.043	6570
820.184	6585
820.324	6559
820.465	6760
820.605	6604
820.746	6654
820.886	6509
821.026	6589
821.167	6749
821.307	6806
821.447	6738
821.588	6616
821.728	6578
821.868	6494
822.008	6285
822.149	6353
822.289	6342
822.429	6110
822.569	6117
822.709	6098
822.849	5897
822.99	5870
823.13	5912
823.27	5866
823.41	5836
823.55	5824
823.69	5745
823.83	5703
823.97	5611
824.11	5482
824.25	5532
824.389	5501
824.529	5543
824.669	5543
824.809	5589
824.949	5657
825.089	5596
825.228	5512
825.368	5372
825.508	5383
825.648	5341
825.787	5372
825.927	5284
826.067	5315
826.206	5315
826.346	5364
826.485	5360
826.625	5421
826.765	5482
826.904	5440
827.044	5277
827.183	5159
827.323	5090
827.462	5212
827.601	5147
827.741	5197
827.88	5227
828.02	5109
828.159	5223
828.298	5250
828.437	5345
828.577	5280
828.716	5505
828.855	5315
828.994	5159
829.134	5090
829.273	5197
829.412	5151
829.551	5124
829.69	5098
829.829	5227
829.968	5345
830.107	5269
830.246	5212
830.385	5151
830.524	5151
830.663	5041
830.802	4984
830.941	4862
831.08	4885
831.219	4930
831.357	4938
831.496	5166
831.635	4896
831.774	4831
831.913	4862
832.051	4725
832.19	4710
832.329	4809
832.467	4721
832.606	4603
832.744	4755
832.883	4694
833.022	4706
833.16	4740
833.299	4805
833.437	4797
833.576	4809
833.714	4858
833.852	4862
833.991	4904
834.129	4946
834.267	4915
834.406	4866
834.544	4953
834.682	4980
834.821	4942
834.959	5181
835.097	4965
835.235	5128
835.373	5098
835.511	5056
835.65	4999
835.788	5064
835.926	4885
836.064	4809
836.202	4889
836.34	5132
836.478	5227
836.615	5140
836.753	5193
836.891	5311
837.029	5242
837.167	5128
837.305	5166
837.443	5121
837.58	5102
837.718	5223
837.856	5204
837.993	5128
838.131	5216
838.269	5204
838.406	5193
838.544	5201
838.681	5056
838.819	5045
838.956	4881
839.094	4896
839.231	4919
839.369	5075
839.506	5436
839.643	5208
839.781	5003
839.918	4995
840.055	5025
840.193	5025
840.33	5067
840.467	5128
840.604	5170
840.742	5444
840.879	5090
841.016	5033
841.153	5113
841.29	5349
841.427	5345
841.564	5273
841.701	5357
841.838	5265
841.975	5231
842.112	5254
842.249	5136
842.385	5105
842.522	5326
842.659	5178
842.796	5140
842.933	5185
843.069	5132
843.206	5109
843.343	5299
843.479	5166
843.616	5220
843.752	5022
843.889	5033
844.025	5147
844.162	5003
844.298	5258
844.435	5064
844.571	5048
844.708	5178
844.844	5284
844.98	5357
845.117	5284
845.253	5090
845.389	5121
845.525	5166
845.661	5208
845.798	4995
845.934	5155
846.07	5029
846.206	5193
846.342	5208
846.478	5178
846.614	4984
846.75	4938
846.886	4911
847.022	5155
847.158	5018
847.294	4987
847.429	5075
847.565	5045
847.701	5315
847.837	4839
847.972	4805
848.108	4911
848.244	4934
848.379	4755
848.515	4733
848.65	4729
848.786	4755
848.921	4744
849.057	4862
849.192	4885
849.328	4755
849.463	4820
849.598	4759
849.734	4710
849.869	4702
850.004	4603
850.14	4664
850.275	4584
850.41	4546
850.545	4546
850.68	4603
850.815	4622
850.95	4618
851.085	4839
851.22	4733
851.355	4634
851.49	4599
851.625	4626
851.76	4615
851.895	4489
852.03	4561
852.165	4641
852.299	4710
852.434	4759
852.569	4733
852.703	4744
852.838	4797
852.973	4934
853.107	4923
853.242	4748
853.376	4649
853.511	4554
853.645	4588
853.78	4824
853.914	4721
854.048	4668
854.183	4653
854.317	4683
854.451	4866
854.585	4672
854.72	4630
854.854	4736
854.988	4592
855.122	4668
855.256	4504
855.39	4660
855.524	4755
855.658	4729
855.792	4679
855.926	4717
856.06	4717
856.194	4782
856.327	4615
856.461	4584
856.595	4634
856.729	4603
856.862	4767
856.996	4748
857.13	4744
857.263	4725
857.397	4725
857.53	4645
857.664	4714
857.797	4767
857.931	4812
858.064	4683
858.197	4694
858.331	4672
858.464	4607
858.597	4516
858.731	4653
858.864	4596
858.997	4626
859.13	4653
859.263	4656
859.396	4721
859.529	4584
859.662	4558
859.795	4512
859.928	4653
860.061	4763
860.194	4748
860.327	4618
860.46	4542
860.592	4672
860.725	4668
860.858	4691
860.99	4546
861.123	4519
861.256	4531
861.388	4584
861.521	5288
861.653	4504
861.786	4455
861.918	4432
862.05	4474
862.183	4535
862.315	4611
862.447	4611
862.58	4550
862.712	4417
862.844	4284
862.976	4447
863.108	4436
863.24	4900
863.372	4299
863.504	4344
863.636	4386
863.768	4466
863.9	4379
864.032	4352
864.164	4371
864.296	4478
864.428	4558
864.559	4554
864.691	4512
864.823	4497
864.954	4497
865.086	4531
865.217	4413
865.349	4386
865.48	4474
865.612	4535
865.743	4596
865.875	4474
866.006	4398
866.137	4447
866.269	4428
866.4	4440
866.531	4405
866.662	4417
866.793	4383
866.924	4398
867.055	4504
867.186	4398
867.317	4348
867.448	4371
867.579	4432
867.71	4299
867.841	4356
867.972	4478
868.103	4474
868.233	4424
868.364	4390
868.495	4470
868.625	4675
868.756	4717
868.886	4527
869.017	4634
869.147	4763
869.278	4752
869.408	4634
869.539	4611
869.669	4710
869.799	4660
869.929	4717
870.06	4683
870.19	4968
870.32	4946
870.45	4908
870.58	4961
870.71	5045
870.84	5033
870.97	4923
871.1	4881
871.23	5102
871.36	5170
871.489	5022
871.619	5071
871.749	5113
871.879	5086
872.008	5162
872.138	5052
872.267	4976
872.397	4805
872.526	4744
872.656	4752
872.785	4782
872.915	4934
873.044	5006
873.173	4881
873.303	4930
873.432	4953
873.561	4934
873.69	4889
873.819	4839
873.948	4923
874.077	4812
874.206	4748
874.335	4820
874.464	4919
874.593	5010
874.722	4957
874.851	5113
874.979	5071
875.108	5029
875.237	4911
875.365	4812
875.494	4873
875.623	4942
875.751	4816
875.88	4862
876.008	4915
876.136	5056
876.265	5197
876.393	5334
876.521	5201
876.65	5204
876.778	5105
876.906	5025
877.034	5018
877.162	5045
877.29	5022
877.418	5037
877.546	5014
877.674	5029
877.802	5018
877.93	5079
878.058	4953
878.185	4858
878.313	4930
878.441	4949
878.568	4809
878.696	4908
878.824	4881
878.951	4999
879.079	5124
879.206	5284
879.333	5060
879.461	4995
879.588	4949
879.715	5117
879.842	5185
879.97	4980
880.097	4778
880.224	4752
880.351	4816
880.478	4831
880.605	4755
880.732	4744
880.859	5094
880.986	4877
881.112	4870
881.239	4748
881.366	4637
881.493	4615
881.619	4561
881.746	4626
881.872	4645
881.999	4656
882.125	4637
882.252	4801
882.378	4828
882.505	4949
882.631	4816
882.757	4656
882.883	4672
883.01	4683
883.136	4672
883.262	4603
883.388	4622
883.514	4805
883.64	4839
883.766	4790
883.892	4668
884.018	4672
884.143	4873
884.269	4991
884.395	4702
884.52	4599
884.646	4645
884.772	4577
884.897	4569
885.023	4626
885.148	4809
885.274	4889
885.399	4778
885.524	4691
885.65	4649
885.775	4755
885.9	4664
886.025	4801
886.15	4774
886.275	4687
886.4	4626
886.525	4721
886.65	4691
886.775	4634
886.9	4858
887.025	5045
887.149	4805
887.274	4672
887.399	4580
887.523	4618
887.648	4542
887.773	4565
887.897	4782
888.021	4801
888.146	4637
888.27	4858
888.395	4892
888.519	4755
888.643	4824
888.767	4870
888.891	4668
889.015	4558
889.139	4641
889.263	4573
889.387	4767
889.511	4877
889.635	4790
889.759	4588
889.883	4630
890.006	4702
890.13	4820
890.254	4611
890.377	4641
890.501	4516
890.624	4546
890.748	4637
890.871	4478
890.995	4432
891.118	4310
891.241	4474
891.364	4538
891.488	4588
891.611	4459
891.734	4542
891.857	4588
891.98	4527
892.103	4622
892.226	4558
892.349	4527
892.471	4390
892.594	4561
892.717	4588
892.839	4558
892.962	4584
893.085	4622
893.207	4603
893.33	4432
893.452	4512
893.575	4634
893.697	4546
893.819	4809
893.941	4790
894.064	4755
894.186	4577
894.308	4546
894.43	4744
894.552	4778
894.674	4714
894.796	4565
894.918	4573
895.04	4550
895.161	4679
895.283	4645
895.405	4558
895.526	4634
895.648	4679
895.769	4634
895.891	4691
896.012	4687
896.134	4725
896.255	4645
896.376	4668
896.498	4660
896.619	4694
896.74	4573
896.861	4626
896.982	4900
897.103	5071
897.224	4809
897.345	4767
897.466	4641
897.587	4698
897.708	4816
897.828	4782
897.949	4645
898.07	4531
898.19	4611
898.311	4816
898.431	4687
898.552	4710
898.672	4763
898.792	4778
898.913	4736
899.033	4615
899.153	4500
899.273	4421
899.393	4516
899.513	4489
899.633	4508
899.753	4519
899.873	4519
899.993	4618
900.113	4493
900.232	4554
900.352	4550
900.472	4478
900.591	4451
900.711	4500
900.83	4443
900.95	4599
901.069	4641
901.189	4538
901.308	4314
901.427	4341
901.546	4428
901.665	4417
901.784	4462
901.904	4417
902.023	4322
902.141	4211
902.26	4173
902.379	4272
902.498	4261
902.617	4215
902.735	4363
902.854	4379
902.973	4329
903.091	4223
903.21	4211
903.328	4322
903.446	4265
903.565	4246
903.683	4409
903.801	4268
903.919	4398
904.038	4402
904.156	4325
904.274	4375
904.392	4306
904.51	4421
904.627	4432
904.745	4542
904.863	4615
904.981	4447
905.098	4337
905.216	4379
905.334	4402
905.451	4459
905.569	4436
905.686	4542
905.803	4584
905.921	4421
906.038	4561
906.155	4459
906.272	4451
906.389	4417
906.506	4314
906.623	4356
906.74	4379
906.857	4291
906.974	4375
907.091	4554
907.208	4656
907.324	4558
907.441	4504
907.557	4367
907.674	4329
907.79	4344
907.907	4383
908.023	4493
908.139	4485
908.256	4394
908.372	4470
908.488	4466
908.604	4371
908.72	4333
908.836	4333
908.952	4352
909.068	4360
909.184	4573
909.3	4466
909.415	4531
909.531	4508
909.647	4337
909.762	4360
909.878	4322
909.993	4447
910.108	4417
910.224	4375
910.339	4493
910.454	4405
910.57	4367
910.685	4318
910.8	4645
910.915	4588
911.03	4497
911.145	4303
911.259	4360
911.374	4363
911.489	4310
911.604	4272
911.718	4166
911.833	4166
911.947	4032
912.062	4044
912.176	4185
912.291	4257
912.405	4284
912.519	4470
912.633	4542
912.748	4405
912.862	4287
912.976	4124
913.09	4055
913.204	4131
913.318	4234
913.431	4394
913.545	4325
913.659	4428
913.772	4344
913.886	4268
914	4204
914.113	4421
914.226	4409
914.34	4398
914.453	4253
914.566	4398
914.68	4295
914.793	4337
914.906	4158
915.019	4124
915.132	4086
915.245	4177
915.358	4223
915.47	4230
915.583	4280
915.696	4310
915.809	4356
915.921	4428
916.034	4227
916.146	4234
916.259	4177
916.371	4329
916.483	4375
916.595	4253
916.708	4299
916.82	4322
916.932	4352
917.044	4333
917.156	4246
917.268	4227
917.38	4284
917.491	4246
917.603	4322
917.715	4459
917.826	4436
917.938	4306
918.049	4242
918.161	4379
918.272	4546
918.384	4527
918.495	4451
918.606	4310
918.717	4215
918.828	4333
918.939	4348
919.05	4204
919.161	4268
919.272	4093
919.383	4242
919.494	4436
919.604	4584
919.715	4402
919.826	4367
919.936	4375
920.047	4504
920.157	4485
920.267	4694
920.378	4500
920.488	4512
920.598	4698
920.708	4858
920.818	4721
920.928	4706
921.038	4930
921.148	4892
921.258	4622
921.368	4500
921.477	4440
921.587	4470
921.697	4352
921.806	4516
921.916	4413
922.025	4192
922.134	4268
922.244	4242
922.353	4318
922.462	4150
922.571	4147
922.68	4010
922.789	3983
922.898	3994
923.007	3975
923.116	4131
923.224	4055
923.333	4040
923.442	4006
923.55	3956
923.659	3998
923.767	4105
923.876	3998
923.984	4158
924.092	3964
924.201	4048
924.309	4063
924.417	4071
924.525	4063
924.633	4124
924.741	5056
924.849	3876
924.956	4131
925.064	3968
925.172	3903
925.279	3949
925.387	4048
925.494	4017
925.602	4188
925.709	4169
925.816	4044
925.924	4116
926.031	4204
926.138	4147
926.245	4188
926.352	4112
926.459	4257
926.566	4280
926.673	4147
926.779	4036
926.886	4105
926.993	3960
927.099	3945
927.206	3964
927.312	3934
927.419	4055
927.525	3994
927.631	4101
927.737	3994
927.843	3941
927.95	3835
928.056	3945
928.162	3994
928.267	4063
928.373	4698
928.479	4112
928.585	3876
928.69	3998
928.796	4055
928.901	3994
929.007	3842
929.112	4010
929.218	3949
929.323	3903
929.428	3953
929.533	4078
929.638	3899
929.743	3941
929.848	4032
929.953	3987
930.058	3903
930.163	3778
930.267	3842
930.372	3956
930.477	3869
930.581	4116
930.685	3934
930.79	3838
930.894	3926
930.998	3911
931.103	4063
931.207	3705
931.311	3698
931.415	3660
931.519	3462
931.623	3553
