Data from test_V78500241_1885.txt Node
Date: Fri Mar 25 17:02:06 CST 2022
User: usil
Spectrometer: V785-0024
Trigger mode: 0
Integration Time (sec): 4.000000E-1
Scans to average: 1
Nonlinearity correction enabled: false
Boxcar width: 0
Storing dark spectrum: false
XAxis mode: Wavelengths
Number of Pixels in Spectrum: 1024
>>>>>Begin Spectral Data<<<<<
801.071	7974
801.214	8039
801.356	7906
801.499	7818
801.641	7814
801.783	7830
801.926	7970
802.068	7974
802.211	8043
802.353	8035
802.496	7811
802.638	7894
802.78	7909
802.923	8012
803.065	7909
803.208	7913
803.35	7974
803.492	8073
803.635	8153
803.777	8035
803.919	8126
804.061	8427
804.204	8191
804.346	8069
804.488	7997
804.63	8115
804.773	7978
804.915	8103
805.057	8252
805.199	8199
805.341	8202
805.483	8229
805.626	8221
805.768	8088
805.91	8183
806.052	8225
806.194	8199
806.336	8233
806.478	8138
806.62	8039
806.762	8157
806.904	8298
807.046	8450
807.188	8355
807.33	8317
807.472	8404
807.614	8130
807.756	8168
807.898	7982
808.04	7928
808.182	7921
808.324	7913
808.465	7898
808.607	8062
808.749	8073
808.891	8221
809.033	8400
809.174	8244
809.316	8096
809.458	8084
809.6	8024
809.741	8081
809.883	8046
810.025	8058
810.166	8088
810.308	8054
810.45	7967
810.591	7845
810.733	7776
810.875	7693
811.016	7480
811.158	7502
811.299	7544
811.441	7734
811.582	7658
811.724	7586
811.865	7567
812.007	7590
812.148	7578
812.29	7670
812.431	7731
812.573	7875
812.714	7982
812.855	8142
812.997	8294
813.138	8313
813.279	8164
813.421	8020
813.562	7932
813.703	7742
813.845	7677
813.986	7343
814.127	7270
814.268	7263
814.41	7240
814.551	7221
814.692	7194
814.833	7126
814.974	7080
815.115	7065
815.256	6962
815.397	6943
815.539	6913
815.68	6829
815.821	6791
815.962	6829
816.103	6802
816.244	6635
816.385	6673
816.526	6623
816.666	6490
816.807	6323
816.948	6410
817.089	6391
817.23	6380
817.371	6365
817.512	6361
817.653	6372
817.793	6353
817.934	6365
818.075	6452
818.216	6445
818.356	6376
818.497	6220
818.638	6091
818.778	6186
818.919	6110
819.06	6136
819.2	6342
819.341	6353
819.481	6338
819.622	6513
819.762	6726
819.903	6703
820.043	6620
820.184	6498
820.324	6585
820.465	6692
820.605	6684
820.746	6673
820.886	6479
821.026	6677
821.167	6692
821.307	6814
821.447	6757
821.588	6681
821.728	6593
821.868	6498
822.008	6334
822.149	6372
822.289	6357
822.429	6155
822.569	6038
822.709	6159
822.849	5908
822.99	5847
823.13	5901
823.27	5897
823.41	5771
823.55	5748
823.69	5748
823.83	5764
823.97	5638
824.11	5558
824.25	5528
824.389	5509
824.529	5619
824.669	5497
824.809	5581
824.949	5585
825.089	5596
825.228	5558
825.368	5383
825.508	5368
825.648	5360
825.787	5353
825.927	5383
826.067	5250
826.206	5231
826.346	5383
826.485	5421
826.625	5501
826.765	5516
826.904	5497
827.044	5296
827.183	5220
827.323	5098
827.462	5223
827.601	5174
827.741	5185
827.88	5277
828.02	5136
828.159	5239
828.298	5277
828.437	5379
828.577	5299
828.716	5459
828.855	5349
828.994	5140
829.134	5151
829.273	5170
829.412	5170
829.551	5151
829.69	5201
829.829	5242
829.968	5349
830.107	5334
830.246	5277
830.385	5185
830.524	5113
830.663	5048
830.802	4995
830.941	4881
831.08	4858
831.219	4938
831.357	4987
831.496	5174
831.635	4892
831.774	4873
831.913	4854
832.051	4687
832.19	4721
832.329	4805
832.467	4710
832.606	4649
832.744	4767
832.883	4721
833.022	4706
833.16	4767
833.299	4812
833.437	4805
833.576	4843
833.714	4866
833.852	4797
833.991	4873
834.129	4965
834.267	4900
834.406	4919
834.544	4980
834.682	4984
834.821	4957
834.959	5155
835.097	5010
835.235	5136
835.373	5105
835.511	5102
835.65	5003
835.788	4995
835.926	4915
836.064	4873
836.202	4957
836.34	5166
836.478	5227
836.615	5147
836.753	5261
836.891	5322
837.029	5273
837.167	5201
837.305	5178
837.443	5159
837.58	5075
837.718	5334
837.856	5132
837.993	5109
838.131	5174
838.269	5212
838.406	5189
838.544	5178
838.681	5022
838.819	4980
838.956	4942
839.094	4885
839.231	4961
839.369	5056
839.506	5436
839.643	5299
839.781	5067
839.918	4995
840.055	5136
840.193	5185
840.33	5109
840.467	5128
840.604	5132
840.742	5440
840.879	5086
841.016	5075
841.153	5094
841.29	5341
841.427	5315
841.564	5303
841.701	5330
841.838	5227
841.975	5174
842.112	5235
842.249	5128
842.385	5140
842.522	5296
842.659	5174
842.796	5117
842.933	5178
843.069	5174
843.206	5140
843.343	5296
843.479	5216
843.616	5242
843.752	5033
843.889	4987
844.025	5178
844.162	5037
844.298	5231
844.435	5052
844.571	5029
844.708	5113
844.844	5258
844.98	5326
845.117	5273
845.253	5109
845.389	5079
845.525	5166
845.661	5117
845.798	5060
845.934	5121
846.07	5025
846.206	5181
846.342	5292
846.478	5201
846.614	4987
846.75	4961
846.886	4942
847.022	5113
847.158	4938
847.294	5090
847.429	5094
847.565	5010
847.701	5315
847.837	4850
847.972	4782
848.108	4896
848.244	4877
848.379	4793
848.515	4710
848.65	4710
848.786	4710
848.921	4755
849.057	4900
849.192	4927
849.328	4812
849.463	4847
849.598	4782
849.734	4752
849.869	4683
850.004	4641
850.14	4729
850.275	4618
850.41	4546
850.545	4542
850.68	4622
850.815	4588
850.95	4615
851.085	4847
851.22	4740
851.355	4641
851.49	4599
851.625	4607
851.76	4618
851.895	4558
852.03	4558
852.165	4611
852.299	4721
852.434	4778
852.569	4744
852.703	4717
852.838	4854
852.973	4919
853.107	4923
853.242	4748
853.376	4630
853.511	4523
853.645	4645
853.78	4755
853.914	4710
854.048	4634
854.183	4649
854.317	4656
854.451	4824
854.585	4694
854.72	4630
854.854	4740
854.988	4618
855.122	4618
855.256	4542
855.39	4653
855.524	4805
855.658	4694
855.792	4683
855.926	4706
856.06	4759
856.194	4782
856.327	4725
856.461	4649
856.595	4584
856.729	4637
856.862	4782
856.996	4679
857.13	4714
857.263	4748
857.397	4809
857.53	4641
857.664	4710
857.797	4771
857.931	4752
858.064	4645
858.197	4733
858.331	4637
858.464	4626
858.597	4523
858.731	4615
858.864	4645
858.997	4554
859.13	4668
859.263	4641
859.396	4672
859.529	4577
859.662	4573
859.795	4508
859.928	4668
860.061	4763
860.194	4755
860.327	4592
860.46	4561
860.592	4725
860.725	4687
860.858	4698
860.99	4538
861.123	4474
861.256	4466
861.388	4580
861.521	5383
861.653	4493
861.786	4455
861.918	4459
862.05	4504
862.183	4592
862.315	4577
862.447	4668
862.58	4603
862.712	4360
862.844	4329
862.976	4440
863.108	4436
863.24	4877
863.372	4306
863.504	4417
863.636	4367
863.768	4481
863.9	4398
864.032	4344
864.164	4440
864.296	4440
864.428	4554
864.559	4569
864.691	4485
864.823	4474
864.954	4470
865.086	4481
865.217	4474
865.349	4409
865.48	4466
865.612	4508
865.743	4603
865.875	4478
866.006	4432
866.137	4485
866.269	4451
866.4	4394
866.531	4409
866.662	4386
866.793	4375
866.924	4402
867.055	4508
867.186	4413
867.317	4432
867.448	4379
867.579	4375
867.71	4428
867.841	4390
867.972	4493
868.103	4447
868.233	4466
868.364	4424
868.495	4455
868.625	4653
868.756	4714
868.886	4577
869.017	4569
869.147	4816
869.278	4797
869.408	4637
869.539	4664
869.669	4694
869.799	4679
869.929	4733
870.06	4698
870.19	4885
870.32	4915
870.45	4900
870.58	4991
870.71	5124
870.84	5056
870.97	4915
871.1	4858
871.23	5136
871.36	5102
871.489	5041
871.619	5083
871.749	5083
871.879	5086
872.008	5143
872.138	5079
872.267	5006
872.397	4824
872.526	4828
872.656	4725
872.785	4805
872.915	4904
873.044	4980
873.173	4923
873.303	4957
873.432	4965
873.561	4995
873.69	4885
873.819	4866
873.948	4900
874.077	4771
874.206	4771
874.335	4805
874.464	4915
874.593	5022
874.722	4911
874.851	5067
874.979	5022
875.108	5045
875.237	4885
875.365	4930
875.494	4824
875.623	4938
875.751	4862
875.88	4835
876.008	4927
876.136	5022
876.265	5162
876.393	5318
876.521	5235
876.65	5220
876.778	5109
876.906	5121
877.034	5029
877.162	4999
877.29	4957
877.418	5086
877.546	5037
877.674	5056
877.802	5003
877.93	5033
878.058	4946
878.185	4854
878.313	4999
878.441	4995
878.568	4797
878.696	4889
878.824	4957
878.951	5025
879.079	5136
879.206	5292
879.333	5105
879.461	4957
879.588	4942
879.715	5117
879.842	5204
879.97	5014
880.097	4778
880.224	4786
880.351	4831
880.478	4809
880.605	4733
880.732	4755
880.859	5060
880.986	4953
881.112	4908
881.239	4778
881.366	4645
881.493	4630
881.619	4569
881.746	4611
881.872	4691
881.999	4649
882.125	4672
882.252	4744
882.378	4809
882.505	4980
882.631	4812
882.757	4683
882.883	4714
883.01	4702
883.136	4634
883.262	4634
883.388	4611
883.514	4767
883.64	4828
883.766	4816
883.892	4637
884.018	4694
884.143	4889
884.269	4991
884.395	4641
884.52	4645
884.646	4675
884.772	4599
884.897	4538
885.023	4679
885.148	4793
885.274	4862
885.399	4786
885.524	4721
885.65	4664
885.775	4736
885.9	4687
886.025	4877
886.15	4755
886.275	4740
886.4	4694
886.525	4740
886.65	4683
886.775	4721
886.9	4949
887.025	5041
887.149	4801
887.274	4645
887.399	4599
887.523	4573
887.648	4584
887.773	4588
887.897	4774
888.021	4774
888.146	4679
888.27	4816
888.395	4896
888.519	4771
888.643	4820
888.767	4850
888.891	4645
889.015	4573
889.139	4672
889.263	4611
889.387	4763
889.511	4870
889.635	4801
889.759	4683
889.883	4664
890.006	4729
890.13	4816
890.254	4641
890.377	4710
890.501	4561
890.624	4531
890.748	4599
890.871	4481
890.995	4402
891.118	4390
891.241	4527
891.364	4538
891.488	4649
891.611	4440
891.734	4508
891.857	4599
891.98	4508
892.103	4611
892.226	4565
892.349	4519
892.471	4405
892.594	4554
892.717	4607
892.839	4573
892.962	4561
893.085	4637
893.207	4618
893.33	4470
893.452	4516
893.575	4649
893.697	4580
893.819	4736
893.941	4850
894.064	4790
894.186	4596
894.308	4569
894.43	4733
894.552	4847
894.674	4744
894.796	4535
894.918	4599
895.04	4546
895.161	4691
895.283	4637
895.405	4596
895.526	4637
895.648	4698
895.769	4672
895.891	4645
896.012	4729
896.134	4702
896.255	4668
896.376	4588
896.498	4664
896.619	4687
896.74	4634
896.861	4626
896.982	4915
897.103	5033
897.224	4816
897.345	4752
897.466	4664
897.587	4733
897.708	4812
897.828	4797
897.949	4664
898.07	4584
898.19	4710
898.311	4820
898.431	4660
898.552	4744
898.672	4763
898.792	4797
898.913	4706
899.033	4653
899.153	4523
899.273	4405
899.393	4440
899.513	4512
899.633	4512
899.753	4588
899.873	4478
899.993	4535
900.113	4516
900.232	4561
900.352	4554
900.472	4504
900.591	4386
900.711	4451
900.83	4424
900.95	4607
901.069	4721
901.189	4542
901.308	4386
901.427	4318
901.546	4386
901.665	4497
901.784	4561
901.904	4383
902.023	4299
902.141	4177
902.26	4154
902.379	4268
902.498	4242
902.617	4219
902.735	4436
902.854	4329
902.973	4363
903.091	4215
903.21	4188
903.328	4276
903.446	4322
903.565	4246
903.683	4363
903.801	4276
903.919	4363
904.038	4447
904.156	4276
904.274	4367
904.392	4421
904.51	4390
904.627	4478
904.745	4516
904.863	4668
904.981	4386
905.098	4306
905.216	4386
905.334	4455
905.451	4432
905.569	4451
905.686	4588
905.803	4527
905.921	4367
906.038	4550
906.155	4474
906.272	4356
906.389	4485
906.506	4333
906.623	4375
906.74	4394
906.857	4318
906.974	4333
907.091	4565
907.208	4664
907.324	4592
907.441	4497
907.557	4303
907.674	4348
907.79	4314
907.907	4360
908.023	4466
908.139	4436
908.256	4421
908.372	4470
908.488	4481
908.604	4341
908.72	4360
908.836	4398
908.952	4329
909.068	4409
909.184	4573
909.3	4455
909.415	4550
909.531	4573
909.647	4337
909.762	4344
909.878	4348
909.993	4409
910.108	4436
910.224	4432
910.339	4478
910.454	4440
910.57	4299
910.685	4253
910.8	4660
910.915	4596
911.03	4481
911.145	4306
911.259	4348
911.374	4417
911.489	4291
911.604	4257
911.718	4185
911.833	4223
911.947	4090
912.062	4055
912.176	4249
912.291	4257
912.405	4257
912.519	4470
912.633	4455
912.748	4352
912.862	4314
912.976	4219
913.09	4074
913.204	4154
913.318	4204
913.431	4371
913.545	4371
913.659	4451
913.772	4341
913.886	4200
914	4177
914.113	4375
914.226	4383
914.34	4352
914.453	4261
914.566	4424
914.68	4284
914.793	4318
914.906	4177
915.019	4128
915.132	4086
915.245	4219
915.358	4200
915.47	4249
915.583	4268
915.696	4265
915.809	4432
915.921	4462
916.034	4272
916.146	4261
916.259	4219
916.371	4390
916.483	4303
916.595	4227
916.708	4367
916.82	4268
916.932	4314
917.044	4325
917.156	4379
917.268	4227
917.38	4314
917.491	4265
917.603	4341
917.715	4436
917.826	4436
917.938	4344
918.049	4246
918.161	4432
918.272	4546
918.384	4538
918.495	4462
918.606	4280
918.717	4246
918.828	4295
918.939	4329
919.05	4280
919.161	4333
919.272	4166
919.383	4253
919.494	4440
919.604	4660
919.715	4474
919.826	4348
919.936	4371
920.047	4554
920.157	4527
920.267	4653
920.378	4550
920.488	4497
920.598	4679
920.708	4889
920.818	4725
920.928	4812
921.038	4953
921.148	4923
921.258	4611
921.368	4535
921.477	4474
921.587	4474
921.697	4356
921.806	4523
921.916	4424
922.025	4242
922.134	4249
922.244	4147
922.353	4344
922.462	4143
922.571	4086
922.68	4002
922.789	3979
922.898	4109
923.007	3945
923.116	4105
923.224	4055
923.333	4086
923.442	3994
923.55	3983
923.659	4013
923.767	4071
923.876	3991
923.984	4150
924.092	3968
924.201	4059
924.309	4063
924.417	4147
924.525	4017
924.633	4101
924.741	5048
924.849	3915
924.956	4086
925.064	3949
925.172	3915
925.279	3926
925.387	4086
925.494	4017
925.602	4207
925.709	4131
925.816	4051
925.924	4188
926.031	4147
926.138	4131
926.245	4185
926.352	4071
926.459	4246
926.566	4306
926.673	4162
926.779	4067
926.886	4067
926.993	4021
927.099	3941
927.206	3983
927.312	3972
927.419	4055
927.525	3994
927.631	4097
927.737	3994
927.843	3937
927.95	3785
928.056	3975
928.162	3964
928.267	4048
928.373	4569
928.479	4078
928.585	3884
928.69	3998
928.796	4101
928.901	3945
929.007	3831
929.112	3979
929.218	4051
929.323	3888
929.428	3941
929.533	4105
929.638	3899
929.743	3972
929.848	4040
929.953	4013
930.058	3941
930.163	3800
930.267	3846
930.372	3987
930.477	3846
930.581	4078
930.685	3956
930.79	3838
930.894	3854
930.998	3819
931.103	3975
931.207	3724
931.311	3679
931.415	3660
931.519	3511
931.623	3519
