Data from test_V78500241_2199.txt Node
Date: Fri Mar 25 17:04:17 CST 2022
User: usil
Spectrometer: V785-0024
Trigger mode: 0
Integration Time (sec): 4.000000E-1
Scans to average: 1
Nonlinearity correction enabled: false
Boxcar width: 0
Storing dark spectrum: false
XAxis mode: Wavelengths
Number of Pixels in Spectrum: 1024
>>>>>Begin Spectral Data<<<<<
801.071	7944
801.214	7982
801.356	7807
801.499	7826
801.641	7841
801.783	7811
801.926	7947
802.068	7917
802.211	7974
802.353	7989
802.496	7890
802.638	7856
802.78	7932
802.923	7875
803.065	7830
803.208	7883
803.35	7921
803.492	8096
803.635	8157
803.777	8031
803.919	8103
804.061	8393
804.204	8134
804.346	8058
804.488	7982
804.63	8054
804.773	8039
804.915	8077
805.057	8275
805.199	8195
805.341	8244
805.483	8206
805.626	8191
805.768	8157
805.91	8195
806.052	8191
806.194	8126
806.336	8248
806.478	8138
806.62	8027
806.762	8172
806.904	8298
807.046	8476
807.188	8362
807.33	8336
807.472	8355
807.614	8191
807.756	8130
807.898	8050
808.04	7845
808.182	7902
808.324	7864
808.465	7860
808.607	8020
808.749	8115
808.891	8214
809.033	8263
809.174	8183
809.316	8077
809.458	8107
809.6	8027
809.741	8012
809.883	8024
810.025	8111
810.166	8069
810.308	7963
810.45	7989
810.591	7845
810.733	7788
810.875	7655
811.016	7495
811.158	7533
811.299	7609
811.441	7719
811.582	7594
811.724	7586
811.865	7510
812.007	7525
812.148	7620
812.29	7590
812.431	7734
812.573	7849
812.714	7989
812.855	8206
812.997	8172
813.138	8210
813.279	8157
813.421	8081
813.562	7906
813.703	7890
813.845	7674
813.986	7426
814.127	7263
814.268	7228
814.41	7149
814.551	7156
814.692	7198
814.833	7099
814.974	7152
815.115	7160
815.256	7000
815.397	6863
815.539	6913
815.68	6802
815.821	6711
815.962	6875
816.103	6856
816.244	6726
816.385	6597
816.526	6616
816.666	6551
816.807	6281
816.948	6437
817.089	6422
817.23	6399
817.371	6403
817.512	6388
817.653	6376
817.793	6327
817.934	6467
818.075	6410
818.216	6426
818.356	6384
818.497	6220
818.638	6068
818.778	6098
818.919	6148
819.06	6228
819.2	6247
819.341	6300
819.481	6327
819.622	6544
819.762	6677
819.903	6665
820.043	6555
820.184	6536
820.324	6559
820.465	6665
820.605	6646
820.746	6623
820.886	6513
821.026	6620
821.167	6715
821.307	6818
821.447	6783
821.588	6662
821.728	6574
821.868	6509
822.008	6281
822.149	6395
822.289	6338
822.429	6114
822.569	6136
822.709	6068
822.849	5916
822.99	5939
823.13	5931
823.27	5958
823.41	5790
823.55	5828
823.69	5756
823.83	5771
823.97	5703
824.11	5604
824.25	5535
824.389	5547
824.529	5623
824.669	5547
824.809	5623
824.949	5703
825.089	5680
825.228	5611
825.368	5406
825.508	5383
825.648	5364
825.787	5383
825.927	5417
826.067	5299
826.206	5315
826.346	5383
826.485	5376
826.625	5482
826.765	5554
826.904	5520
827.044	5318
827.183	5242
827.323	5208
827.462	5273
827.601	5250
827.741	5239
827.88	5284
828.02	5147
828.159	5269
828.298	5360
828.437	5406
828.577	5376
828.716	5524
828.855	5372
828.994	5201
829.134	5185
829.273	5246
829.412	5132
829.551	5109
829.69	5220
829.829	5284
829.968	5395
830.107	5269
830.246	5349
830.385	5185
830.524	5128
830.663	5071
830.802	5014
830.941	4953
831.08	4900
831.219	5014
831.357	4976
831.496	5231
831.635	4976
831.774	4930
831.913	4870
832.051	4752
832.19	4767
832.329	4896
832.467	4721
832.606	4664
832.744	4797
832.883	4763
833.022	4824
833.16	4786
833.299	4866
833.437	4870
833.576	4885
833.714	4870
833.852	4927
833.991	4942
834.129	5014
834.267	4968
834.406	4938
834.544	5029
834.682	5003
834.821	5022
834.959	5185
835.097	4999
835.235	5170
835.373	5151
835.511	5128
835.65	5056
835.788	5048
835.926	4953
836.064	4892
836.202	4946
836.34	5197
836.478	5277
836.615	5166
836.753	5246
836.891	5330
837.029	5273
837.167	5223
837.305	5185
837.443	5212
837.58	5102
837.718	5318
837.856	5280
837.993	5197
838.131	5223
838.269	5220
838.406	5223
838.544	5235
838.681	5014
838.819	5083
838.956	4923
839.094	4953
839.231	4991
839.369	5128
839.506	5425
839.643	5296
839.781	5113
839.918	5010
840.055	5132
840.193	5151
840.33	5143
840.467	5147
840.604	5212
840.742	5436
840.879	5109
841.016	5086
841.153	5181
841.29	5364
841.427	5330
841.564	5303
841.701	5368
841.838	5311
841.975	5322
842.112	5292
842.249	5166
842.385	5166
842.522	5341
842.659	5201
842.796	5178
842.933	5220
843.069	5170
843.206	5166
843.343	5341
843.479	5246
843.616	5322
843.752	5071
843.889	5056
844.025	5220
844.162	5052
844.298	5231
844.435	5181
844.571	5124
844.708	5212
844.844	5307
844.98	5345
845.117	5269
845.253	5193
845.389	5083
845.525	5220
845.661	5189
845.798	5113
845.934	5185
846.07	5090
846.206	5231
846.342	5322
846.478	5220
846.614	5067
846.75	5025
846.886	4957
847.022	5174
847.158	5083
847.294	5132
847.429	5113
847.565	5045
847.701	5322
847.837	4873
847.972	4850
848.108	4980
848.244	4991
848.379	4816
848.515	4774
848.65	4725
848.786	4805
848.921	4831
849.057	4870
849.192	4908
849.328	4862
849.463	4911
849.598	4885
849.734	4816
849.869	4714
850.004	4664
850.14	4698
850.275	4630
850.41	4519
850.545	4569
850.68	4672
850.815	4641
850.95	4683
851.085	4816
851.22	4763
851.355	4691
851.49	4630
851.625	4675
851.76	4664
851.895	4637
852.03	4588
852.165	4641
852.299	4782
852.434	4793
852.569	4782
852.703	4805
852.838	4831
852.973	4957
853.107	4965
853.242	4767
853.376	4733
853.511	4634
853.645	4622
853.78	4797
853.914	4675
854.048	4702
854.183	4679
854.317	4763
854.451	4904
854.585	4679
854.72	4656
854.854	4774
854.988	4653
855.122	4660
855.256	4497
855.39	4725
855.524	4809
855.658	4736
855.792	4717
855.926	4767
856.06	4790
856.194	4854
856.327	4721
856.461	4683
856.595	4618
856.729	4683
856.862	4774
856.996	4725
857.13	4725
857.263	4828
857.397	4809
857.53	4714
857.664	4755
857.797	4748
857.931	4824
858.064	4733
858.197	4771
858.331	4622
858.464	4596
858.597	4493
858.731	4634
858.864	4626
858.997	4634
859.13	4698
859.263	4740
859.396	4717
859.529	4580
859.662	4565
859.795	4550
859.928	4660
860.061	4759
860.194	4793
860.327	4645
860.46	4641
860.592	4683
860.725	4691
860.858	4736
860.99	4626
861.123	4516
861.256	4527
861.388	4634
861.521	5490
861.653	4531
861.786	4466
861.918	4497
862.05	4546
862.183	4554
862.315	4649
862.447	4637
862.58	4588
862.712	4413
862.844	4348
862.976	4546
863.108	4497
863.24	4835
863.372	4379
863.504	4470
863.636	4428
863.768	4504
863.9	4489
864.032	4417
864.164	4402
864.296	4500
864.428	4630
864.559	4626
864.691	4489
864.823	4519
864.954	4504
865.086	4558
865.217	4519
865.349	4432
865.48	4489
865.612	4523
865.743	4649
865.875	4459
866.006	4459
866.137	4497
866.269	4478
866.4	4436
866.531	4386
866.662	4409
866.793	4432
866.924	4421
867.055	4523
867.186	4481
867.317	4417
867.448	4402
867.579	4440
867.71	4409
867.841	4424
867.972	4516
868.103	4504
868.233	4523
868.364	4474
868.495	4504
868.625	4672
868.756	4771
868.886	4630
869.017	4653
869.147	4797
869.278	4790
869.408	4683
869.539	4672
869.669	4736
869.799	4679
869.929	4774
870.06	4812
870.19	5014
870.32	4908
870.45	4949
870.58	5025
870.71	5147
870.84	5181
870.97	4919
871.1	4953
871.23	5128
871.36	5132
871.489	5056
871.619	5090
871.749	5105
871.879	5143
872.008	5166
872.138	5102
872.267	5025
872.397	4900
872.526	4839
872.656	4717
872.785	4824
872.915	5003
873.044	5071
873.173	4904
873.303	4984
873.432	4972
873.561	4976
873.69	4930
873.819	4923
873.948	4927
874.077	4809
874.206	4831
874.335	4854
874.464	4953
874.593	5067
874.722	4991
874.851	5109
874.979	5075
875.108	4984
875.237	4930
875.365	4919
875.494	4892
875.623	5064
875.751	4812
875.88	4896
876.008	5006
876.136	5064
876.265	5254
876.393	5315
876.521	5280
876.65	5250
876.778	5162
876.906	5075
877.034	4984
877.162	5105
877.29	4991
877.418	5071
877.546	5018
877.674	5109
877.802	5083
877.93	5064
878.058	4938
878.185	4896
878.313	5045
878.441	4946
878.568	4809
878.696	4930
878.824	4946
878.951	5060
879.079	5124
879.206	5299
879.333	5086
879.461	5006
879.588	5022
879.715	5166
879.842	5204
879.97	5018
880.097	4793
880.224	4786
880.351	4809
880.478	4881
880.605	4839
880.732	4774
880.859	5124
880.986	4881
881.112	4934
881.239	4831
881.366	4675
881.493	4653
881.619	4607
881.746	4656
881.872	4656
881.999	4668
882.125	4672
882.252	4820
882.378	4847
882.505	5037
882.631	4816
882.757	4668
882.883	4748
883.01	4774
883.136	4698
883.262	4558
883.388	4649
883.514	4847
883.64	4881
883.766	4782
883.892	4679
884.018	4778
884.143	4911
884.269	5029
884.395	4668
884.52	4675
884.646	4649
884.772	4630
884.897	4584
885.023	4691
885.148	4831
885.274	4873
885.399	4839
885.524	4736
885.65	4733
885.775	4774
885.9	4702
886.025	4870
886.15	4790
886.275	4816
886.4	4653
886.525	4691
886.65	4694
886.775	4637
886.9	4972
887.025	5071
887.149	4801
887.274	4698
887.399	4618
887.523	4653
887.648	4607
887.773	4618
887.897	4801
888.021	4812
888.146	4721
888.27	4824
888.395	5010
888.519	4839
888.643	4824
888.767	4839
888.891	4679
889.015	4626
889.139	4634
889.263	4637
889.387	4816
889.511	4923
889.635	4809
889.759	4664
889.883	4656
890.006	4744
890.13	4790
890.254	4615
890.377	4683
890.501	4611
890.624	4538
890.748	4596
890.871	4527
890.995	4481
891.118	4409
891.241	4561
891.364	4535
891.488	4675
891.611	4519
891.734	4565
891.857	4577
891.98	4634
892.103	4694
892.226	4656
892.349	4546
892.471	4440
892.594	4542
892.717	4603
892.839	4558
892.962	4588
893.085	4679
893.207	4577
893.33	4466
893.452	4535
893.575	4649
893.697	4580
893.819	4835
893.941	4900
894.064	4850
894.186	4607
894.308	4584
894.43	4733
894.552	4839
894.674	4797
894.796	4588
894.918	4611
895.04	4584
895.161	4736
895.283	4694
895.405	4558
895.526	4656
895.648	4736
895.769	4672
895.891	4687
896.012	4740
896.134	4687
896.255	4656
896.376	4710
896.498	4607
896.619	4698
896.74	4634
896.861	4592
896.982	4980
897.103	5060
897.224	4839
897.345	4744
897.466	4691
897.587	4752
897.708	4862
897.828	4793
897.949	4687
898.07	4611
898.19	4660
898.311	4885
898.431	4653
898.552	4710
898.672	4793
898.792	4828
898.913	4748
899.033	4637
899.153	4493
899.273	4440
899.393	4512
899.513	4542
899.633	4531
899.753	4588
899.873	4481
899.993	4584
900.113	4588
900.232	4592
900.352	4550
900.472	4478
900.591	4428
900.711	4508
900.83	4424
900.95	4645
901.069	4710
901.189	4584
901.308	4375
901.427	4360
901.546	4383
901.665	4489
901.784	4485
901.904	4348
902.023	4390
902.141	4215
902.26	4158
902.379	4322
902.498	4261
902.617	4249
902.735	4402
902.854	4417
902.973	4371
903.091	4238
903.21	4238
903.328	4284
903.446	4284
903.565	4284
903.683	4363
903.801	4299
903.919	4436
904.038	4466
904.156	4337
904.274	4451
904.392	4383
904.51	4417
904.627	4447
904.745	4558
904.863	4611
904.981	4432
905.098	4306
905.216	4421
905.334	4462
905.451	4485
905.569	4455
905.686	4550
905.803	4592
905.921	4443
906.038	4546
906.155	4485
906.272	4390
906.389	4455
906.506	4356
906.623	4371
906.74	4432
906.857	4341
906.974	4402
907.091	4527
907.208	4698
907.324	4603
907.441	4516
907.557	4379
907.674	4367
907.79	4314
907.907	4379
908.023	4523
908.139	4508
908.256	4432
908.372	4474
908.488	4478
908.604	4386
908.72	4322
908.836	4432
908.952	4375
909.068	4394
909.184	4580
909.3	4489
909.415	4573
909.531	4554
909.647	4329
909.762	4379
909.878	4371
909.993	4462
910.108	4413
910.224	4474
910.339	4481
910.454	4402
910.57	4363
910.685	4303
910.8	4618
910.915	4565
911.03	4538
911.145	4314
911.259	4337
911.374	4371
911.489	4284
911.604	4287
911.718	4204
911.833	4230
911.947	4090
912.062	4025
912.176	4196
912.291	4261
912.405	4265
912.519	4443
912.633	4546
912.748	4371
912.862	4310
912.976	4242
913.09	4097
913.204	4173
913.318	4230
913.431	4337
913.545	4333
913.659	4504
913.772	4348
913.886	4246
914	4242
914.113	4386
914.226	4474
914.34	4413
914.453	4234
914.566	4447
914.68	4303
914.793	4314
914.906	4166
915.019	4101
915.132	4116
915.245	4200
915.358	4249
915.47	4207
915.583	4276
915.696	4287
915.809	4421
915.921	4398
916.034	4246
916.146	4242
916.259	4196
916.371	4413
916.483	4379
916.595	4303
916.708	4333
916.82	4348
916.932	4295
917.044	4375
917.156	4352
917.268	4234
917.38	4291
917.491	4284
917.603	4329
917.715	4432
917.826	4470
917.938	4379
918.049	4261
918.161	4379
918.272	4523
918.384	4519
918.495	4436
918.606	4291
918.717	4249
918.828	4333
918.939	4405
919.05	4257
919.161	4333
919.272	4131
919.383	4246
919.494	4424
919.604	4641
919.715	4440
919.826	4356
919.936	4379
920.047	4523
920.157	4523
920.267	4698
920.378	4535
920.488	4462
920.598	4717
920.708	4854
920.818	4767
920.928	4793
921.038	4976
921.148	4923
921.258	4660
921.368	4512
921.477	4466
921.587	4432
921.697	4356
921.806	4546
921.916	4436
922.025	4280
922.134	4291
922.244	4246
922.353	4306
922.462	4158
922.571	4139
922.68	4032
922.789	3983
922.898	4029
923.007	3991
923.116	4116
923.224	4040
923.333	4131
923.442	4021
923.55	3979
923.659	4025
923.767	4074
923.876	4044
923.984	4135
924.092	4006
924.201	4067
924.309	4105
924.417	4173
924.525	4006
924.633	4109
924.741	5025
924.849	3888
924.956	4154
925.064	3934
925.172	3911
925.279	3983
925.387	4055
925.494	4044
925.602	4215
925.709	4162
925.816	4010
925.924	4162
926.031	4215
926.138	4147
926.245	4200
926.352	4105
926.459	4253
926.566	4295
926.673	4169
926.779	4112
926.886	4071
926.993	3991
927.099	3918
927.206	3975
927.312	3918
927.419	4017
927.525	4044
927.631	4116
927.737	3991
927.843	3964
927.95	3842
928.056	3922
928.162	3979
928.267	4078
928.373	4660
928.479	4131
928.585	3899
928.69	3960
928.796	4078
928.901	3998
929.007	3857
929.112	3994
929.218	3956
929.323	3960
929.428	3934
929.533	4147
929.638	3903
929.743	3956
929.848	4044
929.953	4029
930.058	3892
930.163	3800
930.267	3808
930.372	3926
930.477	3804
930.581	4040
930.685	3930
930.79	3762
930.894	3873
930.998	3876
931.103	4063
931.207	3743
931.311	3720
931.415	3675
931.519	3530
931.623	3553
