Data from test_V78500241_1554.txt Node
Date: Fri Mar 25 16:59:48 CST 2022
User: usil
Spectrometer: V785-0024
Trigger mode: 0
Integration Time (sec): 4.000000E-1
Scans to average: 1
Nonlinearity correction enabled: false
Boxcar width: 0
Storing dark spectrum: false
XAxis mode: Wavelengths
Number of Pixels in Spectrum: 1024
>>>>>Begin Spectral Data<<<<<
801.071	7989
801.214	7989
801.356	7932
801.499	7864
801.641	7769
801.783	7875
801.926	7909
802.068	7940
802.211	7967
802.353	7963
802.496	7845
802.638	7852
802.78	7913
802.923	7982
803.065	7822
803.208	7830
803.35	7970
803.492	8077
803.635	8172
803.777	8050
803.919	8134
804.061	8381
804.204	8157
804.346	7978
804.488	7940
804.63	8050
804.773	8081
804.915	7986
805.057	8301
805.199	8180
805.341	8206
805.483	8202
805.626	8161
805.768	8134
805.91	8142
806.052	8256
806.194	8126
806.336	8210
806.478	8092
806.62	8035
806.762	8126
806.904	8259
807.046	8480
807.188	8301
807.33	8320
807.472	8404
807.614	8183
807.756	8145
807.898	7997
808.04	7852
808.182	7913
808.324	7894
808.465	7917
808.607	8008
808.749	8115
808.891	8202
809.033	8248
809.174	8157
809.316	8050
809.458	8035
809.6	7986
809.741	8100
809.883	8005
810.025	8058
810.166	7986
810.308	8012
810.45	7944
810.591	7894
810.733	7708
810.875	7624
811.016	7491
811.158	7491
811.299	7559
811.441	7666
811.582	7677
811.724	7525
811.865	7495
812.007	7556
812.148	7540
812.29	7605
812.431	7708
812.573	7864
812.714	7951
812.855	8096
812.997	8214
813.138	8347
813.279	8206
813.421	8062
813.562	7925
813.703	7871
813.845	7662
813.986	7419
814.127	7244
814.268	7145
814.41	7152
814.551	7179
814.692	7198
814.833	7076
814.974	7050
815.115	7080
815.256	7008
815.397	6894
815.539	6924
815.68	6791
815.821	6783
815.962	6848
816.103	6821
816.244	6764
816.385	6631
816.526	6566
816.666	6544
816.807	6251
816.948	6437
817.089	6479
817.23	6410
817.371	6334
817.512	6369
817.653	6395
817.793	6369
817.934	6395
818.075	6426
818.216	6445
818.356	6369
818.497	6235
818.638	6144
818.778	6136
818.919	6117
819.06	6159
819.2	6311
819.341	6308
819.481	6437
819.622	6452
819.762	6722
819.903	6673
820.043	6601
820.184	6589
820.324	6597
820.465	6684
820.605	6673
820.746	6673
820.886	6460
821.026	6650
821.167	6684
821.307	6783
821.447	6745
821.588	6650
821.728	6601
821.868	6536
822.008	6311
822.149	6369
822.289	6319
822.429	6155
822.569	6095
822.709	6121
822.849	5855
822.99	5855
823.13	5927
823.27	5939
823.41	5832
823.55	5809
823.69	5752
823.83	5771
823.97	5695
824.11	5528
824.25	5528
824.389	5528
824.529	5570
824.669	5501
824.809	5634
824.949	5707
825.089	5642
825.228	5505
825.368	5391
825.508	5311
825.648	5360
825.787	5349
825.927	5372
826.067	5265
826.206	5269
826.346	5341
826.485	5425
826.625	5421
826.765	5539
826.904	5436
827.044	5220
827.183	5197
827.323	5098
827.462	5246
827.601	5193
827.741	5193
827.88	5208
828.02	5136
828.159	5250
828.298	5303
828.437	5303
828.577	5273
828.716	5467
828.855	5345
828.994	5140
829.134	5121
829.273	5193
829.412	5189
829.551	5113
829.69	5204
829.829	5265
829.968	5357
830.107	5227
830.246	5223
830.385	5166
830.524	5109
830.663	5083
830.802	4999
830.941	4889
831.08	4854
831.219	4995
831.357	4927
831.496	5170
831.635	4908
831.774	4820
831.913	4850
832.051	4687
832.19	4801
832.329	4809
832.467	4710
832.606	4637
832.744	4736
832.883	4740
833.022	4706
833.16	4786
833.299	4778
833.437	4820
833.576	4793
833.714	4862
833.852	4843
833.991	4889
834.129	4961
834.267	4911
834.406	4942
834.544	4980
834.682	4987
834.821	4976
834.959	5193
835.097	4949
835.235	5117
835.373	5079
835.511	5124
835.65	5010
835.788	5033
835.926	4885
836.064	4843
836.202	4889
836.34	5193
836.478	5220
836.615	5075
836.753	5231
836.891	5280
837.029	5246
837.167	5201
837.305	5121
837.443	5140
837.58	5029
837.718	5288
837.856	5201
837.993	5128
838.131	5204
838.269	5235
838.406	5197
838.544	5201
838.681	5033
838.819	5018
838.956	4870
839.094	4892
839.231	4946
839.369	5094
839.506	5402
839.643	5265
839.781	5022
839.918	5029
840.055	5045
840.193	5033
840.33	5128
840.467	5102
840.604	5178
840.742	5421
840.879	5086
841.016	5079
841.153	5159
841.29	5436
841.427	5330
841.564	5292
841.701	5311
841.838	5246
841.975	5246
842.112	5315
842.249	5124
842.385	5056
842.522	5318
842.659	5170
842.796	5162
842.933	5151
843.069	5094
843.206	5166
843.343	5273
843.479	5197
843.616	5273
843.752	4980
843.889	4987
844.025	5242
844.162	5041
844.298	5181
844.435	5041
844.571	5064
844.708	5193
844.844	5330
844.98	5277
845.117	5239
845.253	5113
845.389	5090
845.525	5132
845.661	5147
845.798	5056
845.934	5117
846.07	4999
846.206	5178
846.342	5269
846.478	5155
846.614	4991
846.75	4972
846.886	4942
847.022	5132
847.158	5018
847.294	5045
847.429	5174
847.565	5048
847.701	5303
847.837	4873
847.972	4771
848.108	4908
848.244	4904
848.379	4786
848.515	4786
848.65	4679
848.786	4763
848.921	4748
849.057	4831
849.192	4908
849.328	4793
849.463	4809
849.598	4820
849.734	4721
849.869	4691
850.004	4626
850.14	4645
850.275	4580
850.41	4538
850.545	4516
850.68	4596
850.815	4645
850.95	4653
851.085	4854
851.22	4748
851.355	4645
851.49	4596
851.625	4637
851.76	4664
851.895	4573
852.03	4535
852.165	4679
852.299	4717
852.434	4752
852.569	4744
852.703	4729
852.838	4805
852.973	4942
853.107	4934
853.242	4717
853.376	4664
853.511	4577
853.645	4618
853.78	4740
853.914	4683
854.048	4641
854.183	4626
854.317	4694
854.451	4850
854.585	4645
854.72	4656
854.854	4759
854.988	4588
855.122	4645
855.256	4538
855.39	4679
855.524	4778
855.658	4702
855.792	4725
855.926	4721
856.06	4778
856.194	4831
856.327	4702
856.461	4592
856.595	4603
856.729	4626
856.862	4790
856.996	4694
857.13	4683
857.263	4752
857.397	4835
857.53	4622
857.664	4717
857.797	4763
857.931	4733
858.064	4664
858.197	4725
858.331	4649
858.464	4607
858.597	4538
858.731	4687
858.864	4626
858.997	4577
859.13	4675
859.263	4656
859.396	4683
859.529	4580
859.662	4550
859.795	4569
859.928	4561
860.061	4801
860.194	4717
860.327	4645
860.46	4558
860.592	4668
860.725	4752
860.858	4679
860.99	4584
861.123	4508
861.256	4542
861.388	4580
861.521	5189
861.653	4451
861.786	4455
861.918	4447
862.05	4516
862.183	4577
862.315	4546
862.447	4668
862.58	4565
862.712	4409
862.844	4306
862.976	4516
863.108	4440
863.24	4771
863.372	4306
863.504	4428
863.636	4383
863.768	4440
863.9	4371
864.032	4356
864.164	4417
864.296	4478
864.428	4504
864.559	4554
864.691	4519
864.823	4558
864.954	4459
865.086	4531
865.217	4459
865.349	4459
865.48	4497
865.612	4478
865.743	4580
865.875	4443
866.006	4394
866.137	4436
866.269	4440
866.4	4443
866.531	4432
866.662	4371
866.793	4383
866.924	4432
867.055	4485
867.186	4436
867.317	4386
867.448	4398
867.579	4314
867.71	4413
867.841	4333
867.972	4443
868.103	4455
868.233	4455
868.364	4474
868.495	4500
868.625	4668
868.756	4763
868.886	4588
869.017	4592
869.147	4748
869.278	4763
869.408	4660
869.539	4649
869.669	4687
869.799	4634
869.929	4763
870.06	4714
870.19	4908
870.32	4957
870.45	4896
870.58	4980
870.71	5045
870.84	5086
870.97	4919
871.1	4900
871.23	5174
871.36	5075
871.489	5045
871.619	5075
871.749	5041
871.879	5109
872.008	5159
872.138	5033
872.267	4953
872.397	4866
872.526	4793
872.656	4641
872.785	4816
872.915	4934
873.044	5022
873.173	4942
873.303	4915
873.432	4976
873.561	4923
873.69	4870
873.819	4866
873.948	4942
874.077	4835
874.206	4786
874.335	4782
874.464	4915
874.593	5010
874.722	4953
874.851	5086
874.979	5060
875.108	5048
875.237	4904
875.365	4847
875.494	4889
875.623	4942
875.751	4793
875.88	4862
876.008	4961
876.136	5048
876.265	5162
876.393	5345
876.521	5258
876.65	5181
876.778	5132
876.906	5124
877.034	5029
877.162	5014
877.29	4961
877.418	5018
877.546	5060
877.674	5037
877.802	5010
877.93	4995
878.058	4968
878.185	4877
878.313	4915
878.441	4957
878.568	4793
878.696	4850
878.824	4968
878.951	4980
879.079	5113
879.206	5242
879.333	5113
879.461	4976
879.588	5018
879.715	5075
879.842	5204
879.97	4984
880.097	4763
880.224	4675
880.351	4801
880.478	4828
880.605	4805
880.732	4782
880.859	5083
880.986	4847
881.112	4889
881.239	4786
881.366	4641
881.493	4615
881.619	4542
881.746	4634
881.872	4637
881.999	4645
882.125	4653
882.252	4782
882.378	4797
882.505	4881
882.631	4793
882.757	4672
882.883	4675
883.01	4694
883.136	4645
883.262	4573
883.388	4519
883.514	4820
883.64	4839
883.766	4786
883.892	4664
884.018	4710
884.143	4900
884.269	5006
884.395	4679
884.52	4630
884.646	4630
884.772	4531
884.897	4554
885.023	4653
885.148	4740
885.274	4835
885.399	4748
885.524	4683
885.65	4710
885.775	4744
885.9	4660
886.025	4877
886.15	4828
886.275	4744
886.4	4618
886.525	4767
886.65	4721
886.775	4698
886.9	4965
887.025	4999
887.149	4767
887.274	4649
887.399	4584
887.523	4577
887.648	4542
887.773	4599
887.897	4786
888.021	4774
888.146	4660
888.27	4809
888.395	4930
888.519	4793
888.643	4835
888.767	4812
888.891	4618
889.015	4611
889.139	4683
889.263	4531
889.387	4748
889.511	4866
889.635	4786
889.759	4660
889.883	4615
890.006	4714
890.13	4805
890.254	4622
890.377	4645
890.501	4519
890.624	4478
890.748	4675
890.871	4508
890.995	4379
891.118	4390
891.241	4455
891.364	4523
891.488	4603
891.611	4550
891.734	4535
891.857	4596
891.98	4558
892.103	4706
892.226	4542
892.349	4527
892.471	4428
892.594	4531
892.717	4596
892.839	4565
892.962	4603
893.085	4645
893.207	4580
893.33	4455
893.452	4558
893.575	4618
893.697	4618
893.819	4809
893.941	4831
894.064	4759
894.186	4550
894.308	4565
894.43	4702
894.552	4828
894.674	4748
894.796	4554
894.918	4626
895.04	4535
895.161	4702
895.283	4656
895.405	4596
895.526	4622
895.648	4740
895.769	4694
895.891	4710
896.012	4725
896.134	4733
896.255	4618
896.376	4645
896.498	4622
896.619	4687
896.74	4607
896.861	4634
896.982	4911
897.103	5067
897.224	4828
897.345	4759
897.466	4744
897.587	4736
897.708	4858
897.828	4774
897.949	4683
898.07	4558
898.19	4615
898.311	4835
898.431	4706
898.552	4725
898.672	4816
898.792	4812
898.913	4752
899.033	4611
899.153	4554
899.273	4405
899.393	4481
899.513	4485
899.633	4512
899.753	4558
899.873	4500
899.993	4599
900.113	4542
900.232	4599
900.352	4512
900.472	4451
900.591	4386
900.711	4455
900.83	4440
900.95	4607
901.069	4679
901.189	4561
901.308	4348
901.427	4295
901.546	4348
901.665	4478
901.784	4466
901.904	4371
902.023	4303
902.141	4185
902.26	4158
902.379	4322
902.498	4230
902.617	4261
902.735	4375
902.854	4383
902.973	4333
903.091	4196
903.21	4253
903.328	4272
903.446	4287
903.565	4257
903.683	4299
903.801	4306
903.919	4398
904.038	4394
904.156	4363
904.274	4440
904.392	4417
904.51	4383
904.627	4440
904.745	4603
904.863	4599
904.981	4398
905.098	4299
905.216	4360
905.334	4432
905.451	4474
905.569	4436
905.686	4538
905.803	4554
905.921	4386
906.038	4561
906.155	4504
906.272	4375
906.389	4417
906.506	4337
906.623	4348
906.74	4329
906.857	4284
906.974	4367
907.091	4607
907.208	4622
907.324	4542
907.441	4485
907.557	4306
907.674	4329
907.79	4318
907.907	4379
908.023	4500
908.139	4478
908.256	4413
908.372	4424
908.488	4409
908.604	4348
908.72	4371
908.836	4417
908.952	4360
909.068	4485
909.184	4603
909.3	4546
909.415	4554
909.531	4538
909.647	4344
909.762	4390
909.878	4329
909.993	4436
910.108	4383
910.224	4413
910.339	4497
910.454	4409
910.57	4402
910.685	4303
910.8	4698
910.915	4573
911.03	4523
911.145	4360
911.259	4295
911.374	4360
911.489	4261
911.604	4227
911.718	4196
911.833	4162
911.947	4063
912.062	4029
912.176	4196
912.291	4238
912.405	4234
912.519	4466
912.633	4489
912.748	4360
912.862	4314
912.976	4215
913.09	4063
913.204	4181
913.318	4223
913.431	4367
913.545	4329
913.659	4405
913.772	4352
913.886	4223
914	4230
914.113	4375
914.226	4447
914.34	4371
914.453	4185
914.566	4417
914.68	4314
914.793	4325
914.906	4135
915.019	4040
915.132	4090
915.245	4215
915.358	4192
915.47	4246
915.583	4234
915.696	4348
915.809	4379
915.921	4402
916.034	4257
916.146	4238
916.259	4219
916.371	4348
916.483	4284
916.595	4242
916.708	4352
916.82	4314
916.932	4318
917.044	4291
917.156	4344
917.268	4192
917.38	4265
917.491	4287
917.603	4356
917.715	4436
917.826	4485
917.938	4333
918.049	4215
918.161	4417
918.272	4523
918.384	4516
918.495	4462
918.606	4299
918.717	4200
918.828	4318
918.939	4402
919.05	4253
919.161	4379
919.272	4116
919.383	4230
919.494	4470
919.604	4641
919.715	4424
919.826	4371
919.936	4390
920.047	4493
920.157	4497
920.267	4672
920.378	4493
920.488	4493
920.598	4717
920.708	4854
920.818	4755
920.928	4767
921.038	4911
921.148	4934
921.258	4645
921.368	4573
921.477	4485
921.587	4432
921.697	4371
921.806	4554
921.916	4402
922.025	4276
922.134	4249
922.244	4234
922.353	4318
922.462	4139
922.571	4093
922.68	3983
922.789	3998
922.898	3975
923.007	4002
923.116	4017
923.224	4093
923.333	4025
923.442	4017
923.55	3941
923.659	4044
923.767	4101
923.876	3964
923.984	4109
924.092	3968
924.201	4032
924.309	4025
924.417	4105
924.525	4044
924.633	4109
924.741	4889
924.849	3907
924.956	4086
925.064	3956
925.172	3907
925.279	3968
925.387	4013
925.494	4017
925.602	4188
925.709	4124
925.816	4055
925.924	4158
926.031	4200
926.138	4177
926.245	4211
926.352	4090
926.459	4261
926.566	4329
926.673	4112
926.779	4074
926.886	4082
926.993	3983
927.099	3975
927.206	3922
927.312	3941
927.419	4067
927.525	4002
927.631	4093
927.737	3991
927.843	3972
927.95	3857
928.056	3968
928.162	3953
928.267	4078
928.373	4569
928.479	4090
928.585	3884
928.69	3979
928.796	4048
928.901	3991
929.007	3896
929.112	3968
929.218	3968
929.323	3964
929.428	3937
929.533	4067
929.638	3903
929.743	3972
929.848	4036
929.953	4032
930.058	3918
930.163	3793
930.267	3808
930.372	3960
930.477	3865
930.581	4097
930.685	3945
930.79	3823
930.894	3896
930.998	3865
931.103	4025
931.207	3705
931.311	3694
931.415	3736
931.519	3534
931.623	3500
