Data from test_V78500241_907.txt Node
Date: Fri Mar 25 16:55:18 CST 2022
User: usil
Spectrometer: V785-0024
Trigger mode: 0
Integration Time (sec): 4.000000E-1
Scans to average: 1
Nonlinearity correction enabled: false
Boxcar width: 0
Storing dark spectrum: false
XAxis mode: Wavelengths
Number of Pixels in Spectrum: 1024
>>>>>Begin Spectral Data<<<<<
801.071	8008
801.214	8020
801.356	7856
801.499	7887
801.641	7803
801.783	7753
801.926	7986
802.068	7849
802.211	7947
802.353	7932
802.496	7788
802.638	7879
802.78	7849
802.923	7887
803.065	7818
803.208	7826
803.35	8016
803.492	8081
803.635	8183
803.777	8008
803.919	8096
804.061	8377
804.204	8081
804.346	8012
804.488	8012
804.63	8111
804.773	8043
804.915	8084
805.057	8225
805.199	8214
805.341	8290
805.483	8229
805.626	8149
805.768	8119
805.91	8199
806.052	8164
806.194	8054
806.336	8259
806.478	8027
806.62	8058
806.762	8115
806.904	8237
807.046	8415
807.188	8442
807.33	8374
807.472	8290
807.614	8100
807.756	8111
807.898	8012
808.04	7852
808.182	7849
808.324	7868
808.465	7871
808.607	8008
808.749	8058
808.891	8142
809.033	8351
809.174	8153
809.316	8107
809.458	8031
809.6	8001
809.741	7982
809.883	8050
810.025	8077
810.166	8096
810.308	8027
810.45	8054
810.591	7864
810.733	7723
810.875	7670
811.016	7594
811.158	7518
811.299	7571
811.441	7738
811.582	7643
811.724	7632
811.865	7537
812.007	7556
812.148	7590
812.29	7624
812.431	7693
812.573	7845
812.714	7959
812.855	8088
812.997	8161
813.138	8332
813.279	8161
813.421	8145
813.562	8001
813.703	7822
813.845	7723
813.986	7438
814.127	7297
814.268	7251
814.41	7160
814.551	7149
814.692	7107
814.833	7046
814.974	6993
815.115	7095
815.256	6958
815.397	6905
815.539	6981
815.68	6806
815.821	6821
815.962	6856
816.103	6798
816.244	6726
816.385	6639
816.526	6658
816.666	6532
816.807	6308
816.948	6448
817.089	6494
817.23	6422
817.371	6350
817.512	6357
817.653	6422
817.793	6361
817.934	6410
818.075	6429
818.216	6403
818.356	6350
818.497	6251
818.638	6152
818.778	6186
818.919	6205
819.06	6213
819.2	6258
819.341	6346
819.481	6338
819.622	6506
819.762	6703
819.903	6703
820.043	6631
820.184	6570
820.324	6563
820.465	6642
820.605	6703
820.746	6570
820.886	6532
821.026	6585
821.167	6757
821.307	6787
821.447	6814
821.588	6635
821.728	6506
821.868	6528
822.008	6289
822.149	6391
822.289	6350
822.429	6129
822.569	6129
822.709	6041
822.849	5893
822.99	5889
823.13	5885
823.27	5927
823.41	5786
823.55	5748
823.69	5703
823.83	5688
823.97	5657
824.11	5501
824.25	5509
824.389	5577
824.529	5558
824.669	5493
824.809	5638
824.949	5634
825.089	5589
825.228	5528
825.368	5395
825.508	5357
825.648	5277
825.787	5360
825.927	5330
826.067	5280
826.206	5307
826.346	5341
826.485	5395
826.625	5402
826.765	5566
826.904	5455
827.044	5239
827.183	5185
827.323	5109
827.462	5231
827.601	5193
827.741	5178
827.88	5220
828.02	5098
828.159	5288
828.298	5269
828.437	5341
828.577	5269
828.716	5467
828.855	5296
828.994	5159
829.134	5117
829.273	5193
829.412	5143
829.551	5094
829.69	5170
829.829	5189
829.968	5345
830.107	5246
830.246	5311
830.385	5193
830.524	5105
830.663	5045
830.802	4987
830.941	4870
831.08	4843
831.219	4995
831.357	4957
831.496	5117
831.635	4938
831.774	4820
831.913	4828
832.051	4725
832.19	4717
832.329	4889
832.467	4683
832.606	4622
832.744	4733
832.883	4710
833.022	4698
833.16	4782
833.299	4801
833.437	4831
833.576	4809
833.714	4862
833.852	4790
833.991	4835
834.129	4957
834.267	4987
834.406	4877
834.544	4976
834.682	4949
834.821	4927
834.959	5147
835.097	4949
835.235	5113
835.373	5086
835.511	5056
835.65	5006
835.788	5010
835.926	4877
836.064	4900
836.202	4961
836.34	5174
836.478	5220
836.615	5128
836.753	5242
836.891	5280
837.029	5220
837.167	5140
837.305	5147
837.443	5174
837.58	5117
837.718	5280
837.856	5159
837.993	5121
838.131	5223
838.269	5231
838.406	5140
838.544	5174
838.681	5056
838.819	4976
838.956	4877
839.094	4934
839.231	4934
839.369	5117
839.506	5410
839.643	5242
839.781	5029
839.918	5018
840.055	5079
840.193	5090
840.33	5094
840.467	4991
840.604	5185
840.742	5433
840.879	5083
841.016	5067
841.153	5121
841.29	5349
841.427	5330
841.564	5280
841.701	5349
841.838	5280
841.975	5181
842.112	5250
842.249	5155
842.385	5083
842.522	5307
842.659	5155
842.796	5124
842.933	5178
843.069	5166
843.206	5132
843.343	5254
843.479	5220
843.616	5242
843.752	4995
843.889	5029
844.025	5201
844.162	5003
844.298	5193
844.435	5060
844.571	5037
844.708	5155
844.844	5296
844.98	5273
845.117	5318
845.253	5136
845.389	5045
845.525	5147
845.661	5162
845.798	5022
845.934	5060
846.07	5045
846.206	5246
846.342	5265
846.478	5143
846.614	5014
846.75	4942
846.886	4900
847.022	5140
847.158	4995
847.294	5071
847.429	5037
847.565	5014
847.701	5273
847.837	4870
847.972	4767
848.108	4968
848.244	4892
848.379	4820
848.515	4694
848.65	4672
848.786	4729
848.921	4748
849.057	4843
849.192	4862
849.328	4801
849.463	4843
849.598	4809
849.734	4767
849.869	4634
850.004	4611
850.14	4615
850.275	4588
850.41	4485
850.545	4523
850.68	4584
850.815	4592
850.95	4653
851.085	4820
851.22	4725
851.355	4660
851.49	4577
851.625	4599
851.76	4634
851.895	4497
852.03	4485
852.165	4618
852.299	4687
852.434	4797
852.569	4752
852.703	4755
852.838	4793
852.973	4911
853.107	4847
853.242	4778
853.376	4603
853.511	4584
853.645	4599
853.78	4774
853.914	4694
854.048	4626
854.183	4615
854.317	4675
854.451	4889
854.585	4641
854.72	4603
854.854	4790
854.988	4535
855.122	4618
855.256	4512
855.39	4668
855.524	4763
855.658	4748
855.792	4656
855.926	4706
856.06	4714
856.194	4771
856.327	4752
856.461	4615
856.595	4596
856.729	4607
856.862	4679
856.996	4706
857.13	4717
857.263	4683
857.397	4771
857.53	4577
857.664	4729
857.797	4767
857.931	4797
858.064	4694
858.197	4733
858.331	4626
858.464	4611
858.597	4527
858.731	4618
858.864	4599
858.997	4565
859.13	4687
859.263	4653
859.396	4733
859.529	4565
859.662	4531
859.795	4523
859.928	4611
860.061	4763
860.194	4805
860.327	4641
860.46	4554
860.592	4694
860.725	4714
860.858	4698
860.99	4561
861.123	4500
861.256	4531
861.388	4615
861.521	5181
861.653	4459
861.786	4459
861.918	4451
862.05	4481
862.183	4573
862.315	4580
862.447	4649
862.58	4485
862.712	4394
862.844	4333
862.976	4478
863.108	4470
863.24	4755
863.372	4299
863.504	4398
863.636	4386
863.768	4462
863.9	4447
864.032	4341
864.164	4417
864.296	4402
864.428	4527
864.559	4558
864.691	4561
864.823	4516
864.954	4462
865.086	4481
865.217	4417
865.349	4417
865.48	4436
865.612	4462
865.743	4550
865.875	4443
866.006	4409
866.137	4447
866.269	4436
866.4	4443
866.531	4436
866.662	4360
866.793	4371
866.924	4405
867.055	4489
867.186	4428
867.317	4424
867.448	4371
867.579	4383
867.71	4417
867.841	4337
867.972	4459
868.103	4470
868.233	4447
868.364	4402
868.495	4459
868.625	4664
868.756	4767
868.886	4599
869.017	4634
869.147	4736
869.278	4729
869.408	4672
869.539	4668
869.669	4698
869.799	4668
869.929	4710
870.06	4694
870.19	4942
870.32	4934
870.45	4904
870.58	5037
870.71	5071
870.84	5079
870.97	4927
871.1	4908
871.23	5136
871.36	5098
871.489	4972
871.619	5037
871.749	5048
871.879	5090
872.008	5128
872.138	5014
872.267	4957
872.397	4801
872.526	4778
872.656	4721
872.785	4786
872.915	4957
873.044	5014
873.173	4896
873.303	4911
873.432	4911
873.561	4980
873.69	4816
873.819	4862
873.948	4866
874.077	4828
874.206	4725
874.335	4782
874.464	4908
874.593	5025
874.722	4942
874.851	5041
874.979	5033
875.108	5025
875.237	4908
875.365	4816
875.494	4881
875.623	4976
875.751	4854
875.88	4919
876.008	5018
876.136	5056
876.265	5155
876.393	5318
876.521	5216
876.65	5162
876.778	5155
876.906	4991
877.034	4999
877.162	5052
877.29	4953
877.418	5086
877.546	4957
877.674	5010
877.802	5003
877.93	5048
878.058	4908
878.185	4850
878.313	4961
878.441	4919
878.568	4816
878.696	4854
878.824	4942
878.951	4965
879.079	5113
879.206	5273
879.333	5045
879.461	4949
879.588	4991
879.715	5113
879.842	5235
879.97	4984
880.097	4805
880.224	4725
880.351	4729
880.478	4790
880.605	4786
880.732	4740
880.859	5048
880.986	4919
881.112	4873
881.239	4755
881.366	4645
881.493	4637
881.619	4596
881.746	4626
881.872	4630
881.999	4656
882.125	4664
882.252	4786
882.378	4831
882.505	4915
882.631	4752
882.757	4683
882.883	4710
883.01	4721
883.136	4607
883.262	4577
883.388	4573
883.514	4797
883.64	4824
883.766	4782
883.892	4618
884.018	4694
884.143	4881
884.269	5022
884.395	4675
884.52	4550
884.646	4637
884.772	4649
884.897	4573
885.023	4637
885.148	4778
885.274	4862
885.399	4763
885.524	4698
885.65	4664
885.775	4740
885.9	4725
886.025	4767
886.15	4767
886.275	4702
886.4	4622
886.525	4694
886.65	4706
886.775	4653
886.9	4873
887.025	5022
887.149	4774
887.274	4599
887.399	4565
887.523	4596
887.648	4538
887.773	4550
887.897	4717
888.021	4774
888.146	4656
888.27	4831
888.395	4870
888.519	4755
888.643	4820
888.767	4847
888.891	4641
889.015	4561
889.139	4607
889.263	4641
889.387	4729
889.511	4858
889.635	4774
889.759	4618
889.883	4615
890.006	4679
890.13	4797
890.254	4607
890.377	4694
890.501	4474
890.624	4485
890.748	4538
890.871	4493
890.995	4402
891.118	4360
891.241	4500
891.364	4523
891.488	4634
891.611	4459
891.734	4500
891.857	4561
891.98	4561
892.103	4618
892.226	4546
892.349	4512
892.471	4436
892.594	4550
892.717	4607
892.839	4554
892.962	4546
893.085	4656
893.207	4607
893.33	4493
893.452	4493
893.575	4698
893.697	4588
893.819	4733
893.941	4767
894.064	4763
894.186	4592
894.308	4577
894.43	4752
894.552	4816
894.674	4710
894.796	4519
894.918	4607
895.04	4565
895.161	4736
895.283	4664
895.405	4519
895.526	4645
895.648	4668
895.769	4664
895.891	4725
896.012	4767
896.134	4725
896.255	4603
896.376	4634
896.498	4577
896.619	4725
896.74	4694
896.861	4668
896.982	4927
897.103	5105
897.224	4831
897.345	4740
897.466	4664
897.587	4729
897.708	4877
897.828	4812
897.949	4664
898.07	4618
898.19	4645
898.311	4786
898.431	4672
898.552	4744
898.672	4816
898.792	4835
898.913	4740
899.033	4645
899.153	4516
899.273	4436
899.393	4538
899.513	4596
899.633	4569
899.753	4592
899.873	4538
899.993	4618
900.113	4561
900.232	4630
900.352	4580
900.472	4561
900.591	4485
900.711	4512
900.83	4466
900.95	4607
901.069	4736
901.189	4523
901.308	4379
901.427	4310
901.546	4390
901.665	4508
901.784	4565
901.904	4436
902.023	4348
902.141	4280
902.26	4219
902.379	4325
902.498	4219
902.617	4291
902.735	4402
902.854	4405
902.973	4360
903.091	4268
903.21	4280
903.328	4329
903.446	4306
903.565	4329
903.683	4352
903.801	4341
903.919	4428
904.038	4455
904.156	4379
904.274	4455
904.392	4436
904.51	4489
904.627	4512
904.745	4607
904.863	4656
904.981	4371
905.098	4341
905.216	4402
905.334	4367
905.451	4481
905.569	4478
905.686	4542
905.803	4603
905.921	4489
906.038	4584
906.155	4497
906.272	4455
906.389	4512
906.506	4417
906.623	4413
906.74	4428
906.857	4280
906.974	4421
907.091	4584
907.208	4672
907.324	4561
907.441	4535
907.557	4367
907.674	4367
907.79	4341
907.907	4398
908.023	4493
908.139	4500
908.256	4443
908.372	4497
908.488	4489
908.604	4379
908.72	4344
908.836	4402
908.952	4402
909.068	4462
909.184	4615
909.3	4500
909.415	4622
909.531	4546
909.647	4356
909.762	4352
909.878	4344
909.993	4428
910.108	4447
910.224	4417
910.339	4554
910.454	4405
910.57	4394
910.685	4314
910.8	4668
910.915	4618
911.03	4474
911.145	4375
911.259	4352
911.374	4371
911.489	4310
911.604	4318
911.718	4200
911.833	4223
911.947	4139
912.062	4055
912.176	4223
912.291	4238
912.405	4287
912.519	4466
912.633	4519
912.748	4394
912.862	4318
912.976	4215
913.09	4135
913.204	4192
913.318	4276
913.431	4413
913.545	4405
913.659	4459
913.772	4424
913.886	4295
914	4276
914.113	4390
914.226	4459
914.34	4409
914.453	4249
914.566	4417
914.68	4367
914.793	4337
914.906	4169
915.019	4147
915.132	4074
915.245	4223
915.358	4280
915.47	4230
915.583	4310
915.696	4287
915.809	4405
915.921	4478
916.034	4295
916.146	4276
916.259	4227
916.371	4421
916.483	4386
916.595	4329
916.708	4371
916.82	4337
916.932	4295
917.044	4344
917.156	4329
917.268	4246
917.38	4299
917.491	4276
917.603	4390
917.715	4424
917.826	4451
917.938	4367
918.049	4280
918.161	4424
918.272	4550
918.384	4550
918.495	4447
918.606	4306
918.717	4261
918.828	4390
918.939	4436
919.05	4322
919.161	4367
919.272	4158
919.383	4219
919.494	4459
919.604	4660
919.715	4451
919.826	4413
919.936	4428
920.047	4535
920.157	4550
920.267	4725
920.378	4615
920.488	4565
920.598	4710
920.708	4972
920.818	4763
920.928	4774
921.038	5056
921.148	4927
921.258	4660
921.368	4531
921.477	4535
921.587	4470
921.697	4424
921.806	4565
921.916	4462
922.025	4257
922.134	4295
922.244	4253
922.353	4352
922.462	4200
922.571	4135
922.68	4071
922.789	3979
922.898	4067
923.007	4029
923.116	4109
923.224	4078
923.333	4097
923.442	4013
923.55	3998
923.659	4074
923.767	4166
923.876	4013
923.984	4166
924.092	4029
924.201	4105
924.309	4147
924.417	4150
924.525	4101
924.633	4154
924.741	4843
924.849	3926
924.956	4109
925.064	3953
925.172	3896
925.279	3983
925.387	4055
925.494	4109
925.602	4238
925.709	4207
925.816	4112
925.924	4097
926.031	4207
926.138	4230
926.245	4207
926.352	4131
926.459	4268
926.566	4303
926.673	4143
926.779	4105
926.886	4147
926.993	4071
927.099	3960
927.206	3960
927.312	3934
927.419	4074
927.525	4010
927.631	4120
927.737	3998
927.843	3953
927.95	3873
928.056	3930
928.162	4002
928.267	4086
928.373	4565
928.479	4150
928.585	3888
928.69	4029
928.796	4093
928.901	4010
929.007	3854
929.112	4055
929.218	4017
929.323	3937
929.428	3998
929.533	4097
929.638	3926
929.743	4017
929.848	4025
929.953	4010
930.058	3926
930.163	3812
930.267	3873
930.372	3941
930.477	3842
930.581	4105
930.685	3983
930.79	3865
930.894	3880
930.998	3930
931.103	4059
931.207	3717
931.311	3717
931.415	3675
931.519	3561
931.623	3580
