Data from test_V78500241_2240.txt Node
Date: Fri Mar 25 17:04:34 CST 2022
User: usil
Spectrometer: V785-0024
Trigger mode: 0
Integration Time (sec): 4.000000E-1
Scans to average: 1
Nonlinearity correction enabled: false
Boxcar width: 0
Storing dark spectrum: false
XAxis mode: Wavelengths
Number of Pixels in Spectrum: 1024
>>>>>Begin Spectral Data<<<<<
801.071	8020
801.214	7955
801.356	7845
801.499	7833
801.641	7822
801.783	7753
801.926	7959
802.068	7925
802.211	7970
802.353	7982
802.496	7780
802.638	7856
802.78	7902
802.923	7883
803.065	7849
803.208	7826
803.35	7963
803.492	8046
803.635	8210
803.777	8005
803.919	8164
804.061	8423
804.204	8195
804.346	8073
804.488	7917
804.63	8054
804.773	8058
804.915	8046
805.057	8282
805.199	8164
805.341	8199
805.483	8298
805.626	8183
805.768	8164
805.91	8195
806.052	8237
806.194	8081
806.336	8320
806.478	8096
806.62	8092
806.762	8161
806.904	8271
807.046	8446
807.188	8332
807.33	8271
807.472	8366
807.614	8123
807.756	8153
807.898	7967
808.04	7890
808.182	7803
808.324	7982
808.465	7947
808.607	8081
808.749	8115
808.891	8149
809.033	8324
809.174	8153
809.316	8088
809.458	8107
809.6	8043
809.741	8027
809.883	8043
810.025	8062
810.166	8088
810.308	7947
810.45	7997
810.591	7856
810.733	7811
810.875	7670
811.016	7529
811.158	7445
811.299	7544
811.441	7719
811.582	7613
811.724	7548
811.865	7567
812.007	7628
812.148	7540
812.29	7590
812.431	7757
812.573	7822
812.714	8005
812.855	8103
812.997	8244
813.138	8317
813.279	8183
813.421	8081
813.562	7936
813.703	7811
813.845	7689
813.986	7434
814.127	7255
814.268	7228
814.41	7187
814.551	7206
814.692	7225
814.833	7080
814.974	7076
815.115	7156
815.256	7023
815.397	6909
815.539	6928
815.68	6802
815.821	6768
815.962	6875
816.103	6821
816.244	6703
816.385	6654
816.526	6623
816.666	6502
816.807	6346
816.948	6403
817.089	6509
817.23	6475
817.371	6395
817.512	6407
817.653	6342
817.793	6380
817.934	6422
818.075	6460
818.216	6467
818.356	6422
818.497	6331
818.638	6140
818.778	6133
818.919	6133
819.06	6163
819.2	6273
819.341	6338
819.481	6369
819.622	6441
819.762	6776
819.903	6707
820.043	6551
820.184	6544
820.324	6578
820.465	6642
820.605	6635
820.746	6662
820.886	6540
821.026	6662
821.167	6692
821.307	6802
821.447	6783
821.588	6650
821.728	6551
821.868	6452
822.008	6319
822.149	6357
822.289	6338
822.429	6224
822.569	6049
822.709	6110
822.849	5939
822.99	5912
823.13	5916
823.27	5912
823.41	5802
823.55	5748
823.69	5756
823.83	5783
823.97	5676
824.11	5478
824.25	5440
824.389	5570
824.529	5642
824.669	5543
824.809	5676
824.949	5668
825.089	5596
825.228	5566
825.368	5417
825.508	5345
825.648	5349
825.787	5402
825.927	5391
826.067	5303
826.206	5288
826.346	5376
826.485	5391
826.625	5368
826.765	5581
826.904	5516
827.044	5216
827.183	5166
827.323	5121
827.462	5204
827.601	5181
827.741	5204
827.88	5216
828.02	5086
828.159	5242
828.298	5292
828.437	5315
828.577	5269
828.716	5455
828.855	5250
828.994	5181
829.134	5121
829.273	5185
829.412	5143
829.551	5102
829.69	5128
829.829	5242
829.968	5387
830.107	5280
830.246	5258
830.385	5212
830.524	5170
830.663	5128
830.802	4942
830.941	4873
831.08	4820
831.219	4987
831.357	4915
831.496	5064
831.635	4919
831.774	4858
831.913	4831
832.051	4736
832.19	4717
832.329	4816
832.467	4710
832.606	4672
832.744	4698
832.883	4714
833.022	4733
833.16	4782
833.299	4809
833.437	4790
833.576	4801
833.714	4847
833.852	4904
833.991	4862
834.129	4946
834.267	4904
834.406	4949
834.544	5010
834.682	4980
834.821	4995
834.959	5151
835.097	4965
835.235	5170
835.373	5121
835.511	5045
835.65	4995
835.788	5014
835.926	4923
836.064	4896
836.202	4930
836.34	5178
836.478	5193
836.615	5132
836.753	5166
836.891	5277
837.029	5216
837.167	5216
837.305	5197
837.443	5102
837.58	5079
837.718	5261
837.856	5155
837.993	5128
838.131	5197
838.269	5220
838.406	5231
838.544	5193
838.681	5003
838.819	4991
838.956	4934
839.094	4889
839.231	4999
839.369	5033
839.506	5463
839.643	5250
839.781	5140
839.918	4999
840.055	5113
840.193	5060
840.33	5079
840.467	5041
840.604	5178
840.742	5433
840.879	5140
841.016	5124
841.153	5132
841.29	5334
841.427	5322
841.564	5292
841.701	5353
841.838	5254
841.975	5208
842.112	5322
842.249	5136
842.385	5094
842.522	5292
842.659	5159
842.796	5105
842.933	5220
843.069	5147
843.206	5143
843.343	5318
843.479	5204
843.616	5250
843.752	5003
843.889	5006
844.025	5265
844.162	4976
844.298	5201
844.435	5029
844.571	5041
844.708	5193
844.844	5254
844.98	5353
845.117	5296
845.253	5143
845.389	5033
845.525	5181
845.661	5052
845.798	5022
845.934	5174
846.07	5048
846.206	5212
846.342	5254
846.478	5121
846.614	5025
846.75	4980
846.886	4919
847.022	5166
847.158	5025
847.294	5064
847.429	5117
847.565	5067
847.701	5261
847.837	4828
847.972	4778
848.108	4961
848.244	4984
848.379	4790
848.515	4687
848.65	4755
848.786	4733
848.921	4774
849.057	4805
849.192	4900
849.328	4809
849.463	4820
849.598	4755
849.734	4778
849.869	4630
850.004	4611
850.14	4698
850.275	4618
850.41	4504
850.545	4580
850.68	4660
850.815	4599
850.95	4626
851.085	4877
851.22	4736
851.355	4660
851.49	4596
851.625	4615
851.76	4580
851.895	4531
852.03	4500
852.165	4622
852.299	4691
852.434	4790
852.569	4725
852.703	4759
852.838	4824
852.973	4881
853.107	4896
853.242	4710
853.376	4664
853.511	4558
853.645	4626
853.78	4831
853.914	4710
854.048	4626
854.183	4634
854.317	4706
854.451	4801
854.585	4702
854.72	4649
854.854	4710
854.988	4584
855.122	4588
855.256	4516
855.39	4622
855.524	4729
855.658	4702
855.792	4706
855.926	4755
856.06	4763
856.194	4835
856.327	4691
856.461	4596
856.595	4645
856.729	4580
856.862	4733
856.996	4725
857.13	4683
857.263	4714
857.397	4790
857.53	4660
857.664	4687
857.797	4755
857.931	4809
858.064	4672
858.197	4733
858.331	4668
858.464	4592
858.597	4512
858.731	4630
858.864	4592
858.997	4596
859.13	4615
859.263	4683
859.396	4649
859.529	4580
859.662	4565
859.795	4489
859.928	4607
860.061	4733
860.194	4744
860.327	4611
860.46	4599
860.592	4664
860.725	4740
860.858	4679
860.99	4645
861.123	4546
861.256	4519
861.388	4584
861.521	5299
861.653	4489
861.786	4462
861.918	4497
862.05	4497
862.183	4573
862.315	4603
862.447	4675
862.58	4588
862.712	4383
862.844	4287
862.976	4455
863.108	4413
863.24	4812
863.372	4303
863.504	4367
863.636	4421
863.768	4485
863.9	4424
864.032	4310
864.164	4390
864.296	4405
864.428	4573
864.559	4565
864.691	4550
864.823	4546
864.954	4500
865.086	4440
865.217	4443
865.349	4409
865.48	4485
865.612	4523
865.743	4630
865.875	4424
866.006	4402
866.137	4470
866.269	4394
866.4	4405
866.531	4428
866.662	4409
866.793	4402
866.924	4436
867.055	4474
867.186	4493
867.317	4386
867.448	4367
867.579	4360
867.71	4424
867.841	4383
867.972	4447
868.103	4459
868.233	4417
868.364	4478
868.495	4478
868.625	4672
868.756	4694
868.886	4565
869.017	4588
869.147	4816
869.278	4740
869.408	4653
869.539	4653
869.669	4672
869.799	4634
869.929	4725
870.06	4733
870.19	4991
870.32	4938
870.45	4877
870.58	5037
870.71	5113
870.84	5094
870.97	4949
871.1	4953
871.23	5136
871.36	5083
871.489	5029
871.619	5094
871.749	5109
871.879	5071
872.008	5181
872.138	5014
872.267	4976
872.397	4866
872.526	4828
872.656	4729
872.785	4782
872.915	4946
873.044	5033
873.173	4919
873.303	4968
873.432	4949
873.561	4995
873.69	4900
873.819	4835
873.948	4953
874.077	4797
874.206	4740
874.335	4809
874.464	4980
874.593	5083
874.722	4980
874.851	5109
874.979	5083
875.108	4999
875.237	4915
875.365	4873
875.494	4854
875.623	5003
875.751	4797
875.88	4930
876.008	5018
876.136	5003
876.265	5155
876.393	5345
876.521	5299
876.65	5258
876.778	5151
876.906	4999
877.034	5029
877.162	5079
877.29	4968
877.418	5113
877.546	4999
877.674	5041
877.802	5064
877.93	4995
878.058	4965
878.185	4858
878.313	4949
878.441	4949
878.568	4816
878.696	4850
878.824	4980
878.951	5006
879.079	5140
879.206	5265
879.333	5094
879.461	4942
879.588	5003
879.715	5105
879.842	5216
879.97	4968
880.097	4767
880.224	4691
880.351	4790
880.478	4816
880.605	4824
880.732	4824
880.859	5079
880.986	4930
881.112	4885
881.239	4801
881.366	4664
881.493	4622
881.619	4588
881.746	4653
881.872	4641
881.999	4637
882.125	4702
882.252	4782
882.378	4774
882.505	4980
882.631	4847
882.757	4660
882.883	4748
883.01	4763
883.136	4634
883.262	4634
883.388	4653
883.514	4828
883.64	4889
883.766	4767
883.892	4668
884.018	4706
884.143	4908
884.269	4999
884.395	4664
884.52	4645
884.646	4622
884.772	4569
884.897	4542
885.023	4649
885.148	4824
885.274	4812
885.399	4778
885.524	4702
885.65	4721
885.775	4740
885.9	4710
886.025	4862
886.15	4767
886.275	4714
886.4	4653
886.525	4721
886.65	4714
886.775	4714
886.9	4923
887.025	5006
887.149	4835
887.274	4634
887.399	4538
887.523	4588
887.648	4561
887.773	4554
887.897	4763
888.021	4801
888.146	4691
888.27	4839
888.395	4915
888.519	4797
888.643	4797
888.767	4858
888.891	4687
889.015	4599
889.139	4645
889.263	4580
889.387	4744
889.511	4889
889.635	4767
889.759	4588
889.883	4645
890.006	4710
890.13	4812
890.254	4592
890.377	4691
890.501	4481
890.624	4538
890.748	4630
890.871	4436
890.995	4405
891.118	4375
891.241	4470
891.364	4596
891.488	4672
891.611	4519
891.734	4519
891.857	4634
891.98	4500
892.103	4656
892.226	4584
892.349	4493
892.471	4428
892.594	4546
892.717	4577
892.839	4550
892.962	4588
893.085	4645
893.207	4599
893.33	4443
893.452	4493
893.575	4630
893.697	4554
893.819	4748
893.941	4782
894.064	4790
894.186	4573
894.308	4584
894.43	4691
894.552	4831
894.674	4755
894.796	4580
894.918	4580
895.04	4546
895.161	4687
895.283	4660
895.405	4538
895.526	4626
895.648	4717
895.769	4733
895.891	4691
896.012	4767
896.134	4710
896.255	4679
896.376	4641
896.498	4580
896.619	4649
896.74	4698
896.861	4626
896.982	4904
897.103	5060
897.224	4858
897.345	4714
897.466	4675
897.587	4736
897.708	4839
897.828	4786
897.949	4634
898.07	4535
898.19	4664
898.311	4854
898.431	4683
898.552	4755
898.672	4801
898.792	4797
898.913	4725
899.033	4611
899.153	4485
899.273	4379
899.393	4493
899.513	4546
899.633	4538
899.753	4558
899.873	4523
899.993	4561
900.113	4508
900.232	4561
900.352	4508
900.472	4493
900.591	4417
900.711	4455
900.83	4470
900.95	4569
901.069	4683
901.189	4542
901.308	4390
901.427	4306
901.546	4352
901.665	4497
901.784	4523
901.904	4375
902.023	4352
902.141	4181
902.26	4147
902.379	4242
902.498	4246
902.617	4265
902.735	4348
902.854	4405
902.973	4386
903.091	4219
903.21	4162
903.328	4268
903.446	4284
903.565	4257
903.683	4333
903.801	4268
903.919	4363
904.038	4405
904.156	4344
904.274	4462
904.392	4383
904.51	4409
904.627	4440
904.745	4596
904.863	4660
904.981	4375
905.098	4303
905.216	4318
905.334	4413
905.451	4405
905.569	4455
905.686	4542
905.803	4588
905.921	4390
906.038	4542
906.155	4516
906.272	4337
906.389	4440
906.506	4344
906.623	4356
906.74	4421
906.857	4322
906.974	4367
907.091	4546
907.208	4641
907.324	4584
907.441	4466
907.557	4318
907.674	4371
907.79	4348
907.907	4352
908.023	4478
908.139	4500
908.256	4402
908.372	4481
908.488	4478
908.604	4318
908.72	4329
908.836	4367
908.952	4363
909.068	4409
909.184	4554
909.3	4466
909.415	4580
909.531	4538
909.647	4360
909.762	4390
909.878	4295
909.993	4428
910.108	4371
910.224	4455
910.339	4478
910.454	4409
910.57	4333
910.685	4272
910.8	4675
910.915	4592
911.03	4447
911.145	4276
911.259	4341
911.374	4344
911.489	4322
911.604	4246
911.718	4181
911.833	4196
911.947	4086
912.062	3994
912.176	4204
912.291	4230
912.405	4261
912.519	4470
912.633	4440
912.748	4375
912.862	4333
912.976	4211
913.09	4128
913.204	4192
913.318	4230
913.431	4394
913.545	4371
913.659	4478
913.772	4371
913.886	4261
914	4234
914.113	4383
914.226	4424
914.34	4386
914.453	4253
914.566	4424
914.68	4318
914.793	4322
914.906	4135
915.019	4097
915.132	4055
915.245	4169
915.358	4242
915.47	4242
915.583	4253
915.696	4249
915.809	4417
915.921	4436
916.034	4253
916.146	4223
916.259	4185
916.371	4375
916.483	4352
916.595	4204
916.708	4352
916.82	4314
916.932	4291
917.044	4280
917.156	4375
917.268	4185
917.38	4246
917.491	4287
917.603	4352
917.715	4428
917.826	4398
917.938	4306
918.049	4242
918.161	4337
918.272	4512
918.384	4527
918.495	4474
918.606	4299
918.717	4261
918.828	4318
918.939	4344
919.05	4249
919.161	4322
919.272	4040
919.383	4211
919.494	4440
919.604	4577
919.715	4405
919.826	4363
919.936	4383
920.047	4535
920.157	4462
920.267	4694
920.378	4508
920.488	4485
920.598	4668
920.708	4877
920.818	4752
920.928	4702
921.038	4957
921.148	4858
921.258	4584
921.368	4504
921.477	4470
921.587	4417
921.697	4363
921.806	4550
921.916	4451
922.025	4268
922.134	4268
922.244	4227
922.353	4360
922.462	4185
922.571	4120
922.68	4029
922.789	3934
922.898	4055
923.007	3991
923.116	4074
923.224	4036
923.333	4036
923.442	3998
923.55	3972
923.659	4021
923.767	4051
923.876	3987
923.984	4067
924.092	3975
924.201	4044
924.309	4071
924.417	4071
924.525	4067
924.633	4128
924.741	5067
924.849	3903
924.956	4109
925.064	3956
925.172	3899
925.279	3937
925.387	4013
925.494	4040
925.602	4230
925.709	4147
925.816	4013
925.924	4082
926.031	4204
926.138	4147
926.245	4166
926.352	4074
926.459	4246
926.566	4310
926.673	4154
926.779	4120
926.886	4086
926.993	3949
927.099	3949
927.206	3930
927.312	3903
927.419	4067
927.525	4017
927.631	4093
927.737	3934
927.843	3915
927.95	3835
928.056	3956
928.162	3964
928.267	4036
928.373	4653
928.479	4120
928.585	3884
928.69	4029
928.796	4059
928.901	3945
929.007	3842
929.112	3953
929.218	3960
929.323	3972
929.428	3918
929.533	4147
929.638	3869
929.743	3972
929.848	4029
929.953	3975
930.058	3899
930.163	3743
930.267	3842
930.372	3968
930.477	3808
930.581	4055
930.685	3930
930.79	3819
930.894	3907
930.998	3827
931.103	4067
931.207	3709
931.311	3686
931.415	3701
931.519	3526
931.623	3561
