Data from test_V78500241_1232.txt Node
Date: Fri Mar 25 16:57:34 CST 2022
User: usil
Spectrometer: V785-0024
Trigger mode: 0
Integration Time (sec): 4.000000E-1
Scans to average: 1
Nonlinearity correction enabled: false
Boxcar width: 0
Storing dark spectrum: false
XAxis mode: Wavelengths
Number of Pixels in Spectrum: 1024
>>>>>Begin Spectral Data<<<<<
801.071	7989
801.214	8065
801.356	7898
801.499	7822
801.641	7769
801.783	7795
801.926	7947
802.068	7947
802.211	7841
802.353	7963
802.496	7860
802.638	7822
802.78	7913
802.923	7925
803.065	7902
803.208	7864
803.35	8016
803.492	8005
803.635	8172
803.777	8008
803.919	8180
804.061	8446
804.204	8172
804.346	8062
804.488	7974
804.63	8088
804.773	8024
804.915	8142
805.057	8267
805.199	8168
805.341	8263
805.483	8275
805.626	8206
805.768	8119
805.91	8187
806.052	8161
806.194	8088
806.336	8313
806.478	8046
806.62	8001
806.762	8069
806.904	8294
807.046	8427
807.188	8351
807.33	8275
807.472	8366
807.614	8176
807.756	8111
807.898	8062
808.04	7944
808.182	7925
808.324	7837
808.465	7944
808.607	8050
808.749	8111
808.891	8111
809.033	8225
809.174	8180
809.316	8020
809.458	8062
809.6	7921
809.741	7993
809.883	8020
810.025	8031
810.166	8035
810.308	8050
810.45	8012
810.591	7887
810.733	7723
810.875	7681
811.016	7540
811.158	7510
811.299	7632
811.441	7651
811.582	7674
811.724	7556
811.865	7518
812.007	7590
812.148	7575
812.29	7632
812.431	7708
812.573	7875
812.714	7963
812.855	8092
812.997	8206
813.138	8225
813.279	8225
813.421	8100
813.562	8035
813.703	7909
813.845	7734
813.986	7400
814.127	7228
814.268	7225
814.41	7198
814.551	7171
814.692	7149
814.833	7027
814.974	7034
815.115	7099
815.256	6970
815.397	6916
815.539	6928
815.68	6848
815.821	6772
815.962	6886
816.103	6749
816.244	6700
816.385	6662
816.526	6608
816.666	6483
816.807	6277
816.948	6452
817.089	6483
817.23	6437
817.371	6361
817.512	6426
817.653	6372
817.793	6372
817.934	6369
818.075	6506
818.216	6448
818.356	6372
818.497	6262
818.638	6117
818.778	6152
818.919	6182
819.06	6117
819.2	6289
819.341	6311
819.481	6384
819.622	6544
819.762	6726
819.903	6673
820.043	6582
820.184	6627
820.324	6528
820.465	6700
820.605	6658
820.746	6623
820.886	6494
821.026	6604
821.167	6654
821.307	6768
821.447	6707
821.588	6635
821.728	6547
821.868	6452
822.008	6361
822.149	6388
822.289	6338
822.429	6102
822.569	6068
822.709	6087
822.849	5901
822.99	5908
823.13	5885
823.27	5927
823.41	5722
823.55	5775
823.69	5764
823.83	5783
823.97	5630
824.11	5509
824.25	5448
824.389	5543
824.529	5551
824.669	5524
824.809	5619
824.949	5707
825.089	5592
825.228	5558
825.368	5391
825.508	5311
825.648	5330
825.787	5372
825.927	5345
826.067	5265
826.206	5341
826.346	5383
826.485	5353
826.625	5372
826.765	5497
826.904	5493
827.044	5254
827.183	5239
827.323	5124
827.462	5223
827.601	5174
827.741	5178
827.88	5208
828.02	5079
828.159	5193
828.298	5322
828.437	5368
828.577	5254
828.716	5478
828.855	5284
828.994	5197
829.134	5136
829.273	5113
829.412	5109
829.551	5086
829.69	5105
829.829	5250
829.968	5372
830.107	5246
830.246	5334
830.385	5124
830.524	5079
830.663	5018
830.802	4984
830.941	4847
831.08	4828
831.219	4965
831.357	4972
831.496	5105
831.635	4919
831.774	4850
831.913	4892
832.051	4683
832.19	4755
832.329	4782
832.467	4668
832.606	4637
832.744	4729
832.883	4740
833.022	4717
833.16	4767
833.299	4793
833.437	4809
833.576	4820
833.714	4877
833.852	4835
833.991	4862
834.129	4919
834.267	4953
834.406	4866
834.544	4968
834.682	4900
834.821	4968
834.959	5151
835.097	4942
835.235	5090
835.373	5045
835.511	5109
835.65	5060
835.788	5041
835.926	4900
836.064	4889
836.202	4862
836.34	5117
836.478	5201
836.615	5121
836.753	5181
836.891	5231
837.029	5220
837.167	5147
837.305	5151
837.443	5086
837.58	5025
837.718	5265
837.856	5181
837.993	5117
838.131	5181
838.269	5204
838.406	5170
838.544	5193
838.681	5052
838.819	5033
838.956	4862
839.094	4889
839.231	4961
839.369	5079
839.506	5357
839.643	5273
839.781	5041
839.918	4976
840.055	5102
840.193	5086
840.33	5041
840.467	5151
840.604	5117
840.742	5440
840.879	5060
841.016	5064
841.153	5147
841.29	5383
841.427	5353
841.564	5277
841.701	5315
841.838	5223
841.975	5227
842.112	5341
842.249	5098
842.385	5117
842.522	5288
842.659	5143
842.796	5124
842.933	5197
843.069	5102
843.206	5121
843.343	5265
843.479	5220
843.616	5242
843.752	4968
843.889	4957
844.025	5223
844.162	4980
844.298	5170
844.435	5067
844.571	4972
844.708	5140
844.844	5220
844.98	5296
845.117	5250
845.253	5121
845.389	5098
845.525	5132
845.661	5162
845.798	5025
845.934	5067
846.07	5025
846.206	5227
846.342	5250
846.478	5162
846.614	5033
846.75	5006
846.886	4965
847.022	5083
847.158	5067
847.294	5029
847.429	5128
847.565	5006
847.701	5280
847.837	4816
847.972	4763
848.108	4942
848.244	4900
848.379	4786
848.515	4725
848.65	4687
848.786	4790
848.921	4729
849.057	4847
849.192	4862
849.328	4831
849.463	4824
849.598	4790
849.734	4729
849.869	4634
850.004	4596
850.14	4569
850.275	4615
850.41	4508
850.545	4500
850.68	4565
850.815	4599
850.95	4599
851.085	4824
851.22	4725
851.355	4736
851.49	4603
851.625	4596
851.76	4615
851.895	4561
852.03	4500
852.165	4645
852.299	4710
852.434	4755
852.569	4755
852.703	4767
852.838	4824
852.973	4934
853.107	4904
853.242	4736
853.376	4656
853.511	4535
853.645	4618
853.78	4801
853.914	4694
854.048	4634
854.183	4554
854.317	4706
854.451	4790
854.585	4653
854.72	4645
854.854	4744
854.988	4580
855.122	4558
855.256	4500
855.39	4653
855.524	4755
855.658	4721
855.792	4702
855.926	4740
856.06	4710
856.194	4710
856.327	4641
856.461	4584
856.595	4592
856.729	4645
856.862	4702
856.996	4660
857.13	4683
857.263	4710
857.397	4790
857.53	4622
857.664	4714
857.797	4744
857.931	4740
858.064	4660
858.197	4717
858.331	4637
858.464	4580
858.597	4474
858.731	4615
858.864	4622
858.997	4554
859.13	4630
859.263	4599
859.396	4656
859.529	4519
859.662	4542
859.795	4504
859.928	4615
860.061	4786
860.194	4748
860.327	4580
860.46	4535
860.592	4675
860.725	4687
860.858	4736
860.99	4508
861.123	4447
861.256	4561
861.388	4603
861.521	5265
861.653	4470
861.786	4417
861.918	4459
862.05	4523
862.183	4504
862.315	4550
862.447	4645
862.58	4519
862.712	4398
862.844	4325
862.976	4500
863.108	4436
863.24	4866
863.372	4329
863.504	4428
863.636	4402
863.768	4535
863.9	4424
864.032	4379
864.164	4424
864.296	4478
864.428	4561
864.559	4607
864.691	4565
864.823	4554
864.954	4481
865.086	4542
865.217	4459
865.349	4451
865.48	4478
865.612	4489
865.743	4653
865.875	4440
866.006	4478
866.137	4485
866.269	4489
866.4	4481
866.531	4443
866.662	4386
866.793	4413
866.924	4436
867.055	4497
867.186	4485
867.317	4421
867.448	4405
867.579	4443
867.71	4459
867.841	4394
867.972	4451
868.103	4538
868.233	4462
868.364	4489
868.495	4481
868.625	4675
868.756	4778
868.886	4554
869.017	4675
869.147	4812
869.278	4797
869.408	4664
869.539	4710
869.669	4736
869.799	4694
869.929	4797
870.06	4790
870.19	4965
870.32	4968
870.45	4976
870.58	5105
870.71	5045
870.84	5147
870.97	4927
871.1	4953
871.23	5159
871.36	5178
871.489	5052
871.619	5113
871.749	5143
871.879	5140
872.008	5162
872.138	5147
872.267	4984
872.397	4885
872.526	4839
872.656	4755
872.785	4805
872.915	4972
873.044	5094
873.173	4991
873.303	4949
873.432	4930
873.561	4976
873.69	4923
873.819	4930
873.948	4968
874.077	4847
874.206	4763
874.335	4793
874.464	4915
874.593	5105
874.722	4976
874.851	5140
874.979	5064
875.108	5045
875.237	4980
875.365	4904
875.494	4930
875.623	5003
875.751	4831
875.88	4904
876.008	4995
876.136	5086
876.265	5181
876.393	5357
876.521	5261
876.65	5239
876.778	5143
876.906	5086
877.034	5033
877.162	5033
877.29	5098
877.418	5056
877.546	5071
877.674	5006
877.802	5033
877.93	5056
878.058	4972
878.185	4930
878.313	4953
878.441	4938
878.568	4824
878.696	4904
878.824	4968
878.951	5052
879.079	5143
879.206	5315
879.333	5121
879.461	4991
879.588	5014
879.715	5109
879.842	5303
879.97	5041
880.097	4736
880.224	4790
880.351	4858
880.478	4843
880.605	4831
880.732	4812
880.859	5079
880.986	4953
881.112	4991
881.239	4786
881.366	4733
881.493	4618
881.619	4569
881.746	4683
881.872	4668
881.999	4653
882.125	4710
882.252	4805
882.378	4870
882.505	4999
882.631	4858
882.757	4653
882.883	4759
883.01	4710
883.136	4694
883.262	4618
883.388	4607
883.514	4843
883.64	4896
883.766	4805
883.892	4721
884.018	4774
884.143	4957
884.269	5041
884.395	4687
884.52	4683
884.646	4679
884.772	4615
884.897	4584
885.023	4717
885.148	4809
885.274	4934
885.399	4816
885.524	4778
885.65	4752
885.775	4793
885.9	4717
886.025	4938
886.15	4793
886.275	4782
886.4	4694
886.525	4774
886.65	4721
886.775	4714
886.9	4900
887.025	5037
887.149	4809
887.274	4694
887.399	4565
887.523	4626
887.648	4599
887.773	4618
887.897	4771
888.021	4847
888.146	4679
888.27	4801
888.395	4873
888.519	4850
888.643	4824
888.767	4843
888.891	4653
889.015	4611
889.139	4687
889.263	4603
889.387	4786
889.511	4904
889.635	4797
889.759	4668
889.883	4653
890.006	4691
890.13	4850
890.254	4637
890.377	4691
890.501	4542
890.624	4519
890.748	4645
890.871	4558
890.995	4417
891.118	4489
891.241	4527
891.364	4546
891.488	4679
891.611	4550
891.734	4603
891.857	4626
891.98	4588
892.103	4622
892.226	4622
892.349	4519
892.471	4440
892.594	4573
892.717	4634
892.839	4565
892.962	4603
893.085	4687
893.207	4622
893.33	4493
893.452	4535
893.575	4683
893.697	4645
893.819	4839
893.941	4816
894.064	4778
894.186	4618
894.308	4558
894.43	4767
894.552	4839
894.674	4782
894.796	4542
894.918	4637
895.04	4542
895.161	4744
895.283	4649
895.405	4584
895.526	4649
895.648	4679
895.769	4721
895.891	4717
896.012	4721
896.134	4786
896.255	4683
896.376	4660
896.498	4615
896.619	4694
896.74	4626
896.861	4672
896.982	4911
897.103	5060
897.224	4892
897.345	4763
897.466	4679
897.587	4748
897.708	4866
897.828	4782
897.949	4683
898.07	4561
898.19	4679
898.311	4866
898.431	4660
898.552	4782
898.672	4828
898.792	4850
898.913	4790
899.033	4664
899.153	4504
899.273	4440
899.393	4493
899.513	4538
899.633	4561
899.753	4584
899.873	4550
899.993	4542
900.113	4512
900.232	4611
900.352	4558
900.472	4493
900.591	4402
900.711	4542
900.83	4466
900.95	4637
901.069	4683
901.189	4546
901.308	4390
901.427	4295
901.546	4421
901.665	4569
901.784	4573
901.904	4421
902.023	4360
902.141	4242
902.26	4188
902.379	4341
902.498	4253
902.617	4234
902.735	4371
902.854	4421
902.973	4379
903.091	4242
903.21	4223
903.328	4325
903.446	4337
903.565	4261
903.683	4375
903.801	4310
903.919	4386
904.038	4428
904.156	4363
904.274	4474
904.392	4402
904.51	4443
904.627	4516
904.745	4641
904.863	4649
904.981	4443
905.098	4306
905.216	4375
905.334	4440
905.451	4443
905.569	4447
905.686	4554
905.803	4565
905.921	4383
906.038	4546
906.155	4508
906.272	4443
906.389	4459
906.506	4363
906.623	4421
906.74	4432
906.857	4306
906.974	4348
907.091	4561
907.208	4706
907.324	4588
907.441	4459
907.557	4360
907.674	4413
907.79	4322
907.907	4390
908.023	4481
908.139	4478
908.256	4489
908.372	4504
908.488	4447
908.604	4344
908.72	4356
908.836	4421
908.952	4428
909.068	4424
909.184	4580
909.3	4527
909.415	4607
909.531	4558
909.647	4352
909.762	4379
909.878	4356
909.993	4424
910.108	4379
910.224	4432
910.339	4474
910.454	4432
910.57	4375
910.685	4299
910.8	4607
910.915	4615
911.03	4508
911.145	4344
911.259	4337
911.374	4417
911.489	4287
911.604	4337
911.718	4188
911.833	4181
911.947	4154
912.062	4002
912.176	4185
912.291	4257
912.405	4276
912.519	4470
912.633	4504
912.748	4386
912.862	4325
912.976	4192
913.09	4101
913.204	4150
913.318	4299
913.431	4344
913.545	4348
913.659	4474
913.772	4375
913.886	4249
914	4249
914.113	4383
914.226	4474
914.34	4424
914.453	4242
914.566	4451
914.68	4303
914.793	4363
914.906	4185
915.019	4150
915.132	4078
915.245	4215
915.358	4211
915.47	4234
915.583	4272
915.696	4325
915.809	4360
915.921	4409
916.034	4238
916.146	4306
916.259	4257
916.371	4337
916.483	4356
916.595	4291
916.708	4333
916.82	4379
916.932	4371
917.044	4360
917.156	4325
917.268	4287
917.38	4299
917.491	4234
917.603	4360
917.715	4428
917.826	4455
917.938	4375
918.049	4238
918.161	4394
918.272	4565
918.384	4580
918.495	4447
918.606	4322
918.717	4238
918.828	4344
918.939	4440
919.05	4246
919.161	4299
919.272	4143
919.383	4272
919.494	4470
919.604	4618
919.715	4440
919.826	4356
919.936	4447
920.047	4527
920.157	4519
920.267	4733
920.378	4565
920.488	4504
920.598	4774
920.708	4850
920.818	4763
920.928	4816
921.038	4934
921.148	4915
921.258	4645
921.368	4603
921.477	4531
921.587	4440
921.697	4402
921.806	4558
921.916	4466
922.025	4287
922.134	4318
922.244	4211
922.353	4322
922.462	4230
922.571	4101
922.68	4013
922.789	3926
922.898	4055
923.007	4010
923.116	4105
923.224	4101
923.333	4040
923.442	4006
923.55	3968
923.659	4021
923.767	4143
923.876	4044
923.984	4131
924.092	3956
924.201	4082
924.309	4093
924.417	4154
924.525	4105
924.633	4112
924.741	5018
924.849	3911
924.956	4124
925.064	3937
925.172	3911
925.279	3975
925.387	4101
925.494	4071
925.602	4227
925.709	4204
925.816	4055
925.924	4158
926.031	4185
926.138	4154
926.245	4181
926.352	4101
926.459	4268
926.566	4322
926.673	4158
926.779	4109
926.886	4067
926.993	3987
927.099	3972
927.206	3953
927.312	3926
927.419	4036
927.525	4044
927.631	4097
927.737	3975
927.843	3934
927.95	3869
928.056	3953
928.162	4021
928.267	4082
928.373	4660
928.479	4112
928.585	3873
928.69	4021
928.796	4059
928.901	3953
929.007	3861
929.112	3998
929.218	3953
929.323	3979
929.428	3945
929.533	4112
929.638	3930
929.743	3979
929.848	4055
929.953	4013
930.058	3968
930.163	3819
930.267	3842
930.372	3987
930.477	3846
930.581	4116
930.685	3979
930.79	3827
930.894	3899
930.998	3888
931.103	4032
931.207	3789
931.311	3743
931.415	3682
931.519	3580
931.623	3576
