Data from test_V78500241_2120.txt Node
Date: Fri Mar 25 17:03:44 CST 2022
User: usil
Spectrometer: V785-0024
Trigger mode: 0
Integration Time (sec): 4.000000E-1
Scans to average: 1
Nonlinearity correction enabled: false
Boxcar width: 0
Storing dark spectrum: false
XAxis mode: Wavelengths
Number of Pixels in Spectrum: 1024
>>>>>Begin Spectral Data<<<<<
801.071	7951
801.214	7917
801.356	7799
801.499	7856
801.641	7807
801.783	7799
801.926	7932
802.068	7986
802.211	7955
802.353	7955
802.496	7860
802.638	7902
802.78	7879
802.923	7932
803.065	7902
803.208	7826
803.35	7967
803.492	8069
803.635	8180
803.777	8024
803.919	8180
804.061	8377
804.204	8123
804.346	8020
804.488	7970
804.63	8100
804.773	7967
804.915	8077
805.057	8313
805.199	8199
805.341	8138
805.483	8237
805.626	8199
805.768	8092
805.91	8149
806.052	8229
806.194	8062
806.336	8267
806.478	8088
806.62	8024
806.762	8138
806.904	8248
807.046	8400
807.188	8351
807.33	8313
807.472	8309
807.614	8096
807.756	8180
807.898	7986
808.04	7947
808.182	7879
808.324	7849
808.465	7883
808.607	8073
808.749	8138
808.891	8221
809.033	8290
809.174	8187
809.316	8096
809.458	8058
809.6	7978
809.741	7982
809.883	8005
810.025	8073
810.166	8065
810.308	7986
810.45	7978
810.591	7890
810.733	7757
810.875	7662
811.016	7472
811.158	7396
811.299	7514
811.441	7731
811.582	7597
811.724	7559
811.865	7445
812.007	7578
812.148	7533
812.29	7590
812.431	7765
812.573	7845
812.714	7978
812.855	8126
812.997	8172
813.138	8282
813.279	8145
813.421	8027
813.562	7978
813.703	7765
813.845	7723
813.986	7403
814.127	7247
814.268	7266
814.41	7164
814.551	7259
814.692	7190
814.833	7149
814.974	7065
815.115	7050
815.256	7012
815.397	6954
815.539	6897
815.68	6821
815.821	6757
815.962	6840
816.103	6779
816.244	6734
816.385	6578
816.526	6597
816.666	6464
816.807	6281
816.948	6422
817.089	6460
817.23	6380
817.371	6353
817.512	6410
817.653	6380
817.793	6350
817.934	6388
818.075	6437
818.216	6475
818.356	6391
818.497	6216
818.638	6159
818.778	6186
818.919	6110
819.06	6102
819.2	6353
819.341	6281
819.481	6357
819.622	6483
819.762	6726
819.903	6688
820.043	6563
820.184	6551
820.324	6544
820.465	6703
820.605	6669
820.746	6612
820.886	6540
821.026	6658
821.167	6715
821.307	6806
821.447	6749
821.588	6635
821.728	6513
821.868	6471
822.008	6334
822.149	6448
822.289	6403
822.429	6144
822.569	6076
822.709	6129
822.849	5958
822.99	5931
823.13	5969
823.27	5965
823.41	5771
823.55	5809
823.69	5756
823.83	5790
823.97	5703
824.11	5558
824.25	5528
824.389	5478
824.529	5585
824.669	5486
824.809	5611
824.949	5649
825.089	5562
825.228	5532
825.368	5410
825.508	5402
825.648	5337
825.787	5383
825.927	5368
826.067	5265
826.206	5277
826.346	5364
826.485	5395
826.625	5448
826.765	5532
826.904	5478
827.044	5246
827.183	5212
827.323	5086
827.462	5231
827.601	5197
827.741	5147
827.88	5273
828.02	5143
828.159	5235
828.298	5299
828.437	5368
828.577	5242
828.716	5448
828.855	5299
828.994	5189
829.134	5151
829.273	5151
829.412	5174
829.551	5109
829.69	5159
829.829	5239
829.968	5372
830.107	5246
830.246	5261
830.385	5197
830.524	5155
830.663	5086
830.802	4938
830.941	4900
831.08	4930
831.219	4942
831.357	4911
831.496	5140
831.635	4927
831.774	4892
831.913	4892
832.051	4717
832.19	4736
832.329	4820
832.467	4653
832.606	4668
832.744	4710
832.883	4672
833.022	4702
833.16	4797
833.299	4850
833.437	4824
833.576	4892
833.714	4824
833.852	4892
833.991	4908
834.129	4908
834.267	4984
834.406	4858
834.544	4980
834.682	4946
834.821	4953
834.959	5181
835.097	5006
835.235	5121
835.373	5056
835.511	5132
835.65	5041
835.788	5071
835.926	4961
836.064	4885
836.202	4930
836.34	5132
836.478	5220
836.615	5132
836.753	5254
836.891	5269
837.029	5204
837.167	5181
837.305	5140
837.443	5151
837.58	5071
837.718	5212
837.856	5216
837.993	5159
838.131	5235
838.269	5147
838.406	5159
838.544	5109
838.681	5045
838.819	4908
838.956	4881
839.094	4862
839.231	4976
839.369	5083
839.506	5433
839.643	5223
839.781	5086
839.918	5006
840.055	5041
840.193	5075
840.33	5067
840.467	5098
840.604	5128
840.742	5402
840.879	5113
841.016	5060
841.153	5117
841.29	5414
841.427	5326
841.564	5311
841.701	5303
841.838	5311
841.975	5246
842.112	5242
842.249	5132
842.385	5090
842.522	5326
842.659	5185
842.796	5140
842.933	5189
843.069	5124
843.206	5170
843.343	5246
843.479	5250
843.616	5181
843.752	5018
843.889	5022
844.025	5223
844.162	5037
844.298	5231
844.435	5102
844.571	5109
844.708	5181
844.844	5265
844.98	5334
845.117	5223
845.253	5094
845.389	5079
845.525	5155
845.661	5166
845.798	4999
845.934	5159
846.07	5037
846.206	5223
846.342	5334
846.478	5140
846.614	5045
846.75	4957
846.886	4946
847.022	5056
847.158	5010
847.294	5064
847.429	5105
847.565	5045
847.701	5322
847.837	4866
847.972	4847
848.108	4965
848.244	4942
848.379	4717
848.515	4721
848.65	4717
848.786	4752
848.921	4752
849.057	4866
849.192	4866
849.328	4881
849.463	4858
849.598	4809
849.734	4812
849.869	4675
850.004	4615
850.14	4660
850.275	4634
850.41	4565
850.545	4561
850.68	4618
850.815	4615
850.95	4618
851.085	4805
851.22	4725
851.355	4618
851.49	4622
851.625	4626
851.76	4634
851.895	4580
852.03	4489
852.165	4634
852.299	4702
852.434	4778
852.569	4797
852.703	4752
852.838	4843
852.973	4957
853.107	4904
853.242	4714
853.376	4675
853.511	4535
853.645	4618
853.78	4797
853.914	4672
854.048	4691
854.183	4599
854.317	4748
854.451	4835
854.585	4691
854.72	4577
854.854	4740
854.988	4538
855.122	4637
855.256	4508
855.39	4653
855.524	4763
855.658	4706
855.792	4733
855.926	4736
856.06	4698
856.194	4752
856.327	4679
856.461	4565
856.595	4592
856.729	4603
856.862	4759
856.996	4675
857.13	4736
857.263	4698
857.397	4809
857.53	4611
857.664	4702
857.797	4752
857.931	4771
858.064	4634
858.197	4725
858.331	4664
858.464	4634
858.597	4493
858.731	4596
858.864	4637
858.997	4645
859.13	4588
859.263	4664
859.396	4691
859.529	4565
859.662	4550
859.795	4535
859.928	4622
860.061	4755
860.194	4767
860.327	4584
860.46	4542
860.592	4672
860.725	4706
860.858	4717
860.99	4599
861.123	4538
861.256	4512
861.388	4599
861.521	5395
861.653	4478
861.786	4493
861.918	4417
862.05	4538
862.183	4554
862.315	4550
862.447	4618
862.58	4535
862.712	4371
862.844	4367
862.976	4504
863.108	4478
863.24	4774
863.372	4333
863.504	4413
863.636	4447
863.768	4451
863.9	4436
864.032	4360
864.164	4447
864.296	4485
864.428	4561
864.559	4542
864.691	4523
864.823	4493
864.954	4500
865.086	4500
865.217	4443
865.349	4451
865.48	4443
865.612	4462
865.743	4622
865.875	4447
866.006	4413
866.137	4481
866.269	4436
866.4	4451
866.531	4402
866.662	4363
866.793	4413
866.924	4440
867.055	4485
867.186	4459
867.317	4436
867.448	4390
867.579	4325
867.71	4363
867.841	4390
867.972	4447
868.103	4462
868.233	4405
868.364	4474
868.495	4489
868.625	4630
868.756	4771
868.886	4630
869.017	4630
869.147	4748
869.278	4759
869.408	4645
869.539	4653
869.669	4687
869.799	4656
869.929	4767
870.06	4702
870.19	4919
870.32	4923
870.45	4942
870.58	5018
870.71	5079
870.84	5143
870.97	4930
871.1	4923
871.23	5155
871.36	5140
871.489	5022
871.619	5045
871.749	5056
871.879	5113
872.008	5223
872.138	5083
872.267	4972
872.397	4847
872.526	4786
872.656	4740
872.785	4854
872.915	4953
873.044	5037
873.173	4934
873.303	4953
873.432	4972
873.561	4923
873.69	4835
873.819	4904
873.948	4919
874.077	4824
874.206	4748
874.335	4793
874.464	4892
874.593	5079
874.722	4953
874.851	5140
874.979	5079
875.108	5010
875.237	4923
875.365	4896
875.494	4885
875.623	5006
875.751	4820
875.88	4889
876.008	5025
876.136	5041
876.265	5193
876.393	5349
876.521	5273
876.65	5254
876.778	5185
876.906	5022
877.034	4980
877.162	4980
877.29	5022
877.418	5018
877.546	5064
877.674	5025
877.802	5010
877.93	5029
878.058	4946
878.185	4889
878.313	4965
878.441	4923
878.568	4820
878.696	4854
878.824	4953
878.951	4991
879.079	5098
879.206	5322
879.333	5121
879.461	4976
879.588	5045
879.715	5151
879.842	5277
879.97	4995
880.097	4740
880.224	4702
880.351	4790
880.478	4820
880.605	4862
880.732	4854
880.859	5102
880.986	4858
881.112	4881
881.239	4782
881.366	4691
881.493	4561
881.619	4584
881.746	4622
881.872	4656
881.999	4634
882.125	4702
882.252	4790
882.378	4767
882.505	4995
882.631	4831
882.757	4664
882.883	4683
883.01	4694
883.136	4679
883.262	4603
883.388	4592
883.514	4801
883.64	4870
883.766	4782
883.892	4683
884.018	4698
884.143	4908
884.269	4980
884.395	4706
884.52	4599
884.646	4546
884.772	4535
884.897	4538
885.023	4645
885.148	4759
885.274	4873
885.399	4820
885.524	4714
885.65	4672
885.775	4694
885.9	4721
886.025	4923
886.15	4782
886.275	4691
886.4	4615
886.525	4694
886.65	4721
886.775	4736
886.9	4873
887.025	5022
887.149	4801
887.274	4637
887.399	4561
887.523	4577
887.648	4603
887.773	4577
887.897	4786
888.021	4767
888.146	4706
888.27	4824
888.395	4843
888.519	4778
888.643	4740
888.767	4782
888.891	4683
889.015	4596
889.139	4710
889.263	4607
889.387	4717
889.511	4835
889.635	4809
889.759	4599
889.883	4653
890.006	4710
890.13	4847
890.254	4645
890.377	4645
890.501	4558
890.624	4459
890.748	4645
890.871	4523
890.995	4428
891.118	4383
891.241	4500
891.364	4569
891.488	4634
891.611	4481
891.734	4508
891.857	4573
891.98	4538
892.103	4645
892.226	4588
892.349	4580
892.471	4413
892.594	4561
892.717	4588
892.839	4565
892.962	4611
893.085	4675
893.207	4611
893.33	4455
893.452	4523
893.575	4672
893.697	4626
893.819	4755
893.941	4843
894.064	4721
894.186	4618
894.308	4538
894.43	4714
894.552	4797
894.674	4733
894.796	4558
894.918	4584
895.04	4497
895.161	4729
895.283	4641
895.405	4592
895.526	4634
895.648	4675
895.769	4748
895.891	4755
896.012	4694
896.134	4748
896.255	4664
896.376	4668
896.498	4592
896.619	4637
896.74	4584
896.861	4641
896.982	4927
897.103	5083
897.224	4816
897.345	4710
897.466	4649
897.587	4714
897.708	4881
897.828	4786
897.949	4679
898.07	4554
898.19	4656
898.311	4831
898.431	4664
898.552	4721
898.672	4820
898.792	4786
898.913	4702
899.033	4599
899.153	4497
899.273	4428
899.393	4512
899.513	4489
899.633	4516
899.753	4535
899.873	4489
899.993	4561
900.113	4523
900.232	4592
900.352	4561
900.472	4470
900.591	4383
900.711	4538
900.83	4417
900.95	4573
901.069	4630
901.189	4599
901.308	4352
901.427	4276
901.546	4360
901.665	4466
901.784	4474
901.904	4371
902.023	4341
902.141	4177
902.26	4181
902.379	4287
902.498	4238
902.617	4227
902.735	4360
902.854	4363
902.973	4371
903.091	4249
903.21	4166
903.328	4265
903.446	4246
903.565	4299
903.683	4310
903.801	4230
903.919	4398
904.038	4390
904.156	4280
904.274	4413
904.392	4375
904.51	4470
904.627	4519
904.745	4527
904.863	4630
904.981	4390
905.098	4356
905.216	4333
905.334	4424
905.451	4459
905.569	4440
905.686	4546
905.803	4569
905.921	4356
906.038	4573
906.155	4459
906.272	4363
906.389	4459
906.506	4348
906.623	4344
906.74	4409
906.857	4329
906.974	4413
907.091	4542
907.208	4668
907.324	4626
907.441	4493
907.557	4306
907.674	4299
907.79	4333
907.907	4367
908.023	4436
908.139	4462
908.256	4436
908.372	4478
908.488	4451
908.604	4341
908.72	4306
908.836	4390
908.952	4379
909.068	4390
909.184	4550
909.3	4508
909.415	4603
909.531	4535
909.647	4375
909.762	4352
909.878	4379
909.993	4417
910.108	4386
910.224	4402
910.339	4485
910.454	4402
910.57	4314
910.685	4337
910.8	4664
910.915	4615
911.03	4443
911.145	4306
911.259	4295
911.374	4390
911.489	4276
911.604	4291
911.718	4200
911.833	4219
911.947	4086
912.062	4044
912.176	4185
912.291	4173
912.405	4276
912.519	4516
912.633	4489
912.748	4405
912.862	4310
912.976	4204
913.09	4128
913.204	4196
913.318	4238
913.431	4348
913.545	4371
913.659	4424
913.772	4371
913.886	4265
914	4211
914.113	4337
914.226	4386
914.34	4337
914.453	4234
914.566	4417
914.68	4322
914.793	4280
914.906	4158
915.019	4105
915.132	4059
915.245	4181
915.358	4223
915.47	4238
915.583	4318
915.696	4341
915.809	4447
915.921	4405
916.034	4223
916.146	4268
916.259	4219
916.371	4363
916.483	4371
916.595	4261
916.708	4341
916.82	4295
916.932	4276
917.044	4306
917.156	4276
917.268	4246
917.38	4265
917.491	4246
917.603	4333
917.715	4417
917.826	4432
917.938	4352
918.049	4261
918.161	4363
918.272	4535
918.384	4512
918.495	4474
918.606	4310
918.717	4253
918.828	4333
918.939	4352
919.05	4257
919.161	4360
919.272	4135
919.383	4204
919.494	4436
919.604	4626
919.715	4363
919.826	4337
919.936	4428
920.047	4459
920.157	4481
920.267	4702
920.378	4535
920.488	4443
920.598	4717
920.708	4885
920.818	4721
920.928	4729
921.038	5003
921.148	4946
921.258	4637
921.368	4588
921.477	4493
921.587	4421
921.697	4310
921.806	4519
921.916	4413
922.025	4265
922.134	4257
922.244	4223
922.353	4329
922.462	4143
922.571	4173
922.68	3991
922.789	3945
922.898	4017
923.007	3964
923.116	4090
923.224	4048
923.333	4067
923.442	4002
923.55	3899
923.659	4032
923.767	4063
923.876	3983
923.984	4166
924.092	4017
924.201	4048
924.309	4093
924.417	4097
924.525	4055
924.633	4082
924.741	4995
924.849	3911
924.956	4166
925.064	3956
925.172	3903
925.279	3930
925.387	4025
925.494	4032
925.602	4207
925.709	4188
925.816	4082
925.924	4086
926.031	4204
926.138	4131
926.245	4207
926.352	4101
926.459	4253
926.566	4322
926.673	4128
926.779	4093
926.886	4097
926.993	4006
927.099	3953
927.206	3907
927.312	3953
927.419	4063
927.525	4006
927.631	4032
927.737	3956
927.843	3953
927.95	3865
928.056	3945
928.162	3975
928.267	4048
928.373	4535
928.479	4078
928.585	3861
928.69	3991
928.796	4059
928.901	3972
929.007	3827
929.112	4029
929.218	3972
929.323	3968
929.428	3930
929.533	4124
929.638	3911
929.743	3953
929.848	4032
929.953	4010
930.058	3896
930.163	3778
930.267	3800
930.372	3945
930.477	3789
930.581	4078
930.685	3937
930.79	3842
930.894	3835
930.998	3880
931.103	4029
931.207	3705
931.311	3679
931.415	3656
931.519	3523
931.623	3530
