Data from test_V78500241_49.txt Node
Date: Fri Mar 25 16:49:20 CST 2022
User: usil
Spectrometer: V785-0024
Trigger mode: 0
Integration Time (sec): 4.000000E-1
Scans to average: 1
Nonlinearity correction enabled: false
Boxcar width: 0
Storing dark spectrum: false
XAxis mode: Wavelengths
Number of Pixels in Spectrum: 1024
>>>>>Begin Spectral Data<<<<<
801.071	8092
801.214	8092
801.356	7955
801.499	7967
801.641	7871
801.783	7860
801.926	8043
802.068	7978
802.211	8062
802.353	8050
802.496	7963
802.638	7989
802.78	7921
802.923	8039
803.065	7909
803.208	7928
803.35	8035
803.492	8088
803.635	8187
803.777	7944
803.919	8069
804.061	8480
804.204	8157
804.346	8100
804.488	7951
804.63	8084
804.773	8024
804.915	8115
805.057	8256
805.199	8229
805.341	8233
805.483	8282
805.626	8301
805.768	8180
805.91	8259
806.052	8221
806.194	8168
806.336	8355
806.478	8081
806.62	8172
806.762	8199
806.904	8286
807.046	8549
807.188	8434
807.33	8301
807.472	8377
807.614	8233
807.756	8153
807.898	8046
808.04	7928
808.182	7974
808.324	7951
808.465	7974
808.607	7974
808.749	8168
808.891	8244
809.033	8324
809.174	8237
809.316	8073
809.458	8024
809.6	7989
809.741	8035
809.883	8035
810.025	8149
810.166	8069
810.308	8081
810.45	8111
810.591	7921
810.733	7734
810.875	7731
811.016	7597
811.158	7548
811.299	7666
811.441	7788
811.582	7769
811.724	7651
811.865	7594
812.007	7677
812.148	7620
812.29	7704
812.431	7780
812.573	7944
812.714	8069
812.855	8180
812.997	8183
813.138	8271
813.279	8244
813.421	8130
813.562	8084
813.703	7883
813.845	7795
813.986	7476
814.127	7316
814.268	7225
814.41	7183
814.551	7213
814.692	7202
814.833	7107
814.974	7133
815.115	7194
815.256	7027
815.397	6920
815.539	6962
815.68	6795
815.821	6760
815.962	6871
816.103	6882
816.244	6814
816.385	6688
816.526	6658
816.666	6486
816.807	6334
816.948	6429
817.089	6528
817.23	6441
817.371	6395
817.512	6509
817.653	6426
817.793	6422
817.934	6475
818.075	6475
818.216	6502
818.356	6464
818.497	6258
818.638	6167
818.778	6175
818.919	6266
819.06	6194
819.2	6338
819.341	6395
819.481	6376
819.622	6608
819.762	6791
819.903	6730
820.043	6646
820.184	6589
820.324	6589
820.465	6677
820.605	6719
820.746	6673
820.886	6525
821.026	6673
821.167	6700
821.307	6856
821.447	6787
821.588	6658
821.728	6612
821.868	6593
822.008	6372
822.149	6372
822.289	6369
822.429	6220
822.569	6167
822.709	6140
822.849	5901
822.99	5885
823.13	5999
823.27	5954
823.41	5832
823.55	5832
823.69	5817
823.83	5783
823.97	5688
824.11	5547
824.25	5566
824.389	5596
824.529	5638
824.669	5554
824.809	5649
824.949	5710
825.089	5668
825.228	5619
825.368	5459
825.508	5364
825.648	5372
825.787	5433
825.927	5425
826.067	5318
826.206	5357
826.346	5406
826.485	5440
826.625	5452
826.765	5585
826.904	5509
827.044	5284
827.183	5269
827.323	5162
827.462	5258
827.601	5235
827.741	5246
827.88	5299
828.02	5162
828.159	5246
828.298	5330
828.437	5376
828.577	5353
828.716	5505
828.855	5379
828.994	5197
829.134	5181
829.273	5174
829.412	5159
829.551	5220
829.69	5185
829.829	5258
829.968	5368
830.107	5288
830.246	5265
830.385	5185
830.524	5178
830.663	5098
830.802	5003
830.941	4934
831.08	4900
831.219	5025
831.357	5018
831.496	5208
831.635	4938
831.774	4930
831.913	4896
832.051	4759
832.19	4767
832.329	4854
832.467	4717
832.606	4641
832.744	4771
832.883	4733
833.022	4778
833.16	4824
833.299	4911
833.437	4881
833.576	4889
833.714	4908
833.852	4911
833.991	4870
834.129	4965
834.267	4946
834.406	4980
834.544	4999
834.682	5056
834.821	5014
834.959	5189
835.097	5071
835.235	5216
835.373	5109
835.511	5140
835.65	5048
835.788	5022
835.926	4904
836.064	4870
836.202	4961
836.34	5170
836.478	5280
836.615	5128
836.753	5258
836.891	5311
837.029	5254
837.167	5216
837.305	5193
837.443	5170
837.58	5121
837.718	5265
837.856	5212
837.993	5185
838.131	5246
838.269	5197
838.406	5227
838.544	5220
838.681	5060
838.819	5006
838.956	4961
839.094	4938
839.231	5041
839.369	5105
839.506	5414
839.643	5337
839.781	5071
839.918	5056
840.055	5109
840.193	5181
840.33	5132
840.467	5151
840.604	5201
840.742	5436
840.879	5083
841.016	5102
841.153	5124
841.29	5387
841.427	5357
841.564	5303
841.701	5410
841.838	5292
841.975	5284
842.112	5280
842.249	5162
842.385	5121
842.522	5341
842.659	5166
842.796	5170
842.933	5223
843.069	5162
843.206	5155
843.343	5288
843.479	5269
843.616	5296
843.752	5075
843.889	5037
844.025	5231
844.162	5010
844.298	5212
844.435	5102
844.571	5117
844.708	5242
844.844	5318
844.98	5372
845.117	5311
845.253	5151
845.389	5102
845.525	5178
845.661	5231
845.798	4999
845.934	5170
846.07	5075
846.206	5223
846.342	5265
846.478	5197
846.614	5060
846.75	4942
846.886	4984
847.022	5117
847.158	5037
847.294	5105
847.429	5128
847.565	5117
847.701	5391
847.837	4908
847.972	4847
848.108	5037
848.244	4930
848.379	4790
848.515	4744
848.65	4733
848.786	4812
848.921	4748
849.057	4877
849.192	4934
849.328	4816
849.463	4858
849.598	4820
849.734	4790
849.869	4660
850.004	4675
850.14	4687
850.275	4634
850.41	4561
850.545	4561
850.68	4580
850.815	4683
850.95	4637
851.085	4843
851.22	4767
851.355	4691
851.49	4603
851.625	4698
851.76	4672
851.895	4599
852.03	4550
852.165	4672
852.299	4702
852.434	4828
852.569	4752
852.703	4850
852.838	4858
852.973	4995
853.107	4934
853.242	4782
853.376	4683
853.511	4565
853.645	4687
853.78	4873
853.914	4698
854.048	4694
854.183	4721
854.317	4778
854.451	4915
854.585	4672
854.72	4694
854.854	4755
854.988	4596
855.122	4679
855.256	4558
855.39	4748
855.524	4839
855.658	4835
855.792	4771
855.926	4740
856.06	4763
856.194	4854
856.327	4710
856.461	4641
856.595	4675
856.729	4649
856.862	4816
856.996	4801
857.13	4805
857.263	4831
857.397	4843
857.53	4740
857.664	4767
857.797	4870
857.931	4854
858.064	4782
858.197	4816
858.331	4736
858.464	4675
858.597	4611
858.731	4721
858.864	4740
858.997	4656
859.13	4767
859.263	4786
859.396	4797
859.529	4672
859.662	4679
859.795	4634
859.928	4687
860.061	4782
860.194	4847
860.327	4683
860.46	4683
860.592	4790
860.725	4828
860.858	4809
860.99	4744
861.123	4596
861.256	4599
861.388	4702
861.521	5311
861.653	4519
861.786	4500
861.918	4508
862.05	4588
862.183	4592
862.315	4637
862.447	4748
862.58	4573
862.712	4474
862.844	4421
862.976	4546
863.108	4542
863.24	4927
863.372	4417
863.504	4497
863.636	4470
863.768	4538
863.9	4500
864.032	4402
864.164	4508
864.296	4531
864.428	4569
864.559	4611
864.691	4603
864.823	4558
864.954	4550
865.086	4565
865.217	4535
865.349	4493
865.48	4569
865.612	4565
865.743	4725
865.875	4573
866.006	4466
866.137	4580
866.269	4565
866.4	4504
866.531	4459
866.662	4413
866.793	4493
866.924	4527
867.055	4577
867.186	4554
867.317	4485
867.448	4436
867.579	4516
867.71	4421
867.841	4504
867.972	4523
868.103	4493
868.233	4523
868.364	4535
868.495	4550
868.625	4752
868.756	4828
868.886	4675
869.017	4733
869.147	4850
869.278	4847
869.408	4702
869.539	4721
869.669	4782
869.799	4748
869.929	4847
870.06	4778
870.19	5025
870.32	4984
870.45	5033
870.58	5056
870.71	5170
870.84	5162
870.97	5060
871.1	4965
871.23	5223
871.36	5181
871.489	5090
871.619	5162
871.749	5166
871.879	5208
872.008	5227
872.138	5162
872.267	5083
872.397	4904
872.526	4911
872.656	4793
872.785	4866
872.915	5075
873.044	5132
873.173	5041
873.303	5010
873.432	5006
873.561	5003
873.69	4881
873.819	4915
873.948	4984
874.077	4885
874.206	4828
874.335	4824
874.464	5003
874.593	5162
874.722	5018
874.851	5128
874.979	5075
875.108	5067
875.237	4949
875.365	4923
875.494	4942
875.623	5018
875.751	4919
875.88	4968
876.008	5037
876.136	5060
876.265	5235
876.393	5398
876.521	5322
876.65	5258
876.778	5208
876.906	5147
877.034	5083
877.162	5113
877.29	5022
877.418	5113
877.546	5128
877.674	5094
877.802	5143
877.93	5060
878.058	5018
878.185	4946
878.313	5045
878.441	4987
878.568	4843
878.696	4904
878.824	5006
878.951	5045
879.079	5242
879.206	5383
879.333	5147
879.461	5067
879.588	5064
879.715	5216
879.842	5284
879.97	5098
880.097	4873
880.224	4843
880.351	4850
880.478	4881
880.605	4854
880.732	4847
880.859	5170
880.986	4942
881.112	4957
881.239	4850
881.366	4748
881.493	4694
881.619	4668
881.746	4698
881.872	4698
881.999	4740
882.125	4752
882.252	4866
882.378	4847
882.505	5045
882.631	4881
882.757	4736
882.883	4805
883.01	4831
883.136	4736
883.262	4687
883.388	4694
883.514	4896
883.64	4881
883.766	4835
883.892	4721
884.018	4771
884.143	4949
884.269	5086
884.395	4717
884.52	4740
884.646	4672
884.772	4672
884.897	4660
885.023	4740
885.148	4850
885.274	4946
885.399	4881
885.524	4828
885.65	4790
885.775	4850
885.9	4740
886.025	4919
886.15	4816
886.275	4786
886.4	4672
886.525	4816
886.65	4721
886.775	4793
886.9	4961
887.025	5143
887.149	4839
887.274	4683
887.399	4698
887.523	4656
887.648	4679
887.773	4698
887.897	4824
888.021	4835
888.146	4733
888.27	4866
888.395	5018
888.519	4892
888.643	4862
888.767	4923
888.891	4767
889.015	4630
889.139	4752
889.263	4660
889.387	4847
889.511	4908
889.635	4862
889.759	4706
889.883	4710
890.006	4778
890.13	4831
890.254	4664
890.377	4740
890.501	4577
890.624	4611
890.748	4782
890.871	4607
890.995	4474
891.118	4497
891.241	4565
891.364	4645
891.488	4687
891.611	4561
891.734	4603
891.857	4706
891.98	4626
892.103	4710
892.226	4618
892.349	4531
892.471	4500
892.594	4592
892.717	4710
892.839	4573
892.962	4641
893.085	4736
893.207	4634
893.33	4519
893.452	4592
893.575	4736
893.697	4649
893.819	4847
893.941	4915
894.064	4866
894.186	4679
894.308	4668
894.43	4809
894.552	4881
894.674	4809
894.796	4615
894.918	4691
895.04	4622
895.161	4774
895.283	4694
895.405	4649
895.526	4725
895.648	4771
895.769	4790
895.891	4755
896.012	4748
896.134	4786
896.255	4733
896.376	4714
896.498	4668
896.619	4752
896.74	4679
896.861	4702
896.982	4984
897.103	5143
897.224	4870
897.345	4831
897.466	4733
897.587	4850
897.708	4881
897.828	4847
897.949	4755
898.07	4573
898.19	4721
898.311	4854
898.431	4714
898.552	4809
898.672	4900
898.792	4816
898.913	4831
899.033	4675
899.153	4611
899.273	4489
899.393	4558
899.513	4577
899.633	4580
899.753	4626
899.873	4603
899.993	4634
900.113	4599
900.232	4702
900.352	4580
900.472	4538
900.591	4451
900.711	4558
900.83	4474
900.95	4679
901.069	4736
901.189	4618
901.308	4413
901.427	4371
901.546	4394
901.665	4519
901.784	4538
901.904	4462
902.023	4360
902.141	4257
902.26	4166
902.379	4379
902.498	4310
902.617	4242
902.735	4398
902.854	4432
902.973	4421
903.091	4295
903.21	4238
903.328	4405
903.446	4322
903.565	4341
903.683	4383
903.801	4314
903.919	4455
904.038	4447
904.156	4386
904.274	4546
904.392	4436
904.51	4508
904.627	4535
904.745	4656
904.863	4683
904.981	4474
905.098	4348
905.216	4413
905.334	4504
905.451	4451
905.569	4497
905.686	4664
905.803	4607
905.921	4481
906.038	4626
906.155	4523
906.272	4462
906.389	4527
906.506	4413
906.623	4432
906.74	4462
906.857	4402
906.974	4440
907.091	4641
907.208	4744
907.324	4653
907.441	4573
907.557	4417
907.674	4390
907.79	4356
907.907	4440
908.023	4542
908.139	4500
908.256	4512
908.372	4523
908.488	4466
908.604	4424
908.72	4398
908.836	4405
908.952	4455
909.068	4478
909.184	4603
909.3	4519
909.415	4630
909.531	4596
909.647	4413
909.762	4493
909.878	4356
909.993	4455
910.108	4493
910.224	4424
910.339	4565
910.454	4436
910.57	4386
910.685	4375
910.8	4721
910.915	4641
911.03	4546
911.145	4386
911.259	4375
911.374	4402
911.489	4352
911.604	4325
911.718	4196
911.833	4230
911.947	4101
912.062	4067
912.176	4257
912.291	4295
912.405	4329
912.519	4542
912.633	4546
912.748	4409
912.862	4363
912.976	4280
913.09	4158
913.204	4207
913.318	4337
913.431	4428
913.545	4409
913.659	4481
913.772	4421
913.886	4303
914	4303
914.113	4462
914.226	4504
914.34	4451
914.453	4284
914.566	4466
914.68	4402
914.793	4390
914.906	4287
915.019	4181
915.132	4109
915.245	4261
915.358	4276
915.47	4287
915.583	4318
915.696	4348
915.809	4508
915.921	4440
916.034	4287
916.146	4299
916.259	4284
916.371	4432
916.483	4409
916.595	4322
916.708	4390
916.82	4394
916.932	4352
917.044	4352
917.156	4379
917.268	4299
917.38	4329
917.491	4337
917.603	4390
917.715	4466
917.826	4470
917.938	4421
918.049	4287
918.161	4443
918.272	4577
918.384	4580
918.495	4500
918.606	4356
918.717	4249
918.828	4390
918.939	4413
919.05	4348
919.161	4356
919.272	4211
919.383	4299
919.494	4554
919.604	4687
919.715	4470
919.826	4428
919.936	4474
920.047	4561
920.157	4527
920.267	4774
920.378	4599
920.488	4550
920.598	4793
920.708	4949
920.818	4790
920.928	4790
921.038	4987
921.148	4934
921.258	4630
921.368	4622
921.477	4546
921.587	4493
921.697	4405
921.806	4573
921.916	4527
922.025	4299
922.134	4310
922.244	4291
922.353	4356
922.462	4265
922.571	4204
922.68	4059
922.789	4071
922.898	4055
923.007	4051
923.116	4188
923.224	4093
923.333	4158
923.442	4051
923.55	4017
923.659	4090
923.767	4162
923.876	4090
923.984	4181
924.092	4029
924.201	4147
924.309	4169
924.417	4234
924.525	4139
924.633	4154
924.741	5121
924.849	3979
924.956	4192
925.064	4010
925.172	3953
925.279	4025
925.387	4112
925.494	4147
925.602	4299
925.709	4322
925.816	4139
925.924	4207
926.031	4303
926.138	4234
926.245	4276
926.352	4166
926.459	4337
926.566	4398
926.673	4242
926.779	4135
926.886	4185
926.993	4067
927.099	4097
927.206	4048
927.312	4029
927.419	4158
927.525	4116
927.631	4173
927.737	4071
927.843	4029
927.95	3899
928.056	4013
928.162	4055
928.267	4166
928.373	4740
928.479	4185
928.585	3968
928.69	4097
928.796	4192
928.901	4059
929.007	3915
929.112	4116
929.218	4013
929.323	4029
929.428	4032
929.533	4147
929.638	3994
929.743	4051
929.848	4086
929.953	4090
930.058	4040
930.163	3861
930.267	3880
930.372	4059
930.477	3876
930.581	4128
930.685	4025
930.79	3918
930.894	4002
930.998	3972
931.103	4162
931.207	3835
931.311	3766
931.415	3804
931.519	3614
931.623	3648
