Data from test_V78500241_911.txt Node
Date: Fri Mar 25 16:55:20 CST 2022
User: usil
Spectrometer: V785-0024
Trigger mode: 0
Integration Time (sec): 4.000000E-1
Scans to average: 1
Nonlinearity correction enabled: false
Boxcar width: 0
Storing dark spectrum: false
XAxis mode: Wavelengths
Number of Pixels in Spectrum: 1024
>>>>>Begin Spectral Data<<<<<
801.071	8008
801.214	8100
801.356	7879
801.499	7849
801.641	7856
801.783	7883
801.926	7989
802.068	7967
802.211	7936
802.353	7967
802.496	7871
802.638	7909
802.78	7921
802.923	7989
803.065	7902
803.208	7845
803.35	8001
803.492	8134
803.635	8191
803.777	8039
803.919	8107
804.061	8381
804.204	8115
804.346	8024
804.488	7982
804.63	8081
804.773	7978
804.915	8107
805.057	8320
805.199	8191
805.341	8149
805.483	8214
805.626	8168
805.768	8111
805.91	8149
806.052	8199
806.194	8008
806.336	8313
806.478	8065
806.62	8054
806.762	8119
806.904	8256
807.046	8454
807.188	8370
807.33	8343
807.472	8240
807.614	8084
807.756	8126
807.898	8008
808.04	7940
808.182	7902
808.324	7890
808.465	7852
808.607	7967
808.749	8092
808.891	8100
809.033	8301
809.174	8252
809.316	8058
809.458	7986
809.6	7951
809.741	8062
809.883	7978
810.025	8138
810.166	8088
810.308	7986
810.45	8008
810.591	7868
810.733	7715
810.875	7651
811.016	7590
811.158	7487
811.299	7605
811.441	7693
811.582	7727
811.724	7586
811.865	7540
812.007	7575
812.148	7609
812.29	7693
812.431	7693
812.573	7856
812.714	7974
812.855	8138
812.997	8210
813.138	8286
813.279	8134
813.421	8100
813.562	8031
813.703	7925
813.845	7772
813.986	7487
814.127	7316
814.268	7232
814.41	7225
814.551	7179
814.692	7187
814.833	7095
814.974	7099
815.115	7122
815.256	6924
815.397	6951
815.539	6962
815.68	6909
815.821	6818
815.962	6939
816.103	6814
816.244	6776
816.385	6646
816.526	6688
816.666	6547
816.807	6331
816.948	6418
817.089	6509
817.23	6422
817.371	6422
817.512	6433
817.653	6486
817.793	6372
817.934	6418
818.075	6479
818.216	6464
818.356	6418
818.497	6266
818.638	6133
818.778	6224
818.919	6201
819.06	6213
819.2	6323
819.341	6334
819.481	6426
819.622	6525
819.762	6738
819.903	6703
820.043	6669
820.184	6654
820.324	6593
820.465	6719
820.605	6722
820.746	6684
820.886	6502
821.026	6662
821.167	6692
821.307	6791
821.447	6791
821.588	6654
821.728	6585
821.868	6532
822.008	6331
822.149	6403
822.289	6304
822.429	6205
822.569	6117
822.709	6201
822.849	5973
822.99	5946
823.13	5939
823.27	5992
823.41	5817
823.55	5771
823.69	5798
823.83	5824
823.97	5665
824.11	5528
824.25	5497
824.389	5592
824.529	5589
824.669	5577
824.809	5684
824.949	5668
825.089	5630
825.228	5630
825.368	5376
825.508	5357
825.648	5376
825.787	5387
825.927	5402
826.067	5326
826.206	5337
826.346	5421
826.485	5452
826.625	5440
826.765	5589
826.904	5505
827.044	5326
827.183	5223
827.323	5166
827.462	5239
827.601	5197
827.741	5170
827.88	5235
828.02	5147
828.159	5239
828.298	5299
828.437	5425
828.577	5315
828.716	5532
828.855	5326
828.994	5201
829.134	5185
829.273	5193
829.412	5166
829.551	5140
829.69	5193
829.829	5265
829.968	5341
830.107	5273
830.246	5269
830.385	5235
830.524	5174
830.663	5102
830.802	4999
830.941	4900
831.08	4850
831.219	4965
831.357	4984
831.496	5128
831.635	4957
831.774	4889
831.913	4885
832.051	4740
832.19	4755
832.329	4870
832.467	4767
832.606	4634
832.744	4763
832.883	4740
833.022	4725
833.16	4839
833.299	4877
833.437	4881
833.576	4835
833.714	4911
833.852	4904
833.991	4900
834.129	4911
834.267	4915
834.406	4858
834.544	5029
834.682	5018
834.821	5003
834.959	5231
835.097	5006
835.235	5159
835.373	5094
835.511	5124
835.65	5048
835.788	5029
835.926	4900
836.064	4896
836.202	4946
836.34	5208
836.478	5242
836.615	5159
836.753	5258
836.891	5318
837.029	5212
837.167	5223
837.305	5178
837.443	5208
837.58	5083
837.718	5265
837.856	5189
837.993	5136
838.131	5193
838.269	5212
838.406	5174
838.544	5136
838.681	5064
838.819	5003
838.956	4889
839.094	4919
839.231	5014
839.369	5102
839.506	5497
839.643	5303
839.781	5067
839.918	4957
840.055	5124
840.193	5083
840.33	5121
840.467	5147
840.604	5197
840.742	5429
840.879	5109
841.016	5079
841.153	5166
841.29	5383
841.427	5368
841.564	5337
841.701	5376
841.838	5284
841.975	5261
842.112	5341
842.249	5212
842.385	5193
842.522	5364
842.659	5151
842.796	5151
842.933	5280
843.069	5113
843.206	5162
843.343	5246
843.479	5250
843.616	5261
843.752	5056
843.889	5079
844.025	5220
844.162	5071
844.298	5277
844.435	5083
844.571	5086
844.708	5197
844.844	5299
844.98	5353
845.117	5299
845.253	5193
845.389	5124
845.525	5223
845.661	5166
845.798	5041
845.934	5128
846.07	5025
846.206	5220
846.342	5330
846.478	5231
846.614	5014
846.75	4957
846.886	4961
847.022	5162
847.158	5056
847.294	5090
847.429	5132
847.565	5052
847.701	5315
847.837	4873
847.972	4850
848.108	4984
848.244	4938
848.379	4816
848.515	4755
848.65	4752
848.786	4793
848.921	4755
849.057	4949
849.192	4919
849.328	4790
849.463	4858
849.598	4767
849.734	4774
849.869	4721
850.004	4668
850.14	4706
850.275	4596
850.41	4580
850.545	4523
850.68	4626
850.815	4622
850.95	4668
851.085	4862
851.22	4771
851.355	4641
851.49	4687
851.625	4641
851.76	4683
851.895	4588
852.03	4531
852.165	4698
852.299	4733
852.434	4790
852.569	4763
852.703	4755
852.838	4793
852.973	4919
853.107	4942
853.242	4748
853.376	4675
853.511	4577
853.645	4603
853.78	4816
853.914	4683
854.048	4694
854.183	4664
854.317	4694
854.451	4915
854.585	4717
854.72	4637
854.854	4740
854.988	4569
855.122	4679
855.256	4554
855.39	4702
855.524	4755
855.658	4721
855.792	4691
855.926	4717
856.06	4797
856.194	4831
856.327	4679
856.461	4588
856.595	4672
856.729	4641
856.862	4740
856.996	4710
857.13	4714
857.263	4774
857.397	4858
857.53	4691
857.664	4717
857.797	4778
857.931	4774
858.064	4694
858.197	4793
858.331	4637
858.464	4622
858.597	4535
858.731	4622
858.864	4641
858.997	4641
859.13	4645
859.263	4725
859.396	4721
859.529	4580
859.662	4573
859.795	4565
859.928	4649
860.061	4763
860.194	4828
860.327	4611
860.46	4577
860.592	4733
860.725	4771
860.858	4759
860.99	4588
861.123	4550
861.256	4565
861.388	4577
861.521	5193
861.653	4519
861.786	4489
861.918	4470
862.05	4523
862.183	4493
862.315	4637
862.447	4656
862.58	4596
862.712	4402
862.844	4268
862.976	4470
863.108	4474
863.24	4748
863.372	4322
863.504	4417
863.636	4379
863.768	4523
863.9	4440
864.032	4333
864.164	4424
864.296	4519
864.428	4599
864.559	4596
864.691	4523
864.823	4516
864.954	4489
865.086	4508
865.217	4436
865.349	4462
865.48	4459
865.612	4470
865.743	4611
865.875	4451
866.006	4440
866.137	4417
866.269	4440
866.4	4432
866.531	4451
866.662	4409
866.793	4428
866.924	4379
867.055	4466
867.186	4409
867.317	4424
867.448	4386
867.579	4394
867.71	4421
867.841	4390
867.972	4489
868.103	4417
868.233	4478
868.364	4447
868.495	4474
868.625	4668
868.756	4717
868.886	4569
869.017	4584
869.147	4820
869.278	4790
869.408	4641
869.539	4656
869.669	4706
869.799	4660
869.929	4744
870.06	4782
870.19	4968
870.32	4900
870.45	4946
870.58	5060
870.71	5102
870.84	5155
870.97	4919
871.1	4949
871.23	5075
871.36	5147
871.489	4995
871.619	5029
871.749	5025
871.879	5098
872.008	5197
872.138	5124
872.267	4946
872.397	4877
872.526	4805
872.656	4740
872.785	4835
872.915	4938
873.044	5045
873.173	4900
873.303	4919
873.432	4930
873.561	4881
873.69	4923
873.819	4885
873.948	4923
874.077	4831
874.206	4793
874.335	4854
874.464	4930
874.593	5094
874.722	4995
874.851	5102
874.979	5086
875.108	4999
875.237	4908
875.365	4908
875.494	4900
875.623	4980
875.751	4843
875.88	4881
876.008	4976
876.136	5037
876.265	5212
876.393	5391
876.521	5261
876.65	5227
876.778	5166
876.906	5022
877.034	5029
877.162	5006
877.29	4987
877.418	5018
877.546	5010
877.674	5041
877.802	5045
877.93	4999
878.058	4885
878.185	4847
878.313	4984
878.441	4949
878.568	4767
878.696	4824
878.824	4961
878.951	5018
879.079	5124
879.206	5292
879.333	5128
879.461	4980
879.588	4972
879.715	5147
879.842	5261
879.97	5071
880.097	4797
880.224	4702
880.351	4816
880.478	4816
880.605	4805
880.732	4805
880.859	5067
880.986	4885
881.112	4904
881.239	4790
881.366	4710
881.493	4634
881.619	4584
881.746	4599
881.872	4603
881.999	4634
882.125	4679
882.252	4721
882.378	4843
882.505	4953
882.631	4809
882.757	4653
882.883	4717
883.01	4744
883.136	4668
883.262	4603
883.388	4630
883.514	4778
883.64	4885
883.766	4801
883.892	4683
884.018	4714
884.143	4858
884.269	4995
884.395	4694
884.52	4588
884.646	4618
884.772	4588
884.897	4546
885.023	4603
885.148	4736
885.274	4847
885.399	4790
885.524	4717
885.65	4660
885.775	4767
885.9	4706
886.025	4816
886.15	4797
886.275	4675
886.4	4687
886.525	4698
886.65	4660
886.775	4717
886.9	4919
887.025	5052
887.149	4809
887.274	4649
887.399	4596
887.523	4626
887.648	4592
887.773	4584
887.897	4767
888.021	4755
888.146	4649
888.27	4831
888.395	4870
888.519	4820
888.643	4843
888.767	4843
888.891	4698
889.015	4611
889.139	4626
889.263	4596
889.387	4748
889.511	4866
889.635	4778
889.759	4645
889.883	4668
890.006	4729
890.13	4862
890.254	4668
890.377	4675
890.501	4527
890.624	4569
890.748	4618
890.871	4531
890.995	4440
891.118	4371
891.241	4542
891.364	4497
891.488	4580
891.611	4542
891.734	4500
891.857	4622
891.98	4546
892.103	4618
892.226	4569
892.349	4554
892.471	4421
892.594	4592
892.717	4546
892.839	4577
892.962	4558
893.085	4618
893.207	4622
893.33	4474
893.452	4516
893.575	4668
893.697	4573
893.819	4786
893.941	4828
894.064	4759
894.186	4542
894.308	4561
894.43	4717
894.552	4831
894.674	4786
894.796	4546
894.918	4618
895.04	4565
895.161	4691
895.283	4588
895.405	4523
895.526	4675
895.648	4660
895.769	4672
895.891	4729
896.012	4744
896.134	4679
896.255	4615
896.376	4618
896.498	4615
896.619	4683
896.74	4607
896.861	4630
896.982	4949
897.103	5094
897.224	4862
897.345	4725
897.466	4687
897.587	4706
897.708	4805
897.828	4801
897.949	4672
898.07	4561
898.19	4634
898.311	4847
898.431	4618
898.552	4736
898.672	4820
898.792	4824
898.913	4733
899.033	4645
899.153	4481
899.273	4417
899.393	4478
899.513	4516
899.633	4497
899.753	4577
899.873	4481
899.993	4565
900.113	4512
900.232	4546
900.352	4504
900.472	4462
900.591	4386
900.711	4497
900.83	4440
900.95	4626
901.069	4729
901.189	4558
901.308	4352
901.427	4325
901.546	4337
901.665	4504
901.784	4478
901.904	4379
902.023	4329
902.141	4192
902.26	4147
902.379	4341
902.498	4196
902.617	4234
902.735	4367
902.854	4386
902.973	4314
903.091	4223
903.21	4181
903.328	4303
903.446	4291
903.565	4257
903.683	4390
903.801	4272
903.919	4363
904.038	4375
904.156	4322
904.274	4421
904.392	4386
904.51	4447
904.627	4489
904.745	4535
904.863	4637
904.981	4424
905.098	4322
905.216	4318
905.334	4440
905.451	4451
905.569	4424
905.686	4531
905.803	4599
905.921	4367
906.038	4538
906.155	4470
906.272	4367
906.389	4421
906.506	4337
906.623	4402
906.74	4356
906.857	4325
906.974	4371
907.091	4546
907.208	4710
907.324	4618
907.441	4466
907.557	4352
907.674	4344
907.79	4318
907.907	4424
908.023	4474
908.139	4455
908.256	4413
908.372	4474
908.488	4508
908.604	4344
908.72	4310
908.836	4371
908.952	4402
909.068	4409
909.184	4584
909.3	4466
909.415	4618
909.531	4592
909.647	4348
909.762	4329
909.878	4318
909.993	4371
910.108	4417
910.224	4386
910.339	4493
910.454	4390
910.57	4360
910.685	4287
910.8	4630
910.915	4573
911.03	4489
911.145	4276
911.259	4325
911.374	4360
911.489	4291
911.604	4303
911.718	4166
911.833	4143
911.947	4074
912.062	4025
912.176	4211
912.291	4253
912.405	4291
912.519	4459
912.633	4485
912.748	4329
912.862	4272
912.976	4177
913.09	4048
913.204	4147
913.318	4215
913.431	4314
913.545	4329
913.659	4405
913.772	4363
913.886	4230
914	4272
914.113	4344
914.226	4428
914.34	4394
914.453	4268
914.566	4443
914.68	4363
914.793	4318
914.906	4207
915.019	4109
915.132	4048
915.245	4166
915.358	4169
915.47	4230
915.583	4249
915.696	4291
915.809	4421
915.921	4386
916.034	4230
916.146	4257
916.259	4246
916.371	4417
916.483	4379
916.595	4253
916.708	4268
916.82	4337
916.932	4322
917.044	4303
917.156	4310
917.268	4227
917.38	4276
917.491	4287
917.603	4356
917.715	4436
917.826	4390
917.938	4360
918.049	4261
918.161	4386
918.272	4497
918.384	4523
918.495	4485
918.606	4295
918.717	4242
918.828	4314
918.939	4390
919.05	4257
919.161	4265
919.272	4128
919.383	4207
919.494	4455
919.604	4653
919.715	4462
919.826	4322
919.936	4371
920.047	4489
920.157	4504
920.267	4721
920.378	4519
920.488	4512
920.598	4683
920.708	4892
920.818	4733
920.928	4752
921.038	4984
921.148	4934
921.258	4622
921.368	4531
921.477	4489
921.587	4493
921.697	4348
921.806	4527
921.916	4440
922.025	4276
922.134	4238
922.244	4227
922.353	4265
922.462	4154
922.571	4128
922.68	4010
922.789	3975
922.898	4025
923.007	3960
923.116	4086
923.224	4044
923.333	4010
923.442	3987
923.55	3998
923.659	4036
923.767	4074
923.876	3983
923.984	4154
924.092	3949
924.201	4025
924.309	4071
924.417	4097
924.525	4044
924.633	4097
924.741	4820
924.849	3907
924.956	4158
925.064	3956
925.172	3884
925.279	3949
925.387	4067
925.494	4017
925.602	4188
925.709	4162
925.816	4002
925.924	4074
926.031	4200
926.138	4162
926.245	4196
926.352	4074
926.459	4242
926.566	4287
926.673	4162
926.779	4063
926.886	4059
926.993	3922
927.099	3934
927.206	3918
927.312	3937
927.419	4067
927.525	3991
927.631	4074
927.737	3972
927.843	3903
927.95	3857
928.056	3949
928.162	3979
928.267	4032
928.373	4561
928.479	4150
928.585	3835
928.69	3987
928.796	4086
928.901	3964
929.007	3838
929.112	4013
929.218	3960
929.323	3922
929.428	3937
929.533	4071
929.638	3915
929.743	3941
929.848	4010
929.953	4002
930.058	3934
930.163	3789
930.267	3789
930.372	3968
930.477	3759
930.581	4021
930.685	3918
930.79	3808
930.894	3861
930.998	3823
931.103	4025
931.207	3717
931.311	3675
931.415	3675
931.519	3504
931.623	3561
