Data from test_V78500241_947.txt Node
Date: Fri Mar 25 16:55:35 CST 2022
User: usil
Spectrometer: V785-0024
Trigger mode: 0
Integration Time (sec): 4.000000E-1
Scans to average: 1
Nonlinearity correction enabled: false
Boxcar width: 0
Storing dark spectrum: false
XAxis mode: Wavelengths
Number of Pixels in Spectrum: 1024
>>>>>Begin Spectral Data<<<<<
801.071	8119
801.214	8008
801.356	7921
801.499	7837
801.641	7807
801.783	7776
801.926	7967
802.068	7845
802.211	7940
802.353	8020
802.496	7784
802.638	7890
802.78	7811
802.923	7944
803.065	7967
803.208	7860
803.35	7993
803.492	8073
803.635	8191
803.777	7982
803.919	8126
804.061	8381
804.204	8149
804.346	8043
804.488	7963
804.63	8062
804.773	8005
804.915	8092
805.057	8240
805.199	8084
805.341	8214
805.483	8305
805.626	8229
805.768	8157
805.91	8172
806.052	8180
806.194	8031
806.336	8324
806.478	8161
806.62	8092
806.762	8138
806.904	8267
807.046	8408
807.188	8313
807.33	8301
807.472	8336
807.614	8115
807.756	8142
807.898	8012
808.04	7856
808.182	7871
808.324	7837
808.465	7879
808.607	8020
808.749	8100
808.891	8172
809.033	8317
809.174	8202
809.316	8058
809.458	8054
809.6	7883
809.741	8027
809.883	8092
810.025	8062
810.166	7997
810.308	8031
810.45	8035
810.591	7913
810.733	7731
810.875	7590
811.016	7502
811.158	7464
811.299	7636
811.441	7689
811.582	7666
811.724	7613
811.865	7499
812.007	7563
812.148	7620
812.29	7647
812.431	7700
812.573	7841
812.714	8016
812.855	8119
812.997	8210
813.138	8267
813.279	8164
813.421	8096
813.562	7963
813.703	7883
813.845	7776
813.986	7476
814.127	7255
814.268	7187
814.41	7122
814.551	7160
814.692	7202
814.833	7072
814.974	7145
815.115	7118
815.256	6954
815.397	6954
815.539	6943
815.68	6905
815.821	6814
815.962	6848
816.103	6757
816.244	6719
816.385	6635
816.526	6601
816.666	6513
816.807	6300
816.948	6395
817.089	6502
817.23	6391
817.371	6353
817.512	6399
817.653	6391
817.793	6376
817.934	6399
818.075	6448
818.216	6452
818.356	6372
818.497	6243
818.638	6110
818.778	6186
818.919	6152
819.06	6136
819.2	6289
819.341	6281
819.481	6357
819.622	6563
819.762	6673
819.903	6711
820.043	6582
820.184	6555
820.324	6589
820.465	6692
820.605	6639
820.746	6669
820.886	6460
821.026	6631
821.167	6726
821.307	6814
821.447	6798
821.588	6658
821.728	6563
821.868	6517
822.008	6334
822.149	6331
822.289	6342
822.429	6129
822.569	6102
822.709	6117
822.849	5901
822.99	5870
823.13	5897
823.27	5931
823.41	5794
823.55	5756
823.69	5764
823.83	5756
823.97	5653
824.11	5562
824.25	5554
824.389	5554
824.529	5547
824.669	5528
824.809	5615
824.949	5649
825.089	5611
825.228	5551
825.368	5357
825.508	5299
825.648	5330
825.787	5395
825.927	5318
826.067	5250
826.206	5254
826.346	5414
826.485	5406
826.625	5425
826.765	5543
826.904	5429
827.044	5197
827.183	5220
827.323	5105
827.462	5212
827.601	5132
827.741	5174
827.88	5166
828.02	5090
828.159	5220
828.298	5292
828.437	5326
828.577	5296
828.716	5448
828.855	5288
828.994	5151
829.134	5121
829.273	5140
829.412	5143
829.551	5151
829.69	5155
829.829	5231
829.968	5337
830.107	5242
830.246	5265
830.385	5105
830.524	5132
830.663	5056
830.802	4987
830.941	4862
831.08	4862
831.219	4991
831.357	4889
831.496	5124
831.635	4930
831.774	4809
831.913	4835
832.051	4706
832.19	4767
832.329	4862
832.467	4717
832.606	4611
832.744	4691
832.883	4710
833.022	4706
833.16	4763
833.299	4763
833.437	4797
833.576	4786
833.714	4797
833.852	4831
833.991	4911
834.129	4953
834.267	4900
834.406	4885
834.544	4923
834.682	4919
834.821	4919
834.959	5132
835.097	4949
835.235	5147
835.373	5079
835.511	5090
835.65	5014
835.788	4991
835.926	4835
836.064	4904
836.202	4927
836.34	5124
836.478	5208
836.615	5151
836.753	5185
836.891	5315
837.029	5239
837.167	5197
837.305	5136
837.443	5113
837.58	5079
837.718	5296
837.856	5155
837.993	5132
838.131	5212
838.269	5212
838.406	5162
838.544	5140
838.681	5014
838.819	5041
838.956	4919
839.094	4870
839.231	4957
839.369	5025
839.506	5402
839.643	5231
839.781	5033
839.918	5006
840.055	5056
840.193	5045
840.33	5079
840.467	5052
840.604	5109
840.742	5391
840.879	5052
841.016	5128
841.153	5086
841.29	5353
841.427	5303
841.564	5341
841.701	5357
841.838	5227
841.975	5250
842.112	5265
842.249	5147
842.385	5067
842.522	5334
842.659	5143
842.796	5113
842.933	5143
843.069	5090
843.206	5132
843.343	5322
843.479	5197
843.616	5273
843.752	5022
843.889	4995
844.025	5178
844.162	5048
844.298	5208
844.435	5121
844.571	5052
844.708	5174
844.844	5303
844.98	5288
845.117	5273
845.253	5147
845.389	5029
845.525	5098
845.661	5166
845.798	5029
845.934	5113
846.07	5052
846.206	5143
846.342	5254
846.478	5193
846.614	4987
846.75	4927
846.886	4930
847.022	5117
847.158	5048
847.294	5045
847.429	5083
847.565	5041
847.701	5258
847.837	4801
847.972	4828
848.108	4923
848.244	4927
848.379	4793
848.515	4694
848.65	4702
848.786	4763
848.921	4793
849.057	4892
849.192	4911
849.328	4805
849.463	4835
849.598	4778
849.734	4748
849.869	4649
850.004	4603
850.14	4675
850.275	4615
850.41	4523
850.545	4538
850.68	4637
850.815	4554
850.95	4641
851.085	4828
851.22	4664
851.355	4691
851.49	4611
851.625	4573
851.76	4588
851.895	4538
852.03	4493
852.165	4626
852.299	4748
852.434	4786
852.569	4710
852.703	4736
852.838	4850
852.973	4885
853.107	4900
853.242	4717
853.376	4668
853.511	4580
853.645	4565
853.78	4774
853.914	4683
854.048	4637
854.183	4618
854.317	4687
854.451	4812
854.585	4656
854.72	4637
854.854	4710
854.988	4607
855.122	4653
855.256	4519
855.39	4645
855.524	4759
855.658	4725
855.792	4675
855.926	4706
856.06	4733
856.194	4771
856.327	4694
856.461	4577
856.595	4577
856.729	4596
856.862	4683
856.996	4683
857.13	4706
857.263	4748
857.397	4793
857.53	4679
857.664	4702
857.797	4748
857.931	4767
858.064	4672
858.197	4698
858.331	4641
858.464	4607
858.597	4470
858.731	4584
858.864	4626
858.997	4615
859.13	4679
859.263	4679
859.396	4622
859.529	4569
859.662	4508
859.795	4489
859.928	4607
860.061	4733
860.194	4759
860.327	4618
860.46	4577
860.592	4691
860.725	4710
860.858	4687
860.99	4527
861.123	4500
861.256	4489
861.388	4584
861.521	5113
861.653	4455
861.786	4466
861.918	4405
862.05	4531
862.183	4531
862.315	4584
862.447	4668
862.58	4527
862.712	4402
862.844	4306
862.976	4519
863.108	4447
863.24	4801
863.372	4322
863.504	4398
863.636	4356
863.768	4497
863.9	4428
864.032	4344
864.164	4360
864.296	4485
864.428	4519
864.559	4535
864.691	4554
864.823	4519
864.954	4474
865.086	4466
865.217	4413
865.349	4466
865.48	4470
865.612	4527
865.743	4580
865.875	4432
866.006	4421
866.137	4462
866.269	4424
866.4	4402
866.531	4440
866.662	4367
866.793	4371
866.924	4409
867.055	4462
867.186	4455
867.317	4440
867.448	4299
867.579	4390
867.71	4371
867.841	4379
867.972	4478
868.103	4405
868.233	4413
868.364	4447
868.495	4474
868.625	4618
868.756	4698
868.886	4577
869.017	4615
869.147	4721
869.278	4679
869.408	4618
869.539	4672
869.669	4694
869.799	4596
869.929	4725
870.06	4759
870.19	4957
870.32	4866
870.45	4870
870.58	4987
870.71	5052
870.84	5045
870.97	5003
871.1	4942
871.23	5132
871.36	5071
871.489	4984
871.619	5071
871.749	5121
871.879	5052
872.008	5147
872.138	5064
872.267	5006
872.397	4908
872.526	4820
872.656	4736
872.785	4839
872.915	4999
873.044	5025
873.173	4946
873.303	4949
873.432	4980
873.561	4934
873.69	4904
873.819	4839
873.948	4953
874.077	4805
874.206	4793
874.335	4778
874.464	4927
874.593	5033
874.722	4946
874.851	5128
874.979	5075
875.108	5060
875.237	4953
875.365	4911
875.494	4968
875.623	5079
875.751	4816
875.88	4900
876.008	4965
876.136	5048
876.265	5246
876.393	5425
876.521	5239
876.65	5227
876.778	5140
876.906	5132
877.034	5083
877.162	5094
877.29	5010
877.418	5094
877.546	5025
877.674	5060
877.802	5033
877.93	5029
878.058	4957
878.185	4927
878.313	4980
878.441	5014
878.568	4790
878.696	4896
878.824	4984
878.951	5010
879.079	5113
879.206	5334
879.333	5136
879.461	5014
879.588	5098
879.715	5166
879.842	5273
879.97	5025
880.097	4786
880.224	4790
880.351	4786
880.478	4885
880.605	4850
880.732	4858
880.859	5147
880.986	4930
881.112	4938
881.239	4828
881.366	4641
881.493	4679
881.619	4649
881.746	4698
881.872	4637
881.999	4691
882.125	4725
882.252	4820
882.378	4870
882.505	4980
882.631	4824
882.757	4687
882.883	4736
883.01	4771
883.136	4740
883.262	4630
883.388	4649
883.514	4866
883.64	4866
883.766	4782
883.892	4668
884.018	4763
884.143	4923
884.269	5067
884.395	4725
884.52	4702
884.646	4649
884.772	4641
884.897	4569
885.023	4679
885.148	4805
885.274	4911
885.399	4889
885.524	4721
885.65	4748
885.775	4767
885.9	4736
886.025	4889
886.15	4752
886.275	4755
886.4	4729
886.525	4771
886.65	4675
886.775	4744
886.9	4900
887.025	4995
887.149	4824
887.274	4691
887.399	4580
887.523	4645
887.648	4573
887.773	4626
887.897	4782
888.021	4797
888.146	4752
888.27	4793
888.395	4957
888.519	4805
888.643	4755
888.767	4885
888.891	4679
889.015	4656
889.139	4668
889.263	4596
889.387	4774
889.511	4900
889.635	4809
889.759	4683
889.883	4702
890.006	4759
890.13	4820
890.254	4622
890.377	4714
890.501	4565
890.624	4550
890.748	4622
890.871	4519
890.995	4459
891.118	4413
891.241	4531
891.364	4546
891.488	4698
891.611	4455
891.734	4588
891.857	4611
891.98	4580
892.103	4649
892.226	4622
892.349	4550
892.471	4413
892.594	4580
892.717	4634
892.839	4554
892.962	4618
893.085	4649
893.207	4656
893.33	4504
893.452	4580
893.575	4664
893.697	4588
893.819	4831
893.941	4858
894.064	4786
894.186	4561
894.308	4656
894.43	4755
894.552	4831
894.674	4782
894.796	4577
894.918	4550
895.04	4573
895.161	4691
895.283	4714
895.405	4554
895.526	4611
895.648	4691
895.769	4755
895.891	4748
896.012	4786
896.134	4774
896.255	4660
896.376	4626
896.498	4626
896.619	4694
896.74	4622
896.861	4687
896.982	4995
897.103	5090
897.224	4839
897.345	4778
897.466	4702
897.587	4786
897.708	4885
897.828	4824
897.949	4679
898.07	4603
898.19	4626
898.311	4870
898.431	4710
898.552	4790
898.672	4831
898.792	4828
898.913	4778
899.033	4649
899.153	4535
899.273	4447
899.393	4481
899.513	4542
899.633	4531
899.753	4546
899.873	4535
899.993	4565
900.113	4561
900.232	4603
900.352	4561
900.472	4489
900.591	4459
900.711	4516
900.83	4455
900.95	4607
901.069	4710
901.189	4573
901.308	4383
901.427	4303
901.546	4379
901.665	4500
901.784	4554
901.904	4390
902.023	4337
902.141	4204
902.26	4185
902.379	4325
902.498	4249
902.617	4257
902.735	4417
902.854	4489
902.973	4413
903.091	4276
903.21	4234
903.328	4322
903.446	4287
903.565	4284
903.683	4375
903.801	4295
903.919	4417
904.038	4455
904.156	4352
904.274	4512
904.392	4394
904.51	4459
904.627	4550
904.745	4588
904.863	4630
904.981	4379
905.098	4363
905.216	4341
905.334	4424
905.451	4489
905.569	4481
905.686	4584
905.803	4588
905.921	4421
906.038	4558
906.155	4481
906.272	4394
906.389	4497
906.506	4333
906.623	4394
906.74	4413
906.857	4356
906.974	4386
907.091	4554
907.208	4672
907.324	4615
907.441	4516
907.557	4356
907.674	4348
907.79	4322
907.907	4375
908.023	4466
908.139	4504
908.256	4462
908.372	4497
908.488	4459
908.604	4421
908.72	4398
908.836	4371
908.952	4371
909.068	4474
909.184	4596
909.3	4493
909.415	4611
909.531	4573
909.647	4375
909.762	4352
909.878	4318
909.993	4462
910.108	4424
910.224	4443
910.339	4512
910.454	4478
910.57	4383
910.685	4303
910.8	4694
910.915	4637
911.03	4535
911.145	4383
911.259	4363
911.374	4398
911.489	4310
911.604	4318
911.718	4200
911.833	4207
911.947	4131
912.062	4032
912.176	4253
912.291	4280
912.405	4253
912.519	4474
912.633	4531
912.748	4417
912.862	4306
912.976	4192
913.09	4093
913.204	4207
913.318	4257
913.431	4363
913.545	4443
913.659	4459
913.772	4398
913.886	4204
914	4192
914.113	4386
914.226	4455
914.34	4413
914.453	4299
914.566	4409
914.68	4325
914.793	4318
914.906	4131
915.019	4143
915.132	4090
915.245	4227
915.358	4276
915.47	4230
915.583	4276
915.696	4303
915.809	4417
915.921	4443
916.034	4299
916.146	4257
916.259	4223
916.371	4379
916.483	4379
916.595	4280
916.708	4325
916.82	4303
916.932	4344
917.044	4333
917.156	4322
917.268	4276
917.38	4337
917.491	4295
917.603	4348
917.715	4402
917.826	4455
917.938	4287
918.049	4249
918.161	4386
918.272	4554
918.384	4546
918.495	4428
918.606	4333
918.717	4227
918.828	4344
918.939	4367
919.05	4280
919.161	4295
919.272	4139
919.383	4234
919.494	4459
919.604	4702
919.715	4443
919.826	4386
919.936	4390
920.047	4497
920.157	4516
920.267	4675
920.378	4611
920.488	4500
920.598	4740
920.708	4866
920.818	4809
920.928	4767
921.038	4957
921.148	4915
921.258	4607
921.368	4565
921.477	4466
921.587	4493
921.697	4417
921.806	4580
921.916	4474
922.025	4280
922.134	4287
922.244	4257
922.353	4337
922.462	4169
922.571	4135
922.68	3998
922.789	4013
922.898	4074
923.007	4002
923.116	4128
923.224	4082
923.333	4074
923.442	3972
923.55	3983
923.659	4032
923.767	4166
923.876	3983
923.984	4158
924.092	3968
924.201	4101
924.309	4131
924.417	4143
924.525	4055
924.633	4131
924.741	5041
924.849	3949
924.956	4188
925.064	3983
925.172	3899
925.279	3926
925.387	4048
925.494	4071
925.602	4227
925.709	4173
925.816	4059
925.924	4135
926.031	4253
926.138	4139
926.245	4188
926.352	4067
926.459	4230
926.566	4329
926.673	4135
926.779	4051
926.886	4074
926.993	3979
927.099	3987
927.206	3937
927.312	3941
927.419	4071
927.525	4051
927.631	4097
927.737	3937
927.843	3956
927.95	3892
928.056	3915
928.162	4032
928.267	4032
928.373	4672
928.479	4143
928.585	3876
928.69	4017
928.796	4090
928.901	3994
929.007	3827
929.112	3994
929.218	3994
929.323	3922
929.428	3937
929.533	4147
929.638	3896
929.743	3949
929.848	4071
929.953	4013
930.058	3945
930.163	3785
930.267	3850
930.372	3915
930.477	3804
930.581	4101
930.685	3953
930.79	3823
930.894	3903
930.998	3819
931.103	4071
931.207	3713
931.311	3724
931.415	3641
931.519	3564
931.623	3606
