Data from test_V78500241_2011.txt Node
Date: Fri Mar 25 17:02:59 CST 2022
User: usil
Spectrometer: V785-0024
Trigger mode: 0
Integration Time (sec): 4.000000E-1
Scans to average: 1
Nonlinearity correction enabled: false
Boxcar width: 0
Storing dark spectrum: false
XAxis mode: Wavelengths
Number of Pixels in Spectrum: 1024
>>>>>Begin Spectral Data<<<<<
801.071	7936
801.214	7940
801.356	7822
801.499	7795
801.641	7746
801.783	7772
801.926	7913
802.068	7970
802.211	8024
802.353	7951
802.496	7841
802.638	7921
802.78	7913
802.923	7894
803.065	7898
803.208	7830
803.35	7951
803.492	8077
803.635	8126
803.777	8005
803.919	8084
804.061	8400
804.204	8134
804.346	8035
804.488	7909
804.63	8092
804.773	8012
804.915	8065
805.057	8240
805.199	8157
805.341	8221
805.483	8294
805.626	8233
805.768	8119
805.91	8248
806.052	8225
806.194	8123
806.336	8336
806.478	8130
806.62	8084
806.762	8164
806.904	8248
807.046	8434
807.188	8328
807.33	8267
807.472	8271
807.614	8168
807.756	8195
807.898	7955
808.04	7887
808.182	7784
808.324	7845
808.465	7944
808.607	8115
808.749	8084
808.891	8237
809.033	8305
809.174	8176
809.316	8035
809.458	8092
809.6	7997
809.741	8050
809.883	8012
810.025	8092
810.166	8016
810.308	8050
810.45	7989
810.591	7849
810.733	7685
810.875	7715
811.016	7525
811.158	7476
811.299	7537
811.441	7689
811.582	7616
811.724	7567
811.865	7495
812.007	7563
812.148	7571
812.29	7636
812.431	7738
812.573	7883
812.714	7917
812.855	8138
812.997	8195
813.138	8240
813.279	8126
813.421	8008
813.562	7936
813.703	7814
813.845	7814
813.986	7407
814.127	7259
814.268	7206
814.41	7168
814.551	7118
814.692	7206
814.833	7069
814.974	7149
815.115	7114
815.256	7008
815.397	6913
815.539	6958
815.68	6768
815.821	6757
815.962	6791
816.103	6802
816.244	6673
816.385	6631
816.526	6623
816.666	6486
816.807	6323
816.948	6395
817.089	6407
817.23	6388
817.371	6445
817.512	6327
817.653	6376
817.793	6334
817.934	6384
818.075	6399
818.216	6403
818.356	6395
818.497	6228
818.638	6087
818.778	6175
818.919	6129
819.06	6194
819.2	6319
819.341	6361
819.481	6372
819.622	6498
819.762	6726
819.903	6730
820.043	6646
820.184	6589
820.324	6589
820.465	6684
820.605	6703
820.746	6601
820.886	6506
821.026	6646
821.167	6658
821.307	6726
821.447	6757
821.588	6722
821.728	6604
821.868	6452
822.008	6380
822.149	6372
822.289	6372
822.429	6083
822.569	6091
822.709	6057
822.849	5942
822.99	5916
823.13	5931
823.27	5897
823.41	5786
823.55	5817
823.69	5733
823.83	5729
823.97	5604
824.11	5493
824.25	5474
824.389	5516
824.529	5619
824.669	5505
824.809	5665
824.949	5691
825.089	5611
825.228	5604
825.368	5379
825.508	5395
825.648	5307
825.787	5417
825.927	5318
826.067	5322
826.206	5296
826.346	5357
826.485	5391
826.625	5444
826.765	5558
826.904	5463
827.044	5220
827.183	5155
827.323	5113
827.462	5235
827.601	5128
827.741	5239
827.88	5181
828.02	5064
828.159	5185
828.298	5284
828.437	5387
828.577	5269
828.716	5463
828.855	5334
828.994	5170
829.134	5166
829.273	5185
829.412	5136
829.551	5094
829.69	5201
829.829	5242
829.968	5307
830.107	5318
830.246	5261
830.385	5204
830.524	5094
830.663	5060
830.802	4957
830.941	4908
831.08	4904
831.219	4930
831.357	4892
831.496	5109
831.635	4938
831.774	4854
831.913	4839
832.051	4721
832.19	4748
832.329	4828
832.467	4679
832.606	4615
832.744	4714
832.883	4694
833.022	4687
833.16	4812
833.299	4843
833.437	4824
833.576	4809
833.714	4828
833.852	4866
833.991	4934
834.129	4991
834.267	4991
834.406	4885
834.544	4972
834.682	4953
834.821	4980
834.959	5121
835.097	4995
835.235	5128
835.373	5102
835.511	5064
835.65	5018
835.788	5037
835.926	4881
836.064	4885
836.202	4923
836.34	5185
836.478	5250
836.615	5155
836.753	5162
836.891	5288
837.029	5246
837.167	5258
837.305	5155
837.443	5136
837.58	5075
837.718	5246
837.856	5162
837.993	5124
838.131	5231
838.269	5204
838.406	5181
838.544	5197
838.681	5037
838.819	4938
838.956	4881
839.094	4892
839.231	4984
839.369	5067
839.506	5398
839.643	5311
839.781	5064
839.918	5014
840.055	5086
840.193	5098
840.33	5098
840.467	5113
840.604	5189
840.742	5414
840.879	5060
841.016	5041
841.153	5136
841.29	5379
841.427	5258
841.564	5296
841.701	5376
841.838	5303
841.975	5216
842.112	5265
842.249	5124
842.385	5143
842.522	5311
842.659	5189
842.796	5102
842.933	5197
843.069	5166
843.206	5102
843.343	5299
843.479	5193
843.616	5273
843.752	4949
843.889	4984
844.025	5193
844.162	4991
844.298	5189
844.435	5071
844.571	5079
844.708	5174
844.844	5364
844.98	5299
845.117	5265
845.253	5121
845.389	5048
845.525	5117
845.661	5121
845.798	5022
845.934	5098
846.07	5045
846.206	5174
846.342	5273
846.478	5166
846.614	5006
846.75	4980
846.886	4896
847.022	5109
847.158	4995
847.294	5048
847.429	5048
847.565	5014
847.701	5322
847.837	4942
847.972	4805
848.108	4953
848.244	4889
848.379	4824
848.515	4664
848.65	4729
848.786	4714
848.921	4809
849.057	4889
849.192	4896
849.328	4797
849.463	4831
849.598	4759
849.734	4736
849.869	4717
850.004	4649
850.14	4675
850.275	4660
850.41	4538
850.545	4599
850.68	4607
850.815	4580
850.95	4603
851.085	4843
851.22	4706
851.355	4653
851.49	4603
851.625	4649
851.76	4679
851.895	4535
852.03	4508
852.165	4653
852.299	4664
852.434	4752
852.569	4744
852.703	4748
852.838	4835
852.973	4957
853.107	4927
853.242	4660
853.376	4664
853.511	4561
853.645	4599
853.78	4763
853.914	4714
854.048	4725
854.183	4611
854.317	4702
854.451	4835
854.585	4645
854.72	4634
854.854	4729
854.988	4607
855.122	4660
855.256	4561
855.39	4634
855.524	4771
855.658	4774
855.792	4675
855.926	4687
856.06	4687
856.194	4771
856.327	4656
856.461	4599
856.595	4584
856.729	4599
856.862	4729
856.996	4687
857.13	4717
857.263	4717
857.397	4778
857.53	4637
857.664	4687
857.797	4736
857.931	4774
858.064	4702
858.197	4721
858.331	4702
858.464	4607
858.597	4558
858.731	4615
858.864	4645
858.997	4569
859.13	4641
859.263	4637
859.396	4717
859.529	4569
859.662	4550
859.795	4512
859.928	4618
860.061	4748
860.194	4778
860.327	4558
860.46	4573
860.592	4725
860.725	4679
860.858	4717
860.99	4565
861.123	4516
861.256	4512
861.388	4611
861.521	5269
861.653	4493
861.786	4413
861.918	4470
862.05	4478
862.183	4565
862.315	4637
862.447	4634
862.58	4531
862.712	4409
862.844	4303
862.976	4481
863.108	4497
863.24	4801
863.372	4318
863.504	4386
863.636	4421
863.768	4466
863.9	4405
864.032	4322
864.164	4432
864.296	4443
864.428	4542
864.559	4516
864.691	4561
864.823	4474
864.954	4478
865.086	4500
865.217	4466
865.349	4390
865.48	4481
865.612	4489
865.743	4603
865.875	4466
866.006	4436
866.137	4462
866.269	4466
866.4	4386
866.531	4428
866.662	4344
866.793	4466
866.924	4394
867.055	4478
867.186	4478
867.317	4443
867.448	4375
867.579	4371
867.71	4402
867.841	4341
867.972	4432
868.103	4455
868.233	4432
868.364	4428
868.495	4493
868.625	4672
868.756	4782
868.886	4577
869.017	4649
869.147	4767
869.278	4733
869.408	4660
869.539	4668
869.669	4672
869.799	4603
869.929	4759
870.06	4733
870.19	4972
870.32	4885
870.45	4957
870.58	4980
870.71	5094
870.84	5071
870.97	4934
871.1	4908
871.23	5140
871.36	5109
871.489	4968
871.619	5022
871.749	5083
871.879	5075
872.008	5102
872.138	4995
872.267	4987
872.397	4866
872.526	4774
872.656	4675
872.785	4839
872.915	4927
873.044	4991
873.173	4911
873.303	4923
873.432	4968
873.561	4919
873.69	4889
873.819	4790
873.948	4885
874.077	4793
874.206	4763
874.335	4790
874.464	4908
874.593	5090
874.722	4987
874.851	5090
874.979	5086
875.108	4984
875.237	4953
875.365	4866
875.494	4862
875.623	4987
875.751	4873
875.88	4877
876.008	4957
876.136	5014
876.265	5162
876.393	5296
876.521	5216
876.65	5212
876.778	5162
876.906	5098
877.034	5025
877.162	5006
877.29	4972
877.418	5098
877.546	5018
877.674	4972
877.802	4984
877.93	5010
878.058	4908
878.185	4896
878.313	4957
878.441	4976
878.568	4809
878.696	4896
878.824	4961
878.951	5006
879.079	5181
879.206	5284
879.333	5128
879.461	4968
879.588	5003
879.715	5098
879.842	5216
879.97	4957
880.097	4759
880.224	4744
880.351	4801
880.478	4828
880.605	4812
880.732	4801
880.859	5083
880.986	4927
881.112	4896
881.239	4752
881.366	4691
881.493	4550
881.619	4516
881.746	4672
881.872	4630
881.999	4634
882.125	4702
882.252	4793
882.378	4835
882.505	4953
882.631	4763
882.757	4675
882.883	4729
883.01	4714
883.136	4660
883.262	4611
883.388	4599
883.514	4809
883.64	4797
883.766	4812
883.892	4607
884.018	4736
884.143	4839
884.269	5029
884.395	4717
884.52	4645
884.646	4634
884.772	4607
884.897	4554
885.023	4630
885.148	4793
885.274	4820
885.399	4824
885.524	4691
885.65	4683
885.775	4759
885.9	4698
886.025	4831
886.15	4816
886.275	4729
886.4	4615
886.525	4702
886.65	4698
886.775	4679
886.9	4908
887.025	5014
887.149	4828
887.274	4630
887.399	4538
887.523	4611
887.648	4542
887.773	4535
887.897	4717
888.021	4778
888.146	4653
888.27	4790
888.395	4881
888.519	4797
888.643	4820
888.767	4835
888.891	4694
889.015	4637
889.139	4649
889.263	4558
889.387	4729
889.511	4801
889.635	4782
889.759	4656
889.883	4645
890.006	4736
890.13	4782
890.254	4649
890.377	4694
890.501	4531
890.624	4538
890.748	4618
890.871	4489
890.995	4394
891.118	4371
891.241	4516
891.364	4558
891.488	4588
891.611	4481
891.734	4554
891.857	4592
891.98	4554
892.103	4683
892.226	4565
892.349	4538
892.471	4398
892.594	4531
892.717	4569
892.839	4592
892.962	4603
893.085	4645
893.207	4580
893.33	4417
893.452	4516
893.575	4664
893.697	4588
893.819	4767
893.941	4824
894.064	4778
894.186	4535
894.308	4546
894.43	4687
894.552	4809
894.674	4763
894.796	4592
894.918	4592
895.04	4565
895.161	4702
895.283	4645
895.405	4588
895.526	4618
895.648	4683
895.769	4717
895.891	4721
896.012	4740
896.134	4691
896.255	4694
896.376	4641
896.498	4588
896.619	4691
896.74	4653
896.861	4607
896.982	4885
897.103	5006
897.224	4843
897.345	4748
897.466	4656
897.587	4736
897.708	4839
897.828	4752
897.949	4653
898.07	4569
898.19	4645
898.311	4847
898.431	4641
898.552	4736
898.672	4797
898.792	4767
898.913	4702
899.033	4615
899.153	4489
899.273	4428
899.393	4462
899.513	4546
899.633	4550
899.753	4523
899.873	4462
899.993	4561
900.113	4519
900.232	4546
900.352	4516
900.472	4516
900.591	4379
900.711	4508
900.83	4455
900.95	4630
901.069	4675
901.189	4550
901.308	4344
901.427	4337
901.546	4390
901.665	4405
901.784	4508
901.904	4363
902.023	4322
902.141	4227
902.26	4166
902.379	4280
902.498	4227
902.617	4246
902.735	4341
902.854	4375
902.973	4356
903.091	4169
903.21	4204
903.328	4272
903.446	4215
903.565	4242
903.683	4360
903.801	4310
903.919	4478
904.038	4424
904.156	4329
904.274	4409
904.392	4402
904.51	4421
904.627	4455
904.745	4554
904.863	4656
904.981	4360
905.098	4287
905.216	4356
905.334	4455
905.451	4421
905.569	4474
905.686	4546
905.803	4535
905.921	4405
906.038	4565
906.155	4443
906.272	4447
906.389	4527
906.506	4337
906.623	4383
906.74	4390
906.857	4276
906.974	4344
907.091	4474
907.208	4664
907.324	4588
907.441	4516
907.557	4341
907.674	4341
907.79	4318
907.907	4386
908.023	4451
908.139	4489
908.256	4436
908.372	4413
908.488	4474
908.604	4386
908.72	4314
908.836	4360
908.952	4383
909.068	4398
909.184	4577
909.3	4512
909.415	4558
909.531	4535
909.647	4405
909.762	4348
909.878	4310
909.993	4421
910.108	4428
910.224	4383
910.339	4455
910.454	4398
910.57	4363
910.685	4268
910.8	4645
910.915	4596
911.03	4550
911.145	4348
911.259	4314
911.374	4337
911.489	4299
911.604	4246
911.718	4150
911.833	4185
911.947	4131
912.062	4017
912.176	4185
912.291	4234
912.405	4246
912.519	4428
912.633	4500
912.748	4379
912.862	4322
912.976	4227
913.09	4078
913.204	4147
913.318	4223
913.431	4356
913.545	4383
913.659	4447
913.772	4352
913.886	4242
914	4211
914.113	4375
914.226	4500
914.34	4367
914.453	4287
914.566	4462
914.68	4348
914.793	4276
914.906	4147
915.019	4166
915.132	4082
915.245	4196
915.358	4230
915.47	4215
915.583	4310
915.696	4287
915.809	4344
915.921	4405
916.034	4223
916.146	4219
916.259	4219
916.371	4367
916.483	4371
916.595	4268
916.708	4306
916.82	4306
916.932	4295
917.044	4348
917.156	4379
917.268	4230
917.38	4246
917.491	4295
917.603	4371
917.715	4424
917.826	4424
917.938	4348
918.049	4230
918.161	4386
918.272	4531
918.384	4512
918.495	4409
918.606	4249
918.717	4211
918.828	4329
918.939	4413
919.05	4284
919.161	4329
919.272	4116
919.383	4268
919.494	4417
919.604	4592
919.715	4390
919.826	4314
919.936	4417
920.047	4508
920.157	4500
920.267	4637
920.378	4523
920.488	4489
920.598	4675
920.708	4877
920.818	4782
920.928	4778
921.038	4957
921.148	4919
921.258	4630
921.368	4599
921.477	4497
921.587	4485
921.697	4394
921.806	4500
921.916	4428
922.025	4249
922.134	4284
922.244	4204
922.353	4367
922.462	4135
922.571	4131
922.68	3998
922.789	3975
922.898	4048
923.007	3960
923.116	4078
923.224	4090
923.333	4067
923.442	3998
923.55	3968
923.659	4006
923.767	4078
923.876	3983
923.984	4105
924.092	3991
924.201	4048
924.309	4086
924.417	4112
924.525	4048
924.633	4120
924.741	5071
924.849	3915
924.956	4067
925.064	3899
925.172	3899
925.279	3979
925.387	4055
925.494	4051
925.602	4223
925.709	4173
925.816	4040
925.924	4135
926.031	4207
926.138	4188
926.245	4215
926.352	4124
926.459	4215
926.566	4291
926.673	4128
926.779	4078
926.886	4051
926.993	3960
927.099	3915
927.206	3937
927.312	3896
927.419	4032
927.525	3998
927.631	4105
927.737	3975
927.843	3934
927.95	3797
928.056	3922
928.162	3937
928.267	4082
928.373	4546
928.479	4109
928.585	3842
928.69	3991
928.796	4082
928.901	3922
929.007	3835
929.112	3998
929.218	3983
929.323	3956
929.428	3953
929.533	4120
929.638	3892
929.743	3987
929.848	4025
929.953	4021
930.058	3930
930.163	3732
930.267	3808
930.372	4017
930.477	3762
930.581	4116
930.685	3941
930.79	3835
930.894	3823
930.998	3838
931.103	4048
931.207	3743
931.311	3717
931.415	3618
931.519	3511
931.623	3511
