Data from test_V78500241_2033.txt Node
Date: Fri Mar 25 17:03:08 CST 2022
User: usil
Spectrometer: V785-0024
Trigger mode: 0
Integration Time (sec): 4.000000E-1
Scans to average: 1
Nonlinearity correction enabled: false
Boxcar width: 0
Storing dark spectrum: false
XAxis mode: Wavelengths
Number of Pixels in Spectrum: 1024
>>>>>Begin Spectral Data<<<<<
801.071	7989
801.214	7928
801.356	7807
801.499	7826
801.641	7887
801.783	7852
801.926	7970
802.068	7890
802.211	7925
802.353	8001
802.496	7837
802.638	7856
802.78	7856
802.923	7917
803.065	7871
803.208	7822
803.35	8054
803.492	8096
803.635	8107
803.777	8073
803.919	8065
804.061	8427
804.204	8130
804.346	8046
804.488	8046
804.63	8077
804.773	7928
804.915	8142
805.057	8301
805.199	8126
805.341	8180
805.483	8263
805.626	8153
805.768	8126
805.91	8149
806.052	8233
806.194	8103
806.336	8298
806.478	8035
806.62	8092
806.762	8187
806.904	8199
807.046	8389
807.188	8396
807.33	8263
807.472	8336
807.614	8202
807.756	8164
807.898	8001
808.04	7887
808.182	7909
808.324	7875
808.465	7894
808.607	8039
808.749	8077
808.891	8183
809.033	8275
809.174	8218
809.316	8050
809.458	8058
809.6	7989
809.741	8062
809.883	8107
810.025	8100
810.166	8084
810.308	7989
810.45	7967
810.591	7826
810.733	7708
810.875	7658
811.016	7476
811.158	7483
811.299	7559
811.441	7662
811.582	7677
811.724	7609
811.865	7559
812.007	7601
812.148	7575
812.29	7658
812.431	7723
812.573	7875
812.714	7986
812.855	8153
812.997	8164
813.138	8286
813.279	8138
813.421	8123
813.562	7932
813.703	7841
813.845	7776
813.986	7453
814.127	7285
814.268	7202
814.41	7118
814.551	7149
814.692	7198
814.833	7126
814.974	7126
815.115	7042
815.256	6947
815.397	6943
815.539	6943
815.68	6806
815.821	6741
815.962	6939
816.103	6810
816.244	6726
816.385	6589
816.526	6612
816.666	6483
816.807	6311
816.948	6437
817.089	6479
817.23	6429
817.371	6395
817.512	6346
817.653	6361
817.793	6350
817.934	6334
818.075	6407
818.216	6437
818.356	6445
818.497	6258
818.638	6068
818.778	6216
818.919	6159
819.06	6201
819.2	6376
819.341	6311
819.481	6334
819.622	6490
819.762	6738
819.903	6650
820.043	6623
820.184	6525
820.324	6616
820.465	6623
820.605	6642
820.746	6662
820.886	6513
821.026	6658
821.167	6692
821.307	6787
821.447	6764
821.588	6722
821.728	6597
821.868	6471
822.008	6410
822.149	6365
822.289	6319
822.429	6171
822.569	6076
822.709	6117
822.849	5920
822.99	5904
823.13	5973
823.27	5844
823.41	5726
823.55	5798
823.69	5802
823.83	5783
823.97	5634
824.11	5528
824.25	5448
824.389	5520
824.529	5551
824.669	5501
824.809	5608
824.949	5657
825.089	5638
825.228	5535
825.368	5364
825.508	5360
825.648	5337
825.787	5395
825.927	5387
826.067	5254
826.206	5280
826.346	5318
826.485	5440
826.625	5391
826.765	5570
826.904	5471
827.044	5212
827.183	5197
827.323	5136
827.462	5246
827.601	5170
827.741	5223
827.88	5212
828.02	5105
828.159	5204
828.298	5315
828.437	5364
828.577	5296
828.716	5448
828.855	5299
828.994	5109
829.134	5162
829.273	5136
829.412	5121
829.551	5102
829.69	5143
829.829	5242
829.968	5357
830.107	5330
830.246	5265
830.385	5201
830.524	5121
830.663	5041
830.802	4953
830.941	4881
831.08	4885
831.219	4976
831.357	4957
831.496	5162
831.635	4892
831.774	4850
831.913	4824
832.051	4740
832.19	4710
832.329	4870
832.467	4706
832.606	4653
832.744	4702
832.883	4725
833.022	4729
833.16	4828
833.299	4866
833.437	4805
833.576	4839
833.714	4824
833.852	4820
833.991	4904
834.129	4972
834.267	4927
834.406	4896
834.544	4991
834.682	4968
834.821	4980
834.959	5132
835.097	4980
835.235	5162
835.373	5083
835.511	5067
835.65	4984
835.788	5010
835.926	4877
836.064	4866
836.202	4908
836.34	5136
836.478	5254
836.615	5174
836.753	5189
836.891	5299
837.029	5231
837.167	5174
837.305	5162
837.443	5159
837.58	5067
837.718	5235
837.856	5185
837.993	5159
838.131	5254
838.269	5242
838.406	5223
838.544	5113
838.681	5045
838.819	5018
838.956	4908
839.094	4908
839.231	4949
839.369	5102
839.506	5414
839.643	5254
839.781	5075
839.918	4999
840.055	5098
840.193	5094
840.33	5071
840.467	5147
840.604	5178
840.742	5433
840.879	5113
841.016	5086
841.153	5147
841.29	5368
841.427	5296
841.564	5311
841.701	5376
841.838	5277
841.975	5231
842.112	5254
842.249	5109
842.385	5071
842.522	5318
842.659	5178
842.796	5147
842.933	5166
843.069	5140
843.206	5132
843.343	5311
843.479	5231
843.616	5269
843.752	5056
843.889	5022
844.025	5216
844.162	5010
844.298	5273
844.435	5083
844.571	4999
844.708	5185
844.844	5296
844.98	5330
845.117	5258
845.253	5075
845.389	5105
845.525	5136
845.661	5201
845.798	5029
845.934	5147
846.07	5048
846.206	5185
846.342	5292
846.478	5159
846.614	5041
846.75	4911
846.886	4934
847.022	5178
847.158	4995
847.294	5056
847.429	5037
847.565	5098
847.701	5307
847.837	4839
847.972	4831
848.108	4972
848.244	4957
848.379	4755
848.515	4702
848.65	4725
848.786	4721
848.921	4778
849.057	4847
849.192	4862
849.328	4805
849.463	4854
849.598	4759
849.734	4763
849.869	4691
850.004	4618
850.14	4630
850.275	4615
850.41	4478
850.545	4554
850.68	4565
850.815	4626
850.95	4573
851.085	4839
851.22	4786
851.355	4702
851.49	4584
851.625	4641
851.76	4656
851.895	4565
852.03	4538
852.165	4626
852.299	4710
852.434	4774
852.569	4763
852.703	4763
852.838	4828
852.973	4942
853.107	4892
853.242	4702
853.376	4675
853.511	4569
853.645	4615
853.78	4801
853.914	4679
854.048	4668
854.183	4622
854.317	4702
854.451	4820
854.585	4706
854.72	4615
854.854	4752
854.988	4580
855.122	4675
855.256	4561
855.39	4672
855.524	4763
855.658	4702
855.792	4664
855.926	4721
856.06	4752
856.194	4809
856.327	4672
856.461	4622
856.595	4626
856.729	4653
856.862	4714
856.996	4691
857.13	4759
857.263	4793
857.397	4786
857.53	4672
857.664	4702
857.797	4698
857.931	4801
858.064	4649
858.197	4698
858.331	4653
858.464	4592
858.597	4512
858.731	4592
858.864	4630
858.997	4618
859.13	4618
859.263	4675
859.396	4683
859.529	4546
859.662	4580
859.795	4550
859.928	4630
860.061	4767
860.194	4748
860.327	4660
860.46	4618
860.592	4679
860.725	4691
860.858	4679
860.99	4565
861.123	4470
861.256	4500
861.388	4607
861.521	5227
861.653	4455
861.786	4432
861.918	4440
862.05	4592
862.183	4516
862.315	4611
862.447	4599
862.58	4535
862.712	4398
862.844	4314
862.976	4455
863.108	4478
863.24	4790
863.372	4284
863.504	4409
863.636	4386
863.768	4489
863.9	4367
864.032	4318
864.164	4409
864.296	4485
864.428	4550
864.559	4519
864.691	4489
864.823	4489
864.954	4512
865.086	4497
865.217	4455
865.349	4428
865.48	4447
865.612	4432
865.743	4569
865.875	4485
866.006	4436
866.137	4478
866.269	4459
866.4	4470
866.531	4424
866.662	4405
866.793	4402
866.924	4394
867.055	4474
867.186	4421
867.317	4424
867.448	4322
867.579	4421
867.71	4341
867.841	4363
867.972	4436
868.103	4409
868.233	4455
868.364	4462
868.495	4485
868.625	4694
868.756	4721
868.886	4546
869.017	4603
869.147	4759
869.278	4763
869.408	4679
869.539	4618
869.669	4694
869.799	4668
869.929	4748
870.06	4778
870.19	4923
870.32	4953
870.45	4885
870.58	4965
870.71	5083
870.84	5094
870.97	4938
871.1	4877
871.23	5121
871.36	5105
871.489	5037
871.619	5041
871.749	5090
871.879	5128
872.008	5166
872.138	5067
872.267	4980
872.397	4835
872.526	4797
872.656	4771
872.785	4812
872.915	4991
873.044	5037
873.173	4915
873.303	4930
873.432	4938
873.561	4965
873.69	4885
873.819	4850
873.948	4923
874.077	4759
874.206	4752
874.335	4736
874.464	4911
874.593	5045
874.722	4980
874.851	5094
874.979	5003
875.108	5033
875.237	4873
875.365	4889
875.494	4904
875.623	4991
875.751	4797
875.88	4911
876.008	5010
876.136	4999
876.265	5239
876.393	5296
876.521	5265
876.65	5220
876.778	5174
876.906	5117
877.034	5006
877.162	5037
877.29	4965
877.418	5105
877.546	5041
877.674	5086
877.802	5037
877.93	5022
878.058	4908
878.185	4923
878.313	4942
878.441	4934
878.568	4801
878.696	4850
878.824	4961
878.951	4968
879.079	5178
879.206	5239
879.333	5147
879.461	5025
879.588	5022
879.715	5090
879.842	5189
879.97	4995
880.097	4809
880.224	4714
880.351	4774
880.478	4774
880.605	4809
880.732	4831
880.859	5079
880.986	4911
881.112	4949
881.239	4816
881.366	4637
881.493	4611
881.619	4603
881.746	4656
881.872	4687
881.999	4691
882.125	4740
882.252	4793
882.378	4854
882.505	4953
882.631	4835
882.757	4702
882.883	4725
883.01	4717
883.136	4656
883.262	4611
883.388	4626
883.514	4809
883.64	4847
883.766	4801
883.892	4687
884.018	4683
884.143	4858
884.269	5003
884.395	4694
884.52	4645
884.646	4668
884.772	4599
884.897	4542
885.023	4656
885.148	4759
885.274	4877
885.399	4790
885.524	4717
885.65	4710
885.775	4759
885.9	4729
886.025	4824
886.15	4790
886.275	4744
886.4	4637
886.525	4714
886.65	4694
886.775	4714
886.9	4915
887.025	5075
887.149	4740
887.274	4618
887.399	4561
887.523	4634
887.648	4592
887.773	4538
887.897	4801
888.021	4793
888.146	4679
888.27	4801
888.395	4881
888.519	4835
888.643	4790
888.767	4824
888.891	4698
889.015	4599
889.139	4683
889.263	4592
889.387	4752
889.511	4812
889.635	4748
889.759	4645
889.883	4653
890.006	4733
890.13	4778
890.254	4588
890.377	4649
890.501	4542
890.624	4546
890.748	4618
890.871	4573
890.995	4443
891.118	4402
891.241	4523
891.364	4512
891.488	4630
891.611	4561
891.734	4516
891.857	4615
891.98	4550
892.103	4668
892.226	4596
892.349	4512
892.471	4451
892.594	4535
892.717	4535
892.839	4584
892.962	4607
893.085	4656
893.207	4596
893.33	4440
893.452	4542
893.575	4645
893.697	4538
893.819	4809
893.941	4812
894.064	4801
894.186	4565
894.308	4580
894.43	4702
894.552	4809
894.674	4748
894.796	4561
894.918	4580
895.04	4569
895.161	4691
895.283	4668
895.405	4500
895.526	4588
895.648	4679
895.769	4656
895.891	4687
896.012	4683
896.134	4748
896.255	4653
896.376	4634
896.498	4603
896.619	4675
896.74	4577
896.861	4656
896.982	4881
897.103	5045
897.224	4873
897.345	4752
897.466	4736
897.587	4733
897.708	4877
897.828	4774
897.949	4675
898.07	4565
898.19	4668
898.311	4748
898.431	4698
898.552	4694
898.672	4782
898.792	4812
898.913	4740
899.033	4611
899.153	4512
899.273	4413
899.393	4451
899.513	4493
899.633	4512
899.753	4554
899.873	4474
899.993	4554
900.113	4535
900.232	4516
900.352	4603
900.472	4447
900.591	4367
900.711	4459
900.83	4405
900.95	4611
901.069	4683
901.189	4504
901.308	4333
901.427	4295
901.546	4337
901.665	4459
901.784	4516
901.904	4352
902.023	4333
902.141	4196
902.26	4128
902.379	4314
902.498	4230
902.617	4188
902.735	4344
902.854	4379
902.973	4337
903.091	4204
903.21	4204
903.328	4246
903.446	4207
903.565	4246
903.683	4268
903.801	4310
903.919	4352
904.038	4428
904.156	4299
904.274	4455
904.392	4383
904.51	4417
904.627	4489
904.745	4561
904.863	4634
904.981	4379
905.098	4284
905.216	4352
905.334	4421
905.451	4451
905.569	4451
905.686	4523
905.803	4565
905.921	4398
906.038	4588
906.155	4500
906.272	4386
906.389	4470
906.506	4303
906.623	4367
906.74	4337
906.857	4310
906.974	4383
907.091	4546
907.208	4664
907.324	4599
907.441	4474
907.557	4379
907.674	4287
907.79	4295
907.907	4398
908.023	4485
908.139	4447
908.256	4443
908.372	4462
908.488	4447
908.604	4356
908.72	4299
908.836	4363
908.952	4344
909.068	4398
909.184	4580
909.3	4459
909.415	4580
909.531	4538
909.647	4352
909.762	4356
909.878	4367
909.993	4462
910.108	4405
910.224	4451
910.339	4481
910.454	4447
910.57	4344
910.685	4325
910.8	4634
910.915	4538
911.03	4466
911.145	4379
911.259	4325
911.374	4413
911.489	4242
911.604	4295
911.718	4154
911.833	4177
911.947	4067
912.062	4063
912.176	4230
912.291	4215
912.405	4299
912.519	4443
912.633	4527
912.748	4329
912.862	4314
912.976	4188
913.09	4082
913.204	4158
913.318	4242
913.431	4371
913.545	4394
913.659	4436
913.772	4337
913.886	4230
914	4227
914.113	4371
914.226	4466
914.34	4417
914.453	4211
914.566	4405
914.68	4306
914.793	4299
914.906	4181
915.019	4139
915.132	4082
915.245	4211
915.358	4253
915.47	4242
915.583	4257
915.696	4284
915.809	4394
915.921	4421
916.034	4276
916.146	4287
916.259	4249
916.371	4379
916.483	4367
916.595	4295
916.708	4268
916.82	4310
916.932	4291
917.044	4344
917.156	4333
917.268	4238
917.38	4249
917.491	4227
917.603	4337
917.715	4424
917.826	4455
917.938	4314
918.049	4207
918.161	4402
918.272	4516
918.384	4573
918.495	4440
918.606	4276
918.717	4253
918.828	4333
918.939	4394
919.05	4196
919.161	4337
919.272	4135
919.383	4253
919.494	4413
919.604	4622
919.715	4440
919.826	4363
919.936	4394
920.047	4523
920.157	4481
920.267	4706
920.378	4577
920.488	4519
920.598	4694
920.708	4881
920.818	4740
920.928	4778
921.038	4908
921.148	4877
921.258	4615
921.368	4542
921.477	4527
921.587	4424
921.697	4360
921.806	4535
921.916	4402
922.025	4268
922.134	4257
922.244	4238
922.353	4428
922.462	4147
922.571	4112
922.68	4021
922.789	3972
922.898	4040
923.007	3987
923.116	4082
923.224	4048
923.333	4036
923.442	3987
923.55	3972
923.659	4044
923.767	4048
923.876	3987
923.984	4135
924.092	3998
924.201	4063
924.309	4093
924.417	4131
924.525	4044
924.633	4101
924.741	5045
924.849	3888
924.956	4116
925.064	4002
925.172	3873
925.279	3964
925.387	4032
925.494	4055
925.602	4177
925.709	4143
925.816	4074
925.924	4150
926.031	4211
926.138	4154
926.245	4185
926.352	4082
926.459	4265
926.566	4325
926.673	4154
926.779	4074
926.886	4067
926.993	3960
927.099	3956
927.206	3937
927.312	3930
927.419	4048
927.525	4040
927.631	4082
927.737	3953
927.843	3934
927.95	3899
928.056	3937
928.162	3972
928.267	4067
928.373	4607
928.479	4112
928.585	3865
928.69	4025
928.796	4078
928.901	3987
929.007	3903
929.112	3998
929.218	3994
929.323	3941
929.428	3934
929.533	4135
929.638	3918
929.743	3994
929.848	4074
929.953	3998
930.058	3918
930.163	3778
930.267	3816
930.372	3994
930.477	3804
930.581	4067
930.685	3956
930.79	3800
930.894	3838
930.998	3857
931.103	4032
931.207	3755
931.311	3656
931.415	3679
931.519	3511
931.623	3564
