Data from test_V78500241_1927.txt Node
Date: Fri Mar 25 17:02:23 CST 2022
User: usil
Spectrometer: V785-0024
Trigger mode: 0
Integration Time (sec): 4.000000E-1
Scans to average: 1
Nonlinearity correction enabled: false
Boxcar width: 0
Storing dark spectrum: false
XAxis mode: Wavelengths
Number of Pixels in Spectrum: 1024
>>>>>Begin Spectral Data<<<<<
801.071	8054
801.214	7944
801.356	7906
801.499	7845
801.641	7792
801.783	7845
801.926	8016
802.068	7887
802.211	8043
802.353	8031
802.496	7898
802.638	7765
802.78	7909
802.923	7913
803.065	7879
803.208	7951
803.35	7978
803.492	8107
803.635	8149
803.777	8031
803.919	8206
804.061	8446
804.204	8183
804.346	8077
804.488	7925
804.63	8062
804.773	8024
804.915	8153
805.057	8290
805.199	8256
805.341	8282
805.483	8313
805.626	8244
805.768	8123
805.91	8214
806.052	8199
806.194	8123
806.336	8282
806.478	8100
806.62	8107
806.762	8183
806.904	8279
807.046	8473
807.188	8450
807.33	8366
807.472	8377
807.614	8202
807.756	8092
807.898	8069
808.04	7890
808.182	7845
808.324	7887
808.465	7944
808.607	8050
808.749	8153
808.891	8267
809.033	8313
809.174	8267
809.316	8111
809.458	8183
809.6	8043
809.741	8088
809.883	8035
810.025	8092
810.166	8020
810.308	8027
810.45	8020
810.591	7898
810.733	7761
810.875	7670
811.016	7628
811.158	7521
811.299	7620
811.441	7712
811.582	7803
811.724	7620
811.865	7552
812.007	7609
812.148	7704
812.29	7655
812.431	7772
812.573	7898
812.714	7989
812.855	8172
812.997	8214
813.138	8412
813.279	8225
813.421	8092
813.562	8012
813.703	7860
813.845	7731
813.986	7415
814.127	7308
814.268	7225
814.41	7194
814.551	7221
814.692	7282
814.833	7118
814.974	7160
815.115	7091
815.256	7046
815.397	6977
815.539	6935
815.68	6821
815.821	6768
815.962	6844
816.103	6890
816.244	6764
816.385	6673
816.526	6627
816.666	6517
816.807	6315
816.948	6418
817.089	6502
817.23	6441
817.371	6437
817.512	6418
817.653	6388
817.793	6365
817.934	6441
818.075	6475
818.216	6483
818.356	6384
818.497	6285
818.638	6152
818.778	6125
818.919	6163
819.06	6152
819.2	6372
819.341	6308
819.481	6346
819.622	6536
819.762	6764
819.903	6715
820.043	6654
820.184	6517
820.324	6593
820.465	6719
820.605	6711
820.746	6646
820.886	6585
821.026	6684
821.167	6726
821.307	6814
821.447	6814
821.588	6684
821.728	6601
821.868	6506
822.008	6369
822.149	6391
822.289	6327
822.429	6175
822.569	6114
822.709	6091
822.849	6019
822.99	5954
823.13	5931
823.27	5847
823.41	5748
823.55	5805
823.69	5798
823.83	5741
823.97	5653
824.11	5532
824.25	5520
824.389	5566
824.529	5589
824.669	5524
824.809	5642
824.949	5653
825.089	5630
825.228	5668
825.368	5406
825.508	5372
825.648	5360
825.787	5379
825.927	5376
826.067	5330
826.206	5349
826.346	5414
826.485	5444
826.625	5406
826.765	5627
826.904	5448
827.044	5235
827.183	5216
827.323	5170
827.462	5318
827.601	5189
827.741	5181
827.88	5227
828.02	5113
828.159	5216
828.298	5326
828.437	5341
828.577	5315
828.716	5482
828.855	5315
828.994	5220
829.134	5162
829.273	5197
829.412	5185
829.551	5185
829.69	5208
829.829	5269
829.968	5387
830.107	5303
830.246	5296
830.385	5162
830.524	5174
830.663	5105
830.802	4968
830.941	4965
831.08	4881
831.219	5006
831.357	5025
831.496	5185
831.635	4942
831.774	4870
831.913	4877
832.051	4767
832.19	4717
832.329	4892
832.467	4717
832.606	4687
832.744	4729
832.883	4710
833.022	4698
833.16	4786
833.299	4850
833.437	4866
833.576	4828
833.714	4858
833.852	4809
833.991	4839
834.129	4980
834.267	4942
834.406	4923
834.544	4999
834.682	4965
834.821	4984
834.959	5162
835.097	5010
835.235	5124
835.373	5094
835.511	5128
835.65	5113
835.788	5018
835.926	4877
836.064	4900
836.202	4965
836.34	5178
836.478	5242
836.615	5155
836.753	5246
836.891	5326
837.029	5231
837.167	5239
837.305	5181
837.443	5193
837.58	5098
837.718	5250
837.856	5208
837.993	5124
838.131	5277
838.269	5269
838.406	5220
838.544	5197
838.681	5048
838.819	4991
838.956	4904
839.094	4949
839.231	4972
839.369	5128
839.506	5459
839.643	5326
839.781	5067
839.918	5041
840.055	5121
840.193	5121
840.33	5170
840.467	5140
840.604	5162
840.742	5520
840.879	5071
841.016	5136
841.153	5178
841.29	5368
841.427	5345
841.564	5353
841.701	5368
841.838	5326
841.975	5254
842.112	5299
842.249	5121
842.385	5155
842.522	5334
842.659	5193
842.796	5178
842.933	5178
843.069	5155
843.206	5170
843.343	5326
843.479	5296
843.616	5273
843.752	5090
843.889	5052
844.025	5246
844.162	4984
844.298	5235
844.435	5102
844.571	5086
844.708	5185
844.844	5337
844.98	5379
845.117	5326
845.253	5109
845.389	5079
845.525	5170
845.661	5136
845.798	5052
845.934	5102
846.07	5067
846.206	5288
846.342	5307
846.478	5250
846.614	5048
846.75	4999
846.886	4976
847.022	5136
847.158	4999
847.294	5079
847.429	5094
847.565	5048
847.701	5326
847.837	4873
847.972	4812
848.108	4965
848.244	4930
848.379	4805
848.515	4736
848.65	4744
848.786	4774
848.921	4782
849.057	4866
849.192	4915
849.328	4797
849.463	4900
849.598	4774
849.734	4767
849.869	4691
850.004	4634
850.14	4702
850.275	4596
850.41	4577
850.545	4603
850.68	4630
850.815	4599
850.95	4588
851.085	4866
851.22	4786
851.355	4702
851.49	4618
851.625	4649
851.76	4675
851.895	4554
852.03	4550
852.165	4702
852.299	4809
852.434	4793
852.569	4812
852.703	4752
852.838	4870
852.973	4984
853.107	4923
853.242	4759
853.376	4694
853.511	4561
853.645	4660
853.78	4801
853.914	4763
854.048	4687
854.183	4630
854.317	4759
854.451	4828
854.585	4694
854.72	4664
854.854	4786
854.988	4618
855.122	4637
855.256	4500
855.39	4660
855.524	4839
855.658	4790
855.792	4675
855.926	4774
856.06	4744
856.194	4767
856.327	4702
856.461	4603
856.595	4645
856.729	4580
856.862	4782
856.996	4714
857.13	4778
857.263	4763
857.397	4873
857.53	4679
857.664	4729
857.797	4774
857.931	4801
858.064	4771
858.197	4733
858.331	4668
858.464	4611
858.597	4546
858.731	4645
858.864	4656
858.997	4641
859.13	4649
859.263	4714
859.396	4706
859.529	4577
859.662	4580
859.795	4546
859.928	4687
860.061	4778
860.194	4820
860.327	4649
860.46	4558
860.592	4706
860.725	4721
860.858	4744
860.99	4607
861.123	4569
861.256	4542
861.388	4569
861.521	5288
861.653	4546
861.786	4474
861.918	4432
862.05	4519
862.183	4580
862.315	4596
862.447	4672
862.58	4573
862.712	4405
862.844	4333
862.976	4504
863.108	4443
863.24	4759
863.372	4386
863.504	4402
863.636	4402
863.768	4474
863.9	4443
864.032	4413
864.164	4424
864.296	4466
864.428	4584
864.559	4584
864.691	4554
864.823	4542
864.954	4466
865.086	4500
865.217	4470
865.349	4413
865.48	4470
865.612	4489
865.743	4641
865.875	4440
866.006	4421
866.137	4485
866.269	4481
866.4	4417
866.531	4451
866.662	4440
866.793	4417
866.924	4417
867.055	4535
867.186	4478
867.317	4455
867.448	4402
867.579	4447
867.71	4390
867.841	4360
867.972	4466
868.103	4443
868.233	4489
868.364	4428
868.495	4436
868.625	4660
868.756	4771
868.886	4565
869.017	4615
869.147	4748
869.278	4824
869.408	4668
869.539	4653
869.669	4698
869.799	4615
869.929	4793
870.06	4736
870.19	4930
870.32	4946
870.45	4934
870.58	5045
870.71	5121
870.84	5075
870.97	4949
871.1	4930
871.23	5155
871.36	5113
871.489	4946
871.619	5083
871.749	5121
871.879	5121
872.008	5193
872.138	5018
872.267	4972
872.397	4877
872.526	4786
872.656	4729
872.785	4805
872.915	4961
873.044	5022
873.173	4915
873.303	4938
873.432	4987
873.561	4999
873.69	4858
873.819	4858
873.948	4911
874.077	4767
874.206	4740
874.335	4801
874.464	4892
874.593	5048
874.722	4930
874.851	5124
874.979	5060
875.108	5025
875.237	4942
875.365	4908
875.494	4847
875.623	4995
875.751	4809
875.88	4946
876.008	5003
876.136	5086
876.265	5193
876.393	5322
876.521	5261
876.65	5208
876.778	5166
876.906	5136
877.034	5018
877.162	5045
877.29	4984
877.418	5022
877.546	5037
877.674	5109
877.802	4999
877.93	5037
878.058	4892
878.185	4862
878.313	4987
878.441	4923
878.568	4835
878.696	4858
878.824	4976
878.951	5033
879.079	5140
879.206	5261
879.333	5079
879.461	4980
879.588	4976
879.715	5105
879.842	5258
879.97	5006
880.097	4801
880.224	4714
880.351	4831
880.478	4839
880.605	4793
880.732	4839
880.859	5071
880.986	4873
881.112	4911
881.239	4774
881.366	4668
881.493	4588
881.619	4573
881.746	4630
881.872	4660
881.999	4618
882.125	4645
882.252	4790
882.378	4816
882.505	4961
882.631	4801
882.757	4664
882.883	4763
883.01	4706
883.136	4653
883.262	4626
883.388	4588
883.514	4862
883.64	4843
883.766	4752
883.892	4694
884.018	4710
884.143	4892
884.269	5029
884.395	4664
884.52	4630
884.646	4660
884.772	4607
884.897	4565
885.023	4660
885.148	4828
885.274	4889
885.399	4797
885.524	4694
885.65	4687
885.775	4748
885.9	4706
886.025	4858
886.15	4786
886.275	4702
886.4	4634
886.525	4675
886.65	4694
886.775	4672
886.9	4847
887.025	5029
887.149	4797
887.274	4683
887.399	4569
887.523	4569
887.648	4577
887.773	4592
887.897	4805
888.021	4816
888.146	4687
888.27	4752
888.395	4885
888.519	4858
888.643	4824
888.767	4820
888.891	4698
889.015	4634
889.139	4630
889.263	4603
889.387	4714
889.511	4858
889.635	4790
889.759	4660
889.883	4656
890.006	4717
890.13	4824
890.254	4592
890.377	4706
890.501	4550
890.624	4504
890.748	4615
890.871	4489
890.995	4470
891.118	4405
891.241	4523
891.364	4527
891.488	4603
891.611	4497
891.734	4531
891.857	4615
891.98	4516
892.103	4611
892.226	4565
892.349	4523
892.471	4421
892.594	4493
892.717	4535
892.839	4588
892.962	4573
893.085	4626
893.207	4554
893.33	4443
893.452	4493
893.575	4675
893.697	4550
893.819	4744
893.941	4809
894.064	4767
894.186	4611
894.308	4580
894.43	4721
894.552	4824
894.674	4736
894.796	4535
894.918	4618
895.04	4588
895.161	4740
895.283	4634
895.405	4535
895.526	4596
895.648	4641
895.769	4622
895.891	4687
896.012	4759
896.134	4694
896.255	4706
896.376	4649
896.498	4653
896.619	4664
896.74	4630
896.861	4664
896.982	4900
897.103	5060
897.224	4850
897.345	4748
897.466	4668
897.587	4748
897.708	4866
897.828	4820
897.949	4645
898.07	4542
898.19	4630
898.311	4809
898.431	4691
898.552	4721
898.672	4809
898.792	4755
898.913	4797
899.033	4637
899.153	4538
899.273	4371
899.393	4508
899.513	4550
899.633	4523
899.753	4531
899.873	4542
899.993	4542
900.113	4489
900.232	4599
900.352	4554
900.472	4485
900.591	4413
900.711	4493
900.83	4421
900.95	4592
901.069	4714
901.189	4542
901.308	4341
901.427	4268
901.546	4409
901.665	4440
901.784	4500
901.904	4363
902.023	4356
902.141	4120
902.26	4162
902.379	4299
902.498	4211
902.617	4200
902.735	4356
902.854	4413
902.973	4352
903.091	4177
903.21	4188
903.328	4333
903.446	4230
903.565	4238
903.683	4390
903.801	4310
903.919	4356
904.038	4402
904.156	4310
904.274	4436
904.392	4390
904.51	4390
904.627	4462
904.745	4573
904.863	4577
904.981	4451
905.098	4306
905.216	4344
905.334	4424
905.451	4443
905.569	4386
905.686	4538
905.803	4561
905.921	4432
906.038	4546
906.155	4440
906.272	4375
906.389	4500
906.506	4371
906.623	4386
906.74	4409
906.857	4280
906.974	4363
907.091	4550
907.208	4687
907.324	4569
907.441	4474
907.557	4341
907.674	4325
907.79	4287
907.907	4375
908.023	4508
908.139	4443
908.256	4390
908.372	4443
908.488	4409
908.604	4360
908.72	4314
908.836	4348
908.952	4409
909.068	4440
909.184	4535
909.3	4474
909.415	4546
909.531	4573
909.647	4348
909.762	4314
909.878	4272
909.993	4447
910.108	4409
910.224	4440
910.339	4497
910.454	4405
910.57	4405
910.685	4360
910.8	4596
910.915	4611
911.03	4519
911.145	4291
911.259	4287
911.374	4337
911.489	4322
911.604	4280
911.718	4169
911.833	4196
911.947	4078
912.062	4013
912.176	4188
912.291	4207
912.405	4204
912.519	4478
912.633	4497
912.748	4383
912.862	4303
912.976	4200
913.09	4097
913.204	4150
913.318	4215
913.431	4318
913.545	4341
913.659	4413
913.772	4390
913.886	4207
914	4227
914.113	4390
914.226	4455
914.34	4405
914.453	4219
914.566	4402
914.68	4303
914.793	4333
914.906	4135
915.019	4147
915.132	4040
915.245	4158
915.358	4188
915.47	4211
915.583	4234
915.696	4280
915.809	4402
915.921	4363
916.034	4246
916.146	4257
916.259	4192
916.371	4367
916.483	4386
916.595	4257
916.708	4322
916.82	4363
916.932	4341
917.044	4299
917.156	4337
917.268	4211
917.38	4306
917.491	4276
917.603	4356
917.715	4417
917.826	4428
917.938	4287
918.049	4227
918.161	4413
918.272	4580
918.384	4542
918.495	4459
918.606	4257
918.717	4234
918.828	4329
918.939	4333
919.05	4268
919.161	4268
919.272	4109
919.383	4272
919.494	4424
919.604	4618
919.715	4459
919.826	4322
919.936	4333
920.047	4512
920.157	4470
920.267	4675
920.378	4554
920.488	4470
920.598	4744
920.708	4816
920.818	4714
920.928	4721
921.038	4919
921.148	4919
921.258	4641
921.368	4542
921.477	4447
921.587	4451
921.697	4390
921.806	4546
921.916	4436
922.025	4261
922.134	4253
922.244	4185
922.353	4322
922.462	4188
922.571	4116
922.68	4002
922.789	4021
922.898	4032
923.007	3979
923.116	4105
923.224	4086
923.333	4051
923.442	3956
923.55	3994
923.659	4051
923.767	4143
923.876	4002
923.984	4109
924.092	3941
924.201	4086
924.309	4093
924.417	4124
924.525	4055
924.633	4093
924.741	5022
924.849	3949
924.956	4101
925.064	3922
925.172	3876
925.279	3972
925.387	4010
925.494	4051
925.602	4185
925.709	4188
925.816	4036
925.924	4181
926.031	4215
926.138	4120
926.245	4169
926.352	4048
926.459	4215
926.566	4303
926.673	4135
926.779	4078
926.886	4074
926.993	3975
927.099	4002
927.206	3922
927.312	3934
927.419	4059
927.525	4021
927.631	4067
927.737	3979
927.843	3934
927.95	3812
928.056	3911
928.162	3979
928.267	4074
928.373	4516
928.479	4093
928.585	3842
928.69	4029
928.796	4048
928.901	3975
929.007	3911
929.112	4006
929.218	3934
929.323	3896
929.428	3968
929.533	4074
929.638	3869
929.743	3964
929.848	4032
929.953	3956
930.058	3918
930.163	3751
930.267	3819
930.372	3979
930.477	3759
930.581	4082
930.685	3960
930.79	3819
930.894	3876
930.998	3873
931.103	4006
931.207	3713
931.311	3686
931.415	3663
931.519	3504
931.623	3545
