Data from test_V78500241_434.txt Node
Date: Fri Mar 25 16:52:01 CST 2022
User: usil
Spectrometer: V785-0024
Trigger mode: 0
Integration Time (sec): 4.000000E-1
Scans to average: 1
Nonlinearity correction enabled: false
Boxcar width: 0
Storing dark spectrum: false
XAxis mode: Wavelengths
Number of Pixels in Spectrum: 1024
>>>>>Begin Spectral Data<<<<<
801.071	8077
801.214	8016
801.356	7803
801.499	7875
801.641	7845
801.783	7833
801.926	7978
802.068	7955
802.211	7982
802.353	8024
802.496	7841
802.638	7852
802.78	7894
802.923	7913
803.065	7883
803.208	7849
803.35	7959
803.492	8016
803.635	8149
803.777	8031
803.919	8126
804.061	8358
804.204	8100
804.346	8012
804.488	7913
804.63	8081
804.773	8062
804.915	8100
805.057	8317
805.199	8199
805.341	8225
805.483	8313
805.626	8054
805.768	8008
805.91	8134
806.052	8183
806.194	8145
806.336	8320
806.478	8153
806.62	8043
806.762	8126
806.904	8233
807.046	8446
807.188	8339
807.33	8290
807.472	8309
807.614	8149
807.756	8161
807.898	8024
808.04	7902
808.182	7993
808.324	7974
808.465	7909
808.607	8073
808.749	8123
808.891	8176
809.033	8286
809.174	8221
809.316	8115
809.458	8054
809.6	8005
809.741	8039
809.883	8043
810.025	8123
810.166	8107
810.308	8046
810.45	8073
810.591	7928
810.733	7712
810.875	7693
811.016	7533
811.158	7506
811.299	7643
811.441	7795
811.582	7719
811.724	7624
811.865	7620
812.007	7639
812.148	7620
812.29	7609
812.431	7803
812.573	7921
812.714	7947
812.855	8168
812.997	8210
813.138	8370
813.279	8134
813.421	8119
813.562	8069
813.703	7925
813.845	7830
813.986	7521
814.127	7396
814.268	7346
814.41	7209
814.551	7179
814.692	7217
814.833	7091
814.974	7190
815.115	7141
815.256	6935
815.397	6856
815.539	6920
815.68	6833
815.821	6818
815.962	6867
816.103	6878
816.244	6795
816.385	6681
816.526	6627
816.666	6479
816.807	6342
816.948	6528
817.089	6433
817.23	6498
817.371	6376
817.512	6380
817.653	6388
817.793	6357
817.934	6437
818.075	6494
818.216	6429
818.356	6414
818.497	6239
818.638	6110
818.778	6159
818.919	6197
819.06	6117
819.2	6350
819.341	6350
819.481	6388
819.622	6490
819.762	6776
819.903	6722
820.043	6604
820.184	6582
820.324	6566
820.465	6722
820.605	6658
820.746	6684
820.886	6555
821.026	6658
821.167	6688
821.307	6814
821.447	6764
821.588	6650
821.728	6650
821.868	6540
822.008	6338
822.149	6407
822.289	6372
822.429	6098
822.569	6091
822.709	6110
822.849	5950
822.99	5916
823.13	5916
823.27	5923
823.41	5790
823.55	5783
823.69	5824
823.83	5756
823.97	5710
824.11	5543
824.25	5512
824.389	5532
824.529	5592
824.669	5528
824.809	5589
824.949	5623
825.089	5638
825.228	5532
825.368	5410
825.508	5337
825.648	5360
825.787	5391
825.927	5376
826.067	5349
826.206	5288
826.346	5364
826.485	5440
826.625	5417
826.765	5573
826.904	5463
827.044	5258
827.183	5239
827.323	5143
827.462	5269
827.601	5159
827.741	5189
827.88	5235
828.02	5132
828.159	5292
828.298	5318
828.437	5395
828.577	5284
828.716	5448
828.855	5334
828.994	5178
829.134	5162
829.273	5181
829.412	5132
829.551	5140
829.69	5132
829.829	5273
829.968	5398
830.107	5273
830.246	5296
830.385	5223
830.524	5140
830.663	5029
830.802	4995
830.941	4881
831.08	4850
831.219	4991
831.357	4999
831.496	5140
831.635	4938
831.774	4858
831.913	4831
832.051	4736
832.19	4786
832.329	4816
832.467	4645
832.606	4645
832.744	4729
832.883	4774
833.022	4656
833.16	4790
833.299	4812
833.437	4809
833.576	4870
833.714	4858
833.852	4858
833.991	4866
834.129	4946
834.267	4961
834.406	4896
834.544	4965
834.682	4957
834.821	4995
834.959	5189
835.097	4957
835.235	5124
835.373	5048
835.511	5113
835.65	4995
835.788	5033
835.926	4904
836.064	4866
836.202	4965
836.34	5147
836.478	5235
836.615	5094
836.753	5258
836.891	5242
837.029	5220
837.167	5170
837.305	5151
837.443	5201
837.58	5064
837.718	5235
837.856	5216
837.993	5094
838.131	5220
838.269	5216
838.406	5201
838.544	5227
838.681	5064
838.819	5033
838.956	4942
839.094	4900
839.231	4980
839.369	5113
839.506	5421
839.643	5292
839.781	5083
839.918	5010
840.055	5098
840.193	5064
840.33	5086
840.467	5208
840.604	5193
840.742	5398
840.879	5086
841.016	5071
841.153	5079
841.29	5368
841.427	5311
841.564	5368
841.701	5330
841.838	5261
841.975	5239
842.112	5277
842.249	5170
842.385	5121
842.522	5357
842.659	5143
842.796	5147
842.933	5235
843.069	5181
843.206	5212
843.343	5299
843.479	5277
843.616	5246
843.752	5022
843.889	4972
844.025	5204
844.162	5022
844.298	5242
844.435	5086
844.571	5033
844.708	5220
844.844	5292
844.98	5364
845.117	5315
845.253	5170
845.389	5113
845.525	5151
845.661	5105
845.798	5025
845.934	5159
846.07	5041
846.206	5147
846.342	5265
846.478	5201
846.614	4995
846.75	4987
846.886	4930
847.022	5140
847.158	4995
847.294	5033
847.429	5147
847.565	4980
847.701	5284
847.837	4797
847.972	4790
848.108	4946
848.244	4961
848.379	4820
848.515	4702
848.65	4714
848.786	4752
848.921	4797
849.057	4816
849.192	4892
849.328	4831
849.463	4809
849.598	4828
849.734	4748
849.869	4694
850.004	4653
850.14	4641
850.275	4637
850.41	4565
850.545	4577
850.68	4626
850.815	4634
850.95	4626
851.085	4843
851.22	4717
851.355	4630
851.49	4645
851.625	4630
851.76	4660
851.895	4588
852.03	4519
852.165	4687
852.299	4721
852.434	4790
852.569	4778
852.703	4736
852.838	4812
852.973	4949
853.107	4896
853.242	4740
853.376	4656
853.511	4573
853.645	4615
853.78	4809
853.914	4637
854.048	4664
854.183	4668
854.317	4729
854.451	4820
854.585	4656
854.72	4622
854.854	4771
854.988	4645
855.122	4603
855.256	4542
855.39	4637
855.524	4782
855.658	4725
855.792	4721
855.926	4725
856.06	4763
856.194	4793
856.327	4687
856.461	4630
856.595	4603
856.729	4588
856.862	4725
856.996	4710
857.13	4672
857.263	4793
857.397	4797
857.53	4645
857.664	4725
857.797	4767
857.931	4755
858.064	4687
858.197	4714
858.331	4710
858.464	4615
858.597	4497
858.731	4565
858.864	4615
858.997	4577
859.13	4672
859.263	4668
859.396	4668
859.529	4592
859.662	4584
859.795	4550
859.928	4645
860.061	4767
860.194	4752
860.327	4603
860.46	4550
860.592	4729
860.725	4752
860.858	4733
860.99	4630
861.123	4462
861.256	4523
861.388	4645
861.521	5425
861.653	4470
861.786	4417
861.918	4440
862.05	4565
862.183	4531
862.315	4561
862.447	4649
862.58	4542
862.712	4424
862.844	4314
862.976	4516
863.108	4489
863.24	4748
863.372	4295
863.504	4417
863.636	4436
863.768	4481
863.9	4474
864.032	4375
864.164	4417
864.296	4478
864.428	4542
864.559	4584
864.691	4542
864.823	4538
864.954	4497
865.086	4531
865.217	4421
865.349	4375
865.48	4432
865.612	4466
865.743	4649
865.875	4474
866.006	4424
866.137	4512
866.269	4459
866.4	4436
866.531	4478
866.662	4417
866.793	4348
866.924	4390
867.055	4527
867.186	4436
867.317	4413
867.448	4394
867.579	4386
867.71	4352
867.841	4379
867.972	4512
868.103	4500
868.233	4451
868.364	4508
868.495	4504
868.625	4691
868.756	4721
868.886	4584
869.017	4656
869.147	4778
869.278	4786
869.408	4645
869.539	4656
869.669	4702
869.799	4656
869.929	4782
870.06	4710
870.19	4995
870.32	4923
870.45	4923
870.58	5010
870.71	5121
870.84	5117
870.97	4949
871.1	4908
871.23	5117
871.36	5136
871.489	5060
871.619	5067
871.749	5071
871.879	5132
872.008	5159
872.138	5056
872.267	5022
872.397	4866
872.526	4786
872.656	4759
872.785	4782
872.915	4942
873.044	5014
873.173	4965
873.303	4953
873.432	4984
873.561	4942
873.69	4885
873.819	4843
873.948	4938
874.077	4847
874.206	4771
874.335	4767
874.464	4911
874.593	5094
874.722	4987
874.851	5075
874.979	5060
875.108	5041
875.237	4889
875.365	4930
875.494	4873
875.623	4991
875.751	4816
875.88	4892
876.008	4987
876.136	5025
876.265	5185
876.393	5330
876.521	5288
876.65	5220
876.778	5140
876.906	5060
877.034	5041
877.162	5048
877.29	4984
877.418	5098
877.546	5064
877.674	5075
877.802	5052
877.93	5014
878.058	4927
878.185	4866
878.313	4957
878.441	4961
878.568	4809
878.696	4911
878.824	4968
878.951	4957
879.079	5128
879.206	5288
879.333	5102
879.461	5003
879.588	4995
879.715	5128
879.842	5273
879.97	5041
880.097	4786
880.224	4763
880.351	4793
880.478	4805
880.605	4820
880.732	4790
880.859	5071
880.986	4930
881.112	4923
881.239	4736
881.366	4634
881.493	4611
881.619	4603
881.746	4599
881.872	4691
881.999	4660
882.125	4637
882.252	4786
882.378	4801
882.505	4953
882.631	4759
882.757	4637
882.883	4725
883.01	4740
883.136	4664
883.262	4645
883.388	4618
883.514	4744
883.64	4873
883.766	4805
883.892	4664
884.018	4733
884.143	4900
884.269	5018
884.395	4634
884.52	4622
884.646	4637
884.772	4626
884.897	4611
885.023	4698
885.148	4793
885.274	4915
885.399	4835
885.524	4645
885.65	4664
885.775	4706
885.9	4725
886.025	4828
886.15	4755
886.275	4725
886.4	4679
886.525	4717
886.65	4691
886.775	4637
886.9	4930
887.025	5079
887.149	4797
887.274	4660
887.399	4588
887.523	4588
887.648	4630
887.773	4607
887.897	4736
888.021	4736
888.146	4649
888.27	4797
888.395	4896
888.519	4835
888.643	4820
888.767	4831
888.891	4687
889.015	4618
889.139	4611
889.263	4596
889.387	4740
889.511	4873
889.635	4771
889.759	4618
889.883	4630
890.006	4710
890.13	4812
890.254	4599
890.377	4664
890.501	4546
890.624	4531
890.748	4645
890.871	4512
890.995	4470
891.118	4383
891.241	4516
891.364	4558
891.488	4634
891.611	4497
891.734	4554
891.857	4656
891.98	4592
892.103	4683
892.226	4592
892.349	4512
892.471	4390
892.594	4569
892.717	4611
892.839	4580
892.962	4550
893.085	4687
893.207	4626
893.33	4493
893.452	4538
893.575	4618
893.697	4577
893.819	4824
893.941	4805
894.064	4801
894.186	4641
894.308	4573
894.43	4675
894.552	4850
894.674	4725
894.796	4500
894.918	4577
895.04	4596
895.161	4748
895.283	4679
895.405	4577
895.526	4660
895.648	4698
895.769	4694
895.891	4714
896.012	4721
896.134	4714
896.255	4752
896.376	4611
896.498	4588
896.619	4694
896.74	4653
896.861	4664
896.982	4854
897.103	4999
897.224	4843
897.345	4748
897.466	4653
897.587	4763
897.708	4881
897.828	4805
897.949	4656
898.07	4527
898.19	4622
898.311	4862
898.431	4664
898.552	4733
898.672	4843
898.792	4816
898.913	4714
899.033	4641
899.153	4493
899.273	4508
899.393	4485
899.513	4527
899.633	4565
899.753	4561
899.873	4527
899.993	4596
900.113	4565
900.232	4603
900.352	4535
900.472	4455
900.591	4394
900.711	4504
900.83	4481
900.95	4630
901.069	4691
901.189	4546
901.308	4356
901.427	4314
901.546	4405
901.665	4489
901.784	4485
901.904	4417
902.023	4337
902.141	4177
902.26	4158
902.379	4303
902.498	4215
902.617	4230
902.735	4352
902.854	4390
902.973	4360
903.091	4234
903.21	4276
903.328	4318
903.446	4249
903.565	4246
903.683	4360
903.801	4272
903.919	4360
904.038	4417
904.156	4314
904.274	4428
904.392	4390
904.51	4405
904.627	4440
904.745	4577
904.863	4573
904.981	4390
905.098	4261
905.216	4329
905.334	4394
905.451	4462
905.569	4462
905.686	4569
905.803	4569
905.921	4421
906.038	4538
906.155	4493
906.272	4333
906.389	4432
906.506	4344
906.623	4375
906.74	4386
906.857	4284
906.974	4367
907.091	4558
907.208	4675
907.324	4584
907.441	4497
907.557	4295
907.674	4333
907.79	4318
907.907	4390
908.023	4489
908.139	4481
908.256	4432
908.372	4478
908.488	4443
908.604	4402
908.72	4318
908.836	4356
908.952	4375
909.068	4447
909.184	4508
909.3	4440
909.415	4554
909.531	4550
909.647	4348
909.762	4333
909.878	4367
909.993	4390
910.108	4405
910.224	4451
910.339	4512
910.454	4413
910.57	4337
910.685	4322
910.8	4664
910.915	4645
911.03	4481
911.145	4337
911.259	4344
911.374	4447
911.489	4291
911.604	4276
911.718	4169
911.833	4249
911.947	4131
912.062	4040
912.176	4261
912.291	4230
912.405	4230
912.519	4485
912.633	4481
912.748	4375
912.862	4367
912.976	4261
913.09	4124
913.204	4196
913.318	4295
913.431	4432
913.545	4360
913.659	4497
913.772	4383
913.886	4322
914	4272
914.113	4459
914.226	4500
914.34	4421
914.453	4276
914.566	4451
914.68	4383
914.793	4390
914.906	4166
915.019	4166
915.132	4135
915.245	4268
915.358	4268
915.47	4234
915.583	4348
915.696	4306
915.809	4500
915.921	4500
916.034	4284
916.146	4299
916.259	4242
916.371	4421
916.483	4443
916.595	4322
916.708	4390
916.82	4402
916.932	4352
917.044	4367
917.156	4405
917.268	4303
917.38	4306
917.491	4337
917.603	4424
917.715	4466
917.826	4497
917.938	4356
918.049	4341
918.161	4481
918.272	4603
918.384	4565
918.495	4474
918.606	4383
918.717	4268
918.828	4367
918.939	4424
919.05	4295
919.161	4405
919.272	4196
919.383	4230
919.494	4459
919.604	4679
919.715	4481
919.826	4436
919.936	4440
920.047	4550
920.157	4516
920.267	4767
920.378	4603
920.488	4546
920.598	4767
920.708	4915
920.818	4805
920.928	4816
921.038	4995
921.148	4957
921.258	4672
921.368	4588
921.477	4550
921.587	4535
921.697	4402
921.806	4569
921.916	4474
922.025	4287
922.134	4299
922.244	4276
922.353	4337
922.462	4204
922.571	4200
922.68	4040
922.789	3960
922.898	4074
923.007	4059
923.116	4124
923.224	4112
923.333	4105
923.442	4044
923.55	4029
923.659	4078
923.767	4147
923.876	4044
923.984	4177
924.092	4010
924.201	4109
924.309	4166
924.417	4131
924.525	4112
924.633	4211
924.741	5071
924.849	3953
924.956	4143
925.064	3983
925.172	3953
925.279	4002
925.387	4055
925.494	4059
925.602	4211
925.709	4181
925.816	4112
925.924	4128
926.031	4276
926.138	4246
926.245	4253
926.352	4128
926.459	4310
926.566	4375
926.673	4185
926.779	4139
926.886	4131
926.993	3979
927.099	3991
927.206	3956
927.312	3975
927.419	4093
927.525	4021
927.631	4124
927.737	4013
927.843	3964
927.95	3888
928.056	3922
928.162	4048
928.267	4063
928.373	4767
928.479	4177
928.585	3903
928.69	4029
928.796	4109
928.901	3979
929.007	3922
929.112	4055
929.218	4036
929.323	3987
929.428	3964
929.533	4135
929.638	3949
929.743	4002
929.848	4097
929.953	4029
930.058	4010
930.163	3785
930.267	3827
930.372	4040
930.477	3861
930.581	4143
930.685	3964
930.79	3876
930.894	3926
930.998	3896
931.103	4090
931.207	3797
931.311	3755
931.415	3663
931.519	3557
931.623	3606
