Data from test_V78500241_545.txt Node
Date: Fri Mar 25 16:52:47 CST 2022
User: usil
Spectrometer: V785-0024
Trigger mode: 0
Integration Time (sec): 4.000000E-1
Scans to average: 1
Nonlinearity correction enabled: false
Boxcar width: 0
Storing dark spectrum: false
XAxis mode: Wavelengths
Number of Pixels in Spectrum: 1024
>>>>>Begin Spectral Data<<<<<
801.071	8001
801.214	7978
801.356	7841
801.499	7795
801.641	7769
801.783	7871
801.926	7963
802.068	7917
802.211	8077
802.353	8020
802.496	7940
802.638	7940
802.78	7902
802.923	7921
803.065	7849
803.208	7856
803.35	7917
803.492	8084
803.635	8088
803.777	7982
803.919	8172
804.061	8442
804.204	8164
804.346	8084
804.488	7925
804.63	8050
804.773	8024
804.915	8054
805.057	8263
805.199	8168
805.341	8301
805.483	8271
805.626	8229
805.768	8065
805.91	8149
806.052	8202
806.194	8142
806.336	8305
806.478	8073
806.62	8130
806.762	8183
806.904	8210
807.046	8404
807.188	8301
807.33	8191
807.472	8294
807.614	8073
807.756	8149
807.898	7898
808.04	7890
808.182	7944
808.324	7936
808.465	7894
808.607	7993
808.749	8020
808.891	8206
809.033	8233
809.174	8149
809.316	8050
809.458	8012
809.6	7917
809.741	8050
809.883	8027
810.025	8096
810.166	8035
810.308	7997
810.45	8016
810.591	7868
810.733	7765
810.875	7643
811.016	7533
811.158	7495
811.299	7651
811.441	7738
811.582	7696
811.724	7556
811.865	7537
812.007	7552
812.148	7620
812.29	7636
812.431	7750
812.573	7864
812.714	8046
812.855	8126
812.997	8195
813.138	8324
813.279	8161
813.421	8153
813.562	8046
813.703	7898
813.845	7795
813.986	7510
814.127	7407
814.268	7278
814.41	7285
814.551	7156
814.692	7183
814.833	7031
814.974	7080
815.115	7137
815.256	6939
815.397	6886
815.539	6886
815.68	6871
815.821	6745
815.962	6958
816.103	6810
816.244	6684
816.385	6650
816.526	6593
816.666	6498
816.807	6308
816.948	6471
817.089	6452
817.23	6429
817.371	6380
817.512	6357
817.653	6323
817.793	6403
817.934	6399
818.075	6494
818.216	6376
818.356	6395
818.497	6262
818.638	6121
818.778	6213
818.919	6110
819.06	6136
819.2	6270
819.341	6289
819.481	6342
819.622	6525
819.762	6776
819.903	6684
820.043	6555
820.184	6547
820.324	6608
820.465	6608
820.605	6677
820.746	6627
820.886	6486
821.026	6650
821.167	6681
821.307	6798
821.447	6692
821.588	6623
821.728	6528
821.868	6479
822.008	6338
822.149	6380
822.289	6327
822.429	6140
822.569	6102
822.709	6106
822.849	5885
822.99	5904
823.13	5939
823.27	5847
823.41	5805
823.55	5767
823.69	5802
823.83	5767
823.97	5649
824.11	5524
824.25	5532
824.389	5516
824.529	5547
824.669	5505
824.809	5619
824.949	5657
825.089	5630
825.228	5543
825.368	5345
825.508	5364
825.648	5330
825.787	5364
825.927	5417
826.067	5299
826.206	5242
826.346	5360
826.485	5421
826.625	5406
826.765	5528
826.904	5444
827.044	5231
827.183	5212
827.323	5098
827.462	5261
827.601	5143
827.741	5159
827.88	5189
828.02	5109
828.159	5261
828.298	5292
828.437	5383
828.577	5254
828.716	5482
828.855	5303
828.994	5128
829.134	5189
829.273	5193
829.412	5094
829.551	5155
829.69	5189
829.829	5273
829.968	5337
830.107	5284
830.246	5315
830.385	5197
830.524	5143
830.663	5056
830.802	4995
830.941	4885
831.08	4858
831.219	4984
831.357	4999
831.496	5151
831.635	4904
831.774	4870
831.913	4862
832.051	4698
832.19	4717
832.329	4839
832.467	4694
832.606	4622
832.744	4744
832.883	4706
833.022	4736
833.16	4797
833.299	4824
833.437	4839
833.576	4786
833.714	4900
833.852	4900
833.991	4850
834.129	4991
834.267	4957
834.406	4915
834.544	4980
834.682	4980
834.821	4984
834.959	5166
835.097	4927
835.235	5181
835.373	5079
835.511	5071
835.65	4987
835.788	4995
835.926	4862
836.064	4850
836.202	4889
836.34	5147
836.478	5189
836.615	5105
836.753	5166
836.891	5288
837.029	5242
837.167	5197
837.305	5159
837.443	5147
837.58	5094
837.718	5242
837.856	5155
837.993	5201
838.131	5201
838.269	5178
838.406	5216
838.544	5132
838.681	4999
838.819	5029
838.956	4908
839.094	4877
839.231	4965
839.369	5086
839.506	5406
839.643	5223
839.781	5014
839.918	5014
840.055	5128
840.193	5052
840.33	5094
840.467	5090
840.604	5178
840.742	5452
840.879	5075
841.016	5098
841.153	5185
841.29	5379
841.427	5353
841.564	5315
841.701	5330
841.838	5288
841.975	5227
842.112	5227
842.249	5124
842.385	5113
842.522	5258
842.659	5162
842.796	5128
842.933	5162
843.069	5140
843.206	5090
843.343	5322
843.479	5212
843.616	5254
843.752	4987
843.889	4965
844.025	5216
844.162	5014
844.298	5185
844.435	5060
844.571	5079
844.708	5185
844.844	5258
844.98	5326
845.117	5261
845.253	5136
845.389	5060
845.525	5155
845.661	5086
845.798	5067
845.934	5166
846.07	5060
846.206	5166
846.342	5288
846.478	5197
846.614	4987
846.75	4953
846.886	4968
847.022	5132
847.158	5006
847.294	5083
847.429	5102
847.565	5048
847.701	5296
847.837	4839
847.972	4816
848.108	4957
848.244	4953
848.379	4820
848.515	4767
848.65	4752
848.786	4774
848.921	4820
849.057	4862
849.192	4927
849.328	4835
849.463	4850
849.598	4828
849.734	4767
849.869	4672
850.004	4645
850.14	4660
850.275	4611
850.41	4512
850.545	4554
850.68	4569
850.815	4607
850.95	4649
851.085	4809
851.22	4706
851.355	4698
851.49	4599
851.625	4649
851.76	4622
851.895	4611
852.03	4500
852.165	4630
852.299	4691
852.434	4809
852.569	4725
852.703	4797
852.838	4862
852.973	4934
853.107	4930
853.242	4706
853.376	4615
853.511	4538
853.645	4611
853.78	4767
853.914	4672
854.048	4675
854.183	4653
854.317	4660
854.451	4854
854.585	4645
854.72	4622
854.854	4759
854.988	4577
855.122	4603
855.256	4531
855.39	4672
855.524	4824
855.658	4694
855.792	4694
855.926	4691
856.06	4786
856.194	4805
856.327	4706
856.461	4634
856.595	4550
856.729	4596
856.862	4729
856.996	4645
857.13	4729
857.263	4763
857.397	4812
857.53	4618
857.664	4698
857.797	4744
857.931	4793
858.064	4672
858.197	4729
858.331	4664
858.464	4561
858.597	4546
858.731	4637
858.864	4626
858.997	4630
859.13	4634
859.263	4679
859.396	4706
859.529	4554
859.662	4592
859.795	4508
859.928	4660
860.061	4725
860.194	4763
860.327	4588
860.46	4592
860.592	4714
860.725	4698
860.858	4698
860.99	4523
861.123	4531
861.256	4481
861.388	4611
861.521	5433
861.653	4497
861.786	4432
861.918	4409
862.05	4493
862.183	4535
862.315	4592
862.447	4668
862.58	4577
862.712	4421
862.844	4280
862.976	4497
863.108	4432
863.24	4896
863.372	4360
863.504	4443
863.636	4398
863.768	4485
863.9	4394
864.032	4329
864.164	4394
864.296	4485
864.428	4542
864.559	4542
864.691	4573
864.823	4508
864.954	4493
865.086	4527
865.217	4447
865.349	4371
865.48	4447
865.612	4500
865.743	4577
865.875	4459
866.006	4394
866.137	4485
866.269	4432
866.4	4470
866.531	4405
866.662	4413
866.793	4402
866.924	4432
867.055	4497
867.186	4451
867.317	4462
867.448	4360
867.579	4371
867.71	4383
867.841	4341
867.972	4459
868.103	4443
868.233	4440
868.364	4443
868.495	4485
868.625	4660
868.756	4771
868.886	4599
869.017	4615
869.147	4755
869.278	4801
869.408	4672
869.539	4637
869.669	4740
869.799	4645
869.929	4767
870.06	4748
870.19	4949
870.32	4919
870.45	4923
870.58	4972
870.71	5067
870.84	5132
870.97	4972
871.1	4877
871.23	5128
871.36	5140
871.489	4987
871.619	5067
871.749	5071
871.879	5140
872.008	5170
872.138	5071
872.267	5018
872.397	4831
872.526	4828
872.656	4771
872.785	4831
872.915	4946
873.044	4995
873.173	4965
873.303	4976
873.432	4953
873.561	4984
873.69	4870
873.819	4843
873.948	4946
874.077	4816
874.206	4748
874.335	4805
874.464	4892
874.593	5045
874.722	4934
874.851	5113
874.979	5045
875.108	5010
875.237	4934
875.365	4870
875.494	4862
875.623	4946
875.751	4816
875.88	4862
876.008	4946
876.136	5010
876.265	5197
876.393	5364
876.521	5250
876.65	5227
876.778	5159
876.906	5090
877.034	5025
877.162	5109
877.29	5003
877.418	5037
877.546	5045
877.674	5071
877.802	5018
877.93	5025
878.058	4904
878.185	4877
878.313	4923
878.441	4976
878.568	4812
878.696	4870
878.824	4938
878.951	5029
879.079	5086
879.206	5280
879.333	5124
879.461	5010
879.588	5022
879.715	5128
879.842	5254
879.97	4987
880.097	4733
880.224	4771
880.351	4850
880.478	4820
880.605	4828
880.732	4786
880.859	5090
880.986	4923
881.112	4930
881.239	4767
881.366	4672
881.493	4622
881.619	4588
881.746	4592
881.872	4637
881.999	4653
882.125	4694
882.252	4763
882.378	4858
882.505	4984
882.631	4782
882.757	4725
882.883	4763
883.01	4763
883.136	4626
883.262	4607
883.388	4630
883.514	4759
883.64	4839
883.766	4759
883.892	4645
884.018	4733
884.143	4908
884.269	5003
884.395	4702
884.52	4637
884.646	4626
884.772	4588
884.897	4550
885.023	4721
885.148	4790
885.274	4866
885.399	4839
885.524	4698
885.65	4706
885.775	4774
885.9	4729
886.025	4835
886.15	4809
886.275	4744
886.4	4687
886.525	4763
886.65	4702
886.775	4691
886.9	4892
887.025	5014
887.149	4801
887.274	4592
887.399	4618
887.523	4580
887.648	4618
887.773	4596
887.897	4736
888.021	4771
888.146	4668
888.27	4828
888.395	4927
888.519	4843
888.643	4820
888.767	4816
888.891	4702
889.015	4607
889.139	4641
889.263	4596
889.387	4752
889.511	4877
889.635	4755
889.759	4649
889.883	4615
890.006	4656
890.13	4790
890.254	4596
890.377	4683
890.501	4538
890.624	4523
890.748	4637
890.871	4508
890.995	4398
891.118	4436
891.241	4497
891.364	4596
891.488	4649
891.611	4478
891.734	4519
891.857	4611
891.98	4580
892.103	4645
892.226	4596
892.349	4550
892.471	4466
892.594	4592
892.717	4603
892.839	4561
892.962	4599
893.085	4634
893.207	4573
893.33	4481
893.452	4512
893.575	4668
893.697	4550
893.819	4782
893.941	4820
894.064	4786
894.186	4618
894.308	4569
894.43	4653
894.552	4801
894.674	4710
894.796	4550
894.918	4637
895.04	4588
895.161	4694
895.283	4660
895.405	4596
895.526	4630
895.648	4733
895.769	4687
895.891	4698
896.012	4740
896.134	4698
896.255	4618
896.376	4622
896.498	4618
896.619	4702
896.74	4603
896.861	4645
896.982	4915
897.103	5090
897.224	4812
897.345	4744
897.466	4721
897.587	4698
897.708	4828
897.828	4755
897.949	4664
898.07	4599
898.19	4653
898.311	4839
898.431	4683
898.552	4710
898.672	4805
898.792	4752
898.913	4721
899.033	4637
899.153	4546
899.273	4394
899.393	4470
899.513	4512
899.633	4531
899.753	4542
899.873	4519
899.993	4577
900.113	4527
900.232	4603
900.352	4550
900.472	4516
900.591	4402
900.711	4508
900.83	4455
900.95	4611
901.069	4687
901.189	4535
901.308	4394
901.427	4341
901.546	4341
901.665	4455
901.784	4519
901.904	4371
902.023	4291
902.141	4162
902.26	4185
902.379	4295
902.498	4246
902.617	4207
902.735	4421
902.854	4367
902.973	4341
903.091	4196
903.21	4246
903.328	4333
903.446	4280
903.565	4249
903.683	4383
903.801	4272
903.919	4421
904.038	4424
904.156	4337
904.274	4489
904.392	4413
904.51	4409
904.627	4474
904.745	4577
904.863	4637
904.981	4394
905.098	4333
905.216	4379
905.334	4436
905.451	4447
905.569	4394
905.686	4565
905.803	4569
905.921	4405
906.038	4634
906.155	4478
906.272	4409
906.389	4481
906.506	4379
906.623	4402
906.74	4409
906.857	4322
906.974	4386
907.091	4573
907.208	4687
907.324	4577
907.441	4489
907.557	4371
907.674	4379
907.79	4272
907.907	4436
908.023	4466
908.139	4516
908.256	4455
908.372	4493
908.488	4432
908.604	4341
908.72	4295
908.836	4402
908.952	4356
909.068	4455
909.184	4561
909.3	4497
909.415	4577
909.531	4535
909.647	4360
909.762	4379
909.878	4341
909.993	4428
910.108	4421
910.224	4421
910.339	4466
910.454	4402
910.57	4356
910.685	4303
910.8	4675
910.915	4569
911.03	4424
911.145	4344
911.259	4348
911.374	4352
911.489	4291
911.604	4276
911.718	4181
911.833	4211
911.947	4105
912.062	4055
912.176	4192
912.291	4185
912.405	4249
912.519	4455
912.633	4478
912.748	4394
912.862	4306
912.976	4249
913.09	4078
913.204	4181
913.318	4253
913.431	4375
913.545	4379
913.659	4451
913.772	4284
913.886	4234
914	4204
914.113	4386
914.226	4413
914.34	4424
914.453	4246
914.566	4478
914.68	4303
914.793	4356
914.906	4173
915.019	4112
915.132	4078
915.245	4200
915.358	4223
915.47	4234
915.583	4299
915.696	4299
915.809	4436
915.921	4405
916.034	4219
916.146	4249
916.259	4188
916.371	4363
916.483	4379
916.595	4261
916.708	4333
916.82	4325
916.932	4363
917.044	4386
917.156	4314
917.268	4234
917.38	4276
917.491	4280
917.603	4356
917.715	4386
917.826	4447
917.938	4341
918.049	4257
918.161	4424
918.272	4569
918.384	4546
918.495	4485
918.606	4310
918.717	4310
918.828	4360
918.939	4390
919.05	4291
919.161	4337
919.272	4124
919.383	4196
919.494	4478
919.604	4653
919.715	4432
919.826	4352
919.936	4383
920.047	4550
920.157	4497
920.267	4706
920.378	4504
920.488	4512
920.598	4714
920.708	4915
920.818	4698
920.928	4786
921.038	4999
921.148	4885
921.258	4626
921.368	4561
921.477	4447
921.587	4478
921.697	4402
921.806	4538
921.916	4402
922.025	4246
922.134	4238
922.244	4227
922.353	4344
922.462	4173
922.571	4139
922.68	4048
922.789	3998
922.898	4048
923.007	3994
923.116	4086
923.224	4067
923.333	4055
923.442	4029
923.55	3953
923.659	4036
923.767	4112
923.876	3994
923.984	4128
924.092	3949
924.201	4101
924.309	4082
924.417	4116
924.525	4078
924.633	4101
924.741	5037
924.849	3918
924.956	4150
925.064	3964
925.172	3918
925.279	3960
925.387	4032
925.494	4067
925.602	4181
925.709	4192
925.816	4044
925.924	4185
926.031	4238
926.138	4143
926.245	4223
926.352	4093
926.459	4227
926.566	4344
926.673	4173
926.779	4048
926.886	4029
926.993	3975
927.099	3991
927.206	3884
927.312	3964
927.419	4040
927.525	4040
927.631	4074
927.737	3972
927.843	3949
927.95	3854
928.056	3934
928.162	4010
928.267	4021
928.373	4645
928.479	4143
928.585	3907
928.69	4013
928.796	4074
928.901	3983
929.007	3816
929.112	3994
929.218	3953
929.323	3934
929.428	3911
929.533	4154
929.638	3884
929.743	3956
929.848	4059
929.953	3983
930.058	3945
930.163	3789
930.267	3857
930.372	3972
930.477	3808
930.581	4082
930.685	3953
930.79	3831
930.894	3892
930.998	3857
931.103	4048
931.207	3728
931.311	3686
931.415	3644
931.519	3549
931.623	3576
