Data from test_V78500241_725.txt Node
Date: Fri Mar 25 16:54:02 CST 2022
User: usil
Spectrometer: V785-0024
Trigger mode: 0
Integration Time (sec): 4.000000E-1
Scans to average: 1
Nonlinearity correction enabled: false
Boxcar width: 0
Storing dark spectrum: false
XAxis mode: Wavelengths
Number of Pixels in Spectrum: 1024
>>>>>Begin Spectral Data<<<<<
801.071	8035
801.214	7993
801.356	7868
801.499	7860
801.641	7849
801.783	7906
801.926	7963
802.068	7982
802.211	8012
802.353	7955
802.496	7818
802.638	7890
802.78	7875
802.923	7864
803.065	7879
803.208	7856
803.35	7982
803.492	8062
803.635	8153
803.777	7978
803.919	8077
804.061	8347
804.204	8046
804.346	8020
804.488	7925
804.63	8126
804.773	7989
804.915	8039
805.057	8218
805.199	8138
805.341	8168
805.483	8176
805.626	8145
805.768	8161
805.91	8202
806.052	8244
806.194	8145
806.336	8267
806.478	8100
806.62	7997
806.762	8115
806.904	8240
807.046	8415
807.188	8301
807.33	8355
807.472	8294
807.614	8233
807.756	8050
807.898	7970
808.04	7795
808.182	7845
808.324	7887
808.465	7833
808.607	8031
808.749	8046
808.891	8180
809.033	8218
809.174	8191
809.316	8069
809.458	8073
809.6	7944
809.741	7978
809.883	7982
810.025	8046
810.166	8145
810.308	8043
810.45	8126
810.591	7883
810.733	7712
810.875	7685
811.016	7567
811.158	7533
811.299	7559
811.441	7734
811.582	7681
811.724	7563
811.865	7491
812.007	7613
812.148	7502
812.29	7559
812.431	7670
812.573	7890
812.714	7906
812.855	8058
812.997	8172
813.138	8282
813.279	8206
813.421	8081
813.562	7959
813.703	7792
813.845	7826
813.986	7460
814.127	7305
814.268	7232
814.41	7270
814.551	7129
814.692	7133
814.833	7000
814.974	7103
815.115	7042
815.256	7046
815.397	6943
815.539	6966
815.68	6821
815.821	6791
815.962	6821
816.103	6810
816.244	6703
816.385	6627
816.526	6627
816.666	6464
816.807	6308
816.948	6410
817.089	6426
817.23	6464
817.371	6380
817.512	6403
817.653	6426
817.793	6331
817.934	6414
818.075	6331
818.216	6380
818.356	6346
818.497	6201
818.638	6114
818.778	6068
818.919	6079
819.06	6144
819.2	6300
819.341	6289
819.481	6357
819.622	6551
819.762	6696
819.903	6726
820.043	6566
820.184	6544
820.324	6475
820.465	6654
820.605	6585
820.746	6555
820.886	6456
821.026	6700
821.167	6711
821.307	6821
821.447	6738
821.588	6601
821.728	6547
821.868	6448
822.008	6281
822.149	6388
822.289	6346
822.429	6178
822.569	6114
822.709	6171
822.849	5855
822.99	5901
823.13	5874
823.27	5920
823.41	5756
823.55	5775
823.69	5771
823.83	5756
823.97	5627
824.11	5585
824.25	5501
824.389	5570
824.529	5554
824.669	5509
824.809	5608
824.949	5661
825.089	5668
825.228	5562
825.368	5417
825.508	5334
825.648	5417
825.787	5372
825.927	5337
826.067	5273
826.206	5231
826.346	5372
826.485	5383
826.625	5334
826.765	5528
826.904	5391
827.044	5197
827.183	5166
827.323	5132
827.462	5197
827.601	5178
827.741	5170
827.88	5181
828.02	5117
828.159	5250
828.298	5258
828.437	5296
828.577	5269
828.716	5467
828.855	5349
828.994	5121
829.134	5121
829.273	5105
829.412	5140
829.551	5113
829.69	5151
829.829	5189
829.968	5353
830.107	5254
830.246	5284
830.385	5185
830.524	5117
830.663	5064
830.802	4995
830.941	4877
831.08	4911
831.219	4984
831.357	4938
831.496	5140
831.635	4953
831.774	4877
831.913	4801
832.051	4721
832.19	4759
832.329	4839
832.467	4710
832.606	4641
832.744	4725
832.883	4683
833.022	4672
833.16	4729
833.299	4812
833.437	4782
833.576	4816
833.714	4900
833.852	4847
833.991	4908
834.129	4965
834.267	4965
834.406	4885
834.544	4965
834.682	4942
834.821	4953
834.959	5124
835.097	4927
835.235	5136
835.373	5128
835.511	5079
835.65	5018
835.788	5041
835.926	4873
836.064	4843
836.202	4877
836.34	5117
836.478	5197
836.615	5113
836.753	5220
836.891	5349
837.029	5250
837.167	5162
837.305	5132
837.443	5174
837.58	5071
837.718	5246
837.856	5201
837.993	5117
838.131	5197
838.269	5189
838.406	5189
838.544	5181
838.681	5029
838.819	5071
838.956	4850
839.094	4946
839.231	4972
839.369	5140
839.506	5436
839.643	5265
839.781	5064
839.918	4995
840.055	5048
840.193	5086
840.33	5105
840.467	5094
840.604	5189
840.742	5444
840.879	5025
841.016	5098
841.153	5105
841.29	5364
841.427	5303
841.564	5322
841.701	5330
841.838	5261
841.975	5258
842.112	5254
842.249	5151
842.385	5056
842.522	5364
842.659	5166
842.796	5136
842.933	5231
843.069	5155
843.206	5140
843.343	5299
843.479	5258
843.616	5273
843.752	4980
843.889	4968
844.025	5220
844.162	5014
844.298	5151
844.435	5048
844.571	5071
844.708	5143
844.844	5250
844.98	5353
845.117	5277
845.253	5178
845.389	5067
845.525	5121
845.661	5155
845.798	5041
845.934	5113
846.07	5048
846.206	5170
846.342	5258
846.478	5162
846.614	5025
846.75	4991
846.886	4938
847.022	5086
847.158	4999
847.294	4999
847.429	5086
847.565	5071
847.701	5303
847.837	4877
847.972	4767
848.108	4938
848.244	4866
848.379	4763
848.515	4733
848.65	4725
848.786	4744
848.921	4740
849.057	4850
849.192	4915
849.328	4771
849.463	4831
849.598	4771
849.734	4748
849.869	4694
850.004	4599
850.14	4675
850.275	4558
850.41	4523
850.545	4618
850.68	4592
850.815	4603
850.95	4630
851.085	4828
851.22	4687
851.355	4675
851.49	4622
851.625	4656
851.76	4660
851.895	4554
852.03	4577
852.165	4664
852.299	4744
852.434	4736
852.569	4725
852.703	4755
852.838	4839
852.973	4919
853.107	4862
853.242	4733
853.376	4618
853.511	4569
853.645	4599
853.78	4816
853.914	4645
854.048	4687
854.183	4607
854.317	4706
854.451	4812
854.585	4694
854.72	4615
854.854	4717
854.988	4565
855.122	4634
855.256	4542
855.39	4660
855.524	4763
855.658	4744
855.792	4694
855.926	4744
856.06	4729
856.194	4790
856.327	4664
856.461	4641
856.595	4618
856.729	4618
856.862	4763
856.996	4736
857.13	4725
857.263	4733
857.397	4816
857.53	4615
857.664	4736
857.797	4733
857.931	4752
858.064	4714
858.197	4763
858.331	4660
858.464	4618
858.597	4519
858.731	4626
858.864	4607
858.997	4588
859.13	4656
859.263	4649
859.396	4645
859.529	4588
859.662	4542
859.795	4519
859.928	4626
860.061	4736
860.194	4714
860.327	4592
860.46	4546
860.592	4736
860.725	4702
860.858	4740
860.99	4577
861.123	4497
861.256	4485
861.388	4599
861.521	5417
861.653	4489
861.786	4363
861.918	4451
862.05	4538
862.183	4546
862.315	4584
862.447	4653
862.58	4592
862.712	4386
862.844	4356
862.976	4462
863.108	4417
863.24	4858
863.372	4356
863.504	4413
863.636	4375
863.768	4459
863.9	4447
864.032	4318
864.164	4386
864.296	4508
864.428	4573
864.559	4550
864.691	4523
864.823	4485
864.954	4504
865.086	4500
865.217	4440
865.349	4386
865.48	4500
865.612	4485
865.743	4622
865.875	4451
866.006	4428
866.137	4470
866.269	4440
866.4	4413
866.531	4379
866.662	4394
866.793	4409
866.924	4383
867.055	4489
867.186	4440
867.317	4432
867.448	4356
867.579	4333
867.71	4371
867.841	4409
867.972	4413
868.103	4432
868.233	4367
868.364	4455
868.495	4485
868.625	4634
868.756	4797
868.886	4550
869.017	4615
869.147	4767
869.278	4752
869.408	4645
869.539	4618
869.669	4733
869.799	4694
869.929	4698
870.06	4714
870.19	4892
870.32	4896
870.45	4881
870.58	5018
870.71	5083
870.84	5124
870.97	4942
871.1	4961
871.23	5159
871.36	5136
871.489	5014
871.619	5041
871.749	5128
871.879	5098
872.008	5121
872.138	5060
872.267	5003
872.397	4877
872.526	4774
872.656	4744
872.785	4740
872.915	4915
873.044	4995
873.173	4957
873.303	4968
873.432	4896
873.561	4923
873.69	4870
873.819	4892
873.948	4877
874.077	4824
874.206	4767
874.335	4809
874.464	4968
874.593	5067
874.722	4911
874.851	5105
874.979	5018
875.108	5025
875.237	4911
875.365	4873
875.494	4904
875.623	4938
875.751	4858
875.88	4854
876.008	4976
876.136	4995
876.265	5159
876.393	5322
876.521	5265
876.65	5239
876.778	5105
876.906	5052
877.034	4995
877.162	5056
877.29	4957
877.418	4999
877.546	5048
877.674	5045
877.802	5037
877.93	5025
878.058	4965
878.185	4927
878.313	4991
878.441	4908
878.568	4847
878.696	4843
878.824	4946
878.951	5029
879.079	5064
879.206	5273
879.333	5048
879.461	4930
879.588	5018
879.715	5094
879.842	5231
879.97	4957
880.097	4778
880.224	4782
880.351	4744
880.478	4839
880.605	4759
880.732	4733
880.859	5094
880.986	4923
881.112	4915
881.239	4778
881.366	4664
881.493	4580
881.619	4497
881.746	4622
881.872	4649
881.999	4672
882.125	4668
882.252	4816
882.378	4828
882.505	4957
882.631	4793
882.757	4668
882.883	4744
883.01	4771
883.136	4645
883.262	4630
883.388	4569
883.514	4831
883.64	4805
883.766	4797
883.892	4634
884.018	4767
884.143	4870
884.269	4984
884.395	4679
884.52	4622
884.646	4679
884.772	4592
884.897	4558
885.023	4683
885.148	4748
885.274	4870
885.399	4717
885.524	4702
885.65	4683
885.775	4786
885.9	4694
886.025	4889
886.15	4790
886.275	4675
886.4	4634
886.525	4691
886.65	4702
886.775	4710
886.9	4881
887.025	5018
887.149	4881
887.274	4611
887.399	4596
887.523	4588
887.648	4542
887.773	4565
887.897	4733
888.021	4748
888.146	4691
888.27	4778
888.395	4896
888.519	4771
888.643	4797
888.767	4801
888.891	4687
889.015	4611
889.139	4679
889.263	4607
889.387	4767
889.511	4866
889.635	4778
889.759	4641
889.883	4599
890.006	4702
890.13	4862
890.254	4618
890.377	4675
890.501	4550
890.624	4546
890.748	4664
890.871	4504
890.995	4424
891.118	4394
891.241	4523
891.364	4535
891.488	4622
891.611	4516
891.734	4573
891.857	4584
891.98	4489
892.103	4649
892.226	4580
892.349	4561
892.471	4371
892.594	4565
892.717	4569
892.839	4569
892.962	4660
893.085	4679
893.207	4569
893.33	4478
893.452	4500
893.575	4645
893.697	4523
893.819	4755
893.941	4820
894.064	4782
894.186	4546
894.308	4558
894.43	4725
894.552	4805
894.674	4744
894.796	4535
894.918	4580
895.04	4561
895.161	4672
895.283	4641
895.405	4618
895.526	4630
895.648	4664
895.769	4702
895.891	4641
896.012	4740
896.134	4706
896.255	4691
896.376	4607
896.498	4653
896.619	4653
896.74	4569
896.861	4649
896.982	4900
897.103	5102
897.224	4816
897.345	4717
897.466	4668
897.587	4710
897.708	4828
897.828	4778
897.949	4694
898.07	4577
898.19	4656
898.311	4812
898.431	4664
898.552	4744
898.672	4816
898.792	4797
898.913	4790
899.033	4618
899.153	4500
899.273	4409
899.393	4443
899.513	4519
899.633	4508
899.753	4550
899.873	4508
899.993	4527
900.113	4550
900.232	4550
900.352	4516
900.472	4462
900.591	4421
900.711	4508
900.83	4409
900.95	4607
901.069	4660
901.189	4584
901.308	4348
901.427	4325
901.546	4398
901.665	4432
901.784	4527
901.904	4386
902.023	4299
902.141	4200
902.26	4128
902.379	4314
902.498	4257
902.617	4246
902.735	4344
902.854	4424
902.973	4344
903.091	4173
903.21	4211
903.328	4272
903.446	4276
903.565	4249
903.683	4325
903.801	4246
903.919	4409
904.038	4390
904.156	4318
904.274	4360
904.392	4356
904.51	4424
904.627	4459
904.745	4577
904.863	4618
904.981	4394
905.098	4272
905.216	4375
905.334	4459
905.451	4459
905.569	4440
905.686	4519
905.803	4531
905.921	4379
906.038	4527
906.155	4455
906.272	4383
906.389	4417
906.506	4333
906.623	4379
906.74	4421
906.857	4280
906.974	4390
907.091	4542
907.208	4706
907.324	4535
907.441	4538
907.557	4371
907.674	4405
907.79	4265
907.907	4383
908.023	4474
908.139	4440
908.256	4421
908.372	4447
908.488	4432
908.604	4352
908.72	4333
908.836	4371
908.952	4394
909.068	4405
909.184	4580
909.3	4489
909.415	4599
909.531	4561
909.647	4375
909.762	4417
909.878	4329
909.993	4470
910.108	4413
910.224	4371
910.339	4485
910.454	4383
910.57	4386
910.685	4284
910.8	4664
910.915	4637
911.03	4485
911.145	4291
911.259	4276
911.374	4371
911.489	4291
911.604	4295
911.718	4158
911.833	4227
911.947	4044
912.062	4082
912.176	4192
912.291	4249
912.405	4265
912.519	4478
912.633	4466
912.748	4341
912.862	4295
912.976	4246
913.09	4048
913.204	4200
913.318	4230
913.431	4386
913.545	4375
913.659	4436
913.772	4356
913.886	4261
914	4242
914.113	4398
914.226	4436
914.34	4413
914.453	4265
914.566	4424
914.68	4310
914.793	4348
914.906	4158
915.019	4101
915.132	4074
915.245	4162
915.358	4200
915.47	4204
915.583	4249
915.696	4268
915.809	4371
915.921	4428
916.034	4284
916.146	4249
916.259	4246
916.371	4352
916.483	4295
916.595	4272
916.708	4272
916.82	4318
916.932	4322
917.044	4329
917.156	4310
917.268	4249
917.38	4265
917.491	4215
917.603	4295
917.715	4428
917.826	4504
917.938	4356
918.049	4265
918.161	4375
918.272	4493
918.384	4577
918.495	4455
918.606	4333
918.717	4223
918.828	4344
918.939	4417
919.05	4257
919.161	4337
919.272	4177
919.383	4246
919.494	4451
919.604	4618
919.715	4417
919.826	4341
919.936	4356
920.047	4497
920.157	4459
920.267	4679
920.378	4485
920.488	4493
920.598	4706
920.708	4870
920.818	4759
920.928	4748
921.038	4976
921.148	4908
921.258	4607
921.368	4584
921.477	4531
921.587	4497
921.697	4390
921.806	4550
921.916	4440
922.025	4272
922.134	4257
922.244	4188
922.353	4356
922.462	4181
922.571	4124
922.68	3945
922.789	3998
922.898	3994
923.007	4017
923.116	4078
923.224	3975
923.333	4074
923.442	3991
923.55	3972
923.659	4036
923.767	4101
923.876	3972
923.984	4082
924.092	3937
924.201	4093
924.309	4086
924.417	4105
924.525	4090
924.633	4086
924.741	5025
924.849	3892
924.956	4112
925.064	3953
925.172	3880
925.279	3979
925.387	3991
925.494	4017
925.602	4173
925.709	4154
925.816	4029
925.924	4131
926.031	4242
926.138	4188
926.245	4192
926.352	4135
926.459	4261
926.566	4329
926.673	4154
926.779	4090
926.886	4071
926.993	4006
927.099	3953
927.206	3941
927.312	3907
927.419	4048
927.525	3987
927.631	4082
927.737	3937
927.843	3960
927.95	3880
928.056	3934
928.162	3983
928.267	4093
928.373	4687
928.479	4101
928.585	3873
928.69	4048
928.796	4051
928.901	3960
929.007	3838
929.112	3975
929.218	3964
929.323	3937
929.428	3975
929.533	4139
929.638	3876
929.743	3945
929.848	4032
929.953	3991
930.058	3907
930.163	3774
930.267	3797
930.372	3949
930.477	3827
930.581	4074
930.685	3941
930.79	3835
930.894	3899
930.998	3823
931.103	4044
931.207	3724
931.311	3686
931.415	3656
931.519	3542
931.623	3553
