Data from test_V78500241_1593.txt Node
Date: Fri Mar 25 17:00:04 CST 2022
User: usil
Spectrometer: V785-0024
Trigger mode: 0
Integration Time (sec): 4.000000E-1
Scans to average: 1
Nonlinearity correction enabled: false
Boxcar width: 0
Storing dark spectrum: false
XAxis mode: Wavelengths
Number of Pixels in Spectrum: 1024
>>>>>Begin Spectral Data<<<<<
801.071	7894
801.214	8008
801.356	7864
801.499	7841
801.641	7742
801.783	7776
801.926	7955
802.068	7913
802.211	7978
802.353	7997
802.496	7826
802.638	7780
802.78	7837
802.923	7887
803.065	7826
803.208	7818
803.35	7967
803.492	8020
803.635	8180
803.777	7978
803.919	8115
804.061	8450
804.204	8142
804.346	8039
804.488	7944
804.63	8050
804.773	8046
804.915	8062
805.057	8313
805.199	8157
805.341	8149
805.483	8240
805.626	8187
805.768	8092
805.91	8161
806.052	8221
806.194	8069
806.336	8275
806.478	8065
806.62	7989
806.762	8103
806.904	8259
807.046	8484
807.188	8389
807.33	8256
807.472	8355
807.614	8119
807.756	8134
807.898	8020
808.04	7864
808.182	7936
808.324	7940
808.465	7913
808.607	8077
808.749	8092
808.891	8161
809.033	8240
809.174	8221
809.316	8043
809.458	7997
809.6	7978
809.741	7951
809.883	8039
810.025	8054
810.166	7955
810.308	8031
810.45	7982
810.591	7852
810.733	7727
810.875	7674
811.016	7506
811.158	7495
811.299	7518
811.441	7700
811.582	7658
811.724	7548
811.865	7495
812.007	7556
812.148	7597
812.29	7575
812.431	7761
812.573	7887
812.714	7986
812.855	8084
812.997	8206
813.138	8271
813.279	8153
813.421	8103
813.562	7852
813.703	7814
813.845	7780
813.986	7438
814.127	7209
814.268	7251
814.41	7198
814.551	7168
814.692	7247
814.833	7084
814.974	7080
815.115	7107
815.256	7012
815.397	6928
815.539	6920
815.68	6837
815.821	6795
815.962	6886
816.103	6802
816.244	6715
816.385	6627
816.526	6582
816.666	6452
816.807	6270
816.948	6448
817.089	6445
817.23	6422
817.371	6410
817.512	6399
817.653	6331
817.793	6319
817.934	6376
818.075	6445
818.216	6441
818.356	6422
818.497	6201
818.638	6049
818.778	6163
818.919	6163
819.06	6152
819.2	6308
819.341	6365
819.481	6338
819.622	6506
819.762	6734
819.903	6650
820.043	6623
820.184	6620
820.324	6593
820.465	6688
820.605	6707
820.746	6654
820.886	6494
821.026	6646
821.167	6673
821.307	6764
821.447	6741
821.588	6681
821.728	6570
821.868	6483
822.008	6311
822.149	6327
822.289	6391
822.429	6144
822.569	6095
822.709	6106
822.849	5859
822.99	5870
823.13	5908
823.27	5882
823.41	5786
823.55	5767
823.69	5710
823.83	5741
823.97	5615
824.11	5524
824.25	5459
824.389	5532
824.529	5592
824.669	5512
824.809	5611
824.949	5661
825.089	5611
825.228	5516
825.368	5334
825.508	5311
825.648	5368
825.787	5315
825.927	5322
826.067	5330
826.206	5292
826.346	5376
826.485	5402
826.625	5353
826.765	5539
826.904	5395
827.044	5235
827.183	5136
827.323	5162
827.462	5254
827.601	5147
827.741	5155
827.88	5250
828.02	5136
828.159	5201
828.298	5303
828.437	5345
828.577	5299
828.716	5493
828.855	5345
828.994	5155
829.134	5132
829.273	5231
829.412	5124
829.551	5113
829.69	5143
829.829	5254
829.968	5387
830.107	5212
830.246	5189
830.385	5166
830.524	5090
830.663	5048
830.802	4942
830.941	4915
831.08	4877
831.219	4934
831.357	4991
831.496	5159
831.635	4919
831.774	4835
831.913	4831
832.051	4702
832.19	4759
832.329	4831
832.467	4668
832.606	4634
832.744	4717
832.883	4729
833.022	4691
833.16	4767
833.299	4828
833.437	4816
833.576	4850
833.714	4828
833.852	4843
833.991	4862
834.129	4919
834.267	4949
834.406	4892
834.544	4949
834.682	5003
834.821	4949
834.959	5128
835.097	4972
835.235	5159
835.373	5067
835.511	5060
835.65	5006
835.788	4991
835.926	4862
836.064	4843
836.202	4904
836.34	5159
836.478	5181
836.615	5132
836.753	5208
836.891	5235
837.029	5265
837.167	5159
837.305	5155
837.443	5147
837.58	5075
837.718	5277
837.856	5159
837.993	5155
838.131	5239
838.269	5181
838.406	5235
838.544	5193
838.681	4972
838.819	5064
838.956	4908
839.094	4881
839.231	4965
839.369	5056
839.506	5357
839.643	5280
839.781	5067
839.918	4995
840.055	5090
840.193	5075
840.33	5136
840.467	5132
840.604	5162
840.742	5421
840.879	5090
841.016	5109
841.153	5124
841.29	5360
841.427	5357
841.564	5349
841.701	5364
841.838	5269
841.975	5227
842.112	5250
842.249	5105
842.385	5117
842.522	5334
842.659	5143
842.796	5155
842.933	5162
843.069	5117
843.206	5143
843.343	5254
843.479	5193
843.616	5246
843.752	5003
843.889	5037
844.025	5216
844.162	5014
844.298	5181
844.435	5029
844.571	5064
844.708	5197
844.844	5269
844.98	5277
845.117	5273
845.253	5086
845.389	5064
845.525	5223
845.661	5147
845.798	5056
845.934	5071
846.07	5071
846.206	5193
846.342	5288
846.478	5159
846.614	4957
846.75	4972
846.886	4927
847.022	5121
847.158	5010
847.294	5048
847.429	5048
847.565	5045
847.701	5315
847.837	4854
847.972	4809
848.108	4972
848.244	4995
848.379	4786
848.515	4702
848.65	4736
848.786	4733
848.921	4748
849.057	4854
849.192	4881
849.328	4805
849.463	4858
849.598	4774
849.734	4729
849.869	4660
850.004	4577
850.14	4641
850.275	4558
850.41	4466
850.545	4561
850.68	4584
850.815	4584
850.95	4641
851.085	4812
851.22	4744
851.355	4649
851.49	4596
851.625	4615
851.76	4634
851.895	4554
852.03	4478
852.165	4622
852.299	4717
852.434	4752
852.569	4725
852.703	4774
852.838	4854
852.973	4911
853.107	4892
853.242	4725
853.376	4634
853.511	4546
853.645	4630
853.78	4805
853.914	4675
854.048	4691
854.183	4596
854.317	4675
854.451	4820
854.585	4626
854.72	4653
854.854	4717
854.988	4599
855.122	4649
855.256	4554
855.39	4615
855.524	4729
855.658	4725
855.792	4733
855.926	4736
856.06	4793
856.194	4774
856.327	4679
856.461	4596
856.595	4615
856.729	4637
856.862	4717
856.996	4668
857.13	4721
857.263	4797
857.397	4812
857.53	4622
857.664	4706
857.797	4755
857.931	4771
858.064	4607
858.197	4714
858.331	4607
858.464	4626
858.597	4516
858.731	4630
858.864	4645
858.997	4611
859.13	4653
859.263	4596
859.396	4691
859.529	4592
859.662	4561
859.795	4519
859.928	4675
860.061	4755
860.194	4733
860.327	4626
860.46	4554
860.592	4706
860.725	4687
860.858	4706
860.99	4569
861.123	4523
861.256	4508
861.388	4599
861.521	5220
861.653	4508
861.786	4436
861.918	4455
862.05	4493
862.183	4554
862.315	4622
862.447	4672
862.58	4611
862.712	4367
862.844	4363
862.976	4443
863.108	4451
863.24	4710
863.372	4291
863.504	4409
863.636	4474
863.768	4485
863.9	4417
864.032	4363
864.164	4421
864.296	4462
864.428	4527
864.559	4565
864.691	4489
864.823	4470
864.954	4497
865.086	4542
865.217	4443
865.349	4409
865.48	4413
865.612	4478
865.743	4626
865.875	4504
866.006	4428
866.137	4432
866.269	4409
866.4	4402
866.531	4432
866.662	4424
866.793	4413
866.924	4409
867.055	4497
867.186	4447
867.317	4405
867.448	4322
867.579	4386
867.71	4405
867.841	4348
867.972	4436
868.103	4447
868.233	4443
868.364	4436
868.495	4451
868.625	4611
868.756	4786
868.886	4569
869.017	4634
869.147	4763
869.278	4752
869.408	4649
869.539	4611
869.669	4698
869.799	4641
869.929	4721
870.06	4721
870.19	4946
870.32	4904
870.45	4927
870.58	4972
870.71	5102
870.84	5128
870.97	4949
871.1	4854
871.23	5124
871.36	5090
871.489	5048
871.619	5109
871.749	5067
871.879	5124
872.008	5159
872.138	5056
872.267	4953
872.397	4877
872.526	4812
872.656	4740
872.785	4889
872.915	4957
873.044	5052
873.173	4942
873.303	4946
873.432	4927
873.561	4942
873.69	4858
873.819	4850
873.948	4927
874.077	4774
874.206	4771
874.335	4790
874.464	4953
874.593	4999
874.722	4972
874.851	5067
874.979	5025
875.108	5022
875.237	4919
875.365	4877
875.494	4915
875.623	4942
875.751	4866
875.88	4847
876.008	4957
876.136	5067
876.265	5170
876.393	5311
876.521	5250
876.65	5239
876.778	5181
876.906	5102
877.034	5003
877.162	5010
877.29	4949
877.418	5022
877.546	5033
877.674	4980
877.802	5025
877.93	4999
878.058	4965
878.185	4866
878.313	4946
878.441	4938
878.568	4816
878.696	4873
878.824	4946
878.951	4946
879.079	5174
879.206	5292
879.333	5109
879.461	4957
879.588	5033
879.715	5132
879.842	5227
879.97	5018
880.097	4790
880.224	4733
880.351	4786
880.478	4835
880.605	4801
880.732	4733
880.859	5117
880.986	4911
881.112	4881
881.239	4740
881.366	4664
881.493	4588
881.619	4584
881.746	4637
881.872	4656
881.999	4615
882.125	4736
882.252	4801
882.378	4797
882.505	4915
882.631	4805
882.757	4664
882.883	4733
883.01	4736
883.136	4683
883.262	4599
883.388	4622
883.514	4805
883.64	4835
883.766	4778
883.892	4691
884.018	4759
884.143	4904
884.269	4999
884.395	4672
884.52	4615
884.646	4599
884.772	4618
884.897	4580
885.023	4603
885.148	4774
885.274	4877
885.399	4736
885.524	4664
885.65	4653
885.775	4721
885.9	4729
886.025	4885
886.15	4839
886.275	4641
886.4	4675
886.525	4694
886.65	4672
886.775	4691
886.9	4919
887.025	5060
887.149	4755
887.274	4599
887.399	4573
887.523	4580
887.648	4577
887.773	4592
887.897	4710
888.021	4793
888.146	4668
888.27	4793
888.395	4915
888.519	4755
888.643	4816
888.767	4820
888.891	4687
889.015	4577
889.139	4649
889.263	4622
889.387	4774
889.511	4858
889.635	4831
889.759	4630
889.883	4641
890.006	4744
890.13	4854
890.254	4611
890.377	4698
890.501	4542
890.624	4508
890.748	4649
890.871	4523
890.995	4421
891.118	4394
891.241	4523
891.364	4531
891.488	4660
891.611	4523
891.734	4546
891.857	4558
891.98	4599
892.103	4618
892.226	4588
892.349	4462
892.471	4413
892.594	4516
892.717	4538
892.839	4599
892.962	4538
893.085	4672
893.207	4542
893.33	4485
893.452	4512
893.575	4653
893.697	4596
893.819	4793
893.941	4786
894.064	4740
894.186	4569
894.308	4611
894.43	4679
894.552	4782
894.674	4752
894.796	4561
894.918	4580
895.04	4569
895.161	4694
895.283	4683
895.405	4565
895.526	4630
895.648	4710
895.769	4679
895.891	4702
896.012	4790
896.134	4710
896.255	4645
896.376	4668
896.498	4637
896.619	4698
896.74	4565
896.861	4653
896.982	4904
897.103	5067
897.224	4793
897.345	4729
897.466	4679
897.587	4725
897.708	4870
897.828	4801
897.949	4687
898.07	4558
898.19	4645
898.311	4805
898.431	4611
898.552	4725
898.672	4828
898.792	4805
898.913	4774
899.033	4630
899.153	4481
899.273	4405
899.393	4485
899.513	4527
899.633	4512
899.753	4523
899.873	4459
899.993	4584
900.113	4493
900.232	4588
900.352	4481
900.472	4478
900.591	4409
900.711	4447
900.83	4459
900.95	4584
901.069	4675
901.189	4527
901.308	4352
901.427	4329
901.546	4348
901.665	4413
901.784	4550
901.904	4405
902.023	4337
902.141	4230
902.26	4135
902.379	4306
902.498	4234
902.617	4219
902.735	4383
902.854	4421
902.973	4379
903.091	4223
903.21	4173
903.328	4360
903.446	4268
903.565	4234
903.683	4318
903.801	4257
903.919	4428
904.038	4466
904.156	4344
904.274	4432
904.392	4356
904.51	4405
904.627	4497
904.745	4561
904.863	4584
904.981	4398
905.098	4280
905.216	4356
905.334	4375
905.451	4428
905.569	4413
905.686	4535
905.803	4584
905.921	4424
906.038	4542
906.155	4493
906.272	4413
906.389	4455
906.506	4341
906.623	4348
906.74	4440
906.857	4371
906.974	4428
907.091	4554
907.208	4660
907.324	4550
907.441	4497
907.557	4341
907.674	4337
907.79	4299
907.907	4428
908.023	4478
908.139	4462
908.256	4421
908.372	4432
908.488	4481
908.604	4322
908.72	4310
908.836	4360
908.952	4390
909.068	4432
909.184	4531
909.3	4443
909.415	4622
909.531	4573
909.647	4322
909.762	4383
909.878	4322
909.993	4432
910.108	4379
910.224	4371
910.339	4481
910.454	4405
910.57	4375
910.685	4261
910.8	4656
910.915	4546
911.03	4527
911.145	4291
911.259	4363
911.374	4386
911.489	4318
911.604	4287
911.718	4162
911.833	4150
911.947	4086
912.062	3998
912.176	4234
912.291	4242
912.405	4249
912.519	4451
912.633	4497
912.748	4348
912.862	4299
912.976	4185
913.09	4135
913.204	4158
913.318	4265
913.431	4352
913.545	4360
913.659	4424
913.772	4375
913.886	4207
914	4230
914.113	4386
914.226	4447
914.34	4325
914.453	4204
914.566	4440
914.68	4322
914.793	4318
914.906	4181
915.019	4131
915.132	4078
915.245	4124
915.358	4211
915.47	4261
915.583	4230
915.696	4295
915.809	4371
915.921	4386
916.034	4249
916.146	4227
916.259	4249
916.371	4344
916.483	4367
916.595	4234
916.708	4329
916.82	4341
916.932	4322
917.044	4318
917.156	4276
917.268	4238
917.38	4272
917.491	4261
917.603	4367
917.715	4421
917.826	4394
917.938	4318
918.049	4211
918.161	4360
918.272	4573
918.384	4451
918.495	4474
918.606	4272
918.717	4253
918.828	4310
918.939	4344
919.05	4257
919.161	4348
919.272	4150
919.383	4234
919.494	4428
919.604	4660
919.715	4421
919.826	4352
919.936	4428
920.047	4485
920.157	4455
920.267	4656
920.378	4542
920.488	4512
920.598	4694
920.708	4854
920.818	4759
920.928	4744
921.038	4953
921.148	4930
921.258	4649
921.368	4630
921.477	4455
921.587	4447
921.697	4344
921.806	4516
921.916	4405
922.025	4249
922.134	4257
922.244	4223
922.353	4352
922.462	4150
922.571	4124
922.68	3975
922.789	4010
922.898	4032
923.007	3972
923.116	4059
923.224	4055
923.333	4067
923.442	3994
923.55	3979
923.659	3979
923.767	4078
923.876	4032
923.984	4120
924.092	3960
924.201	4036
924.309	4116
924.417	4128
924.525	4006
924.633	4010
924.741	4873
924.849	3930
924.956	4105
925.064	3979
925.172	3896
925.279	3915
925.387	4010
925.494	3998
925.602	4162
925.709	4143
925.816	4032
925.924	4109
926.031	4238
926.138	4150
926.245	4181
926.352	4067
926.459	4185
926.566	4280
926.673	4131
926.779	4055
926.886	4086
926.993	3964
927.099	3915
927.206	3892
927.312	3949
927.419	4086
927.525	4029
927.631	4055
927.737	3911
927.843	3930
927.95	3873
928.056	3922
928.162	4006
928.267	4029
928.373	4569
928.479	4093
928.585	3876
928.69	4074
928.796	4059
928.901	4006
929.007	3808
929.112	3991
929.218	3964
929.323	3937
929.428	3873
929.533	4131
929.638	3911
929.743	4006
929.848	4036
929.953	3972
930.058	3956
930.163	3774
930.267	3835
930.372	3960
930.477	3823
930.581	4074
930.685	3930
930.79	3804
930.894	3884
930.998	3888
931.103	4036
931.207	3705
931.311	3686
931.415	3641
931.519	3473
931.623	3564
