Data from test_V78500241_564.txt Node
Date: Fri Mar 25 16:52:55 CST 2022
User: usil
Spectrometer: V785-0024
Trigger mode: 0
Integration Time (sec): 4.000000E-1
Scans to average: 1
Nonlinearity correction enabled: false
Boxcar width: 0
Storing dark spectrum: false
XAxis mode: Wavelengths
Number of Pixels in Spectrum: 1024
>>>>>Begin Spectral Data<<<<<
801.071	7997
801.214	7963
801.356	7883
801.499	7826
801.641	7776
801.783	7830
801.926	7997
802.068	7970
802.211	8024
802.353	7982
802.496	7921
802.638	7887
802.78	7940
802.923	7852
803.065	7841
803.208	7769
803.35	7986
803.492	8084
803.635	8161
803.777	8054
803.919	8130
804.061	8533
804.204	8100
804.346	8088
804.488	7917
804.63	8096
804.773	8005
804.915	8065
805.057	8282
805.199	8187
805.341	8214
805.483	8290
805.626	8183
805.768	8073
805.91	8168
806.052	8225
806.194	8043
806.336	8320
806.478	8130
806.62	8035
806.762	8153
806.904	8221
807.046	8427
807.188	8351
807.33	8221
807.472	8313
807.614	8157
807.756	8119
807.898	7932
808.04	7788
808.182	7913
808.324	7864
808.465	7887
808.607	8058
808.749	8005
808.891	8187
809.033	8240
809.174	8157
809.316	7982
809.458	8069
809.6	7947
809.741	8035
809.883	8001
810.025	8119
810.166	8069
810.308	8024
810.45	8005
810.591	7845
810.733	7670
810.875	7628
811.016	7514
811.158	7544
811.299	7597
811.441	7674
811.582	7666
811.724	7616
811.865	7544
812.007	7590
812.148	7632
812.29	7628
812.431	7746
812.573	7871
812.714	7978
812.855	8138
812.997	8225
813.138	8332
813.279	8221
813.421	8195
813.562	8046
813.703	7887
813.845	7753
813.986	7502
814.127	7343
814.268	7312
814.41	7305
814.551	7118
814.692	7221
814.833	7072
814.974	7122
815.115	7168
815.256	6951
815.397	6913
815.539	6935
815.68	6825
815.821	6730
815.962	6837
816.103	6837
816.244	6772
816.385	6642
816.526	6593
816.666	6445
816.807	6300
816.948	6464
817.089	6410
817.23	6441
817.371	6395
817.512	6319
817.653	6350
817.793	6273
817.934	6407
818.075	6460
818.216	6388
818.356	6426
818.497	6232
818.638	6117
818.778	6155
818.919	6114
819.06	6110
819.2	6266
819.341	6327
819.481	6350
819.622	6445
819.762	6776
819.903	6711
820.043	6559
820.184	6509
820.324	6566
820.465	6700
820.605	6631
820.746	6616
820.886	6528
821.026	6585
821.167	6707
821.307	6814
821.447	6715
821.588	6650
821.728	6498
821.868	6475
822.008	6304
822.149	6422
822.289	6323
822.429	6155
822.569	6022
822.709	6098
822.849	5965
822.99	5916
823.13	5950
823.27	5912
823.41	5851
823.55	5844
823.69	5798
823.83	5840
823.97	5695
824.11	5520
824.25	5509
824.389	5501
824.529	5604
824.669	5543
824.809	5653
824.949	5722
825.089	5657
825.228	5608
825.368	5402
825.508	5402
825.648	5357
825.787	5433
825.927	5360
826.067	5372
826.206	5349
826.346	5417
826.485	5421
826.625	5509
826.765	5577
826.904	5528
827.044	5311
827.183	5220
827.323	5132
827.462	5307
827.601	5246
827.741	5197
827.88	5212
828.02	5204
828.159	5296
828.298	5353
828.437	5360
828.577	5307
828.716	5497
828.855	5364
828.994	5201
829.134	5235
829.273	5273
829.412	5208
829.551	5170
829.69	5231
829.829	5315
829.968	5398
830.107	5299
830.246	5284
830.385	5239
830.524	5181
830.663	5151
830.802	5037
830.941	4923
831.08	4953
831.219	5041
831.357	4995
831.496	5193
831.635	5045
831.774	4930
831.913	4885
832.051	4790
832.19	4812
832.329	4904
832.467	4759
832.606	4694
832.744	4733
832.883	4736
833.022	4771
833.16	4824
833.299	4900
833.437	4850
833.576	4870
833.714	4873
833.852	4862
833.991	4961
834.129	4965
834.267	4984
834.406	4968
834.544	4980
834.682	4999
834.821	4957
834.959	5143
835.097	5029
835.235	5212
835.373	5128
835.511	5109
835.65	5067
835.788	4991
835.926	5006
836.064	4930
836.202	4900
836.34	5204
836.478	5250
836.615	5102
836.753	5201
836.891	5334
837.029	5292
837.167	5193
837.305	5181
837.443	5189
837.58	5079
837.718	5250
837.856	5212
837.993	5140
838.131	5265
838.269	5242
838.406	5227
838.544	5246
838.681	5094
838.819	5052
838.956	4896
839.094	4968
839.231	4984
839.369	5098
839.506	5448
839.643	5265
839.781	5075
839.918	5025
840.055	5109
840.193	5189
840.33	5105
840.467	5136
840.604	5208
840.742	5524
840.879	5121
841.016	5121
841.153	5178
841.29	5395
841.427	5345
841.564	5345
841.701	5376
841.838	5311
841.975	5269
842.112	5299
842.249	5174
842.385	5124
842.522	5379
842.659	5189
842.796	5143
842.933	5242
843.069	5178
843.206	5201
843.343	5303
843.479	5250
843.616	5250
843.752	5060
843.889	5045
844.025	5231
844.162	5018
844.298	5288
844.435	5109
844.571	5067
844.708	5189
844.844	5376
844.98	5379
845.117	5315
845.253	5181
845.389	5079
845.525	5208
845.661	5178
845.798	5071
845.934	5136
846.07	5060
846.206	5250
846.342	5288
846.478	5208
846.614	5037
846.75	5003
846.886	4965
847.022	5151
847.158	5079
847.294	5098
847.429	5128
847.565	5041
847.701	5406
847.837	4904
847.972	4858
848.108	4965
848.244	5018
848.379	4816
848.515	4809
848.65	4771
848.786	4752
848.921	4812
849.057	4877
849.192	4957
849.328	4850
849.463	4820
849.598	4790
849.734	4763
849.869	4733
850.004	4668
850.14	4687
850.275	4637
850.41	4535
850.545	4607
850.68	4626
850.815	4618
850.95	4668
851.085	4892
851.22	4755
851.355	4744
851.49	4637
851.625	4626
851.76	4672
851.895	4519
852.03	4588
852.165	4656
852.299	4733
852.434	4797
852.569	4767
852.703	4809
852.838	4881
852.973	4980
853.107	4953
853.242	4736
853.376	4714
853.511	4546
853.645	4672
853.78	4790
853.914	4725
854.048	4714
854.183	4675
854.317	4721
854.451	4889
854.585	4687
854.72	4641
854.854	4801
854.988	4603
855.122	4683
855.256	4558
855.39	4672
855.524	4778
855.658	4748
855.792	4725
855.926	4778
856.06	4820
856.194	4877
856.327	4725
856.461	4660
856.595	4691
856.729	4694
856.862	4771
856.996	4706
857.13	4759
857.263	4786
857.397	4797
857.53	4691
857.664	4733
857.797	4786
857.931	4816
858.064	4748
858.197	4767
858.331	4668
858.464	4592
858.597	4516
858.731	4634
858.864	4698
858.997	4592
859.13	4679
859.263	4691
859.396	4717
859.529	4637
859.662	4542
859.795	4607
859.928	4618
860.061	4801
860.194	4801
860.327	4660
860.46	4554
860.592	4740
860.725	4740
860.858	4740
860.99	4588
861.123	4504
861.256	4592
861.388	4611
861.521	5436
861.653	4451
861.786	4474
861.918	4497
862.05	4569
862.183	4630
862.315	4573
862.447	4649
862.58	4554
862.712	4394
862.844	4375
862.976	4512
863.108	4516
863.24	4892
863.372	4405
863.504	4398
863.636	4417
863.768	4561
863.9	4413
864.032	4371
864.164	4432
864.296	4466
864.428	4542
864.559	4634
864.691	4512
864.823	4542
864.954	4546
865.086	4493
865.217	4470
865.349	4504
865.48	4497
865.612	4500
865.743	4607
865.875	4443
866.006	4436
866.137	4474
866.269	4421
866.4	4485
866.531	4466
866.662	4443
866.793	4440
866.924	4432
867.055	4580
867.186	4421
867.317	4466
867.448	4379
867.579	4398
867.71	4421
867.841	4386
867.972	4478
868.103	4474
868.233	4535
868.364	4474
868.495	4500
868.625	4725
868.756	4797
868.886	4558
869.017	4641
869.147	4733
869.278	4805
869.408	4672
869.539	4634
869.669	4740
869.799	4645
869.929	4790
870.06	4774
870.19	4995
870.32	4995
870.45	4930
870.58	5052
870.71	5128
870.84	5098
870.97	4968
871.1	4824
871.23	5170
871.36	5151
871.489	5041
871.619	5086
871.749	5162
871.879	5117
872.008	5216
872.138	5064
872.267	4987
872.397	4805
872.526	4831
872.656	4714
872.785	4805
872.915	4968
873.044	5029
873.173	4942
873.303	4942
873.432	4965
873.561	4965
873.69	4911
873.819	4862
873.948	4934
874.077	4839
874.206	4797
874.335	4850
874.464	4968
874.593	5052
874.722	4953
874.851	5052
874.979	5075
875.108	5064
875.237	4923
875.365	4873
875.494	4900
875.623	4965
875.751	4850
875.88	4892
876.008	4991
876.136	5010
876.265	5204
876.393	5357
876.521	5269
876.65	5220
876.778	5189
876.906	5075
877.034	5083
877.162	5067
877.29	5010
877.418	5037
877.546	5079
877.674	5098
877.802	5109
877.93	5006
878.058	4949
878.185	4835
878.313	4968
878.441	4961
878.568	4831
878.696	4892
878.824	4957
878.951	5029
879.079	5136
879.206	5311
879.333	5136
879.461	5029
879.588	4995
879.715	5143
879.842	5261
879.97	5006
880.097	4824
880.224	4755
880.351	4786
880.478	4824
880.605	4824
880.732	4828
880.859	5067
880.986	4930
881.112	4946
881.239	4786
881.366	4679
881.493	4615
881.619	4573
881.746	4660
881.872	4634
881.999	4702
882.125	4714
882.252	4790
882.378	4847
882.505	4957
882.631	4797
882.757	4679
882.883	4729
883.01	4736
883.136	4748
883.262	4660
883.388	4599
883.514	4847
883.64	4850
883.766	4793
883.892	4687
884.018	4748
884.143	4881
884.269	5067
884.395	4710
884.52	4630
884.646	4656
884.772	4584
884.897	4592
885.023	4683
885.148	4786
885.274	4949
885.399	4866
885.524	4717
885.65	4706
885.775	4729
885.9	4736
886.025	4923
886.15	4771
886.275	4767
886.4	4683
886.525	4740
886.65	4679
886.775	4736
886.9	4927
887.025	5010
887.149	4862
887.274	4679
887.399	4630
887.523	4618
887.648	4542
887.773	4626
887.897	4729
888.021	4793
888.146	4710
888.27	4835
888.395	4885
888.519	4793
888.643	4793
888.767	4835
888.891	4740
889.015	4596
889.139	4660
889.263	4626
889.387	4748
889.511	4870
889.635	4786
889.759	4599
889.883	4649
890.006	4771
890.13	4828
890.254	4577
890.377	4729
890.501	4550
890.624	4573
890.748	4694
890.871	4504
890.995	4470
891.118	4379
891.241	4508
891.364	4580
891.488	4634
891.611	4497
891.734	4504
891.857	4607
891.98	4565
892.103	4687
892.226	4584
892.349	4535
892.471	4405
892.594	4554
892.717	4584
892.839	4607
892.962	4641
893.085	4691
893.207	4577
893.33	4497
893.452	4512
893.575	4637
893.697	4618
893.819	4809
893.941	4835
894.064	4778
894.186	4580
894.308	4561
894.43	4702
894.552	4862
894.674	4774
894.796	4550
894.918	4592
895.04	4577
895.161	4706
895.283	4694
895.405	4577
895.526	4656
895.648	4706
895.769	4698
895.891	4729
896.012	4786
896.134	4733
896.255	4645
896.376	4626
896.498	4630
896.619	4660
896.74	4607
896.861	4653
896.982	4942
897.103	5117
897.224	4812
897.345	4740
897.466	4748
897.587	4721
897.708	4801
897.828	4790
897.949	4683
898.07	4558
898.19	4611
898.311	4866
898.431	4698
898.552	4744
898.672	4828
898.792	4771
898.913	4733
899.033	4630
899.153	4519
899.273	4470
899.393	4512
899.513	4542
899.633	4558
899.753	4577
899.873	4538
899.993	4500
900.113	4550
900.232	4641
900.352	4592
900.472	4459
900.591	4386
900.711	4478
900.83	4451
900.95	4596
901.069	4687
901.189	4546
901.308	4367
901.427	4352
901.546	4383
901.665	4474
901.784	4523
901.904	4379
902.023	4379
902.141	4234
902.26	4200
902.379	4337
902.498	4253
902.617	4227
902.735	4394
902.854	4363
902.973	4375
903.091	4223
903.21	4242
903.328	4310
903.446	4310
903.565	4325
903.683	4383
903.801	4291
903.919	4402
904.038	4447
904.156	4348
904.274	4394
904.392	4383
904.51	4573
904.627	4497
904.745	4573
904.863	4626
904.981	4436
905.098	4284
905.216	4344
905.334	4447
905.451	4424
905.569	4485
905.686	4538
905.803	4596
905.921	4424
906.038	4550
906.155	4478
906.272	4417
906.389	4428
906.506	4375
906.623	4371
906.74	4344
906.857	4318
906.974	4371
907.091	4550
907.208	4759
907.324	4596
907.441	4489
907.557	4360
907.674	4322
907.79	4337
907.907	4386
908.023	4478
908.139	4447
908.256	4417
908.372	4485
908.488	4447
908.604	4344
908.72	4333
908.836	4333
908.952	4367
909.068	4402
909.184	4573
909.3	4512
909.415	4596
909.531	4558
909.647	4383
909.762	4394
909.878	4367
909.993	4470
910.108	4409
910.224	4417
910.339	4462
910.454	4394
910.57	4383
910.685	4287
910.8	4653
910.915	4599
911.03	4508
911.145	4341
911.259	4329
911.374	4432
911.489	4344
911.604	4265
911.718	4207
911.833	4192
911.947	4078
912.062	4040
912.176	4227
912.291	4318
912.405	4253
912.519	4489
912.633	4508
912.748	4371
912.862	4299
912.976	4253
913.09	4124
913.204	4185
913.318	4211
913.431	4390
913.545	4386
913.659	4455
913.772	4383
913.886	4276
914	4249
914.113	4348
914.226	4443
914.34	4394
914.453	4234
914.566	4428
914.68	4268
914.793	4314
914.906	4173
915.019	4101
915.132	4093
915.245	4196
915.358	4215
915.47	4234
915.583	4272
915.696	4356
915.809	4360
915.921	4447
916.034	4261
916.146	4242
916.259	4234
916.371	4367
916.483	4390
916.595	4295
916.708	4314
916.82	4344
916.932	4333
917.044	4299
917.156	4325
917.268	4234
917.38	4284
917.491	4276
917.603	4363
917.715	4436
917.826	4478
917.938	4325
918.049	4261
918.161	4383
918.272	4554
918.384	4546
918.495	4432
918.606	4295
918.717	4246
918.828	4329
918.939	4386
919.05	4257
919.161	4303
919.272	4135
919.383	4242
919.494	4440
919.604	4599
919.715	4443
919.826	4394
919.936	4417
920.047	4523
920.157	4474
920.267	4694
920.378	4554
920.488	4485
920.598	4698
920.708	4870
920.818	4801
920.928	4725
921.038	4942
921.148	4911
921.258	4626
921.368	4546
921.477	4504
921.587	4485
921.697	4367
921.806	4519
921.916	4447
922.025	4291
922.134	4249
922.244	4227
922.353	4322
922.462	4169
922.571	4131
922.68	4002
922.789	3964
922.898	4006
923.007	3975
923.116	4112
923.224	4032
923.333	4101
923.442	4006
923.55	3983
923.659	4059
923.767	4131
923.876	3994
923.984	4074
924.092	3953
924.201	4059
924.309	4116
924.417	4090
924.525	4059
924.633	4086
924.741	5102
924.849	3930
924.956	4105
925.064	3979
925.172	3880
925.279	3979
925.387	4059
925.494	4082
925.602	4253
925.709	4211
925.816	4055
925.924	4154
926.031	4230
926.138	4257
926.245	4227
926.352	4109
926.459	4234
926.566	4322
926.673	4185
926.779	4048
926.886	4074
926.993	4025
927.099	4006
927.206	3930
927.312	3953
927.419	4048
927.525	4048
927.631	4101
927.737	3987
927.843	3926
927.95	3865
928.056	3983
928.162	3987
928.267	4055
928.373	4675
928.479	4112
928.585	3899
928.69	3987
928.796	4105
928.901	4021
929.007	3861
929.112	4017
929.218	3972
929.323	3949
929.428	3949
929.533	4135
929.638	3892
929.743	3972
929.848	4029
929.953	4002
930.058	3934
930.163	3778
930.267	3861
930.372	3975
930.477	3846
930.581	4074
930.685	3937
930.79	3835
930.894	3896
930.998	3850
931.103	4025
931.207	3724
931.311	3690
931.415	3679
931.519	3530
931.623	3538
