Data from test_V78500241_772.txt Node
Date: Fri Mar 25 16:54:22 CST 2022
User: usil
Spectrometer: V785-0024
Trigger mode: 0
Integration Time (sec): 4.000000E-1
Scans to average: 1
Nonlinearity correction enabled: false
Boxcar width: 0
Storing dark spectrum: false
XAxis mode: Wavelengths
Number of Pixels in Spectrum: 1024
>>>>>Begin Spectral Data<<<<<
801.071	8031
801.214	7986
801.356	7947
801.499	7913
801.641	7792
801.783	7826
801.926	8027
802.068	7940
802.211	7932
802.353	7986
802.496	7871
802.638	7913
802.78	7959
802.923	7925
803.065	7868
803.208	7982
803.35	7936
803.492	8107
803.635	8191
803.777	7989
803.919	8149
804.061	8351
804.204	8062
804.346	7978
804.488	7978
804.63	8092
804.773	8016
804.915	8119
805.057	8233
805.199	8161
805.341	8221
805.483	8237
805.626	8313
805.768	8164
805.91	8180
806.052	8225
806.194	8084
806.336	8279
806.478	8096
806.62	8027
806.762	8096
806.904	8267
807.046	8442
807.188	8362
807.33	8419
807.472	8328
807.614	8145
807.756	8134
807.898	7974
808.04	7902
808.182	7875
808.324	7868
808.465	7860
808.607	8084
808.749	8100
808.891	8115
809.033	8313
809.174	8240
809.316	8073
809.458	8134
809.6	7974
809.741	8005
809.883	8039
810.025	8077
810.166	8024
810.308	8100
810.45	8031
810.591	7928
810.733	7868
810.875	7700
811.016	7544
811.158	7472
811.299	7540
811.441	7700
811.582	7639
811.724	7552
811.865	7480
812.007	7620
812.148	7537
812.29	7582
812.431	7708
812.573	7807
812.714	7925
812.855	8142
812.997	8157
813.138	8279
813.279	8123
813.421	8145
813.562	8031
813.703	7898
813.845	7700
813.986	7460
814.127	7301
814.268	7236
814.41	7164
814.551	7160
814.692	7164
814.833	7027
814.974	7122
815.115	7046
815.256	6977
815.397	6939
815.539	6973
815.68	6859
815.821	6791
815.962	6875
816.103	6878
816.244	6688
816.385	6570
816.526	6631
816.666	6456
816.807	6266
816.948	6422
817.089	6467
817.23	6452
817.371	6365
817.512	6376
817.653	6414
817.793	6331
817.934	6422
818.075	6422
818.216	6422
818.356	6418
818.497	6182
818.638	6098
818.778	6102
818.919	6186
819.06	6144
819.2	6254
819.341	6350
819.481	6311
819.622	6517
819.762	6715
819.903	6677
820.043	6623
820.184	6544
820.324	6521
820.465	6688
820.605	6623
820.746	6631
820.886	6475
821.026	6669
821.167	6677
821.307	6798
821.447	6772
821.588	6688
821.728	6551
821.868	6471
822.008	6346
822.149	6315
822.289	6365
822.429	6167
822.569	6129
822.709	6114
822.849	5920
822.99	5969
823.13	5889
823.27	5882
823.41	5821
823.55	5771
823.69	5779
823.83	5817
823.97	5714
824.11	5512
824.25	5520
824.389	5543
824.529	5581
824.669	5535
824.809	5615
824.949	5672
825.089	5535
825.228	5604
825.368	5391
825.508	5345
825.648	5326
825.787	5372
825.927	5402
826.067	5280
826.206	5284
826.346	5398
826.485	5406
826.625	5372
826.765	5562
826.904	5520
827.044	5231
827.183	5193
827.323	5109
827.462	5235
827.601	5185
827.741	5128
827.88	5185
828.02	5075
828.159	5242
828.298	5311
828.437	5391
828.577	5258
828.716	5459
828.855	5227
828.994	5181
829.134	5170
829.273	5174
829.412	5109
829.551	5113
829.69	5193
829.829	5258
829.968	5353
830.107	5273
830.246	5284
830.385	5170
830.524	5155
830.663	5067
830.802	5014
830.941	4881
831.08	4870
831.219	5006
831.357	4987
831.496	5170
831.635	4934
831.774	4839
831.913	4870
832.051	4725
832.19	4710
832.329	4835
832.467	4752
832.606	4649
832.744	4725
832.883	4721
833.022	4740
833.16	4771
833.299	4790
833.437	4824
833.576	4850
833.714	4862
833.852	4835
833.991	4873
834.129	4976
834.267	4934
834.406	4892
834.544	5018
834.682	4984
834.821	4911
834.959	5121
835.097	4987
835.235	5143
835.373	5098
835.511	5056
835.65	4980
835.788	5014
835.926	4938
836.064	4889
836.202	4919
836.34	5201
836.478	5242
836.615	5128
836.753	5235
836.891	5235
837.029	5212
837.167	5178
837.305	5193
837.443	5143
837.58	5090
837.718	5239
837.856	5181
837.993	5147
838.131	5231
838.269	5231
838.406	5201
838.544	5223
838.681	5056
838.819	4995
838.956	4938
839.094	4885
839.231	4976
839.369	5071
839.506	5459
839.643	5345
839.781	5029
839.918	4991
840.055	5117
840.193	5060
840.33	5147
840.467	5147
840.604	5204
840.742	5429
840.879	5056
841.016	5083
841.153	5170
841.29	5368
841.427	5315
841.564	5334
841.701	5368
841.838	5265
841.975	5227
842.112	5258
842.249	5124
842.385	5071
842.522	5353
842.659	5197
842.796	5159
842.933	5178
843.069	5159
843.206	5193
843.343	5299
843.479	5208
843.616	5284
843.752	5060
843.889	4972
844.025	5197
844.162	5098
844.298	5166
844.435	5109
844.571	5048
844.708	5189
844.844	5280
844.98	5368
845.117	5292
845.253	5102
845.389	5109
845.525	5155
845.661	5132
845.798	5052
845.934	5128
846.07	5003
846.206	5174
846.342	5254
846.478	5155
846.614	5060
846.75	4923
846.886	4923
847.022	5113
847.158	5033
847.294	5064
847.429	5105
847.565	5022
847.701	5292
847.837	4812
847.972	4771
848.108	4957
848.244	4930
848.379	4763
848.515	4706
848.65	4717
848.786	4717
848.921	4763
849.057	4877
849.192	4919
849.328	4797
849.463	4782
849.598	4778
849.734	4736
849.869	4691
850.004	4653
850.14	4660
850.275	4592
850.41	4535
850.545	4542
850.68	4611
850.815	4664
850.95	4607
851.085	4824
851.22	4759
851.355	4675
851.49	4634
851.625	4611
851.76	4641
851.895	4531
852.03	4546
852.165	4698
852.299	4694
852.434	4809
852.569	4759
852.703	4790
852.838	4820
852.973	4896
853.107	4980
853.242	4698
853.376	4691
853.511	4531
853.645	4630
853.78	4778
853.914	4687
854.048	4717
854.183	4573
854.317	4710
854.451	4885
854.585	4714
854.72	4622
854.854	4801
854.988	4577
855.122	4603
855.256	4504
855.39	4698
855.524	4744
855.658	4717
855.792	4698
855.926	4706
856.06	4767
856.194	4771
856.327	4702
856.461	4607
856.595	4584
856.729	4634
856.862	4668
856.996	4706
857.13	4774
857.263	4729
857.397	4752
857.53	4634
857.664	4748
857.797	4767
857.931	4774
858.064	4683
858.197	4672
858.331	4683
858.464	4550
858.597	4538
858.731	4615
858.864	4634
858.997	4569
859.13	4622
859.263	4626
859.396	4721
859.529	4577
859.662	4558
859.795	4588
859.928	4618
860.061	4778
860.194	4771
860.327	4588
860.46	4584
860.592	4733
860.725	4691
860.858	4691
860.99	4485
861.123	4508
861.256	4527
861.388	4599
861.521	5383
861.653	4459
861.786	4455
861.918	4485
862.05	4512
862.183	4561
862.315	4645
862.447	4668
862.58	4516
862.712	4398
862.844	4337
862.976	4481
863.108	4470
863.24	4854
863.372	4306
863.504	4409
863.636	4394
863.768	4470
863.9	4440
864.032	4428
864.164	4440
864.296	4470
864.428	4527
864.559	4592
864.691	4546
864.823	4523
864.954	4466
865.086	4504
865.217	4512
865.349	4398
865.48	4447
865.612	4462
865.743	4630
865.875	4447
866.006	4428
866.137	4489
866.269	4424
866.4	4424
866.531	4402
866.662	4375
866.793	4405
866.924	4386
867.055	4451
867.186	4481
867.317	4402
867.448	4390
867.579	4390
867.71	4398
867.841	4371
867.972	4394
868.103	4470
868.233	4413
868.364	4405
868.495	4455
868.625	4641
868.756	4771
868.886	4538
869.017	4577
869.147	4771
869.278	4782
869.408	4656
869.539	4637
869.669	4721
869.799	4622
869.929	4714
870.06	4740
870.19	4946
870.32	4881
870.45	4930
870.58	4949
870.71	5060
870.84	5128
870.97	4942
871.1	4854
871.23	5143
871.36	5147
871.489	5029
871.619	5029
871.749	5071
871.879	5140
872.008	5178
872.138	5052
872.267	4995
872.397	4801
872.526	4801
872.656	4725
872.785	4862
872.915	4911
873.044	4965
873.173	4873
873.303	4949
873.432	4923
873.561	4938
873.69	4858
873.819	4843
873.948	4892
874.077	4793
874.206	4740
874.335	4774
874.464	4946
874.593	5071
874.722	4968
874.851	5083
874.979	5060
875.108	5029
875.237	4919
875.365	4885
875.494	4885
875.623	4991
875.751	4809
875.88	4866
876.008	4968
876.136	5037
876.265	5235
876.393	5303
876.521	5280
876.65	5208
876.778	5181
876.906	5064
877.034	5018
877.162	5022
877.29	5014
877.418	5098
877.546	5056
877.674	5022
877.802	4999
877.93	4976
878.058	4919
878.185	4854
878.313	4942
878.441	4938
878.568	4771
878.696	4866
878.824	4999
878.951	4976
879.079	5113
879.206	5315
879.333	5090
879.461	5025
879.588	4984
879.715	5102
879.842	5159
879.97	4961
880.097	4809
880.224	4714
880.351	4847
880.478	4847
880.605	4809
880.732	4752
880.859	5117
880.986	4877
881.112	4908
881.239	4797
881.366	4664
881.493	4611
881.619	4580
881.746	4660
881.872	4580
881.999	4637
882.125	4653
882.252	4778
882.378	4881
882.505	4987
882.631	4805
882.757	4694
882.883	4717
883.01	4733
883.136	4645
883.262	4641
883.388	4592
883.514	4828
883.64	4881
883.766	4828
883.892	4630
884.018	4725
884.143	4881
884.269	4987
884.395	4664
884.52	4596
884.646	4675
884.772	4516
884.897	4531
885.023	4649
885.148	4805
885.274	4881
885.399	4809
885.524	4702
885.65	4656
885.775	4748
885.9	4717
886.025	4812
886.15	4805
886.275	4721
886.4	4656
886.525	4752
886.65	4687
886.775	4683
886.9	4885
887.025	5014
887.149	4782
887.274	4649
887.399	4588
887.523	4622
887.648	4573
887.773	4588
887.897	4755
888.021	4793
888.146	4675
888.27	4839
888.395	4843
888.519	4790
888.643	4782
888.767	4820
888.891	4634
889.015	4588
889.139	4618
889.263	4603
889.387	4725
889.511	4835
889.635	4801
889.759	4653
889.883	4626
890.006	4717
890.13	4839
890.254	4603
890.377	4645
890.501	4508
890.624	4497
890.748	4668
890.871	4508
890.995	4462
891.118	4371
891.241	4508
891.364	4573
891.488	4637
891.611	4478
891.734	4538
891.857	4615
891.98	4546
892.103	4599
892.226	4584
892.349	4531
892.471	4421
892.594	4508
892.717	4649
892.839	4538
892.962	4615
893.085	4634
893.207	4599
893.33	4478
893.452	4519
893.575	4637
893.697	4558
893.819	4771
893.941	4816
894.064	4771
894.186	4577
894.308	4607
894.43	4691
894.552	4782
894.674	4710
894.796	4512
894.918	4554
895.04	4565
895.161	4679
895.283	4630
895.405	4550
895.526	4649
895.648	4649
895.769	4668
895.891	4729
896.012	4729
896.134	4733
896.255	4649
896.376	4653
896.498	4599
896.619	4691
896.74	4592
896.861	4679
896.982	4870
897.103	5083
897.224	4828
897.345	4729
897.466	4656
897.587	4801
897.708	4824
897.828	4740
897.949	4687
898.07	4554
898.19	4683
898.311	4828
898.431	4668
898.552	4714
898.672	4786
898.792	4771
898.913	4725
899.033	4664
899.153	4516
899.273	4413
899.393	4504
899.513	4531
899.633	4500
899.753	4569
899.873	4485
899.993	4558
900.113	4512
900.232	4580
900.352	4508
900.472	4470
900.591	4367
900.711	4455
900.83	4405
900.95	4542
901.069	4710
901.189	4554
901.308	4421
901.427	4348
901.546	4363
901.665	4466
901.784	4535
901.904	4379
902.023	4306
902.141	4162
902.26	4185
902.379	4329
902.498	4253
902.617	4261
902.735	4402
902.854	4440
902.973	4318
903.091	4242
903.21	4234
903.328	4299
903.446	4268
903.565	4253
903.683	4371
903.801	4261
903.919	4417
904.038	4383
904.156	4272
904.274	4485
904.392	4405
904.51	4466
904.627	4478
904.745	4577
904.863	4641
904.981	4421
905.098	4276
905.216	4344
905.334	4440
905.451	4428
905.569	4436
905.686	4546
905.803	4565
905.921	4440
906.038	4535
906.155	4455
906.272	4379
906.389	4443
906.506	4348
906.623	4367
906.74	4363
906.857	4379
906.974	4371
907.091	4550
907.208	4653
907.324	4603
907.441	4485
907.557	4363
907.674	4363
907.79	4291
907.907	4367
908.023	4500
908.139	4481
908.256	4451
908.372	4519
908.488	4443
908.604	4383
908.72	4329
908.836	4352
908.952	4303
909.068	4455
909.184	4573
909.3	4500
909.415	4596
909.531	4607
909.647	4306
909.762	4379
909.878	4360
909.993	4455
910.108	4405
910.224	4386
910.339	4474
910.454	4417
910.57	4360
910.685	4325
910.8	4607
910.915	4573
911.03	4485
911.145	4322
911.259	4310
911.374	4413
911.489	4306
911.604	4318
911.718	4200
911.833	4181
911.947	4059
912.062	4013
912.176	4219
912.291	4223
912.405	4287
912.519	4470
912.633	4535
912.748	4344
912.862	4272
912.976	4154
913.09	4040
913.204	4196
913.318	4303
913.431	4356
913.545	4341
913.659	4462
913.772	4337
913.886	4276
914	4211
914.113	4325
914.226	4421
914.34	4379
914.453	4234
914.566	4402
914.68	4329
914.793	4310
914.906	4169
915.019	4097
915.132	4040
915.245	4177
915.358	4147
915.47	4234
915.583	4257
915.696	4284
915.809	4409
915.921	4428
916.034	4268
916.146	4268
916.259	4272
916.371	4348
916.483	4348
916.595	4215
916.708	4322
916.82	4318
916.932	4341
917.044	4318
917.156	4352
917.268	4246
917.38	4230
917.491	4227
917.603	4344
917.715	4402
917.826	4481
917.938	4375
918.049	4230
918.161	4390
918.272	4588
918.384	4558
918.495	4405
918.606	4291
918.717	4238
918.828	4325
918.939	4348
919.05	4261
919.161	4314
919.272	4154
919.383	4253
919.494	4497
919.604	4645
919.715	4466
919.826	4348
919.936	4379
920.047	4546
920.157	4500
920.267	4694
920.378	4531
920.488	4478
920.598	4702
920.708	4877
920.818	4744
920.928	4733
921.038	4942
921.148	4957
921.258	4641
921.368	4546
921.477	4523
921.587	4436
921.697	4379
921.806	4508
921.916	4402
922.025	4234
922.134	4280
922.244	4223
922.353	4348
922.462	4173
922.571	4143
922.68	4006
922.789	3975
922.898	4048
923.007	3998
923.116	4093
923.224	4071
923.333	4051
923.442	3983
923.55	3972
923.659	4040
923.767	4109
923.876	4006
923.984	4090
924.092	4002
924.201	4059
924.309	4032
924.417	4090
924.525	4063
924.633	4082
924.741	4866
924.849	3922
924.956	4128
925.064	3911
925.172	3899
925.279	3994
925.387	4048
925.494	4105
925.602	4249
925.709	4166
925.816	4029
925.924	4135
926.031	4204
926.138	4177
926.245	4169
926.352	4135
926.459	4227
926.566	4280
926.673	4139
926.779	4112
926.886	4071
926.993	3979
927.099	3953
927.206	3930
927.312	3922
927.419	4051
927.525	4055
927.631	4097
927.737	3975
927.843	3960
927.95	3846
928.056	3930
928.162	3983
928.267	4029
928.373	4721
928.479	4131
928.585	3861
928.69	4010
928.796	4048
928.901	3960
929.007	3823
929.112	4044
929.218	3953
929.323	3945
929.428	3918
929.533	4071
929.638	3911
929.743	3956
929.848	4044
929.953	4048
930.058	3983
930.163	3751
930.267	3827
930.372	3937
930.477	3831
930.581	4147
930.685	3953
930.79	3816
930.894	3880
930.998	3861
931.103	4029
931.207	3736
931.311	3671
931.415	3675
931.519	3542
931.623	3576
