Data from test_V78500241_1064.txt Node
Date: Fri Mar 25 16:56:24 CST 2022
User: usil
Spectrometer: V785-0024
Trigger mode: 0
Integration Time (sec): 4.000000E-1
Scans to average: 1
Nonlinearity correction enabled: false
Boxcar width: 0
Storing dark spectrum: false
XAxis mode: Wavelengths
Number of Pixels in Spectrum: 1024
>>>>>Begin Spectral Data<<<<<
801.071	8062
801.214	8088
801.356	7871
801.499	7818
801.641	7814
801.783	7803
801.926	7906
802.068	7883
802.211	7974
802.353	7940
802.496	7792
802.638	7902
802.78	7940
802.923	7932
803.065	7894
803.208	7856
803.35	7993
803.492	8100
803.635	8138
803.777	8035
803.919	8103
804.061	8499
804.204	8142
804.346	7970
804.488	7978
804.63	8039
804.773	7982
804.915	8054
805.057	8233
805.199	8206
805.341	8199
805.483	8214
805.626	8206
805.768	8134
805.91	8187
806.052	8279
806.194	8058
806.336	8279
806.478	8142
806.62	8065
806.762	8153
806.904	8313
807.046	8415
807.188	8374
807.33	8324
807.472	8317
807.614	8130
807.756	8107
807.898	8035
808.04	7967
808.182	7898
808.324	7875
808.465	7913
808.607	8142
808.749	8107
808.891	8252
809.033	8290
809.174	8282
809.316	8065
809.458	8050
809.6	8001
809.741	8016
809.883	8065
810.025	8119
810.166	8058
810.308	8088
810.45	8008
810.591	7955
810.733	7681
810.875	7651
811.016	7525
811.158	7552
811.299	7590
811.441	7727
811.582	7689
811.724	7597
811.865	7537
812.007	7567
812.148	7571
812.29	7689
812.431	7753
812.573	7928
812.714	8012
812.855	8130
812.997	8221
813.138	8347
813.279	8279
813.421	8100
813.562	8027
813.703	7875
813.845	7772
813.986	7445
814.127	7316
814.268	7327
814.41	7240
814.551	7114
814.692	7202
814.833	7095
814.974	7080
815.115	7110
815.256	6996
815.397	6977
815.539	6966
815.68	6867
815.821	6810
815.962	6875
816.103	6882
816.244	6764
816.385	6642
816.526	6700
816.666	6540
816.807	6289
816.948	6490
817.089	6525
817.23	6403
817.371	6407
817.512	6426
817.653	6441
817.793	6395
817.934	6407
818.075	6494
818.216	6445
818.356	6460
818.497	6216
818.638	6159
818.778	6167
818.919	6205
819.06	6163
819.2	6346
819.341	6323
819.481	6331
819.622	6570
819.762	6741
819.903	6700
820.043	6669
820.184	6578
820.324	6570
820.465	6711
820.605	6631
820.746	6688
820.886	6506
821.026	6692
821.167	6730
821.307	6791
821.447	6734
821.588	6642
821.728	6585
821.868	6525
822.008	6311
822.149	6418
822.289	6327
822.429	6114
822.569	6102
822.709	6129
822.849	5942
822.99	5935
823.13	5950
823.27	5920
823.41	5809
823.55	5813
823.69	5813
823.83	5775
823.97	5691
824.11	5467
824.25	5520
824.389	5551
824.529	5585
824.669	5558
824.809	5653
824.949	5668
825.089	5566
825.228	5600
825.368	5379
825.508	5395
825.648	5299
825.787	5402
825.927	5391
826.067	5322
826.206	5311
826.346	5379
826.485	5417
826.625	5417
826.765	5592
826.904	5497
827.044	5242
827.183	5220
827.323	5151
827.462	5261
827.601	5143
827.741	5227
827.88	5315
828.02	5090
828.159	5269
828.298	5383
828.437	5349
828.577	5292
828.716	5532
828.855	5288
828.994	5220
829.134	5201
829.273	5258
829.412	5132
829.551	5094
829.69	5181
829.829	5273
829.968	5398
830.107	5227
830.246	5284
830.385	5193
830.524	5143
830.663	5056
830.802	4987
830.941	4938
831.08	4896
831.219	4972
831.357	4965
831.496	5208
831.635	4938
831.774	4809
831.913	4889
832.051	4778
832.19	4748
832.329	4866
832.467	4683
832.606	4626
832.744	4729
832.883	4771
833.022	4752
833.16	4774
833.299	4812
833.437	4793
833.576	4843
833.714	4873
833.852	4873
833.991	4900
834.129	4980
834.267	4965
834.406	4923
834.544	4961
834.682	4965
834.821	4949
834.959	5208
835.097	5006
835.235	5170
835.373	5113
835.511	5117
835.65	5037
835.788	5037
835.926	4976
836.064	4904
836.202	4930
836.34	5155
836.478	5227
836.615	5147
836.753	5246
836.891	5296
837.029	5334
837.167	5220
837.305	5155
837.443	5193
837.58	5121
837.718	5265
837.856	5204
837.993	5159
838.131	5235
838.269	5159
838.406	5220
838.544	5204
838.681	5033
838.819	5025
838.956	4915
839.094	4953
839.231	4984
839.369	5079
839.506	5417
839.643	5288
839.781	5075
839.918	5056
840.055	5113
840.193	5121
840.33	5113
840.467	5170
840.604	5189
840.742	5459
840.879	5090
841.016	5071
841.153	5143
841.29	5345
841.427	5315
841.564	5322
841.701	5360
841.838	5280
841.975	5216
842.112	5269
842.249	5117
842.385	5109
842.522	5334
842.659	5185
842.796	5189
842.933	5235
843.069	5181
843.206	5181
843.343	5292
843.479	5265
843.616	5292
843.752	5003
843.889	5006
844.025	5208
844.162	5018
844.298	5170
844.435	5067
844.571	5060
844.708	5193
844.844	5303
844.98	5337
845.117	5296
845.253	5128
845.389	5056
845.525	5178
845.661	5166
845.798	5003
845.934	5178
846.07	5071
846.206	5147
846.342	5322
846.478	5197
846.614	4991
846.75	4972
846.886	4949
847.022	5159
847.158	4976
847.294	5075
847.429	5094
847.565	5010
847.701	5307
847.837	4889
847.972	4858
848.108	4946
848.244	4949
848.379	4816
848.515	4755
848.65	4706
848.786	4740
848.921	4790
849.057	4850
849.192	4942
849.328	4801
849.463	4877
849.598	4771
849.734	4771
849.869	4733
850.004	4660
850.14	4660
850.275	4607
850.41	4542
850.545	4561
850.68	4603
850.815	4584
850.95	4668
851.085	4881
851.22	4790
851.355	4656
851.49	4626
851.625	4653
851.76	4634
851.895	4565
852.03	4558
852.165	4645
852.299	4706
852.434	4805
852.569	4778
852.703	4790
852.838	4812
852.973	4984
853.107	4923
853.242	4793
853.376	4675
853.511	4577
853.645	4615
853.78	4824
853.914	4679
854.048	4649
854.183	4618
854.317	4706
854.451	4835
854.585	4656
854.72	4645
854.854	4778
854.988	4603
855.122	4630
855.256	4527
855.39	4664
855.524	4790
855.658	4740
855.792	4717
855.926	4736
856.06	4744
856.194	4782
856.327	4660
856.461	4603
856.595	4599
856.729	4660
856.862	4706
856.996	4668
857.13	4740
857.263	4752
857.397	4748
857.53	4656
857.664	4721
857.797	4748
857.931	4812
858.064	4706
858.197	4725
858.331	4634
858.464	4630
858.597	4542
858.731	4649
858.864	4630
858.997	4577
859.13	4637
859.263	4679
859.396	4725
859.529	4622
859.662	4573
859.795	4512
859.928	4645
860.061	4740
860.194	4733
860.327	4649
860.46	4527
860.592	4759
860.725	4710
860.858	4714
860.99	4622
861.123	4538
861.256	4535
861.388	4599
861.521	5254
861.653	4451
861.786	4478
861.918	4481
862.05	4497
862.183	4580
862.315	4664
862.447	4664
862.58	4577
862.712	4413
862.844	4310
862.976	4504
863.108	4459
863.24	4854
863.372	4352
863.504	4459
863.636	4394
863.768	4489
863.9	4436
864.032	4383
864.164	4386
864.296	4493
864.428	4588
864.559	4550
864.691	4519
864.823	4508
864.954	4481
865.086	4535
865.217	4493
865.349	4386
865.48	4409
865.612	4485
865.743	4626
865.875	4478
866.006	4462
866.137	4451
866.269	4459
866.4	4440
866.531	4424
866.662	4390
866.793	4386
866.924	4451
867.055	4546
867.186	4443
867.317	4455
867.448	4371
867.579	4386
867.71	4390
867.841	4375
867.972	4497
868.103	4470
868.233	4455
868.364	4451
868.495	4538
868.625	4706
868.756	4755
868.886	4592
869.017	4630
869.147	4755
869.278	4748
869.408	4675
869.539	4683
869.669	4725
869.799	4656
869.929	4748
870.06	4725
870.19	4938
870.32	4911
870.45	4965
870.58	4980
870.71	5067
870.84	5060
870.97	4976
871.1	4877
871.23	5193
871.36	5124
871.489	5037
871.619	5056
871.749	5136
871.879	5052
872.008	5193
872.138	5022
872.267	4972
872.397	4824
872.526	4805
872.656	4721
872.785	4820
872.915	4934
873.044	5014
873.173	4904
873.303	4949
873.432	4987
873.561	4946
873.69	4877
873.819	4824
873.948	4946
874.077	4824
874.206	4763
874.335	4790
874.464	4873
874.593	5060
874.722	4961
874.851	5151
874.979	5033
875.108	5033
875.237	4904
875.365	4812
875.494	4870
875.623	4942
875.751	4828
875.88	4866
876.008	4991
876.136	5052
876.265	5178
876.393	5364
876.521	5220
876.65	5197
876.778	5128
876.906	5060
877.034	5041
877.162	5071
877.29	5006
877.418	5025
877.546	5022
877.674	5067
877.802	5071
877.93	5025
878.058	4889
878.185	4896
878.313	5006
878.441	4938
878.568	4782
878.696	4866
878.824	4999
878.951	4987
879.079	5105
879.206	5326
879.333	5079
879.461	4938
879.588	4984
879.715	5094
879.842	5212
879.97	5071
880.097	4801
880.224	4774
880.351	4820
880.478	4828
880.605	4809
880.732	4812
880.859	5132
880.986	4854
881.112	4953
881.239	4782
881.366	4675
881.493	4573
881.619	4577
881.746	4645
881.872	4664
881.999	4668
882.125	4729
882.252	4812
882.378	4839
882.505	4995
882.631	4759
882.757	4607
882.883	4717
883.01	4725
883.136	4694
883.262	4592
883.388	4618
883.514	4839
883.64	4866
883.766	4797
883.892	4675
884.018	4702
884.143	4881
884.269	5064
884.395	4736
884.52	4599
884.646	4626
884.772	4531
884.897	4580
885.023	4717
885.148	4744
885.274	4881
885.399	4812
885.524	4725
885.65	4656
885.775	4767
885.9	4721
886.025	4858
886.15	4793
886.275	4683
886.4	4664
886.525	4702
886.65	4721
886.775	4649
886.9	4896
887.025	5037
887.149	4801
887.274	4649
887.399	4584
887.523	4615
887.648	4580
887.773	4569
887.897	4771
888.021	4759
888.146	4664
888.27	4759
888.395	4961
888.519	4854
888.643	4809
888.767	4824
888.891	4679
889.015	4611
889.139	4672
889.263	4622
889.387	4763
889.511	4839
889.635	4748
889.759	4634
889.883	4664
890.006	4679
890.13	4839
890.254	4599
890.377	4664
890.501	4535
890.624	4516
890.748	4554
890.871	4489
890.995	4421
891.118	4344
891.241	4573
891.364	4516
891.488	4535
891.611	4459
891.734	4516
891.857	4634
891.98	4474
892.103	4649
892.226	4596
892.349	4550
892.471	4455
892.594	4538
892.717	4592
892.839	4542
892.962	4649
893.085	4622
893.207	4599
893.33	4485
893.452	4485
893.575	4649
893.697	4550
893.819	4771
893.941	4801
894.064	4774
894.186	4565
894.308	4554
894.43	4729
894.552	4831
894.674	4668
894.796	4531
894.918	4611
895.04	4542
895.161	4694
895.283	4637
895.405	4531
895.526	4649
895.648	4687
895.769	4645
895.891	4729
896.012	4725
896.134	4721
896.255	4698
896.376	4645
896.498	4615
896.619	4672
896.74	4607
896.861	4630
896.982	4904
897.103	5006
897.224	4850
897.345	4691
897.466	4664
897.587	4729
897.708	4847
897.828	4740
897.949	4622
898.07	4569
898.19	4622
898.311	4809
898.431	4687
898.552	4729
898.672	4831
898.792	4790
898.913	4767
899.033	4626
899.153	4531
899.273	4405
899.393	4500
899.513	4508
899.633	4504
899.753	4493
899.873	4478
899.993	4577
900.113	4523
900.232	4573
900.352	4565
900.472	4527
900.591	4383
900.711	4504
900.83	4436
900.95	4603
901.069	4687
901.189	4527
901.308	4333
901.427	4284
901.546	4390
901.665	4493
901.784	4470
901.904	4402
902.023	4337
902.141	4223
902.26	4169
902.379	4310
902.498	4268
902.617	4249
902.735	4341
902.854	4383
902.973	4352
903.091	4234
903.21	4181
903.328	4318
903.446	4284
903.565	4242
903.683	4363
903.801	4227
903.919	4383
904.038	4428
904.156	4306
904.274	4428
904.392	4371
904.51	4466
904.627	4470
904.745	4550
904.863	4611
904.981	4424
905.098	4333
905.216	4341
905.334	4424
905.451	4436
905.569	4432
905.686	4550
905.803	4565
905.921	4417
906.038	4558
906.155	4428
906.272	4386
906.389	4462
906.506	4360
906.623	4398
906.74	4421
906.857	4287
906.974	4371
907.091	4573
907.208	4664
907.324	4603
907.441	4478
907.557	4318
907.674	4306
907.79	4348
907.907	4383
908.023	4440
908.139	4451
908.256	4489
908.372	4462
908.488	4432
908.604	4337
908.72	4306
908.836	4394
908.952	4363
909.068	4443
909.184	4565
909.3	4466
909.415	4615
909.531	4561
909.647	4360
909.762	4375
909.878	4367
909.993	4474
910.108	4405
910.224	4394
910.339	4443
910.454	4341
910.57	4348
910.685	4272
910.8	4622
910.915	4592
911.03	4493
911.145	4287
911.259	4276
911.374	4360
911.489	4265
911.604	4272
911.718	4139
911.833	4196
911.947	4086
912.062	4074
912.176	4211
912.291	4211
912.405	4253
912.519	4405
912.633	4481
912.748	4367
912.862	4299
912.976	4192
913.09	4055
913.204	4139
913.318	4242
913.431	4344
913.545	4363
913.659	4417
913.772	4325
913.886	4219
914	4207
914.113	4375
914.226	4443
914.34	4405
914.453	4268
914.566	4390
914.68	4325
914.793	4363
914.906	4112
915.019	4166
915.132	4036
915.245	4185
915.358	4177
915.47	4234
915.583	4287
915.696	4306
915.809	4409
915.921	4390
916.034	4242
916.146	4246
916.259	4246
916.371	4367
916.483	4356
916.595	4246
916.708	4306
916.82	4306
916.932	4333
917.044	4405
917.156	4325
917.268	4207
917.38	4303
917.491	4242
917.603	4318
917.715	4481
917.826	4409
917.938	4360
918.049	4246
918.161	4363
918.272	4538
918.384	4504
918.495	4500
918.606	4276
918.717	4181
918.828	4322
918.939	4306
919.05	4284
919.161	4291
919.272	4124
919.383	4227
919.494	4390
919.604	4588
919.715	4417
919.826	4360
919.936	4417
920.047	4523
920.157	4497
920.267	4733
920.378	4516
920.488	4497
920.598	4656
920.708	4892
920.818	4744
920.928	4729
921.038	4934
921.148	4949
921.258	4573
921.368	4546
921.477	4538
921.587	4428
921.697	4310
921.806	4481
921.916	4474
922.025	4272
922.134	4246
922.244	4268
922.353	4261
922.462	4143
922.571	4090
922.68	4010
922.789	3922
922.898	4025
923.007	3983
923.116	4105
923.224	4048
923.333	4063
923.442	3926
923.55	3972
923.659	4029
923.767	4097
923.876	3983
923.984	4086
924.092	4002
924.201	4067
924.309	4086
924.417	4116
924.525	4044
924.633	4063
924.741	5083
924.849	3896
924.956	4105
925.064	3960
925.172	3888
925.279	3934
925.387	4067
925.494	4013
925.602	4204
925.709	4173
925.816	4101
925.924	4128
926.031	4253
926.138	4211
926.245	4207
926.352	4063
926.459	4276
926.566	4265
926.673	4177
926.779	4131
926.886	4071
926.993	3956
927.099	3945
927.206	3956
927.312	3937
927.419	4044
927.525	4006
927.631	4063
927.737	3960
927.843	3930
927.95	3838
928.056	3953
928.162	3991
928.267	4048
928.373	4672
928.479	4109
928.585	3907
928.69	4021
928.796	4097
928.901	3975
929.007	3846
929.112	4021
929.218	3968
929.323	3918
929.428	3937
929.533	4120
929.638	3880
929.743	3907
929.848	4055
929.953	4002
930.058	3941
930.163	3766
930.267	3857
930.372	4021
930.477	3816
930.581	4086
930.685	3941
930.79	3835
930.894	3892
930.998	3854
931.103	4010
931.207	3698
931.311	3705
931.415	3641
931.519	3488
931.623	3557
