Data from test_V78500241_116.txt Node
Date: Fri Mar 25 16:49:48 CST 2022
User: usil
Spectrometer: V785-0024
Trigger mode: 0
Integration Time (sec): 4.000000E-1
Scans to average: 1
Nonlinearity correction enabled: false
Boxcar width: 0
Storing dark spectrum: false
XAxis mode: Wavelengths
Number of Pixels in Spectrum: 1024
>>>>>Begin Spectral Data<<<<<
801.071	8050
801.214	8020
801.356	7955
801.499	7879
801.641	7837
801.783	7921
801.926	8084
802.068	7959
802.211	7978
802.353	8088
802.496	7898
802.638	7864
802.78	8001
802.923	7947
803.065	7890
803.208	7864
803.35	7970
803.492	8119
803.635	8126
803.777	7993
803.919	8107
804.061	8362
804.204	7978
804.346	8062
804.488	7845
804.63	8024
804.773	7989
804.915	8084
805.057	8214
805.199	8077
805.341	8225
805.483	8229
805.626	8199
805.768	8062
805.91	8172
806.052	8229
806.194	8050
806.336	8301
806.478	8088
806.62	8103
806.762	8240
806.904	8256
807.046	8419
807.188	8377
807.33	8313
807.472	8282
807.614	8115
807.756	8153
807.898	8039
808.04	7940
808.182	7871
808.324	7845
808.465	7856
808.607	7982
808.749	8039
808.891	8191
809.033	8259
809.174	8145
809.316	8100
809.458	8073
809.6	8016
809.741	8103
809.883	8016
810.025	8145
810.166	8096
810.308	8054
810.45	8046
810.591	7890
810.733	7738
810.875	7727
811.016	7544
811.158	7495
811.299	7605
811.441	7788
811.582	7734
811.724	7597
811.865	7620
812.007	7620
812.148	7662
812.29	7685
812.431	7879
812.573	7955
812.714	7989
812.855	8176
812.997	8339
813.138	8404
813.279	8275
813.421	8183
813.562	8065
813.703	7887
813.845	7765
813.986	7476
814.127	7259
814.268	7301
814.41	7240
814.551	7206
814.692	7198
814.833	7175
814.974	7129
815.115	7156
815.256	6996
815.397	6985
815.539	7012
815.68	6806
815.821	6753
815.962	6840
816.103	6890
816.244	6719
816.385	6642
816.526	6631
816.666	6532
816.807	6338
816.948	6418
817.089	6456
817.23	6410
817.371	6437
817.512	6426
817.653	6433
817.793	6342
817.934	6486
818.075	6517
818.216	6464
818.356	6426
818.497	6292
818.638	6148
818.778	6148
818.919	6148
819.06	6144
819.2	6315
819.341	6311
819.481	6448
819.622	6517
819.762	6818
819.903	6703
820.043	6620
820.184	6582
820.324	6566
820.465	6715
820.605	6658
820.746	6700
820.886	6513
821.026	6726
821.167	6749
821.307	6810
821.447	6795
821.588	6700
821.728	6585
821.868	6547
822.008	6365
822.149	6372
822.289	6388
822.429	6171
822.569	6098
822.709	6114
822.849	5931
822.99	5935
823.13	5931
823.27	5954
823.41	5802
823.55	5783
823.69	5798
823.83	5851
823.97	5661
824.11	5600
824.25	5512
824.389	5589
824.529	5589
824.669	5524
824.809	5589
824.949	5665
825.089	5646
825.228	5554
825.368	5379
825.508	5337
825.648	5357
825.787	5421
825.927	5379
826.067	5277
826.206	5307
826.346	5436
826.485	5463
826.625	5433
826.765	5539
826.904	5516
827.044	5280
827.183	5223
827.323	5181
827.462	5296
827.601	5223
827.741	5216
827.88	5220
828.02	5151
828.159	5261
828.298	5322
828.437	5353
828.577	5299
828.716	5459
828.855	5341
828.994	5261
829.134	5201
829.273	5162
829.412	5212
829.551	5162
829.69	5212
829.829	5250
829.968	5417
830.107	5322
830.246	5277
830.385	5239
830.524	5231
830.663	5124
830.802	5018
830.941	4942
831.08	4896
831.219	5045
831.357	5060
831.496	5231
831.635	4976
831.774	4892
831.913	4934
832.051	4767
832.19	4774
832.329	4889
832.467	4755
832.606	4702
832.744	4793
832.883	4809
833.022	4755
833.16	4885
833.299	4908
833.437	4885
833.576	4919
833.714	4870
833.852	4885
833.991	4942
834.129	5029
834.267	5006
834.406	4923
834.544	5018
834.682	5037
834.821	5037
834.959	5208
835.097	5067
835.235	5223
835.373	5159
835.511	5181
835.65	5067
835.788	5109
835.926	4942
836.064	4968
836.202	4968
836.34	5231
836.478	5311
836.615	5208
836.753	5284
836.891	5311
837.029	5303
837.167	5216
837.305	5231
837.443	5258
837.58	5143
837.718	5326
837.856	5250
837.993	5242
838.131	5299
838.269	5277
838.406	5311
838.544	5280
838.681	5113
838.819	5090
838.956	4995
839.094	4980
839.231	5075
839.369	5170
839.506	5528
839.643	5307
839.781	5124
839.918	5067
840.055	5181
840.193	5128
840.33	5174
840.467	5246
840.604	5250
840.742	5497
840.879	5109
841.016	5178
841.153	5147
841.29	5410
841.427	5337
841.564	5326
841.701	5444
841.838	5334
841.975	5303
842.112	5357
842.249	5216
842.385	5185
842.522	5436
842.659	5220
842.796	5197
842.933	5231
843.069	5208
843.206	5208
843.343	5341
843.479	5235
843.616	5357
843.752	5132
843.889	5052
844.025	5269
844.162	5060
844.298	5288
844.435	5109
844.571	5075
844.708	5322
844.844	5341
844.98	5433
845.117	5330
845.253	5174
845.389	5105
845.525	5235
845.661	5231
845.798	5098
845.934	5185
846.07	5098
846.206	5284
846.342	5376
846.478	5220
846.614	5090
846.75	5025
846.886	5029
847.022	5151
847.158	5083
847.294	5143
847.429	5113
847.565	5079
847.701	5395
847.837	4870
847.972	4850
848.108	4972
848.244	4980
848.379	4843
848.515	4752
848.65	4767
848.786	4816
848.921	4812
849.057	4911
849.192	5018
849.328	4831
849.463	4919
849.598	4839
849.734	4839
849.869	4763
850.004	4694
850.14	4725
850.275	4637
850.41	4558
850.545	4645
850.68	4615
850.815	4668
850.95	4702
851.085	4843
851.22	4877
851.355	4679
851.49	4675
851.625	4706
851.76	4702
851.895	4668
852.03	4618
852.165	4653
852.299	4850
852.434	4786
852.569	4793
852.703	4820
852.838	4919
852.973	4980
853.107	4946
853.242	4786
853.376	4683
853.511	4611
853.645	4649
853.78	4767
853.914	4759
854.048	4733
854.183	4668
854.317	4774
854.451	4923
854.585	4736
854.72	4698
854.854	4828
854.988	4691
855.122	4706
855.256	4611
855.39	4675
855.524	4843
855.658	4774
855.792	4733
855.926	4831
856.06	4828
856.194	4858
856.327	4782
856.461	4675
856.595	4725
856.729	4660
856.862	4797
856.996	4721
857.13	4744
857.263	4850
857.397	4862
857.53	4698
857.664	4763
857.797	4774
857.931	4835
858.064	4755
858.197	4752
858.331	4656
858.464	4694
858.597	4580
858.731	4706
858.864	4675
858.997	4687
859.13	4702
859.263	4748
859.396	4790
859.529	4645
859.662	4607
859.795	4558
859.928	4733
860.061	4805
860.194	4847
860.327	4634
860.46	4592
860.592	4748
860.725	4801
860.858	4774
860.99	4615
861.123	4634
861.256	4565
861.388	4653
861.521	5402
861.653	4470
861.786	4508
861.918	4508
862.05	4538
862.183	4569
862.315	4645
862.447	4736
862.58	4664
862.712	4394
862.844	4379
862.976	4538
863.108	4500
863.24	4984
863.372	4379
863.504	4462
863.636	4493
863.768	4535
863.9	4478
864.032	4424
864.164	4459
864.296	4588
864.428	4592
864.559	4588
864.691	4584
864.823	4622
864.954	4554
865.086	4527
865.217	4466
865.349	4516
865.48	4527
865.612	4565
865.743	4679
865.875	4550
866.006	4508
866.137	4497
866.269	4466
866.4	4455
866.531	4459
866.662	4493
866.793	4466
866.924	4478
867.055	4558
867.186	4512
867.317	4409
867.448	4417
867.579	4409
867.71	4443
867.841	4383
867.972	4565
868.103	4481
868.233	4493
868.364	4481
868.495	4531
868.625	4717
868.756	4793
868.886	4615
869.017	4694
869.147	4793
869.278	4790
869.408	4668
869.539	4710
869.669	4759
869.799	4675
869.929	4793
870.06	4774
870.19	4965
870.32	4968
870.45	4957
870.58	5079
870.71	5185
870.84	5140
870.97	4995
871.1	4915
871.23	5212
871.36	5143
871.489	5075
871.619	5117
871.749	5178
871.879	5166
872.008	5193
872.138	5064
872.267	5022
872.397	4904
872.526	4797
872.656	4752
872.785	4885
872.915	4995
873.044	5105
873.173	4984
873.303	4965
873.432	4984
873.561	4984
873.69	4930
873.819	4896
873.948	4927
874.077	4896
874.206	4801
874.335	4862
874.464	4995
874.593	5159
874.722	4984
874.851	5189
874.979	5143
875.108	5045
875.237	4972
875.365	4908
875.494	4934
875.623	5075
875.751	4850
875.88	4904
876.008	5003
876.136	5025
876.265	5254
876.393	5387
876.521	5292
876.65	5239
876.778	5178
876.906	5117
877.034	5109
877.162	5102
877.29	5067
877.418	5086
877.546	5071
877.674	5083
877.802	5098
877.93	5014
878.058	5003
878.185	4930
878.313	5022
878.441	5033
878.568	4839
878.696	4923
878.824	5048
878.951	4999
879.079	5155
879.206	5357
879.333	5201
879.461	5045
879.588	5056
879.715	5170
879.842	5223
879.97	5037
880.097	4805
880.224	4801
880.351	4786
880.478	4919
880.605	4797
880.732	4828
880.859	5121
880.986	4934
881.112	4984
881.239	4870
881.366	4675
881.493	4679
881.619	4725
881.746	4729
881.872	4763
881.999	4702
882.125	4698
882.252	4835
882.378	4896
882.505	4965
882.631	4831
882.757	4710
882.883	4786
883.01	4744
883.136	4721
883.262	4596
883.388	4664
883.514	4850
883.64	4923
883.766	4862
883.892	4675
884.018	4782
884.143	4923
884.269	5060
884.395	4748
884.52	4679
884.646	4691
884.772	4588
884.897	4577
885.023	4702
885.148	4801
885.274	4927
885.399	4850
885.524	4736
885.65	4744
885.775	4801
885.9	4733
886.025	4915
886.15	4793
886.275	4740
886.4	4698
886.525	4771
886.65	4733
886.775	4744
886.9	4938
887.025	5086
887.149	4816
887.274	4714
887.399	4641
887.523	4660
887.648	4599
887.773	4649
887.897	4774
888.021	4816
888.146	4694
888.27	4831
888.395	4965
888.519	4843
888.643	4831
888.767	4900
888.891	4740
889.015	4706
889.139	4725
889.263	4687
889.387	4793
889.511	4881
889.635	4801
889.759	4649
889.883	4721
890.006	4801
890.13	4828
890.254	4649
890.377	4748
890.501	4573
890.624	4558
890.748	4687
890.871	4596
890.995	4481
891.118	4405
891.241	4531
891.364	4558
891.488	4694
891.611	4558
891.734	4558
891.857	4630
891.98	4569
892.103	4721
892.226	4656
892.349	4596
892.471	4512
892.594	4626
892.717	4641
892.839	4607
892.962	4649
893.085	4679
893.207	4588
893.33	4512
893.452	4565
893.575	4664
893.697	4679
893.819	4866
893.941	4820
894.064	4763
894.186	4615
894.308	4599
894.43	4786
894.552	4805
894.674	4805
894.796	4626
894.918	4634
895.04	4603
895.161	4744
895.283	4675
895.405	4615
895.526	4679
895.648	4721
895.769	4733
895.891	4714
896.012	4744
896.134	4763
896.255	4691
896.376	4637
896.498	4679
896.619	4736
896.74	4675
896.861	4752
896.982	4934
897.103	5117
897.224	4850
897.345	4843
897.466	4664
897.587	4790
897.708	4911
897.828	4778
897.949	4679
898.07	4641
898.19	4698
898.311	4858
898.431	4744
898.552	4744
898.672	4896
898.792	4828
898.913	4752
899.033	4668
899.153	4569
899.273	4508
899.393	4516
899.513	4558
899.633	4622
899.753	4599
899.873	4577
899.993	4611
900.113	4550
900.232	4637
900.352	4523
900.472	4497
900.591	4436
900.711	4523
900.83	4451
900.95	4660
901.069	4706
901.189	4535
901.308	4421
901.427	4352
901.546	4379
901.665	4474
901.784	4542
901.904	4428
902.023	4375
902.141	4200
902.26	4223
902.379	4352
902.498	4284
902.617	4253
902.735	4367
902.854	4451
902.973	4409
903.091	4257
903.21	4284
903.328	4306
903.446	4303
903.565	4306
903.683	4367
903.801	4268
903.919	4409
904.038	4478
904.156	4402
904.274	4504
904.392	4459
904.51	4440
904.627	4474
904.745	4634
904.863	4687
904.981	4462
905.098	4325
905.216	4428
905.334	4455
905.451	4451
905.569	4493
905.686	4603
905.803	4611
905.921	4432
906.038	4550
906.155	4531
906.272	4436
906.389	4489
906.506	4386
906.623	4424
906.74	4462
906.857	4329
906.974	4363
907.091	4615
907.208	4725
907.324	4634
907.441	4535
907.557	4379
907.674	4375
907.79	4394
907.907	4413
908.023	4535
908.139	4558
908.256	4432
908.372	4455
908.488	4478
908.604	4394
908.72	4329
908.836	4405
908.952	4398
909.068	4508
909.184	4577
909.3	4497
909.415	4649
909.531	4561
909.647	4451
909.762	4352
909.878	4409
909.993	4432
910.108	4455
910.224	4436
910.339	4489
910.454	4417
910.57	4360
910.685	4360
910.8	4691
910.915	4607
911.03	4504
911.145	4398
911.259	4371
911.374	4390
911.489	4322
911.604	4348
911.718	4215
911.833	4188
911.947	4105
912.062	4082
912.176	4234
912.291	4265
912.405	4246
912.519	4489
912.633	4527
912.748	4428
912.862	4341
912.976	4246
913.09	4109
913.204	4185
913.318	4284
913.431	4394
913.545	4352
913.659	4489
913.772	4383
913.886	4276
914	4287
914.113	4405
914.226	4497
914.34	4451
914.453	4253
914.566	4470
914.68	4322
914.793	4371
914.906	4196
915.019	4128
915.132	4135
915.245	4196
915.358	4234
915.47	4303
915.583	4314
915.696	4303
915.809	4421
915.921	4462
916.034	4284
916.146	4341
916.259	4287
916.371	4394
916.483	4371
916.595	4303
916.708	4383
916.82	4356
916.932	4367
917.044	4360
917.156	4344
917.268	4246
917.38	4329
917.491	4306
917.603	4344
917.715	4459
917.826	4451
917.938	4379
918.049	4295
918.161	4383
918.272	4584
918.384	4588
918.495	4508
918.606	4333
918.717	4287
918.828	4379
918.939	4409
919.05	4295
919.161	4371
919.272	4173
919.383	4299
919.494	4462
919.604	4656
919.715	4474
919.826	4394
919.936	4371
920.047	4573
920.157	4512
920.267	4694
920.378	4615
920.488	4542
920.598	4752
920.708	4927
920.818	4774
920.928	4790
921.038	4972
921.148	4896
921.258	4702
921.368	4577
921.477	4508
921.587	4500
921.697	4390
921.806	4626
921.916	4421
922.025	4284
922.134	4329
922.244	4246
922.353	4363
922.462	4234
922.571	4166
922.68	4055
922.789	3987
922.898	4086
923.007	4021
923.116	4112
923.224	4116
923.333	4124
923.442	4036
923.55	4044
923.659	4063
923.767	4150
923.876	4032
923.984	4143
924.092	4051
924.201	4105
924.309	4135
924.417	4124
924.525	4128
924.633	4109
924.741	4866
924.849	3903
924.956	4166
925.064	3979
925.172	3899
925.279	3994
925.387	4071
925.494	4063
925.602	4253
925.709	4246
925.816	4090
925.924	4109
926.031	4242
926.138	4219
926.245	4230
926.352	4105
926.459	4287
926.566	4310
926.673	4185
926.779	4074
926.886	4105
926.993	4013
927.099	3991
927.206	3968
927.312	3983
927.419	4021
927.525	4055
927.631	4109
927.737	4021
927.843	3975
927.95	3922
928.056	3975
928.162	4010
928.267	4063
928.373	4626
928.479	4105
928.585	3918
928.69	3994
928.796	4055
928.901	3994
929.007	3869
929.112	4021
929.218	4021
929.323	4010
929.428	3956
929.533	4101
929.638	3960
929.743	3960
929.848	4090
929.953	4067
930.058	3934
930.163	3819
930.267	3880
930.372	4051
930.477	3827
930.581	4143
930.685	3994
930.79	3846
930.894	3899
930.998	3846
931.103	4059
931.207	3728
931.311	3755
931.415	3694
931.519	3561
931.623	3584
