Data from test_V78500241_2291.txt Node
Date: Fri Mar 25 17:04:55 CST 2022
User: usil
Spectrometer: V785-0024
Trigger mode: 0
Integration Time (sec): 4.000000E-1
Scans to average: 1
Nonlinearity correction enabled: false
Boxcar width: 0
Storing dark spectrum: false
XAxis mode: Wavelengths
Number of Pixels in Spectrum: 1024
>>>>>Begin Spectral Data<<<<<
801.071	7986
801.214	7997
801.356	7868
801.499	7814
801.641	7738
801.783	7841
801.926	7970
802.068	7940
802.211	7993
802.353	8005
802.496	7879
802.638	7849
802.78	7902
802.923	7902
803.065	7890
803.208	7887
803.35	7978
803.492	8069
803.635	8111
803.777	8050
803.919	8077
804.061	8488
804.204	8115
804.346	8016
804.488	7883
804.63	8107
804.773	8039
804.915	8130
805.057	8301
805.199	8187
805.341	8229
805.483	8294
805.626	8199
805.768	8138
805.91	8195
806.052	8180
806.194	8077
806.336	8298
806.478	8206
806.62	8027
806.762	8149
806.904	8256
807.046	8415
807.188	8358
807.33	8332
807.472	8381
807.614	8153
807.756	8123
807.898	8043
808.04	7875
808.182	7887
808.324	7837
808.465	7887
808.607	8065
808.749	8115
808.891	8111
809.033	8221
809.174	8180
809.316	8050
809.458	8126
809.6	7974
809.741	8092
809.883	8065
810.025	8077
810.166	8081
810.308	8012
810.45	8043
810.591	7887
810.733	7723
810.875	7715
811.016	7540
811.158	7472
811.299	7609
811.441	7712
811.582	7750
811.724	7658
811.865	7510
812.007	7616
812.148	7628
812.29	7620
812.431	7757
812.573	7879
812.714	7913
812.855	8168
812.997	8172
813.138	8343
813.279	8111
813.421	8039
813.562	7936
813.703	7807
813.845	7704
813.986	7438
814.127	7270
814.268	7312
814.41	7175
814.551	7122
814.692	7274
814.833	7095
814.974	7069
815.115	7076
815.256	6935
815.397	6947
815.539	6932
815.68	6791
815.821	6779
815.962	6878
816.103	6814
816.244	6703
816.385	6593
816.526	6662
816.666	6441
816.807	6353
816.948	6376
817.089	6418
817.23	6460
817.371	6353
817.512	6357
817.653	6372
817.793	6353
817.934	6418
818.075	6544
818.216	6407
818.356	6369
818.497	6281
818.638	6140
818.778	6117
818.919	6182
819.06	6140
819.2	6361
819.341	6311
819.481	6361
819.622	6566
819.762	6741
819.903	6684
820.043	6631
820.184	6631
820.324	6521
820.465	6711
820.605	6734
820.746	6700
820.886	6498
821.026	6639
821.167	6738
821.307	6791
821.447	6821
821.588	6681
821.728	6566
821.868	6517
822.008	6323
822.149	6334
822.289	6338
822.429	6178
822.569	6125
822.709	6091
822.849	5931
822.99	5931
823.13	5980
823.27	5885
823.41	5783
823.55	5840
823.69	5764
823.83	5741
823.97	5668
824.11	5547
824.25	5505
824.389	5551
824.529	5592
824.669	5520
824.809	5691
824.949	5661
825.089	5615
825.228	5585
825.368	5410
825.508	5364
825.648	5360
825.787	5364
825.927	5364
826.067	5315
826.206	5341
826.346	5372
826.485	5379
826.625	5395
826.765	5501
826.904	5478
827.044	5227
827.183	5181
827.323	5113
827.462	5239
827.601	5174
827.741	5235
827.88	5223
828.02	5056
828.159	5246
828.298	5265
828.437	5303
828.577	5277
828.716	5528
828.855	5360
828.994	5132
829.134	5166
829.273	5174
829.412	5189
829.551	5143
829.69	5155
829.829	5250
829.968	5417
830.107	5250
830.246	5307
830.385	5147
830.524	5136
830.663	5064
830.802	4927
830.941	4885
831.08	4877
831.219	4980
831.357	4980
831.496	5109
831.635	4961
831.774	4847
831.913	4828
832.051	4763
832.19	4736
832.329	4866
832.467	4656
832.606	4637
832.744	4679
832.883	4706
833.022	4710
833.16	4725
833.299	4816
833.437	4774
833.576	4889
833.714	4881
833.852	4862
833.991	4904
834.129	4942
834.267	4904
834.406	4930
834.544	4980
834.682	5018
834.821	4923
834.959	5117
835.097	4980
835.235	5178
835.373	5121
835.511	5064
835.65	5056
835.788	4976
835.926	4885
836.064	4862
836.202	4900
836.34	5166
836.478	5220
836.615	5147
836.753	5181
836.891	5280
837.029	5254
837.167	5178
837.305	5162
837.443	5121
837.58	5029
837.718	5258
837.856	5189
837.993	5124
838.131	5242
838.269	5246
838.406	5155
838.544	5166
838.681	5045
838.819	5048
838.956	4892
839.094	4885
839.231	4991
839.369	5064
839.506	5467
839.643	5261
839.781	5045
839.918	5018
840.055	5109
840.193	5117
840.33	5094
840.467	5162
840.604	5189
840.742	5406
840.879	5079
841.016	5067
841.153	5143
841.29	5379
841.427	5280
841.564	5311
841.701	5322
841.838	5261
841.975	5223
842.112	5193
842.249	5155
842.385	5117
842.522	5296
842.659	5178
842.796	5128
842.933	5189
843.069	5117
843.206	5121
843.343	5269
843.479	5258
843.616	5265
843.752	5006
843.889	4999
844.025	5220
844.162	4987
844.298	5204
844.435	5094
844.571	5045
844.708	5143
844.844	5288
844.98	5368
845.117	5277
845.253	5170
845.389	5094
845.525	5159
845.661	5128
845.798	5041
845.934	5109
846.07	5056
846.206	5185
846.342	5277
846.478	5140
846.614	5018
846.75	4949
846.886	4938
847.022	5109
847.158	5041
847.294	5086
847.429	5166
847.565	5041
847.701	5376
847.837	4870
847.972	4839
848.108	4965
848.244	4915
848.379	4774
848.515	4702
848.65	4717
848.786	4717
848.921	4771
849.057	4843
849.192	4854
849.328	4763
849.463	4858
849.598	4790
849.734	4752
849.869	4721
850.004	4577
850.14	4634
850.275	4577
850.41	4542
850.545	4615
850.68	4637
850.815	4630
850.95	4615
851.085	4828
851.22	4809
851.355	4683
851.49	4626
851.625	4645
851.76	4698
851.895	4580
852.03	4474
852.165	4637
852.299	4675
852.434	4767
852.569	4725
852.703	4812
852.838	4831
852.973	4942
853.107	4927
853.242	4771
853.376	4717
853.511	4527
853.645	4637
853.78	4786
853.914	4649
854.048	4672
854.183	4634
854.317	4744
854.451	4786
854.585	4698
854.72	4622
854.854	4809
854.988	4550
855.122	4630
855.256	4561
855.39	4634
855.524	4736
855.658	4706
855.792	4675
855.926	4706
856.06	4774
856.194	4797
856.327	4691
856.461	4535
856.595	4634
856.729	4607
856.862	4763
856.996	4702
857.13	4679
857.263	4801
857.397	4778
857.53	4687
857.664	4706
857.797	4771
857.931	4733
858.064	4717
858.197	4774
858.331	4626
858.464	4577
858.597	4569
858.731	4630
858.864	4660
858.997	4599
859.13	4626
859.263	4675
859.396	4702
859.529	4603
859.662	4546
859.795	4508
859.928	4615
860.061	4816
860.194	4809
860.327	4607
860.46	4519
860.592	4736
860.725	4694
860.858	4729
860.99	4596
861.123	4550
861.256	4504
861.388	4649
861.521	5261
861.653	4531
861.786	4402
861.918	4466
862.05	4497
862.183	4500
862.315	4626
862.447	4656
862.58	4527
862.712	4356
862.844	4337
862.976	4466
863.108	4447
863.24	4858
863.372	4318
863.504	4436
863.636	4383
863.768	4481
863.9	4428
864.032	4360
864.164	4409
864.296	4493
864.428	4558
864.559	4538
864.691	4500
864.823	4485
864.954	4417
865.086	4527
865.217	4436
865.349	4417
865.48	4455
865.612	4489
865.743	4603
865.875	4550
866.006	4428
866.137	4462
866.269	4451
866.4	4409
866.531	4424
866.662	4394
866.793	4409
866.924	4394
867.055	4481
867.186	4455
867.317	4421
867.448	4348
867.579	4405
867.71	4398
867.841	4367
867.972	4424
868.103	4443
868.233	4447
868.364	4447
868.495	4523
868.625	4668
868.756	4721
868.886	4569
869.017	4630
869.147	4778
869.278	4759
869.408	4698
869.539	4607
869.669	4710
869.799	4702
869.929	4767
870.06	4729
870.19	4949
870.32	4892
870.45	4942
870.58	4972
870.71	5075
870.84	5075
870.97	4938
871.1	4896
871.23	5162
871.36	5170
871.489	5029
871.619	5071
871.749	5140
871.879	5124
872.008	5143
872.138	5052
872.267	4972
872.397	4839
872.526	4824
872.656	4714
872.785	4824
872.915	4946
873.044	4976
873.173	4870
873.303	4968
873.432	4911
873.561	4972
873.69	4908
873.819	4881
873.948	4843
874.077	4771
874.206	4812
874.335	4809
874.464	4896
874.593	5067
874.722	4980
874.851	5117
874.979	5041
875.108	5033
875.237	4904
875.365	4866
875.494	4927
875.623	4934
875.751	4866
875.88	4877
876.008	4972
876.136	5033
876.265	5181
876.393	5364
876.521	5269
876.65	5261
876.778	5185
876.906	5037
877.034	5075
877.162	5075
877.29	4987
877.418	5086
877.546	5014
877.674	4999
877.802	5037
877.93	5045
878.058	4972
878.185	4835
878.313	4953
878.441	4919
878.568	4763
878.696	4923
878.824	4942
878.951	4991
879.079	5102
879.206	5269
879.333	5113
879.461	4980
879.588	4995
879.715	5102
879.842	5201
879.97	5029
880.097	4759
880.224	4763
880.351	4824
880.478	4790
880.605	4847
880.732	4824
880.859	5113
880.986	4889
881.112	4885
881.239	4729
881.366	4672
881.493	4607
881.619	4561
881.746	4637
881.872	4641
881.999	4660
882.125	4691
882.252	4725
882.378	4843
882.505	4927
882.631	4790
882.757	4698
882.883	4710
883.01	4759
883.136	4630
883.262	4607
883.388	4565
883.514	4820
883.64	4900
883.766	4782
883.892	4626
884.018	4710
884.143	4873
884.269	4934
884.395	4668
884.52	4626
884.646	4626
884.772	4573
884.897	4554
885.023	4656
885.148	4774
885.274	4904
885.399	4805
885.524	4687
885.65	4694
885.775	4733
885.9	4691
886.025	4850
886.15	4828
886.275	4736
886.4	4615
886.525	4721
886.65	4725
886.775	4672
886.9	4854
887.025	5022
887.149	4816
887.274	4626
887.399	4527
887.523	4607
887.648	4615
887.773	4626
887.897	4759
888.021	4736
888.146	4691
888.27	4831
888.395	4889
888.519	4812
888.643	4831
888.767	4828
888.891	4683
889.015	4599
889.139	4634
889.263	4611
889.387	4721
889.511	4862
889.635	4759
889.759	4653
889.883	4603
890.006	4721
890.13	4809
890.254	4580
890.377	4672
890.501	4516
890.624	4523
890.748	4607
890.871	4504
890.995	4424
891.118	4341
891.241	4497
891.364	4573
891.488	4615
891.611	4531
891.734	4535
891.857	4607
891.98	4565
892.103	4656
892.226	4554
892.349	4512
892.471	4428
892.594	4569
892.717	4615
892.839	4535
892.962	4607
893.085	4615
893.207	4527
893.33	4432
893.452	4538
893.575	4637
893.697	4580
893.819	4774
893.941	4866
894.064	4763
894.186	4573
894.308	4577
894.43	4702
894.552	4820
894.674	4786
894.796	4554
894.918	4596
895.04	4554
895.161	4660
895.283	4691
895.405	4615
895.526	4607
895.648	4714
895.769	4679
895.891	4736
896.012	4717
896.134	4744
896.255	4687
896.376	4649
896.498	4558
896.619	4687
896.74	4611
896.861	4588
896.982	4927
897.103	5140
897.224	4835
897.345	4733
897.466	4653
897.587	4729
897.708	4911
897.828	4782
897.949	4626
898.07	4599
898.19	4626
898.311	4809
898.431	4656
898.552	4752
898.672	4828
898.792	4824
898.913	4733
899.033	4622
899.153	4489
899.273	4451
899.393	4466
899.513	4558
899.633	4542
899.753	4558
899.873	4519
899.993	4580
900.113	4512
900.232	4565
900.352	4504
900.472	4447
900.591	4390
900.711	4466
900.83	4428
900.95	4634
901.069	4714
901.189	4508
901.308	4398
901.427	4310
901.546	4371
901.665	4470
901.784	4478
901.904	4363
902.023	4284
902.141	4177
902.26	4173
902.379	4249
902.498	4242
902.617	4200
902.735	4360
902.854	4386
902.973	4341
903.091	4196
903.21	4207
903.328	4291
903.446	4242
903.565	4242
903.683	4322
903.801	4303
903.919	4413
904.038	4436
904.156	4306
904.274	4474
904.392	4360
904.51	4451
904.627	4447
904.745	4599
904.863	4618
904.981	4428
905.098	4325
905.216	4394
905.334	4428
905.451	4375
905.569	4443
905.686	4599
905.803	4569
905.921	4379
906.038	4565
906.155	4470
906.272	4432
906.389	4466
906.506	4348
906.623	4413
906.74	4375
906.857	4276
906.974	4356
907.091	4603
907.208	4691
907.324	4531
907.441	4508
907.557	4341
907.674	4352
907.79	4337
907.907	4390
908.023	4451
908.139	4470
908.256	4432
908.372	4512
908.488	4466
908.604	4383
908.72	4322
908.836	4371
908.952	4360
909.068	4405
909.184	4577
909.3	4500
909.415	4573
909.531	4500
909.647	4363
909.762	4341
909.878	4341
909.993	4417
910.108	4390
910.224	4356
910.339	4470
910.454	4436
910.57	4356
910.685	4276
910.8	4611
910.915	4626
911.03	4489
911.145	4333
911.259	4337
911.374	4379
911.489	4306
911.604	4295
911.718	4166
911.833	4166
911.947	4078
912.062	4044
912.176	4207
912.291	4219
912.405	4211
912.519	4424
912.633	4500
912.748	4405
912.862	4344
912.976	4181
913.09	4074
913.204	4192
913.318	4249
913.431	4421
913.545	4322
913.659	4424
913.772	4367
913.886	4261
914	4207
914.113	4322
914.226	4432
914.34	4432
914.453	4219
914.566	4417
914.68	4299
914.793	4310
914.906	4128
915.019	4166
915.132	4067
915.245	4173
915.358	4227
915.47	4219
915.583	4291
915.696	4265
915.809	4417
915.921	4409
916.034	4227
916.146	4265
916.259	4276
916.371	4352
916.483	4352
916.595	4246
916.708	4348
916.82	4318
916.932	4314
917.044	4360
917.156	4287
917.268	4230
917.38	4287
917.491	4265
917.603	4329
917.715	4455
917.826	4466
917.938	4322
918.049	4227
918.161	4360
918.272	4527
918.384	4512
918.495	4443
918.606	4268
918.717	4211
918.828	4295
918.939	4367
919.05	4276
919.161	4253
919.272	4109
919.383	4166
919.494	4443
919.604	4630
919.715	4421
919.826	4325
919.936	4413
920.047	4535
920.157	4470
920.267	4706
920.378	4500
920.488	4493
920.598	4744
920.708	4904
920.818	4740
920.928	4767
921.038	4961
921.148	4934
921.258	4649
921.368	4531
921.477	4531
921.587	4428
921.697	4348
921.806	4512
921.916	4474
922.025	4219
922.134	4230
922.244	4162
922.353	4329
922.462	4169
922.571	4158
922.68	3983
922.789	3918
922.898	4055
923.007	3994
923.116	4101
923.224	4078
923.333	4051
923.442	4032
923.55	3972
923.659	4055
923.767	4036
923.876	4002
923.984	4131
924.092	3915
924.201	4105
924.309	4036
924.417	4097
924.525	4048
924.633	4036
924.741	5006
924.849	3899
924.956	4078
925.064	3964
925.172	3926
925.279	3937
925.387	4036
925.494	4029
925.602	4181
925.709	4169
925.816	4044
925.924	4093
926.031	4196
926.138	4166
926.245	4200
926.352	4093
926.459	4253
926.566	4303
926.673	4158
926.779	4093
926.886	4025
926.993	3983
927.099	3953
927.206	3915
927.312	3937
927.419	4040
927.525	4040
927.631	4097
927.737	3968
927.843	3934
927.95	3816
928.056	3911
928.162	3953
928.267	4059
928.373	4668
928.479	4105
928.585	3854
928.69	4021
928.796	4071
928.901	3926
929.007	3816
929.112	4025
929.218	4013
929.323	3930
929.428	3880
929.533	4086
929.638	3934
929.743	3956
929.848	4048
929.953	3975
930.058	3892
930.163	3793
930.267	3774
930.372	3941
930.477	3789
930.581	4048
930.685	3922
930.79	3812
930.894	3823
930.998	3808
931.103	4021
931.207	3656
931.311	3694
931.415	3686
931.519	3519
931.623	3564
