Data from test_V78500241_505.txt Node
Date: Fri Mar 25 16:52:30 CST 2022
User: usil
Spectrometer: V785-0024
Trigger mode: 0
Integration Time (sec): 4.000000E-1
Scans to average: 1
Nonlinearity correction enabled: false
Boxcar width: 0
Storing dark spectrum: false
XAxis mode: Wavelengths
Number of Pixels in Spectrum: 1024
>>>>>Begin Spectral Data<<<<<
801.071	8031
801.214	8001
801.356	7898
801.499	7864
801.641	7818
801.783	7837
801.926	8005
802.068	8001
802.211	7986
802.353	7947
802.496	7917
802.638	7887
802.78	7868
802.923	7902
803.065	7864
803.208	7792
803.35	7917
803.492	8043
803.635	8062
803.777	8050
803.919	8123
804.061	8423
804.204	8149
804.346	8084
804.488	7932
804.63	8084
804.773	7982
804.915	8092
805.057	8244
805.199	8221
805.341	8225
805.483	8248
805.626	8088
805.768	8088
805.91	8100
806.052	8199
806.194	8138
806.336	8290
806.478	8088
806.62	8054
806.762	8096
806.904	8267
807.046	8381
807.188	8309
807.33	8233
807.472	8256
807.614	8092
807.756	8164
807.898	8008
808.04	7833
808.182	7932
808.324	7902
808.465	7799
808.607	7963
808.749	8058
808.891	8199
809.033	8237
809.174	8069
809.316	7982
809.458	8050
809.6	7917
809.741	8020
809.883	8008
810.025	8062
810.166	8073
810.308	8035
810.45	7925
810.591	7887
810.733	7769
810.875	7613
811.016	7537
811.158	7559
811.299	7636
811.441	7681
811.582	7658
811.724	7559
811.865	7540
812.007	7639
812.148	7590
812.29	7643
812.431	7715
812.573	7928
812.714	8008
812.855	8199
812.997	8195
813.138	8427
813.279	8244
813.421	8100
813.562	8069
813.703	7898
813.845	7875
813.986	7502
814.127	7346
814.268	7346
814.41	7225
814.551	7202
814.692	7179
814.833	7069
814.974	7107
815.115	7122
815.256	7076
815.397	6935
815.539	6970
815.68	6814
815.821	6825
815.962	6909
816.103	6795
816.244	6703
816.385	6620
816.526	6612
816.666	6528
816.807	6296
816.948	6475
817.089	6433
817.23	6353
817.371	6414
817.512	6384
817.653	6388
817.793	6380
817.934	6414
818.075	6479
818.216	6471
818.356	6452
818.497	6163
818.638	6148
818.778	6155
818.919	6076
819.06	6175
819.2	6262
819.341	6300
819.481	6285
819.622	6604
819.762	6719
819.903	6665
820.043	6578
820.184	6555
820.324	6578
820.465	6646
820.605	6650
820.746	6612
820.886	6456
821.026	6646
821.167	6662
821.307	6806
821.447	6741
821.588	6589
821.728	6547
821.868	6471
822.008	6399
822.149	6384
822.289	6407
822.429	6152
822.569	6053
822.709	6144
822.849	5950
822.99	5870
823.13	5935
823.27	5904
823.41	5809
823.55	5840
823.69	5737
823.83	5729
823.97	5680
824.11	5520
824.25	5497
824.389	5551
824.529	5592
824.669	5478
824.809	5600
824.949	5684
825.089	5581
825.228	5604
825.368	5376
825.508	5334
825.648	5326
825.787	5357
825.927	5364
826.067	5318
826.206	5303
826.346	5395
826.485	5368
826.625	5376
826.765	5566
826.904	5509
827.044	5258
827.183	5242
827.323	5140
827.462	5258
827.601	5201
827.741	5197
827.88	5197
828.02	5166
828.159	5250
828.298	5315
828.437	5383
828.577	5307
828.716	5452
828.855	5330
828.994	5223
829.134	5151
829.273	5235
829.412	5151
829.551	5193
829.69	5201
829.829	5265
829.968	5406
830.107	5299
830.246	5292
830.385	5185
830.524	5166
830.663	5136
830.802	5014
830.941	4949
831.08	4892
831.219	4999
831.357	5025
831.496	5208
831.635	4938
831.774	4900
831.913	4850
832.051	4752
832.19	4755
832.329	4930
832.467	4736
832.606	4679
832.744	4744
832.883	4812
833.022	4778
833.16	4782
833.299	4854
833.437	4877
833.576	4889
833.714	4934
833.852	4915
833.991	4904
834.129	5033
834.267	4995
834.406	4915
834.544	5018
834.682	5052
834.821	5010
834.959	5231
835.097	5003
835.235	5197
835.373	5102
835.511	5105
835.65	5113
835.788	5109
835.926	4942
836.064	4889
836.202	4938
836.34	5223
836.478	5277
836.615	5216
836.753	5254
836.891	5288
837.029	5261
837.167	5288
837.305	5189
837.443	5181
837.58	5117
837.718	5265
837.856	5216
837.993	5105
838.131	5250
838.269	5246
838.406	5193
838.544	5231
838.681	5052
838.819	5048
838.956	4900
839.094	4934
839.231	5018
839.369	5136
839.506	5471
839.643	5349
839.781	5128
839.918	5067
840.055	5113
840.193	5109
840.33	5113
840.467	5162
840.604	5299
840.742	5444
840.879	5128
841.016	5094
841.153	5185
841.29	5440
841.427	5372
841.564	5353
841.701	5421
841.838	5353
841.975	5288
842.112	5288
842.249	5189
842.385	5174
842.522	5349
842.659	5197
842.796	5140
842.933	5303
843.069	5197
843.206	5201
843.343	5311
843.479	5246
843.616	5330
843.752	5056
843.889	5071
844.025	5273
844.162	5105
844.298	5212
844.435	5136
844.571	5098
844.708	5208
844.844	5311
844.98	5307
845.117	5288
845.253	5162
845.389	5075
845.525	5170
845.661	5170
845.798	5060
845.934	5197
846.07	5128
846.206	5246
846.342	5315
846.478	5242
846.614	5067
846.75	5029
846.886	4957
847.022	5189
847.158	5098
847.294	5136
847.429	5197
847.565	5071
847.701	5368
847.837	4892
847.972	4873
848.108	4957
848.244	5010
848.379	4793
848.515	4740
848.65	4706
848.786	4793
848.921	4854
849.057	4862
849.192	4927
849.328	4858
849.463	4862
849.598	4824
849.734	4778
849.869	4668
850.004	4694
850.14	4691
850.275	4698
850.41	4592
850.545	4569
850.68	4645
850.815	4691
850.95	4653
851.085	4889
851.22	4797
851.355	4714
851.49	4649
851.625	4664
851.76	4660
851.895	4603
852.03	4565
852.165	4683
852.299	4717
852.434	4805
852.569	4801
852.703	4831
852.838	4923
852.973	4980
853.107	4976
853.242	4744
853.376	4725
853.511	4588
853.645	4634
853.78	4858
853.914	4683
854.048	4706
854.183	4664
854.317	4755
854.451	4866
854.585	4683
854.72	4664
854.854	4782
854.988	4611
855.122	4706
855.256	4596
855.39	4694
855.524	4828
855.658	4725
855.792	4687
855.926	4767
856.06	4805
856.194	4866
856.327	4691
856.461	4645
856.595	4645
856.729	4653
856.862	4801
856.996	4771
857.13	4744
857.263	4824
857.397	4812
857.53	4714
857.664	4748
857.797	4786
857.931	4824
858.064	4683
858.197	4790
858.331	4714
858.464	4660
858.597	4569
858.731	4672
858.864	4668
858.997	4653
859.13	4710
859.263	4698
859.396	4736
859.529	4596
859.662	4592
859.795	4554
859.928	4683
860.061	4835
860.194	4786
860.327	4622
860.46	4615
860.592	4733
860.725	4797
860.858	4748
860.99	4596
861.123	4550
861.256	4546
861.388	4649
861.521	5345
861.653	4512
861.786	4500
861.918	4493
862.05	4580
862.183	4550
862.315	4645
862.447	4706
862.58	4584
862.712	4413
862.844	4344
862.976	4535
863.108	4462
863.24	4755
863.372	4360
863.504	4424
863.636	4379
863.768	4531
863.9	4493
864.032	4447
864.164	4455
864.296	4516
864.428	4535
864.559	4569
864.691	4550
864.823	4588
864.954	4580
865.086	4546
865.217	4535
865.349	4455
865.48	4481
865.612	4550
865.743	4675
865.875	4512
866.006	4432
866.137	4508
866.269	4489
866.4	4440
866.531	4451
866.662	4436
866.793	4402
866.924	4462
867.055	4535
867.186	4508
867.317	4462
867.448	4417
867.579	4440
867.71	4432
867.841	4383
867.972	4481
868.103	4478
868.233	4489
868.364	4485
868.495	4493
868.625	4668
868.756	4786
868.886	4630
869.017	4668
869.147	4797
869.278	4812
869.408	4710
869.539	4660
869.669	4721
869.799	4664
869.929	4809
870.06	4748
870.19	5010
870.32	4946
870.45	4999
870.58	4995
870.71	5033
870.84	5105
870.97	4972
871.1	4972
871.23	5185
871.36	5181
871.489	5025
871.619	5060
871.749	5128
871.879	5166
872.008	5223
872.138	5109
872.267	5006
872.397	4892
872.526	4831
872.656	4759
872.785	4839
872.915	4965
873.044	5064
873.173	5052
873.303	4980
873.432	4946
873.561	4999
873.69	4919
873.819	4911
873.948	4949
874.077	4866
874.206	4790
874.335	4881
874.464	4942
874.593	5117
874.722	5003
874.851	5170
874.979	5056
875.108	5037
875.237	4908
875.365	4927
875.494	4896
875.623	5022
875.751	4843
875.88	4873
876.008	5010
876.136	5064
876.265	5254
876.393	5345
876.521	5258
876.65	5235
876.778	5204
876.906	5071
877.034	5064
877.162	5075
877.29	5018
877.418	5045
877.546	5067
877.674	5071
877.802	5041
877.93	4980
878.058	4976
878.185	4889
878.313	4972
878.441	4987
878.568	4812
878.696	4927
878.824	4938
878.951	5006
879.079	5105
879.206	5334
879.333	5143
879.461	5010
879.588	4987
879.715	5109
879.842	5235
879.97	4987
880.097	4835
880.224	4801
880.351	4843
880.478	4870
880.605	4828
880.732	4812
880.859	5102
880.986	4965
881.112	4961
881.239	4828
881.366	4687
881.493	4618
881.619	4660
881.746	4679
881.872	4672
881.999	4641
882.125	4687
882.252	4820
882.378	4881
882.505	4995
882.631	4801
882.757	4664
882.883	4778
883.01	4748
883.136	4679
883.262	4615
883.388	4637
883.514	4801
883.64	4881
883.766	4809
883.892	4706
884.018	4725
884.143	4904
884.269	5045
884.395	4698
884.52	4634
884.646	4645
884.772	4637
884.897	4580
885.023	4634
885.148	4816
885.274	4835
885.399	4904
885.524	4759
885.65	4714
885.775	4763
885.9	4717
886.025	4839
886.15	4820
886.275	4752
886.4	4717
886.525	4793
886.65	4767
886.775	4717
886.9	4938
887.025	5010
887.149	4877
887.274	4645
887.399	4656
887.523	4599
887.648	4588
887.773	4588
887.897	4759
888.021	4805
888.146	4694
888.27	4858
888.395	4900
888.519	4801
888.643	4862
888.767	4847
888.891	4725
889.015	4599
889.139	4645
889.263	4649
889.387	4748
889.511	4824
889.635	4812
889.759	4653
889.883	4694
890.006	4698
890.13	4824
890.254	4660
890.377	4691
890.501	4565
890.624	4546
890.748	4641
890.871	4535
890.995	4493
891.118	4405
891.241	4538
891.364	4554
891.488	4733
891.611	4485
891.734	4607
891.857	4607
891.98	4542
892.103	4698
892.226	4626
892.349	4573
892.471	4481
892.594	4565
892.717	4603
892.839	4573
892.962	4634
893.085	4637
893.207	4607
893.33	4466
893.452	4569
893.575	4702
893.697	4611
893.819	4812
893.941	4911
894.064	4786
894.186	4634
894.308	4580
894.43	4797
894.552	4835
894.674	4790
894.796	4618
894.918	4577
895.04	4577
895.161	4721
895.283	4672
895.405	4596
895.526	4664
895.648	4687
895.769	4660
895.891	4717
896.012	4763
896.134	4763
896.255	4702
896.376	4683
896.498	4679
896.619	4702
896.74	4641
896.861	4691
896.982	4908
897.103	5109
897.224	4866
897.345	4771
897.466	4710
897.587	4698
897.708	4908
897.828	4850
897.949	4656
898.07	4630
898.19	4645
898.311	4820
898.431	4702
898.552	4717
898.672	4809
898.792	4774
898.913	4733
899.033	4641
899.153	4538
899.273	4405
899.393	4542
899.513	4561
899.633	4519
899.753	4588
899.873	4550
899.993	4592
900.113	4508
900.232	4603
900.352	4523
900.472	4531
900.591	4409
900.711	4481
900.83	4478
900.95	4603
901.069	4634
901.189	4554
901.308	4360
901.427	4360
901.546	4402
901.665	4481
901.784	4546
901.904	4413
902.023	4303
902.141	4230
902.26	4192
902.379	4314
902.498	4253
902.617	4249
902.735	4413
902.854	4417
902.973	4333
903.091	4238
903.21	4268
903.328	4371
903.446	4276
903.565	4287
903.683	4329
903.801	4325
903.919	4341
904.038	4459
904.156	4295
904.274	4451
904.392	4409
904.51	4462
904.627	4527
904.745	4565
904.863	4672
904.981	4470
905.098	4261
905.216	4367
905.334	4470
905.451	4424
905.569	4417
905.686	4554
905.803	4580
905.921	4455
906.038	4550
906.155	4538
906.272	4398
906.389	4489
906.506	4394
906.623	4394
906.74	4413
906.857	4310
906.974	4379
907.091	4622
907.208	4694
907.324	4519
907.441	4504
907.557	4295
907.674	4360
907.79	4341
907.907	4379
908.023	4531
908.139	4535
908.256	4440
908.372	4497
908.488	4447
908.604	4352
908.72	4341
908.836	4447
908.952	4394
909.068	4440
909.184	4592
909.3	4508
909.415	4577
909.531	4554
909.647	4341
909.762	4394
909.878	4352
909.993	4428
910.108	4451
910.224	4432
910.339	4462
910.454	4424
910.57	4375
910.685	4329
910.8	4660
910.915	4637
911.03	4538
911.145	4314
911.259	4306
911.374	4363
911.489	4284
911.604	4314
911.718	4177
911.833	4207
911.947	4109
912.062	4071
912.176	4196
912.291	4280
912.405	4268
912.519	4440
912.633	4554
912.748	4413
912.862	4314
912.976	4219
913.09	4135
913.204	4200
913.318	4253
913.431	4394
913.545	4375
913.659	4459
913.772	4386
913.886	4276
914	4249
914.113	4367
914.226	4413
914.34	4371
914.453	4242
914.566	4470
914.68	4322
914.793	4299
914.906	4173
915.019	4196
915.132	4109
915.245	4219
915.358	4227
915.47	4227
915.583	4287
915.696	4322
915.809	4413
915.921	4432
916.034	4268
916.146	4242
916.259	4215
916.371	4443
916.483	4402
916.595	4341
916.708	4306
916.82	4325
916.932	4322
917.044	4318
917.156	4325
917.268	4246
917.38	4303
917.491	4284
917.603	4344
917.715	4371
917.826	4481
917.938	4367
918.049	4280
918.161	4405
918.272	4577
918.384	4554
918.495	4443
918.606	4280
918.717	4295
918.828	4367
918.939	4341
919.05	4295
919.161	4333
919.272	4112
919.383	4272
919.494	4432
919.604	4634
919.715	4436
919.826	4383
919.936	4383
920.047	4538
920.157	4478
920.267	4706
920.378	4577
920.488	4466
920.598	4698
920.708	4949
920.818	4740
920.928	4744
921.038	4976
921.148	4961
921.258	4634
921.368	4573
921.477	4519
921.587	4470
921.697	4390
921.806	4527
921.916	4413
922.025	4284
922.134	4291
922.244	4234
922.353	4341
922.462	4177
922.571	4101
922.68	4044
922.789	3953
922.898	4078
923.007	4017
923.116	4067
923.224	4097
923.333	4101
923.442	3983
923.55	4002
923.659	4040
923.767	4139
923.876	4017
923.984	4131
924.092	4044
924.201	4090
924.309	4135
924.417	4169
924.525	4063
924.633	4105
924.741	5090
924.849	3953
924.956	4143
925.064	3972
925.172	3888
925.279	3964
925.387	4071
925.494	4082
925.602	4242
925.709	4150
925.816	4051
925.924	4124
926.031	4192
926.138	4147
926.245	4215
926.352	4135
926.459	4242
926.566	4325
926.673	4116
926.779	4109
926.886	4055
926.993	4036
927.099	3968
927.206	3979
927.312	3926
927.419	4063
927.525	4040
927.631	4093
927.737	3964
927.843	3934
927.95	3869
928.056	3968
928.162	4002
928.267	4097
928.373	4641
928.479	4101
928.585	3861
928.69	4013
928.796	4101
928.901	3972
929.007	3869
929.112	4006
929.218	3998
929.323	3953
929.428	3915
929.533	4131
929.638	3903
929.743	3956
929.848	4078
929.953	4021
930.058	3899
930.163	3804
930.267	3876
930.372	3998
930.477	3827
930.581	4097
930.685	3975
930.79	3861
930.894	3926
930.998	3884
931.103	4082
931.207	3690
931.311	3690
931.415	3656
931.519	3557
931.623	3568
