Data from test_V78500241_629.txt Node
Date: Fri Mar 25 16:53:22 CST 2022
User: usil
Spectrometer: V785-0024
Trigger mode: 0
Integration Time (sec): 4.000000E-1
Scans to average: 1
Nonlinearity correction enabled: false
Boxcar width: 0
Storing dark spectrum: false
XAxis mode: Wavelengths
Number of Pixels in Spectrum: 1024
>>>>>Begin Spectral Data<<<<<
801.071	8031
801.214	8054
801.356	7913
801.499	7967
801.641	7830
801.783	7792
801.926	7982
802.068	7944
802.211	8031
802.353	8012
802.496	7959
802.638	7940
802.78	7936
802.923	7906
803.065	7856
803.208	7826
803.35	7989
803.492	8054
803.635	8153
803.777	8039
803.919	8126
804.061	8408
804.204	8123
804.346	8005
804.488	7868
804.63	8115
804.773	8012
804.915	8081
805.057	8301
805.199	8172
805.341	8221
805.483	8271
805.626	8252
805.768	8100
805.91	8229
806.052	8172
806.194	8149
806.336	8252
806.478	8183
806.62	8081
806.762	8107
806.904	8336
807.046	8511
807.188	8389
807.33	8298
807.472	8298
807.614	8214
807.756	8161
807.898	7989
808.04	7868
808.182	7868
808.324	7860
808.465	7894
808.607	8062
808.749	8126
808.891	8263
809.033	8282
809.174	8214
809.316	8020
809.458	8039
809.6	8088
809.741	8016
809.883	8008
810.025	8046
810.166	8088
810.308	7997
810.45	8027
810.591	7849
810.733	7719
810.875	7681
811.016	7533
811.158	7514
811.299	7597
811.441	7761
811.582	7700
811.724	7552
811.865	7495
812.007	7559
812.148	7628
812.29	7594
812.431	7738
812.573	7898
812.714	7947
812.855	8206
812.997	8221
813.138	8374
813.279	8195
813.421	8153
813.562	8016
813.703	7868
813.845	7803
813.986	7460
814.127	7365
814.268	7312
814.41	7194
814.551	7118
814.692	7187
814.833	7004
814.974	7027
815.115	7091
815.256	6977
815.397	6894
815.539	6966
815.68	6863
815.821	6798
815.962	6829
816.103	6787
816.244	6707
816.385	6570
816.526	6654
816.666	6498
816.807	6266
816.948	6437
817.089	6460
817.23	6452
817.371	6399
817.512	6410
817.653	6376
817.793	6407
817.934	6460
818.075	6464
818.216	6460
818.356	6384
818.497	6247
818.638	6155
818.778	6102
818.919	6201
819.06	6140
819.2	6338
819.341	6365
819.481	6361
819.622	6498
819.762	6669
819.903	6669
820.043	6582
820.184	6559
820.324	6631
820.465	6681
820.605	6658
820.746	6563
820.886	6490
821.026	6635
821.167	6684
821.307	6738
821.447	6768
821.588	6692
821.728	6528
821.868	6437
822.008	6319
822.149	6369
822.289	6308
822.429	6125
822.569	6045
822.709	6038
822.849	5977
822.99	5889
823.13	5916
823.27	5855
823.41	5790
823.55	5756
823.69	5798
823.83	5840
823.97	5653
824.11	5577
824.25	5512
824.389	5554
824.529	5551
824.669	5528
824.809	5600
824.949	5707
825.089	5611
825.228	5573
825.368	5376
825.508	5353
825.648	5357
825.787	5326
825.927	5360
826.067	5318
826.206	5292
826.346	5395
826.485	5452
826.625	5429
826.765	5543
826.904	5414
827.044	5227
827.183	5178
827.323	5140
827.462	5235
827.601	5117
827.741	5124
827.88	5174
828.02	5098
828.159	5223
828.298	5334
828.437	5364
828.577	5246
828.716	5467
828.855	5292
828.994	5178
829.134	5147
829.273	5140
829.412	5170
829.551	5159
829.69	5162
829.829	5258
829.968	5341
830.107	5261
830.246	5288
830.385	5140
830.524	5147
830.663	5064
830.802	4991
830.941	4858
831.08	4839
831.219	4968
831.357	4927
831.496	5201
831.635	4934
831.774	4850
831.913	4904
832.051	4717
832.19	4740
832.329	4812
832.467	4672
832.606	4645
832.744	4691
832.883	4755
833.022	4725
833.16	4778
833.299	4805
833.437	4828
833.576	4854
833.714	4850
833.852	4885
833.991	4847
834.129	4953
834.267	4953
834.406	4911
834.544	4957
834.682	4930
834.821	4942
834.959	5159
835.097	5014
835.235	5094
835.373	5006
835.511	5086
835.65	5010
835.788	4995
835.926	4854
836.064	4896
836.202	4927
836.34	5166
836.478	5155
836.615	5181
836.753	5212
836.891	5330
837.029	5261
837.167	5189
837.305	5201
837.443	5147
837.58	5086
837.718	5174
837.856	5197
837.993	5159
838.131	5197
838.269	5181
838.406	5208
838.544	5162
838.681	5060
838.819	5014
838.956	4908
839.094	4911
839.231	5006
839.369	5071
839.506	5383
839.643	5254
839.781	5075
839.918	5029
840.055	5052
840.193	5105
840.33	5079
840.467	5151
840.604	5174
840.742	5402
840.879	5109
841.016	5090
841.153	5166
841.29	5368
841.427	5330
841.564	5296
841.701	5368
841.838	5269
841.975	5250
842.112	5277
842.249	5155
842.385	5128
842.522	5311
842.659	5117
842.796	5178
842.933	5223
843.069	5174
843.206	5212
843.343	5280
843.479	5265
843.616	5288
843.752	5029
843.889	4991
844.025	5250
844.162	4980
844.298	5208
844.435	5132
844.571	5048
844.708	5246
844.844	5284
844.98	5311
845.117	5242
845.253	5155
845.389	5064
845.525	5162
845.661	5121
845.798	5056
845.934	5136
846.07	5083
846.206	5128
846.342	5292
846.478	5181
846.614	4995
846.75	4930
846.886	4972
847.022	5109
847.158	5041
847.294	5052
847.429	5056
847.565	5151
847.701	5326
847.837	4892
847.972	4774
848.108	4923
848.244	4885
848.379	4763
848.515	4672
848.65	4702
848.786	4744
848.921	4748
849.057	4915
849.192	4896
849.328	4847
849.463	4847
849.598	4790
849.734	4774
849.869	4691
850.004	4588
850.14	4626
850.275	4618
850.41	4512
850.545	4577
850.68	4516
850.815	4603
850.95	4592
851.085	4824
851.22	4721
851.355	4683
851.49	4596
851.625	4641
851.76	4637
851.895	4558
852.03	4531
852.165	4664
852.299	4714
852.434	4778
852.569	4729
852.703	4774
852.838	4873
852.973	4900
853.107	4854
853.242	4755
853.376	4691
853.511	4569
853.645	4603
853.78	4774
853.914	4698
854.048	4664
854.183	4672
854.317	4755
854.451	4881
854.585	4641
854.72	4615
854.854	4729
854.988	4592
855.122	4607
855.256	4538
855.39	4653
855.524	4702
855.658	4740
855.792	4694
855.926	4691
856.06	4759
856.194	4778
856.327	4748
856.461	4607
856.595	4641
856.729	4656
856.862	4736
856.996	4694
857.13	4736
857.263	4759
857.397	4790
857.53	4615
857.664	4748
857.797	4759
857.931	4740
858.064	4634
858.197	4725
858.331	4615
858.464	4592
858.597	4504
858.731	4618
858.864	4649
858.997	4622
859.13	4645
859.263	4641
859.396	4706
859.529	4577
859.662	4603
859.795	4527
859.928	4615
860.061	4725
860.194	4752
860.327	4649
860.46	4569
860.592	4679
860.725	4714
860.858	4694
860.99	4615
861.123	4489
861.256	4527
861.388	4641
861.521	5318
861.653	4489
861.786	4440
861.918	4421
862.05	4519
862.183	4550
862.315	4618
862.447	4603
862.58	4577
862.712	4394
862.844	4325
862.976	4493
863.108	4428
863.24	4835
863.372	4325
863.504	4413
863.636	4383
863.768	4459
863.9	4436
864.032	4348
864.164	4367
864.296	4462
864.428	4580
864.559	4596
864.691	4497
864.823	4497
864.954	4462
865.086	4527
865.217	4447
865.349	4371
865.48	4402
865.612	4504
865.743	4656
865.875	4451
866.006	4451
866.137	4474
866.269	4447
866.4	4447
866.531	4405
866.662	4386
866.793	4424
866.924	4447
867.055	4474
867.186	4440
867.317	4432
867.448	4360
867.579	4337
867.71	4367
867.841	4383
867.972	4436
868.103	4451
868.233	4443
868.364	4451
868.495	4474
868.625	4649
868.756	4759
868.886	4550
869.017	4622
869.147	4755
869.278	4744
869.408	4687
869.539	4637
869.669	4733
869.799	4653
869.929	4748
870.06	4717
870.19	4987
870.32	4885
870.45	4949
870.58	5006
870.71	5117
870.84	5098
870.97	4995
871.1	4885
871.23	5174
871.36	5102
871.489	5022
871.619	5102
871.749	5079
871.879	5098
872.008	5162
872.138	5003
872.267	5006
872.397	4843
872.526	4847
872.656	4736
872.785	4774
872.915	4972
873.044	5010
873.173	4942
873.303	4942
873.432	4923
873.561	4961
873.69	4866
873.819	4873
873.948	4900
874.077	4797
874.206	4790
874.335	4793
874.464	4896
874.593	5025
874.722	4972
874.851	5105
874.979	5121
875.108	5048
875.237	4915
875.365	4862
875.494	4889
875.623	4965
875.751	4771
875.88	4873
876.008	5010
876.136	5025
876.265	5185
876.393	5330
876.521	5254
876.65	5223
876.778	5162
876.906	5086
877.034	4942
877.162	5025
877.29	4961
877.418	5052
877.546	5060
877.674	5037
877.802	5029
877.93	4995
878.058	4889
878.185	4854
878.313	4889
878.441	4911
878.568	4782
878.696	4908
878.824	4968
878.951	5010
879.079	5102
879.206	5280
879.333	5121
879.461	4953
879.588	4972
879.715	5121
879.842	5265
879.97	4942
880.097	4793
880.224	4767
880.351	4771
880.478	4866
880.605	4771
880.732	4744
880.859	5064
880.986	4900
881.112	4889
881.239	4812
881.366	4675
881.493	4592
881.619	4554
881.746	4611
881.872	4668
881.999	4596
882.125	4698
882.252	4786
882.378	4847
882.505	4942
882.631	4881
882.757	4656
882.883	4752
883.01	4664
883.136	4725
883.262	4634
883.388	4584
883.514	4843
883.64	4866
883.766	4790
883.892	4656
884.018	4725
884.143	4896
884.269	5010
884.395	4675
884.52	4603
884.646	4656
884.772	4626
884.897	4550
885.023	4641
885.148	4786
885.274	4885
885.399	4771
885.524	4725
885.65	4687
885.775	4752
885.9	4710
886.025	4854
886.15	4790
886.275	4759
886.4	4656
886.525	4721
886.65	4656
886.775	4675
886.9	4858
887.025	5045
887.149	4759
887.274	4626
887.399	4577
887.523	4626
887.648	4565
887.773	4615
887.897	4729
888.021	4778
888.146	4694
888.27	4831
888.395	4889
888.519	4755
888.643	4797
888.767	4843
888.891	4679
889.015	4615
889.139	4649
889.263	4607
889.387	4752
889.511	4843
889.635	4820
889.759	4645
889.883	4637
890.006	4733
890.13	4881
890.254	4596
890.377	4679
890.501	4527
890.624	4519
890.748	4702
890.871	4489
890.995	4424
891.118	4398
891.241	4531
891.364	4596
891.488	4679
891.611	4500
891.734	4493
891.857	4580
891.98	4584
892.103	4611
892.226	4584
892.349	4481
892.471	4405
892.594	4550
892.717	4611
892.839	4538
892.962	4622
893.085	4653
893.207	4603
893.33	4466
893.452	4523
893.575	4675
893.697	4542
893.819	4809
893.941	4820
894.064	4774
894.186	4603
894.308	4565
894.43	4729
894.552	4805
894.674	4725
894.796	4535
894.918	4584
895.04	4538
895.161	4656
895.283	4626
895.405	4546
895.526	4615
895.648	4656
895.769	4691
895.891	4748
896.012	4816
896.134	4679
896.255	4683
896.376	4611
896.498	4660
896.619	4637
896.74	4622
896.861	4679
896.982	4896
897.103	5052
897.224	4866
897.345	4755
897.466	4634
897.587	4721
897.708	4873
897.828	4763
897.949	4679
898.07	4569
898.19	4649
898.311	4793
898.431	4675
898.552	4717
898.672	4850
898.792	4721
898.913	4717
899.033	4630
899.153	4478
899.273	4394
899.393	4485
899.513	4516
899.633	4565
899.753	4519
899.873	4519
899.993	4558
900.113	4512
900.232	4607
900.352	4538
900.472	4459
900.591	4371
900.711	4462
900.83	4390
900.95	4615
901.069	4664
901.189	4538
901.308	4402
901.427	4287
901.546	4402
901.665	4459
901.784	4523
901.904	4390
902.023	4318
902.141	4227
902.26	4128
902.379	4325
902.498	4249
902.617	4211
902.735	4322
902.854	4417
902.973	4348
903.091	4181
903.21	4227
903.328	4295
903.446	4272
903.565	4234
903.683	4344
903.801	4268
903.919	4417
904.038	4432
904.156	4287
904.274	4459
904.392	4375
904.51	4428
904.627	4459
904.745	4588
904.863	4592
904.981	4371
905.098	4287
905.216	4325
905.334	4432
905.451	4424
905.569	4417
905.686	4527
905.803	4538
905.921	4424
906.038	4538
906.155	4474
906.272	4394
906.389	4394
906.506	4371
906.623	4344
906.74	4402
906.857	4257
906.974	4360
907.091	4599
907.208	4672
907.324	4584
907.441	4455
907.557	4341
907.674	4325
907.79	4314
907.907	4375
908.023	4432
908.139	4481
908.256	4413
908.372	4481
908.488	4459
908.604	4337
908.72	4329
908.836	4390
908.952	4333
909.068	4451
909.184	4599
909.3	4489
909.415	4588
909.531	4546
909.647	4356
909.762	4390
909.878	4333
909.993	4421
910.108	4383
910.224	4386
910.339	4493
910.454	4405
910.57	4314
910.685	4318
910.8	4672
910.915	4523
911.03	4447
911.145	4299
911.259	4329
911.374	4360
911.489	4249
911.604	4234
911.718	4204
911.833	4200
911.947	4048
912.062	4055
912.176	4211
912.291	4227
912.405	4234
912.519	4459
912.633	4500
912.748	4394
912.862	4356
912.976	4135
913.09	4063
913.204	4173
913.318	4223
913.431	4363
913.545	4348
913.659	4402
913.772	4344
913.886	4268
914	4238
914.113	4344
914.226	4466
914.34	4356
914.453	4234
914.566	4428
914.68	4261
914.793	4299
914.906	4143
915.019	4097
915.132	4109
915.245	4173
915.358	4173
915.47	4234
915.583	4246
915.696	4230
915.809	4348
915.921	4417
916.034	4265
916.146	4242
916.259	4211
916.371	4386
916.483	4306
916.595	4242
916.708	4348
916.82	4363
916.932	4325
917.044	4310
917.156	4341
917.268	4230
917.38	4284
917.491	4253
917.603	4375
917.715	4394
917.826	4474
917.938	4386
918.049	4238
918.161	4383
918.272	4558
918.384	4542
918.495	4481
918.606	4314
918.717	4287
918.828	4363
918.939	4405
919.05	4322
919.161	4322
919.272	4139
919.383	4276
919.494	4519
919.604	4634
919.715	4440
919.826	4360
919.936	4489
920.047	4592
920.157	4504
920.267	4740
920.378	4538
920.488	4569
920.598	4733
920.708	4965
920.818	4816
920.928	4805
921.038	4984
921.148	4911
921.258	4672
921.368	4622
921.477	4523
921.587	4497
921.697	4421
921.806	4603
921.916	4440
922.025	4341
922.134	4329
922.244	4265
922.353	4375
922.462	4249
922.571	4158
922.68	4036
922.789	4025
922.898	4074
923.007	4040
923.116	4169
923.224	4120
923.333	4131
923.442	4013
923.55	4040
923.659	4071
923.767	4120
923.876	4029
923.984	4147
924.092	4010
924.201	4071
924.309	4158
924.417	4154
924.525	4093
924.633	4135
924.741	5121
924.849	3956
924.956	4143
925.064	3991
925.172	3915
925.279	3972
925.387	4090
925.494	4063
925.602	4238
925.709	4211
925.816	4090
925.924	4188
926.031	4291
926.138	4242
926.245	4192
926.352	4120
926.459	4306
926.566	4356
926.673	4196
926.779	4143
926.886	4147
926.993	4025
927.099	3987
927.206	3964
927.312	3945
927.419	4101
927.525	4082
927.631	4112
927.737	3964
927.843	3968
927.95	3888
928.056	3987
928.162	4032
928.267	4067
928.373	4706
928.479	4143
928.585	3880
928.69	4059
928.796	4135
928.901	4013
929.007	3896
929.112	4017
929.218	4036
929.323	3998
929.428	3972
929.533	4154
929.638	3949
929.743	3987
929.848	4044
929.953	4071
930.058	3979
930.163	3762
930.267	3857
930.372	4040
930.477	3854
930.581	4078
930.685	3979
930.79	3846
930.894	3945
930.998	3865
931.103	4048
931.207	3781
931.311	3747
931.415	3671
931.519	3576
931.623	3599
