Data from test_V78500241_680.txt Node
Date: Fri Mar 25 16:53:43 CST 2022
User: usil
Spectrometer: V785-0024
Trigger mode: 0
Integration Time (sec): 4.000000E-1
Scans to average: 1
Nonlinearity correction enabled: false
Boxcar width: 0
Storing dark spectrum: false
XAxis mode: Wavelengths
Number of Pixels in Spectrum: 1024
>>>>>Begin Spectral Data<<<<<
801.071	8073
801.214	7993
801.356	7894
801.499	7879
801.641	7864
801.783	7898
801.926	8043
802.068	7967
802.211	7986
802.353	8043
802.496	7868
802.638	7970
802.78	7883
802.923	7993
803.065	7868
803.208	7883
803.35	7944
803.492	8100
803.635	8183
803.777	8024
803.919	8092
804.061	8404
804.204	8062
804.346	8100
804.488	7936
804.63	8164
804.773	8046
804.915	8107
805.057	8259
805.199	8164
805.341	8252
805.483	8389
805.626	8317
805.768	8149
805.91	8244
806.052	8161
806.194	8145
806.336	8328
806.478	8069
806.62	8103
806.762	8130
806.904	8256
807.046	8503
807.188	8328
807.33	8282
807.472	8294
807.614	8218
807.756	8195
807.898	8001
808.04	7883
808.182	7883
808.324	7921
808.465	7936
808.607	8039
808.749	8103
808.891	8210
809.033	8275
809.174	8210
809.316	8088
809.458	8096
809.6	8043
809.741	8046
809.883	8001
810.025	8142
810.166	8065
810.308	8062
810.45	8031
810.591	7982
810.733	7734
810.875	7681
811.016	7563
811.158	7540
811.299	7605
811.441	7693
811.582	7674
811.724	7518
811.865	7567
812.007	7620
812.148	7582
812.29	7575
812.431	7685
812.573	7807
812.714	7997
812.855	8050
812.997	8225
813.138	8351
813.279	8233
813.421	8103
813.562	8001
813.703	7868
813.845	7746
813.986	7521
814.127	7320
814.268	7255
814.41	7190
814.551	7156
814.692	7164
814.833	7091
814.974	7012
815.115	7072
815.256	7000
815.397	6932
815.539	6973
815.68	6878
815.821	6787
815.962	6871
816.103	6825
816.244	6738
816.385	6677
816.526	6563
816.666	6486
816.807	6334
816.948	6498
817.089	6483
817.23	6437
817.371	6350
817.512	6418
817.653	6357
817.793	6376
817.934	6380
818.075	6498
818.216	6391
818.356	6357
818.497	6209
818.638	6087
818.778	6159
818.919	6190
819.06	6235
819.2	6353
819.341	6289
819.481	6388
819.622	6513
819.762	6760
819.903	6669
820.043	6635
820.184	6536
820.324	6578
820.465	6654
820.605	6635
820.746	6597
820.886	6483
821.026	6673
821.167	6703
821.307	6760
821.447	6764
821.588	6642
821.728	6597
821.868	6498
822.008	6319
822.149	6384
822.289	6296
822.429	6178
822.569	6068
822.709	6057
822.849	5916
822.99	5973
823.13	5939
823.27	5942
823.41	5805
823.55	5771
823.69	5752
823.83	5779
823.97	5684
824.11	5509
824.25	5509
824.389	5551
824.529	5547
824.669	5577
824.809	5649
824.949	5688
825.089	5619
825.228	5562
825.368	5337
825.508	5357
825.648	5337
825.787	5383
825.927	5357
826.067	5334
826.206	5322
826.346	5364
826.485	5383
826.625	5341
826.765	5528
826.904	5535
827.044	5265
827.183	5185
827.323	5128
827.462	5208
827.601	5189
827.741	5185
827.88	5185
828.02	5121
828.159	5318
828.298	5318
828.437	5353
828.577	5269
828.716	5474
828.855	5334
828.994	5128
829.134	5143
829.273	5239
829.412	5132
829.551	5140
829.69	5159
829.829	5258
829.968	5414
830.107	5239
830.246	5307
830.385	5155
830.524	5178
830.663	5105
830.802	4968
830.941	4854
831.08	4911
831.219	5003
831.357	4953
831.496	5132
831.635	4900
831.774	4854
831.913	4828
832.051	4744
832.19	4767
832.329	4820
832.467	4706
832.606	4622
832.744	4778
832.883	4740
833.022	4752
833.16	4801
833.299	4786
833.437	4812
833.576	4801
833.714	4870
833.852	4908
833.991	4946
834.129	4968
834.267	4934
834.406	4919
834.544	4976
834.682	4957
834.821	4968
834.959	5117
835.097	5006
835.235	5155
835.373	5102
835.511	5098
835.65	5037
835.788	5006
835.926	4870
836.064	4889
836.202	4904
836.34	5128
836.478	5197
836.615	5128
836.753	5197
836.891	5227
837.029	5254
837.167	5242
837.305	5201
837.443	5136
837.58	5025
837.718	5223
837.856	5166
837.993	5151
838.131	5246
838.269	5231
838.406	5189
838.544	5143
838.681	5025
838.819	5025
838.956	4919
839.094	4911
839.231	5006
839.369	5102
839.506	5429
839.643	5284
839.781	5121
839.918	4984
840.055	5056
840.193	5048
840.33	5113
840.467	5105
840.604	5174
840.742	5452
840.879	5060
841.016	5109
841.153	5178
841.29	5337
841.427	5265
841.564	5288
841.701	5368
841.838	5265
841.975	5258
842.112	5254
842.249	5147
842.385	5109
842.522	5337
842.659	5170
842.796	5147
842.933	5216
843.069	5136
843.206	5197
843.343	5242
843.479	5197
843.616	5216
843.752	5045
843.889	5003
844.025	5246
844.162	5014
844.298	5197
844.435	5014
844.571	5033
844.708	5181
844.844	5273
844.98	5345
845.117	5280
845.253	5090
845.389	5090
845.525	5162
845.661	5117
845.798	4987
845.934	5155
846.07	5018
846.206	5197
846.342	5299
846.478	5189
846.614	5056
846.75	4961
846.886	4957
847.022	5155
847.158	5029
847.294	5060
847.429	5113
847.565	5041
847.701	5303
847.837	4854
847.972	4812
848.108	4953
848.244	4923
848.379	4812
848.515	4725
848.65	4706
848.786	4771
848.921	4778
849.057	4877
849.192	4881
849.328	4866
849.463	4847
849.598	4778
849.734	4710
849.869	4714
850.004	4660
850.14	4698
850.275	4596
850.41	4531
850.545	4554
850.68	4596
850.815	4599
850.95	4603
851.085	4835
851.22	4740
851.355	4668
851.49	4675
851.625	4615
851.76	4645
851.895	4558
852.03	4504
852.165	4615
852.299	4729
852.434	4790
852.569	4744
852.703	4793
852.838	4862
852.973	4946
853.107	4919
853.242	4740
853.376	4675
853.511	4584
853.645	4645
853.78	4805
853.914	4656
854.048	4679
854.183	4618
854.317	4721
854.451	4847
854.585	4626
854.72	4603
854.854	4774
854.988	4569
855.122	4615
855.256	4577
855.39	4611
855.524	4752
855.658	4740
855.792	4691
855.926	4702
856.06	4778
856.194	4763
856.327	4668
856.461	4584
856.595	4615
856.729	4653
856.862	4801
856.996	4683
857.13	4725
857.263	4763
857.397	4847
857.53	4656
857.664	4706
857.797	4782
857.931	4740
858.064	4736
858.197	4725
858.331	4710
858.464	4615
858.597	4546
858.731	4630
858.864	4615
858.997	4603
859.13	4637
859.263	4710
859.396	4710
859.529	4531
859.662	4535
859.795	4558
859.928	4664
860.061	4748
860.194	4702
860.327	4584
860.46	4554
860.592	4649
860.725	4714
860.858	4668
860.99	4634
861.123	4474
861.256	4531
861.388	4618
861.521	5181
861.653	4462
861.786	4443
861.918	4443
862.05	4550
862.183	4554
862.315	4580
862.447	4592
862.58	4519
862.712	4409
862.844	4341
862.976	4451
863.108	4508
863.24	4889
863.372	4363
863.504	4398
863.636	4390
863.768	4474
863.9	4443
864.032	4348
864.164	4409
864.296	4508
864.428	4535
864.559	4527
864.691	4500
864.823	4508
864.954	4497
865.086	4516
865.217	4432
865.349	4394
865.48	4421
865.612	4478
865.743	4569
865.875	4451
866.006	4428
866.137	4424
866.269	4447
866.4	4455
866.531	4405
866.662	4379
866.793	4447
866.924	4409
867.055	4531
867.186	4489
867.317	4428
867.448	4379
867.579	4405
867.71	4383
867.841	4333
867.972	4470
868.103	4478
868.233	4432
868.364	4413
868.495	4478
868.625	4687
868.756	4714
868.886	4577
869.017	4656
869.147	4752
869.278	4733
869.408	4660
869.539	4603
869.669	4721
869.799	4637
869.929	4774
870.06	4736
870.19	4919
870.32	4870
870.45	4923
870.58	5033
870.71	5083
870.84	5090
870.97	4923
871.1	4919
871.23	5094
871.36	5124
871.489	5018
871.619	5132
871.749	5052
871.879	5124
872.008	5193
872.138	5025
872.267	4930
872.397	4824
872.526	4801
872.656	4733
872.785	4809
872.915	4896
873.044	5014
873.173	4938
873.303	4946
873.432	4900
873.561	4965
873.69	4866
873.819	4873
873.948	4904
874.077	4847
874.206	4736
874.335	4759
874.464	4911
874.593	5056
874.722	5003
874.851	5109
874.979	5056
875.108	5041
875.237	4927
875.365	4938
875.494	4870
875.623	4961
875.751	4828
875.88	4908
876.008	4984
876.136	5010
876.265	5174
876.393	5360
876.521	5166
876.65	5181
876.778	5147
876.906	5037
877.034	5029
877.162	5083
877.29	4968
877.418	5048
877.546	5010
877.674	5075
877.802	5045
877.93	4995
878.058	4957
878.185	4889
878.313	4961
878.441	4984
878.568	4801
878.696	4881
878.824	4930
878.951	4980
879.079	5136
879.206	5296
879.333	5102
879.461	4980
879.588	4991
879.715	5083
879.842	5181
879.97	5022
880.097	4729
880.224	4786
880.351	4801
880.478	4824
880.605	4736
880.732	4733
880.859	5025
880.986	4889
881.112	4900
881.239	4740
881.366	4691
881.493	4634
881.619	4550
881.746	4626
881.872	4634
881.999	4588
882.125	4675
882.252	4801
882.378	4797
882.505	4896
882.631	4812
882.757	4729
882.883	4710
883.01	4702
883.136	4675
883.262	4565
883.388	4615
883.514	4835
883.64	4824
883.766	4771
883.892	4714
884.018	4702
884.143	4904
884.269	4991
884.395	4672
884.52	4580
884.646	4634
884.772	4618
884.897	4550
885.023	4694
885.148	4797
885.274	4816
885.399	4744
885.524	4687
885.65	4706
885.775	4748
885.9	4725
886.025	4850
886.15	4786
886.275	4714
886.4	4649
886.525	4778
886.65	4656
886.775	4694
886.9	4896
887.025	5018
887.149	4782
887.274	4649
887.399	4618
887.523	4554
887.648	4573
887.773	4565
887.897	4767
888.021	4801
888.146	4645
888.27	4782
888.395	4877
888.519	4835
888.643	4801
888.767	4877
888.891	4675
889.015	4603
889.139	4664
889.263	4592
889.387	4702
889.511	4873
889.635	4782
889.759	4664
889.883	4664
890.006	4714
890.13	4759
890.254	4626
890.377	4698
890.501	4558
890.624	4512
890.748	4611
890.871	4546
890.995	4394
891.118	4356
891.241	4542
891.364	4542
891.488	4626
891.611	4493
891.734	4558
891.857	4588
891.98	4565
892.103	4687
892.226	4622
892.349	4523
892.471	4428
892.594	4558
892.717	4569
892.839	4558
892.962	4580
893.085	4618
893.207	4611
893.33	4470
893.452	4485
893.575	4698
893.697	4596
893.819	4782
893.941	4850
894.064	4793
894.186	4573
894.308	4550
894.43	4706
894.552	4812
894.674	4744
894.796	4504
894.918	4550
895.04	4565
895.161	4698
895.283	4596
895.405	4603
895.526	4634
895.648	4656
895.769	4691
895.891	4717
896.012	4721
896.134	4744
896.255	4634
896.376	4653
896.498	4664
896.619	4641
896.74	4611
896.861	4660
896.982	4908
897.103	5045
897.224	4816
897.345	4801
897.466	4675
897.587	4736
897.708	4858
897.828	4797
897.949	4637
898.07	4558
898.19	4622
898.311	4801
898.431	4683
898.552	4733
898.672	4778
898.792	4763
898.913	4729
899.033	4618
899.153	4485
899.273	4428
899.393	4508
899.513	4523
899.633	4550
899.753	4516
899.873	4558
899.993	4550
900.113	4519
900.232	4630
900.352	4538
900.472	4462
900.591	4405
900.711	4512
900.83	4451
900.95	4603
901.069	4660
901.189	4546
901.308	4356
901.427	4341
901.546	4325
901.665	4489
901.784	4531
901.904	4394
902.023	4352
902.141	4162
902.26	4158
902.379	4322
902.498	4246
902.617	4192
902.735	4394
902.854	4417
902.973	4363
903.091	4192
903.21	4249
903.328	4272
903.446	4299
903.565	4257
903.683	4363
903.801	4261
903.919	4394
904.038	4436
904.156	4344
904.274	4432
904.392	4402
904.51	4440
904.627	4485
904.745	4584
904.863	4622
904.981	4443
905.098	4272
905.216	4352
905.334	4413
905.451	4485
905.569	4447
905.686	4542
905.803	4592
905.921	4440
906.038	4535
906.155	4500
906.272	4413
906.389	4462
906.506	4386
906.623	4363
906.74	4383
906.857	4299
906.974	4390
907.091	4538
907.208	4687
907.324	4577
907.441	4546
907.557	4352
907.674	4360
907.79	4272
907.907	4348
908.023	4493
908.139	4519
908.256	4436
908.372	4474
908.488	4436
908.604	4363
908.72	4306
908.836	4360
908.952	4352
909.068	4383
909.184	4599
909.3	4428
909.415	4546
909.531	4542
909.647	4360
909.762	4352
909.878	4363
909.993	4455
910.108	4451
910.224	4386
910.339	4440
910.454	4383
910.57	4375
910.685	4314
910.8	4634
910.915	4596
911.03	4535
911.145	4287
911.259	4348
911.374	4390
911.489	4253
911.604	4333
911.718	4204
911.833	4192
911.947	4097
912.062	3979
912.176	4207
912.291	4227
912.405	4223
912.519	4470
912.633	4489
912.748	4383
912.862	4299
912.976	4204
913.09	4078
913.204	4150
913.318	4284
913.431	4356
913.545	4417
913.659	4455
913.772	4356
913.886	4234
914	4181
914.113	4333
914.226	4421
914.34	4375
914.453	4196
914.566	4424
914.68	4329
914.793	4276
914.906	4131
915.019	4086
915.132	4105
915.245	4162
915.358	4188
915.47	4192
915.583	4238
915.696	4276
915.809	4405
915.921	4402
916.034	4234
916.146	4227
916.259	4215
916.371	4352
916.483	4333
916.595	4272
916.708	4306
916.82	4272
916.932	4295
917.044	4333
917.156	4337
917.268	4204
917.38	4280
917.491	4272
917.603	4325
917.715	4428
917.826	4447
917.938	4322
918.049	4261
918.161	4417
918.272	4504
918.384	4588
918.495	4432
918.606	4352
918.717	4268
918.828	4329
918.939	4413
919.05	4287
919.161	4318
919.272	4128
919.383	4215
919.494	4474
919.604	4618
919.715	4402
919.826	4375
919.936	4424
920.047	4538
920.157	4474
920.267	4675
920.378	4531
920.488	4504
920.598	4672
920.708	4866
920.818	4714
920.928	4717
921.038	4934
921.148	4919
921.258	4607
921.368	4561
921.477	4481
921.587	4481
921.697	4383
921.806	4565
921.916	4447
922.025	4249
922.134	4287
922.244	4261
922.353	4325
922.462	4177
922.571	4154
922.68	4021
922.789	4021
922.898	4071
923.007	3991
923.116	4067
923.224	4078
923.333	4067
923.442	4002
923.55	3953
923.659	4051
923.767	4135
923.876	3975
923.984	4135
924.092	3991
924.201	4082
924.309	4086
924.417	4150
924.525	4078
924.633	4093
924.741	5056
924.849	3922
924.956	4097
925.064	3979
925.172	3922
925.279	3972
925.387	4017
925.494	4059
925.602	4181
925.709	4204
925.816	4006
925.924	4143
926.031	4272
926.138	4147
926.245	4192
926.352	4086
926.459	4268
926.566	4348
926.673	4169
926.779	4055
926.886	4063
926.993	4029
927.099	3934
927.206	3926
927.312	3972
927.419	4067
927.525	3991
927.631	4101
927.737	3972
927.843	3949
927.95	3835
928.056	3953
928.162	3994
928.267	4082
928.373	4714
928.479	4105
928.585	3876
928.69	4021
928.796	4116
928.901	3994
929.007	3831
929.112	4044
929.218	4002
929.323	3964
929.428	3922
929.533	4154
929.638	3884
929.743	3918
929.848	4025
929.953	4010
930.058	3956
930.163	3759
930.267	3869
930.372	3994
930.477	3827
930.581	4109
930.685	3945
930.79	3831
930.894	3892
930.998	3903
931.103	4032
931.207	3698
931.311	3705
931.415	3671
931.519	3538
931.623	3557
