Data from test_V78500241_1404.txt Node
Date: Fri Mar 25 16:58:45 CST 2022
User: usil
Spectrometer: V785-0024
Trigger mode: 0
Integration Time (sec): 4.000000E-1
Scans to average: 1
Nonlinearity correction enabled: false
Boxcar width: 0
Storing dark spectrum: false
XAxis mode: Wavelengths
Number of Pixels in Spectrum: 1024
>>>>>Begin Spectral Data<<<<<
801.071	7978
801.214	8031
801.356	7871
801.499	7909
801.641	7776
801.783	7772
801.926	7909
802.068	7868
802.211	7917
802.353	8020
802.496	7772
802.638	7887
802.78	7890
802.923	7898
803.065	7883
803.208	7879
803.35	7978
803.492	8111
803.635	8218
803.777	8005
803.919	8164
804.061	8492
804.204	8092
804.346	8126
804.488	7967
804.63	8081
804.773	8016
804.915	8142
805.057	8309
805.199	8176
805.341	8263
805.483	8221
805.626	8176
805.768	8077
805.91	8176
806.052	8252
806.194	8065
806.336	8309
806.478	8111
806.62	7963
806.762	8134
806.904	8214
807.046	8415
807.188	8347
807.33	8263
807.472	8290
807.614	8164
807.756	8138
807.898	8005
808.04	7917
808.182	7932
808.324	7860
808.465	7974
808.607	8115
808.749	8142
808.891	8103
809.033	8240
809.174	8142
809.316	8020
809.458	8043
809.6	7917
809.741	7993
809.883	8046
810.025	8069
810.166	8058
810.308	8001
810.45	7986
810.591	7921
810.733	7715
810.875	7719
811.016	7571
811.158	7464
811.299	7628
811.441	7727
811.582	7696
811.724	7575
811.865	7537
812.007	7521
812.148	7590
812.29	7666
812.431	7776
812.573	7856
812.714	7982
812.855	8145
812.997	8229
813.138	8256
813.279	8221
813.421	8024
813.562	7989
813.703	7833
813.845	7742
813.986	7457
814.127	7228
814.268	7274
814.41	7129
814.551	7156
814.692	7213
814.833	7069
814.974	7065
815.115	7129
815.256	6951
815.397	6909
815.539	6939
815.68	6856
815.821	6745
815.962	6871
816.103	6795
816.244	6665
816.385	6494
816.526	6627
816.666	6464
816.807	6331
816.948	6426
817.089	6452
817.23	6448
817.371	6365
817.512	6376
817.653	6365
817.793	6331
817.934	6429
818.075	6456
818.216	6407
818.356	6361
818.497	6209
818.638	6106
818.778	6136
818.919	6167
819.06	6110
819.2	6327
819.341	6319
819.481	6331
819.622	6540
819.762	6722
819.903	6738
820.043	6582
820.184	6593
820.324	6578
820.465	6696
820.605	6642
820.746	6593
820.886	6498
821.026	6627
821.167	6669
821.307	6776
821.447	6730
821.588	6654
821.728	6585
821.868	6593
822.008	6262
822.149	6327
822.289	6334
822.429	6079
822.569	6049
822.709	6076
822.849	5866
822.99	5832
823.13	5920
823.27	5882
823.41	5786
823.55	5729
823.69	5745
823.83	5767
823.97	5630
824.11	5512
824.25	5501
824.389	5596
824.529	5589
824.669	5516
824.809	5623
824.949	5634
825.089	5634
825.228	5493
825.368	5402
825.508	5307
825.648	5337
825.787	5395
825.927	5379
826.067	5265
826.206	5254
826.346	5376
826.485	5398
826.625	5414
826.765	5573
826.904	5440
827.044	5273
827.183	5181
827.323	5105
827.462	5201
827.601	5162
827.741	5136
827.88	5220
828.02	5105
828.159	5208
828.298	5315
828.437	5288
828.577	5292
828.716	5448
828.855	5311
828.994	5090
829.134	5143
829.273	5174
829.412	5166
829.551	5147
829.69	5162
829.829	5174
829.968	5410
830.107	5307
830.246	5254
830.385	5162
830.524	5124
830.663	5003
830.802	4976
830.941	4900
831.08	4908
831.219	4938
831.357	4957
831.496	5166
831.635	4854
831.774	4790
831.913	4843
832.051	4710
832.19	4717
832.329	4778
832.467	4675
832.606	4641
832.744	4698
832.883	4729
833.022	4694
833.16	4714
833.299	4805
833.437	4812
833.576	4843
833.714	4847
833.852	4889
833.991	4824
834.129	4957
834.267	4934
834.406	4858
834.544	4946
834.682	4949
834.821	4972
834.959	5113
835.097	5022
835.235	5128
835.373	5083
835.511	5075
835.65	5064
835.788	4953
835.926	4858
836.064	4839
836.202	4889
836.34	5117
836.478	5178
836.615	5159
836.753	5147
836.891	5254
837.029	5265
837.167	5170
837.305	5170
837.443	5109
837.58	5064
837.718	5235
837.856	5216
837.993	5151
838.131	5235
838.269	5174
838.406	5178
838.544	5159
838.681	5064
838.819	5022
838.956	4885
839.094	4900
839.231	4980
839.369	5113
839.506	5414
839.643	5208
839.781	5071
839.918	4984
840.055	5064
840.193	5022
840.33	5136
840.467	5109
840.604	5170
840.742	5505
840.879	5048
841.016	5086
841.153	5109
841.29	5395
841.427	5368
841.564	5318
841.701	5311
841.838	5288
841.975	5242
842.112	5223
842.249	5128
842.385	5136
842.522	5315
842.659	5155
842.796	5181
842.933	5193
843.069	5086
843.206	5136
843.343	5277
843.479	5166
843.616	5277
843.752	5041
843.889	5056
844.025	5140
844.162	5041
844.298	5155
844.435	5056
844.571	5052
844.708	5136
844.844	5261
844.98	5284
845.117	5265
845.253	5075
845.389	5102
845.525	5128
845.661	5128
845.798	5052
845.934	5140
846.07	5033
846.206	5143
846.342	5299
846.478	5140
846.614	5045
846.75	4991
846.886	4942
847.022	5147
847.158	5014
847.294	5071
847.429	5109
847.565	5010
847.701	5315
847.837	4847
847.972	4790
848.108	4930
848.244	4889
848.379	4763
848.515	4702
848.65	4679
848.786	4755
848.921	4714
849.057	4843
849.192	4877
849.328	4854
849.463	4839
849.598	4782
849.734	4763
849.869	4622
850.004	4588
850.14	4660
850.275	4603
850.41	4531
850.545	4577
850.68	4512
850.815	4615
850.95	4607
851.085	4812
851.22	4660
851.355	4653
851.49	4577
851.625	4584
851.76	4641
851.895	4565
852.03	4523
852.165	4668
852.299	4710
852.434	4786
852.569	4702
852.703	4782
852.838	4870
852.973	4889
853.107	4930
853.242	4790
853.376	4649
853.511	4561
853.645	4603
853.78	4809
853.914	4687
854.048	4641
854.183	4622
854.317	4675
854.451	4820
854.585	4668
854.72	4630
854.854	4717
854.988	4584
855.122	4622
855.256	4519
855.39	4664
855.524	4767
855.658	4675
855.792	4763
855.926	4736
856.06	4721
856.194	4786
856.327	4622
856.461	4573
856.595	4599
856.729	4611
856.862	4733
856.996	4683
857.13	4725
857.263	4717
857.397	4809
857.53	4641
857.664	4694
857.797	4759
857.931	4774
858.064	4672
858.197	4748
858.331	4637
858.464	4626
858.597	4546
858.731	4603
858.864	4630
858.997	4599
859.13	4660
859.263	4637
859.396	4706
859.529	4554
859.662	4584
859.795	4558
859.928	4577
860.061	4812
860.194	4774
860.327	4588
860.46	4607
860.592	4702
860.725	4672
860.858	4675
860.99	4569
861.123	4519
861.256	4516
861.388	4569
861.521	5391
861.653	4432
861.786	4459
861.918	4466
862.05	4485
862.183	4550
862.315	4611
862.447	4645
862.58	4538
862.712	4360
862.844	4352
862.976	4481
863.108	4440
863.24	4862
863.372	4318
863.504	4405
863.636	4394
863.768	4390
863.9	4459
864.032	4363
864.164	4333
864.296	4421
864.428	4512
864.559	4516
864.691	4577
864.823	4512
864.954	4462
865.086	4508
865.217	4470
865.349	4424
865.48	4428
865.612	4489
865.743	4607
865.875	4466
866.006	4344
866.137	4417
866.269	4413
866.4	4455
866.531	4451
866.662	4402
866.793	4383
866.924	4394
867.055	4493
867.186	4443
867.317	4421
867.448	4398
867.579	4390
867.71	4409
867.841	4394
867.972	4413
868.103	4474
868.233	4413
868.364	4451
868.495	4489
868.625	4622
868.756	4714
868.886	4611
869.017	4588
869.147	4759
869.278	4763
869.408	4634
869.539	4599
869.669	4714
869.799	4687
869.929	4782
870.06	4740
870.19	4919
870.32	4900
870.45	4889
870.58	4961
870.71	5075
870.84	5045
870.97	4915
871.1	4915
871.23	5113
871.36	5075
871.489	4961
871.619	5010
871.749	5117
871.879	5132
872.008	5162
872.138	4999
872.267	4942
872.397	4896
872.526	4755
872.656	4736
872.785	4828
872.915	4946
873.044	5014
873.173	4942
873.303	4968
873.432	4934
873.561	4942
873.69	4911
873.819	4854
873.948	4885
874.077	4793
874.206	4748
874.335	4790
874.464	4934
874.593	5067
874.722	4976
874.851	5090
874.979	5048
875.108	5010
875.237	4908
875.365	4919
875.494	4889
875.623	4949
875.751	4805
875.88	4828
876.008	4923
876.136	5018
876.265	5208
876.393	5368
876.521	5242
876.65	5223
876.778	5105
876.906	5041
877.034	4976
877.162	5029
877.29	5003
877.418	5067
877.546	5041
877.674	5041
877.802	5010
877.93	4949
878.058	4923
878.185	4900
878.313	4957
878.441	4968
878.568	4752
878.696	4816
878.824	4930
878.951	4991
879.079	5147
879.206	5239
879.333	5117
879.461	4984
879.588	4999
879.715	5128
879.842	5220
879.97	4984
880.097	4721
880.224	4736
880.351	4782
880.478	4778
880.605	4771
880.732	4790
880.859	5124
880.986	4889
881.112	4900
881.239	4805
881.366	4656
881.493	4626
881.619	4569
881.746	4622
881.872	4656
881.999	4611
882.125	4733
882.252	4767
882.378	4835
882.505	4946
882.631	4843
882.757	4630
882.883	4694
883.01	4729
883.136	4668
883.262	4577
883.388	4596
883.514	4835
883.64	4850
883.766	4755
883.892	4706
884.018	4698
884.143	4904
884.269	5003
884.395	4637
884.52	4641
884.646	4634
884.772	4649
884.897	4584
885.023	4660
885.148	4740
885.274	4839
885.399	4778
885.524	4675
885.65	4683
885.775	4710
885.9	4687
886.025	4767
886.15	4797
886.275	4694
886.4	4691
886.525	4714
886.65	4672
886.775	4687
886.9	4889
887.025	5048
887.149	4763
887.274	4664
887.399	4569
887.523	4577
887.648	4592
887.773	4580
887.897	4740
888.021	4736
888.146	4641
888.27	4816
888.395	4896
888.519	4801
888.643	4790
888.767	4801
888.891	4626
889.015	4577
889.139	4660
889.263	4577
889.387	4805
889.511	4847
889.635	4782
889.759	4649
889.883	4607
890.006	4740
890.13	4850
890.254	4656
890.377	4618
890.501	4588
890.624	4504
890.748	4611
890.871	4523
890.995	4481
891.118	4371
891.241	4489
891.364	4569
891.488	4622
891.611	4459
891.734	4535
891.857	4599
891.98	4478
892.103	4611
892.226	4546
892.349	4516
892.471	4421
892.594	4500
892.717	4622
892.839	4554
892.962	4580
893.085	4687
893.207	4535
893.33	4504
893.452	4508
893.575	4710
893.697	4584
893.819	4759
893.941	4812
894.064	4759
894.186	4535
894.308	4584
894.43	4694
894.552	4820
894.674	4744
894.796	4538
894.918	4603
895.04	4588
895.161	4725
895.283	4683
895.405	4554
895.526	4649
895.648	4656
895.769	4710
895.891	4702
896.012	4717
896.134	4714
896.255	4683
896.376	4637
896.498	4599
896.619	4653
896.74	4561
896.861	4649
896.982	4915
897.103	5056
897.224	4870
897.345	4714
897.466	4649
897.587	4714
897.708	4866
897.828	4812
897.949	4687
898.07	4485
898.19	4664
898.311	4752
898.431	4660
898.552	4736
898.672	4763
898.792	4782
898.913	4771
899.033	4672
899.153	4478
899.273	4409
899.393	4466
899.513	4523
899.633	4535
899.753	4516
899.873	4447
899.993	4599
900.113	4508
900.232	4573
900.352	4516
900.472	4470
900.591	4436
900.711	4470
900.83	4466
900.95	4637
901.069	4634
901.189	4504
901.308	4352
901.427	4352
901.546	4348
901.665	4451
901.784	4523
901.904	4398
902.023	4306
902.141	4169
902.26	4150
902.379	4318
902.498	4230
902.617	4219
902.735	4341
902.854	4383
902.973	4344
903.091	4185
903.21	4211
903.328	4299
903.446	4295
903.565	4242
903.683	4333
903.801	4246
903.919	4394
904.038	4466
904.156	4299
904.274	4447
904.392	4394
904.51	4436
904.627	4470
904.745	4565
904.863	4580
904.981	4360
905.098	4249
905.216	4333
905.334	4394
905.451	4459
905.569	4405
905.686	4577
905.803	4527
905.921	4386
906.038	4527
906.155	4424
906.272	4398
906.389	4481
906.506	4348
906.623	4356
906.74	4394
906.857	4329
906.974	4344
907.091	4531
907.208	4668
907.324	4558
907.441	4443
907.557	4379
907.674	4314
907.79	4295
907.907	4379
908.023	4424
908.139	4466
908.256	4409
908.372	4466
908.488	4379
908.604	4344
908.72	4337
908.836	4337
908.952	4383
909.068	4440
909.184	4558
909.3	4459
909.415	4558
909.531	4535
909.647	4367
909.762	4360
909.878	4367
909.993	4417
910.108	4383
910.224	4402
910.339	4459
910.454	4383
910.57	4337
910.685	4314
910.8	4641
910.915	4554
911.03	4455
911.145	4299
911.259	4314
911.374	4348
911.489	4306
911.604	4284
911.718	4128
911.833	4158
911.947	4067
912.062	4029
912.176	4207
912.291	4238
912.405	4242
912.519	4443
912.633	4451
912.748	4314
912.862	4303
912.976	4173
913.09	4063
913.204	4166
913.318	4223
913.431	4356
913.545	4375
913.659	4443
913.772	4348
913.886	4257
914	4227
914.113	4375
914.226	4443
914.34	4371
914.453	4211
914.566	4421
914.68	4276
914.793	4265
914.906	4150
915.019	4105
915.132	4055
915.245	4173
915.358	4192
915.47	4284
915.583	4272
915.696	4287
915.809	4390
915.921	4428
916.034	4261
916.146	4223
916.259	4272
916.371	4337
916.483	4337
916.595	4238
916.708	4291
916.82	4352
916.932	4329
917.044	4329
917.156	4325
917.268	4246
917.38	4280
917.491	4242
917.603	4299
917.715	4394
917.826	4421
917.938	4348
918.049	4257
918.161	4405
918.272	4512
918.384	4561
918.495	4390
918.606	4284
918.717	4207
918.828	4306
918.939	4394
919.05	4223
919.161	4341
919.272	4105
919.383	4185
919.494	4421
919.604	4630
919.715	4451
919.826	4383
919.936	4375
920.047	4504
920.157	4512
920.267	4702
920.378	4474
920.488	4489
920.598	4733
920.708	4877
920.818	4736
920.928	4782
921.038	4927
921.148	4934
921.258	4626
921.368	4558
921.477	4470
921.587	4451
921.697	4405
921.806	4561
921.916	4478
922.025	4284
922.134	4242
922.244	4219
922.353	4299
922.462	4105
922.571	4124
922.68	4006
922.789	3960
922.898	4048
923.007	4010
923.116	4105
923.224	4093
923.333	4063
923.442	4006
923.55	3937
923.659	4021
923.767	4086
923.876	3972
923.984	4139
924.092	3987
924.201	4078
924.309	4074
924.417	4101
924.525	4029
924.633	4097
924.741	5060
924.849	3930
924.956	4154
925.064	4010
925.172	3907
925.279	3934
925.387	4017
925.494	4013
925.602	4207
925.709	4124
925.816	4051
925.924	4086
926.031	4204
926.138	4158
926.245	4204
926.352	4078
926.459	4242
926.566	4299
926.673	4124
926.779	4063
926.886	4048
926.993	3972
927.099	3922
927.206	3922
927.312	3926
927.419	4006
927.525	4017
927.631	4044
927.737	3953
927.843	3926
927.95	3819
928.056	3953
928.162	3907
928.267	4051
928.373	4641
928.479	4109
928.585	3861
928.69	3956
928.796	4017
928.901	3945
929.007	3808
929.112	3979
929.218	3956
929.323	3903
929.428	3899
929.533	4071
929.638	3941
929.743	3934
929.848	4021
929.953	3975
930.058	3911
930.163	3793
930.267	3831
930.372	3945
930.477	3808
930.581	4040
930.685	3903
930.79	3808
930.894	3899
930.998	3873
931.103	4067
931.207	3720
931.311	3694
931.415	3644
931.519	3458
931.623	3538
