Data from test_V78500241_1450.txt Node
Date: Fri Mar 25 16:59:05 CST 2022
User: usil
Spectrometer: V785-0024
Trigger mode: 0
Integration Time (sec): 4.000000E-1
Scans to average: 1
Nonlinearity correction enabled: false
Boxcar width: 0
Storing dark spectrum: false
XAxis mode: Wavelengths
Number of Pixels in Spectrum: 1024
>>>>>Begin Spectral Data<<<<<
801.071	8073
801.214	8024
801.356	7856
801.499	7890
801.641	7784
801.783	7837
801.926	7909
802.068	7944
802.211	8005
802.353	7989
802.496	7795
802.638	7841
802.78	7967
802.923	7947
803.065	7936
803.208	7830
803.35	7967
803.492	8092
803.635	8157
803.777	8046
803.919	8138
804.061	8492
804.204	8279
804.346	8054
804.488	7936
804.63	8164
804.773	8100
804.915	8115
805.057	8286
805.199	8161
805.341	8187
805.483	8279
805.626	8214
805.768	8103
805.91	8256
806.052	8233
806.194	8111
806.336	8301
806.478	8111
806.62	8077
806.762	8138
806.904	8267
807.046	8438
807.188	8351
807.33	8358
807.472	8320
807.614	8164
807.756	8100
807.898	7974
808.04	7883
808.182	7978
808.324	7879
808.465	7963
808.607	8065
808.749	8069
808.891	8202
809.033	8244
809.174	8275
809.316	8084
809.458	8050
809.6	7997
809.741	7978
809.883	8100
810.025	8073
810.166	8016
810.308	8058
810.45	7959
810.591	7868
810.733	7723
810.875	7708
811.016	7563
811.158	7544
811.299	7590
811.441	7696
811.582	7681
811.724	7586
811.865	7487
812.007	7643
812.148	7590
812.29	7605
812.431	7700
812.573	7864
812.714	7982
812.855	8088
812.997	8168
813.138	8301
813.279	8176
813.421	8050
813.562	8005
813.703	7887
813.845	7761
813.986	7419
814.127	7236
814.268	7285
814.41	7217
814.551	7221
814.692	7278
814.833	7099
814.974	7084
815.115	7133
815.256	6932
815.397	6966
815.539	6970
815.68	6848
815.821	6760
815.962	6863
816.103	6802
816.244	6669
816.385	6601
816.526	6650
816.666	6513
816.807	6342
816.948	6448
817.089	6521
817.23	6448
817.371	6361
817.512	6350
817.653	6410
817.793	6323
817.934	6426
818.075	6445
818.216	6384
818.356	6456
818.497	6228
818.638	6155
818.778	6163
818.919	6121
819.06	6178
819.2	6289
819.341	6357
819.481	6353
819.622	6559
819.762	6719
819.903	6688
820.043	6593
820.184	6593
820.324	6604
820.465	6719
820.605	6654
820.746	6719
820.886	6486
821.026	6650
821.167	6677
821.307	6783
821.447	6726
821.588	6692
821.728	6574
821.868	6460
822.008	6388
822.149	6372
822.289	6391
822.429	6117
822.569	6091
822.709	6076
822.849	5958
822.99	5935
823.13	5935
823.27	5920
823.41	5805
823.55	5790
823.69	5809
823.83	5722
823.97	5745
824.11	5505
824.25	5486
824.389	5516
824.529	5554
824.669	5535
824.809	5630
824.949	5661
825.089	5592
825.228	5585
825.368	5410
825.508	5337
825.648	5326
825.787	5402
825.927	5425
826.067	5299
826.206	5280
826.346	5376
826.485	5387
826.625	5429
826.765	5520
826.904	5490
827.044	5246
827.183	5208
827.323	5143
827.462	5265
827.601	5151
827.741	5231
827.88	5223
828.02	5121
828.159	5208
828.298	5322
828.437	5353
828.577	5299
828.716	5474
828.855	5326
828.994	5151
829.134	5201
829.273	5197
829.412	5124
829.551	5132
829.69	5166
829.829	5239
829.968	5376
830.107	5315
830.246	5288
830.385	5193
830.524	5090
830.663	5094
830.802	4942
830.941	4927
831.08	4896
831.219	4980
831.357	4946
831.496	5170
831.635	4957
831.774	4835
831.913	4828
832.051	4752
832.19	4714
832.329	4824
832.467	4691
832.606	4645
832.744	4736
832.883	4736
833.022	4721
833.16	4752
833.299	4816
833.437	4778
833.576	4862
833.714	4870
833.852	4866
833.991	4904
834.129	4927
834.267	4995
834.406	4904
834.544	4991
834.682	4946
834.821	4934
834.959	5166
835.097	4976
835.235	5136
835.373	5071
835.511	5121
835.65	5056
835.788	5010
835.926	4877
836.064	4854
836.202	4858
836.34	5121
836.478	5269
836.615	5109
836.753	5223
836.891	5246
837.029	5246
837.167	5174
837.305	5151
837.443	5102
837.58	5098
837.718	5208
837.856	5189
837.993	5132
838.131	5193
838.269	5235
838.406	5246
838.544	5189
838.681	5006
838.819	4984
838.956	4904
839.094	4870
839.231	4980
839.369	5052
839.506	5387
839.643	5292
839.781	5067
839.918	5010
840.055	5083
840.193	5105
840.33	5079
840.467	5094
840.604	5162
840.742	5417
840.879	5067
841.016	5067
841.153	5105
841.29	5398
841.427	5364
841.564	5261
841.701	5330
841.838	5322
841.975	5204
842.112	5258
842.249	5098
842.385	5094
842.522	5269
842.659	5174
842.796	5193
842.933	5193
843.069	5174
843.206	5159
843.343	5280
843.479	5261
843.616	5258
843.752	4987
843.889	5022
844.025	5242
844.162	5029
844.298	5212
844.435	5056
844.571	5029
844.708	5174
844.844	5292
844.98	5303
845.117	5288
845.253	5136
845.389	5075
845.525	5140
845.661	5075
845.798	5064
845.934	5136
846.07	5003
846.206	5162
846.342	5280
846.478	5159
846.614	5010
846.75	4980
846.886	4911
847.022	5121
847.158	4999
847.294	5045
847.429	5098
847.565	5083
847.701	5315
847.837	4847
847.972	4786
848.108	4961
848.244	4942
848.379	4782
848.515	4759
848.65	4698
848.786	4714
848.921	4740
849.057	4854
849.192	4896
849.328	4797
849.463	4778
849.598	4771
849.734	4744
849.869	4653
850.004	4561
850.14	4675
850.275	4599
850.41	4519
850.545	4577
850.68	4611
850.815	4611
850.95	4611
851.085	4816
851.22	4755
851.355	4641
851.49	4637
851.625	4672
851.76	4653
851.895	4542
852.03	4531
852.165	4687
852.299	4729
852.434	4748
852.569	4744
852.703	4752
852.838	4858
852.973	4877
853.107	4930
853.242	4706
853.376	4675
853.511	4542
853.645	4626
853.78	4782
853.914	4622
854.048	4687
854.183	4626
854.317	4698
854.451	4862
854.585	4672
854.72	4664
854.854	4774
854.988	4588
855.122	4637
855.256	4558
855.39	4656
855.524	4725
855.658	4748
855.792	4637
855.926	4725
856.06	4790
856.194	4748
856.327	4649
856.461	4634
856.595	4645
856.729	4607
856.862	4687
856.996	4687
857.13	4774
857.263	4744
857.397	4771
857.53	4683
857.664	4687
857.797	4733
857.931	4774
858.064	4687
858.197	4744
858.331	4607
858.464	4558
858.597	4512
858.731	4675
858.864	4599
858.997	4565
859.13	4618
859.263	4706
859.396	4698
859.529	4546
859.662	4573
859.795	4592
859.928	4596
860.061	4717
860.194	4736
860.327	4599
860.46	4565
860.592	4679
860.725	4710
860.858	4706
860.99	4573
861.123	4512
861.256	4523
861.388	4592
861.521	5471
861.653	4497
861.786	4474
861.918	4466
862.05	4519
862.183	4542
862.315	4611
862.447	4634
862.58	4577
862.712	4394
862.844	4337
862.976	4455
863.108	4440
863.24	4778
863.372	4280
863.504	4402
863.636	4413
863.768	4474
863.9	4383
864.032	4363
864.164	4421
864.296	4516
864.428	4535
864.559	4538
864.691	4535
864.823	4504
864.954	4455
865.086	4504
865.217	4481
865.349	4417
865.48	4451
865.612	4504
865.743	4668
865.875	4470
866.006	4440
866.137	4451
866.269	4413
866.4	4462
866.531	4409
866.662	4398
866.793	4432
866.924	4440
867.055	4447
867.186	4481
867.317	4379
867.448	4329
867.579	4383
867.71	4344
867.841	4333
867.972	4459
868.103	4493
868.233	4451
868.364	4440
868.495	4459
868.625	4649
868.756	4714
868.886	4607
869.017	4577
869.147	4786
869.278	4755
869.408	4668
869.539	4664
869.669	4717
869.799	4641
869.929	4812
870.06	4717
870.19	4908
870.32	4889
870.45	4957
870.58	4976
870.71	5079
870.84	5041
870.97	4965
871.1	4908
871.23	5155
871.36	5162
871.489	5033
871.619	5083
871.749	5102
871.879	5128
872.008	5159
872.138	5003
872.267	4965
872.397	4866
872.526	4782
872.656	4672
872.785	4812
872.915	4934
873.044	5048
873.173	4953
873.303	5022
873.432	4976
873.561	5018
873.69	4892
873.819	4843
873.948	4858
874.077	4793
874.206	4790
874.335	4790
874.464	4953
874.593	5037
874.722	5006
874.851	5067
874.979	5029
875.108	5064
875.237	4934
875.365	4900
875.494	4919
875.623	4942
875.751	4854
875.88	4847
876.008	4980
876.136	5037
876.265	5178
876.393	5337
876.521	5193
876.65	5189
876.778	5174
876.906	5056
877.034	5018
877.162	5041
877.29	4934
877.418	5086
877.546	5010
877.674	5048
877.802	5003
877.93	4987
878.058	4915
878.185	4858
878.313	4949
878.441	4961
878.568	4748
878.696	4858
878.824	4915
878.951	5006
879.079	5086
879.206	5250
879.333	5052
879.461	4995
879.588	5006
879.715	5124
879.842	5208
879.97	4976
880.097	4774
880.224	4782
880.351	4835
880.478	4847
880.605	4782
880.732	4778
880.859	5075
880.986	4866
881.112	4911
881.239	4763
881.366	4660
881.493	4607
881.619	4516
881.746	4649
881.872	4622
881.999	4611
882.125	4672
882.252	4824
882.378	4828
882.505	4881
882.631	4809
882.757	4649
882.883	4744
883.01	4710
883.136	4702
883.262	4622
883.388	4592
883.514	4782
883.64	4812
883.766	4771
883.892	4618
884.018	4702
884.143	4900
884.269	5029
884.395	4668
884.52	4634
884.646	4649
884.772	4584
884.897	4546
885.023	4656
885.148	4797
885.274	4828
885.399	4767
885.524	4759
885.65	4683
885.775	4736
885.9	4691
886.025	4831
886.15	4736
886.275	4702
886.4	4691
886.525	4717
886.65	4675
886.775	4660
886.9	4866
887.025	4984
887.149	4828
887.274	4607
887.399	4596
887.523	4611
887.648	4611
887.773	4561
887.897	4752
888.021	4839
888.146	4675
888.27	4839
888.395	4911
888.519	4793
888.643	4801
888.767	4809
888.891	4679
889.015	4603
889.139	4649
889.263	4630
889.387	4694
889.511	4873
889.635	4767
889.759	4641
889.883	4653
890.006	4740
890.13	4778
890.254	4584
890.377	4672
890.501	4580
890.624	4550
890.748	4603
890.871	4519
890.995	4398
891.118	4390
891.241	4535
891.364	4516
891.488	4626
891.611	4500
891.734	4561
891.857	4588
891.98	4535
892.103	4706
892.226	4599
892.349	4569
892.471	4390
892.594	4535
892.717	4607
892.839	4493
892.962	4577
893.085	4679
893.207	4588
893.33	4443
893.452	4554
893.575	4694
893.697	4588
893.819	4744
893.941	4809
894.064	4733
894.186	4603
894.308	4504
894.43	4767
894.552	4847
894.674	4782
894.796	4565
894.918	4596
895.04	4580
895.161	4664
895.283	4637
895.405	4542
895.526	4622
895.648	4687
895.769	4702
895.891	4694
896.012	4717
896.134	4733
896.255	4664
896.376	4653
896.498	4599
896.619	4664
896.74	4580
896.861	4626
896.982	4919
897.103	5071
897.224	4782
897.345	4786
897.466	4698
897.587	4694
897.708	4828
897.828	4793
897.949	4683
898.07	4577
898.19	4603
898.311	4801
898.431	4653
898.552	4721
898.672	4816
898.792	4801
898.913	4691
899.033	4641
899.153	4523
899.273	4417
899.393	4512
899.513	4512
899.633	4527
899.753	4485
899.873	4500
899.993	4622
900.113	4535
900.232	4611
900.352	4523
900.472	4466
900.591	4398
900.711	4474
900.83	4451
900.95	4565
901.069	4698
901.189	4531
901.308	4371
901.427	4295
901.546	4348
901.665	4436
901.784	4481
901.904	4402
902.023	4352
902.141	4188
902.26	4188
902.379	4306
902.498	4238
902.617	4192
902.735	4390
902.854	4367
902.973	4333
903.091	4185
903.21	4219
903.328	4272
903.446	4280
903.565	4261
903.683	4367
903.801	4238
903.919	4405
904.038	4394
904.156	4325
904.274	4447
904.392	4352
904.51	4432
904.627	4443
904.745	4588
904.863	4615
904.981	4367
905.098	4310
905.216	4299
905.334	4413
905.451	4421
905.569	4459
905.686	4558
905.803	4584
905.921	4428
906.038	4481
906.155	4443
906.272	4409
906.389	4436
906.506	4363
906.623	4394
906.74	4390
906.857	4287
906.974	4352
907.091	4512
907.208	4679
907.324	4573
907.441	4531
907.557	4348
907.674	4337
907.79	4299
907.907	4371
908.023	4459
908.139	4462
908.256	4443
908.372	4497
908.488	4462
908.604	4348
908.72	4314
908.836	4383
908.952	4379
909.068	4440
909.184	4550
909.3	4459
909.415	4550
909.531	4523
909.647	4379
909.762	4379
909.878	4352
909.993	4405
910.108	4390
910.224	4424
910.339	4466
910.454	4363
910.57	4375
910.685	4276
910.8	4656
910.915	4599
911.03	4470
911.145	4306
911.259	4341
911.374	4394
911.489	4306
911.604	4257
911.718	4181
911.833	4166
911.947	4093
912.062	4025
912.176	4185
912.291	4166
912.405	4265
912.519	4478
912.633	4558
912.748	4356
912.862	4303
912.976	4173
913.09	4097
913.204	4185
913.318	4219
913.431	4367
913.545	4352
913.659	4455
913.772	4363
913.886	4295
914	4211
914.113	4352
914.226	4421
914.34	4402
914.453	4238
914.566	4394
914.68	4303
914.793	4333
914.906	4162
915.019	4150
915.132	4059
915.245	4185
915.358	4211
915.47	4246
915.583	4299
915.696	4265
915.809	4409
915.921	4432
916.034	4249
916.146	4192
916.259	4219
916.371	4333
916.483	4337
916.595	4246
916.708	4333
916.82	4291
916.932	4337
917.044	4284
917.156	4329
917.268	4257
917.38	4276
917.491	4265
917.603	4314
917.715	4405
917.826	4405
917.938	4322
918.049	4246
918.161	4371
918.272	4573
918.384	4481
918.495	4512
918.606	4284
918.717	4234
918.828	4303
918.939	4371
919.05	4230
919.161	4322
919.272	4154
919.383	4207
919.494	4466
919.604	4615
919.715	4447
919.826	4306
919.936	4421
920.047	4512
920.157	4462
920.267	4668
920.378	4531
920.488	4497
920.598	4683
920.708	4930
920.818	4748
920.928	4755
921.038	4904
921.148	4858
921.258	4599
921.368	4580
921.477	4497
921.587	4436
921.697	4390
921.806	4512
921.916	4478
922.025	4265
922.134	4276
922.244	4196
922.353	4318
922.462	4188
922.571	4131
922.68	3998
922.789	3972
922.898	4021
923.007	4006
923.116	4067
923.224	4067
923.333	4105
923.442	3960
923.55	3922
923.659	4048
923.767	4158
923.876	3975
923.984	4135
924.092	3998
924.201	4082
924.309	4124
924.417	4124
924.525	4029
924.633	4105
924.741	5056
924.849	3941
924.956	4143
925.064	3949
925.172	3907
925.279	3949
925.387	4055
925.494	4002
925.602	4204
925.709	4200
925.816	4013
925.924	4147
926.031	4230
926.138	4162
926.245	4215
926.352	4097
926.459	4253
926.566	4287
926.673	4169
926.779	4044
926.886	4124
926.993	3964
927.099	3998
927.206	3907
927.312	3899
927.419	4002
927.525	4032
927.631	4063
927.737	3972
927.843	3972
927.95	3819
928.056	3956
928.162	3987
928.267	4036
928.373	4611
928.479	4116
928.585	3888
928.69	4021
928.796	4071
928.901	3994
929.007	3823
929.112	3983
929.218	3937
929.323	3934
929.428	3960
929.533	4090
929.638	3899
929.743	3968
929.848	4074
929.953	4013
930.058	3937
930.163	3812
930.267	3835
930.372	3968
930.477	3766
930.581	4105
930.685	3949
930.79	3854
930.894	3888
930.998	3854
931.103	4055
931.207	3717
931.311	3724
931.415	3656
931.519	3485
931.623	3564
