Data from test_V78500241_409.txt Node
Date: Fri Mar 25 16:51:50 CST 2022
User: usil
Spectrometer: V785-0024
Trigger mode: 0
Integration Time (sec): 4.000000E-1
Scans to average: 1
Nonlinearity correction enabled: false
Boxcar width: 0
Storing dark spectrum: false
XAxis mode: Wavelengths
Number of Pixels in Spectrum: 1024
>>>>>Begin Spectral Data<<<<<
801.071	8077
801.214	8081
801.356	7928
801.499	8020
801.641	7845
801.783	7826
801.926	8001
802.068	7982
802.211	8096
802.353	8031
802.496	7860
802.638	7909
802.78	7921
802.923	7906
803.065	7963
803.208	7860
803.35	8016
803.492	8058
803.635	8103
803.777	8039
803.919	8206
804.061	8495
804.204	8176
804.346	8020
804.488	7967
804.63	8199
804.773	8069
804.915	8157
805.057	8301
805.199	8149
805.341	8275
805.483	8271
805.626	8111
805.768	8058
805.91	8187
806.052	8138
806.194	8115
806.336	8294
806.478	8168
806.62	8073
806.762	8191
806.904	8244
807.046	8438
807.188	8427
807.33	8259
807.472	8317
807.614	8191
807.756	8218
807.898	8077
808.04	7928
808.182	7993
808.324	8016
808.465	7970
808.607	8115
808.749	8062
808.891	8271
809.033	8313
809.174	8153
809.316	8153
809.458	8115
809.6	7978
809.741	8115
809.883	7989
810.025	8065
810.166	8069
810.308	8103
810.45	8081
810.591	7871
810.733	7746
810.875	7696
811.016	7506
811.158	7521
811.299	7681
811.441	7788
811.582	7693
811.724	7681
811.865	7628
812.007	7609
812.148	7628
812.29	7681
812.431	7792
812.573	7944
812.714	7921
812.855	8130
812.997	8294
813.138	8343
813.279	8218
813.421	8168
813.562	8065
813.703	7894
813.845	7807
813.986	7533
814.127	7369
814.268	7244
814.41	7251
814.551	7171
814.692	7236
814.833	7122
814.974	7149
815.115	7122
815.256	7015
815.397	6867
815.539	7008
815.68	6863
815.821	6802
815.962	6871
816.103	6920
816.244	6768
816.385	6665
816.526	6677
816.666	6502
816.807	6311
816.948	6448
817.089	6486
817.23	6486
817.371	6380
817.512	6426
817.653	6471
817.793	6369
817.934	6460
818.075	6509
818.216	6509
818.356	6426
818.497	6273
818.638	6121
818.778	6148
818.919	6178
819.06	6186
819.2	6247
819.341	6353
819.481	6384
819.622	6555
819.762	6726
819.903	6734
820.043	6582
820.184	6555
820.324	6570
820.465	6692
820.605	6650
820.746	6654
820.886	6551
821.026	6715
821.167	6681
821.307	6806
821.447	6844
821.588	6677
821.728	6612
821.868	6532
822.008	6319
822.149	6376
822.289	6388
822.429	6152
822.569	6125
822.709	6136
822.849	5882
822.99	5931
823.13	5935
823.27	5870
823.41	5805
823.55	5813
823.69	5775
823.83	5786
823.97	5684
824.11	5539
824.25	5554
824.389	5573
824.529	5539
824.669	5524
824.809	5680
824.949	5680
825.089	5638
825.228	5558
825.368	5360
825.508	5326
825.648	5395
825.787	5372
825.927	5406
826.067	5349
826.206	5315
826.346	5417
826.485	5421
826.625	5444
826.765	5554
826.904	5474
827.044	5250
827.183	5197
827.323	5155
827.462	5296
827.601	5239
827.741	5166
827.88	5201
828.02	5102
828.159	5250
828.298	5383
828.437	5334
828.577	5254
828.716	5524
828.855	5406
828.994	5201
829.134	5208
829.273	5185
829.412	5132
829.551	5159
829.69	5166
829.829	5254
829.968	5360
830.107	5277
830.246	5292
830.385	5223
830.524	5140
830.663	5147
830.802	5018
830.941	4919
831.08	4957
831.219	4984
831.357	4987
831.496	5181
831.635	4961
831.774	4889
831.913	4854
832.051	4736
832.19	4759
832.329	4828
832.467	4748
832.606	4607
832.744	4733
832.883	4774
833.022	4748
833.16	4812
833.299	4862
833.437	4831
833.576	4873
833.714	4854
833.852	4896
833.991	4881
834.129	4968
834.267	4980
834.406	4854
834.544	4976
834.682	5018
834.821	4953
834.959	5181
835.097	4987
835.235	5181
835.373	5090
835.511	5090
835.65	5094
835.788	5037
835.926	4896
836.064	4854
836.202	4866
836.34	5132
836.478	5197
836.615	5155
836.753	5242
836.891	5292
837.029	5280
837.167	5170
837.305	5151
837.443	5121
837.58	5060
837.718	5284
837.856	5178
837.993	5071
838.131	5261
838.269	5223
838.406	5189
838.544	5235
838.681	5067
838.819	5022
838.956	4900
839.094	4927
839.231	5014
839.369	5075
839.506	5414
839.643	5254
839.781	5128
839.918	5064
840.055	5003
840.193	5102
840.33	5083
840.467	5170
840.604	5185
840.742	5444
840.879	5086
841.016	5102
841.153	5178
841.29	5406
841.427	5341
841.564	5345
841.701	5402
841.838	5254
841.975	5250
842.112	5269
842.249	5121
842.385	5056
842.522	5372
842.659	5162
842.796	5201
842.933	5235
843.069	5166
843.206	5140
843.343	5330
843.479	5284
843.616	5254
843.752	5071
843.889	5041
844.025	5265
844.162	5041
844.298	5193
844.435	5140
844.571	5098
844.708	5242
844.844	5337
844.98	5341
845.117	5273
845.253	5204
845.389	5064
845.525	5174
845.661	5147
845.798	5048
845.934	5147
846.07	5143
846.206	5220
846.342	5307
846.478	5201
846.614	5033
846.75	4976
846.886	4953
847.022	5094
847.158	5045
847.294	5090
847.429	5117
847.565	5041
847.701	5330
847.837	4839
847.972	4850
848.108	4911
848.244	4923
848.379	4759
848.515	4744
848.65	4721
848.786	4782
848.921	4733
849.057	4839
849.192	4866
849.328	4782
849.463	4873
849.598	4839
849.734	4809
849.869	4717
850.004	4607
850.14	4653
850.275	4596
850.41	4561
850.545	4561
850.68	4637
850.815	4637
850.95	4622
851.085	4839
851.22	4752
851.355	4733
851.49	4649
851.625	4577
851.76	4664
851.895	4565
852.03	4493
852.165	4626
852.299	4725
852.434	4809
852.569	4771
852.703	4816
852.838	4850
852.973	4938
853.107	4915
853.242	4778
853.376	4656
853.511	4569
853.645	4626
853.78	4831
853.914	4721
854.048	4630
854.183	4649
854.317	4679
854.451	4862
854.585	4618
854.72	4626
854.854	4725
854.988	4634
855.122	4672
855.256	4489
855.39	4653
855.524	4805
855.658	4759
855.792	4721
855.926	4736
856.06	4763
856.194	4831
856.327	4721
856.461	4634
856.595	4615
856.729	4615
856.862	4771
856.996	4721
857.13	4740
857.263	4763
857.397	4812
857.53	4611
857.664	4767
857.797	4771
857.931	4801
858.064	4694
858.197	4824
858.331	4622
858.464	4607
858.597	4523
858.731	4660
858.864	4622
858.997	4653
859.13	4656
859.263	4687
859.396	4698
859.529	4588
859.662	4577
859.795	4519
859.928	4637
860.061	4786
860.194	4736
860.327	4615
860.46	4611
860.592	4744
860.725	4668
860.858	4744
860.99	4637
861.123	4512
861.256	4558
861.388	4615
861.521	5391
861.653	4466
861.786	4417
861.918	4504
862.05	4516
862.183	4580
862.315	4573
862.447	4626
862.58	4542
862.712	4409
862.844	4383
862.976	4466
863.108	4500
863.24	4767
863.372	4394
863.504	4428
863.636	4405
863.768	4512
863.9	4440
864.032	4363
864.164	4413
864.296	4466
864.428	4512
864.559	4523
864.691	4546
864.823	4523
864.954	4527
865.086	4558
865.217	4489
865.349	4379
865.48	4474
865.612	4516
865.743	4573
865.875	4474
866.006	4447
866.137	4504
866.269	4440
866.4	4481
866.531	4447
866.662	4432
866.793	4455
866.924	4390
867.055	4535
867.186	4443
867.317	4436
867.448	4352
867.579	4360
867.71	4413
867.841	4398
867.972	4424
868.103	4470
868.233	4466
868.364	4436
868.495	4481
868.625	4721
868.756	4771
868.886	4538
869.017	4672
869.147	4793
869.278	4710
869.408	4649
869.539	4702
869.669	4748
869.799	4721
869.929	4793
870.06	4778
870.19	4953
870.32	4892
870.45	4934
870.58	4999
870.71	5162
870.84	5132
870.97	4999
871.1	4923
871.23	5151
871.36	5124
871.489	5025
871.619	5056
871.749	5090
871.879	5109
872.008	5174
872.138	5052
872.267	5006
872.397	4824
872.526	4774
872.656	4736
872.785	4824
872.915	4930
873.044	5041
873.173	4900
873.303	4972
873.432	4915
873.561	4987
873.69	4915
873.819	4881
873.948	4927
874.077	4870
874.206	4717
874.335	4786
874.464	4919
874.593	5060
874.722	4953
874.851	5094
874.979	5109
875.108	5067
875.237	4984
875.365	4889
875.494	4915
875.623	4976
875.751	4812
875.88	4892
876.008	4953
876.136	5064
876.265	5162
876.393	5345
876.521	5265
876.65	5246
876.778	5113
876.906	5067
877.034	5060
877.162	5056
877.29	4976
877.418	5086
877.546	5033
877.674	5075
877.802	4995
877.93	4995
878.058	4904
878.185	4908
878.313	4972
878.441	4949
878.568	4755
878.696	4889
878.824	4946
878.951	4995
879.079	5166
879.206	5269
879.333	5117
879.461	5037
879.588	4984
879.715	5166
879.842	5258
879.97	5029
880.097	4771
880.224	4774
880.351	4793
880.478	4854
880.605	4797
880.732	4820
880.859	5033
880.986	4908
881.112	4900
881.239	4782
881.366	4733
881.493	4634
881.619	4607
881.746	4615
881.872	4630
881.999	4691
882.125	4679
882.252	4812
882.378	4873
882.505	4984
882.631	4828
882.757	4725
882.883	4736
883.01	4736
883.136	4691
883.262	4630
883.388	4656
883.514	4843
883.64	4896
883.766	4778
883.892	4710
884.018	4687
884.143	4870
884.269	4999
884.395	4744
884.52	4637
884.646	4637
884.772	4626
884.897	4531
885.023	4653
885.148	4786
885.274	4904
885.399	4809
885.524	4717
885.65	4710
885.775	4736
885.9	4702
886.025	4858
886.15	4778
886.275	4763
886.4	4653
886.525	4774
886.65	4710
886.775	4714
886.9	4915
887.025	5056
887.149	4778
887.274	4679
887.399	4550
887.523	4634
887.648	4584
887.773	4599
887.897	4748
888.021	4839
888.146	4706
888.27	4828
888.395	4919
888.519	4839
888.643	4843
888.767	4812
888.891	4664
889.015	4603
889.139	4637
889.263	4645
889.387	4767
889.511	4896
889.635	4809
889.759	4637
889.883	4653
890.006	4771
890.13	4847
890.254	4626
890.377	4668
890.501	4592
890.624	4523
890.748	4626
890.871	4573
890.995	4424
891.118	4348
891.241	4535
891.364	4497
891.488	4645
891.611	4512
891.734	4531
891.857	4603
891.98	4565
892.103	4675
892.226	4584
892.349	4577
892.471	4481
892.594	4546
892.717	4618
892.839	4577
892.962	4607
893.085	4660
893.207	4611
893.33	4470
893.452	4542
893.575	4675
893.697	4592
893.819	4820
893.941	4790
894.064	4778
894.186	4573
894.308	4538
894.43	4710
894.552	4835
894.674	4774
894.796	4554
894.918	4588
895.04	4584
895.161	4668
895.283	4649
895.405	4573
895.526	4641
895.648	4725
895.769	4675
895.891	4672
896.012	4714
896.134	4717
896.255	4691
896.376	4653
896.498	4641
896.619	4637
896.74	4622
896.861	4637
896.982	4961
897.103	5079
897.224	4866
897.345	4763
897.466	4672
897.587	4698
897.708	4870
897.828	4812
897.949	4641
898.07	4584
898.19	4641
898.311	4771
898.431	4668
898.552	4691
898.672	4839
898.792	4812
898.913	4778
899.033	4599
899.153	4542
899.273	4421
899.393	4470
899.513	4561
899.633	4546
899.753	4558
899.873	4497
899.993	4569
900.113	4550
900.232	4599
900.352	4535
900.472	4459
900.591	4440
900.711	4493
900.83	4462
900.95	4656
901.069	4721
901.189	4554
901.308	4348
901.427	4333
901.546	4379
901.665	4489
901.784	4546
901.904	4383
902.023	4322
902.141	4219
902.26	4188
902.379	4306
902.498	4238
902.617	4238
902.735	4417
902.854	4428
902.973	4363
903.091	4211
903.21	4200
903.328	4276
903.446	4268
903.565	4200
903.683	4325
903.801	4280
903.919	4344
904.038	4394
904.156	4314
904.274	4474
904.392	4386
904.51	4504
904.627	4466
904.745	4592
904.863	4660
904.981	4424
905.098	4333
905.216	4390
905.334	4398
905.451	4447
905.569	4440
905.686	4538
905.803	4596
905.921	4409
906.038	4569
906.155	4497
906.272	4394
906.389	4470
906.506	4344
906.623	4386
906.74	4379
906.857	4291
906.974	4398
907.091	4508
907.208	4694
907.324	4592
907.441	4497
907.557	4341
907.674	4394
907.79	4318
907.907	4451
908.023	4512
908.139	4485
908.256	4443
908.372	4489
908.488	4459
908.604	4356
908.72	4337
908.836	4383
908.952	4383
909.068	4413
909.184	4588
909.3	4531
909.415	4588
909.531	4622
909.647	4363
909.762	4383
909.878	4318
909.993	4409
910.108	4455
910.224	4383
910.339	4512
910.454	4421
910.57	4371
910.685	4356
910.8	4683
910.915	4554
911.03	4443
911.145	4337
911.259	4356
911.374	4390
911.489	4299
911.604	4299
911.718	4192
911.833	4246
911.947	4093
912.062	4044
912.176	4200
912.291	4265
912.405	4219
912.519	4478
912.633	4481
912.748	4356
912.862	4284
912.976	4181
913.09	4090
913.204	4188
913.318	4253
913.431	4428
913.545	4386
913.659	4398
913.772	4337
913.886	4257
914	4238
914.113	4383
914.226	4462
914.34	4348
914.453	4249
914.566	4440
914.68	4322
914.793	4295
914.906	4173
915.019	4154
915.132	4131
915.245	4192
915.358	4196
915.47	4227
915.583	4295
915.696	4318
915.809	4455
915.921	4436
916.034	4253
916.146	4284
916.259	4211
916.371	4356
916.483	4325
916.595	4280
916.708	4344
916.82	4344
916.932	4291
917.044	4333
917.156	4363
917.268	4261
917.38	4303
917.491	4318
917.603	4287
917.715	4428
917.826	4417
917.938	4356
918.049	4234
918.161	4394
918.272	4470
918.384	4519
918.495	4394
918.606	4280
918.717	4227
918.828	4329
918.939	4405
919.05	4261
919.161	4341
919.272	4135
919.383	4215
919.494	4443
919.604	4634
919.715	4413
919.826	4329
919.936	4405
920.047	4558
920.157	4478
920.267	4687
920.378	4538
920.488	4497
920.598	4683
920.708	4877
920.818	4752
920.928	4717
921.038	5014
921.148	4908
921.258	4630
921.368	4588
921.477	4500
921.587	4459
921.697	4348
921.806	4500
921.916	4413
922.025	4272
922.134	4276
922.244	4265
922.353	4341
922.462	4200
922.571	4177
922.68	4055
922.789	3956
922.898	4010
923.007	4040
923.116	4128
923.224	4055
923.333	4059
923.442	4032
923.55	3991
923.659	4006
923.767	4101
923.876	4048
923.984	4078
924.092	4025
924.201	4048
924.309	4124
924.417	4112
924.525	4055
924.633	4090
924.741	4896
924.849	3903
924.956	4162
925.064	3983
925.172	3896
925.279	3983
925.387	4051
925.494	4109
925.602	4211
925.709	4181
925.816	4048
925.924	4131
926.031	4242
926.138	4181
926.245	4181
926.352	4067
926.459	4249
926.566	4291
926.673	4124
926.779	4055
926.886	4109
926.993	4029
927.099	3960
927.206	3941
927.312	3941
927.419	4055
927.525	4044
927.631	4112
927.737	3987
927.843	3930
927.95	3831
928.056	3915
928.162	4010
928.267	4063
928.373	4714
928.479	4173
928.585	3850
928.69	4032
928.796	4090
928.901	3994
929.007	3846
929.112	3983
929.218	3964
929.323	3968
929.428	3949
929.533	4128
929.638	3937
929.743	3972
929.848	4010
929.953	4055
930.058	3960
930.163	3793
930.267	3854
930.372	3949
930.477	3800
930.581	4093
930.685	3911
930.79	3804
930.894	3876
930.998	3850
931.103	4006
931.207	3713
931.311	3701
931.415	3671
931.519	3542
931.623	3564
