Data from test_V78500241_1427.txt Node
Date: Fri Mar 25 16:58:55 CST 2022
User: usil
Spectrometer: V785-0024
Trigger mode: 0
Integration Time (sec): 4.000000E-1
Scans to average: 1
Nonlinearity correction enabled: false
Boxcar width: 0
Storing dark spectrum: false
XAxis mode: Wavelengths
Number of Pixels in Spectrum: 1024
>>>>>Begin Spectral Data<<<<<
801.071	7967
801.214	7963
801.356	7898
801.499	7837
801.641	7761
801.783	7860
801.926	7928
802.068	7967
802.211	8005
802.353	7997
802.496	7890
802.638	7871
802.78	7883
802.923	7936
803.065	7944
803.208	7814
803.35	7978
803.492	8119
803.635	8153
803.777	7989
803.919	8176
804.061	8492
804.204	8153
804.346	8001
804.488	7978
804.63	8119
804.773	7959
804.915	8164
805.057	8271
805.199	8221
805.341	8237
805.483	8221
805.626	8233
805.768	8103
805.91	8161
806.052	8164
806.194	8081
806.336	8240
806.478	8111
806.62	8058
806.762	8073
806.904	8282
807.046	8408
807.188	8336
807.33	8233
807.472	8305
807.614	8195
807.756	8142
807.898	7993
808.04	7921
808.182	7890
808.324	7830
808.465	7936
808.607	8145
808.749	8115
808.891	8084
809.033	8237
809.174	8176
809.316	8043
809.458	8043
809.6	7978
809.741	8008
809.883	8073
810.025	8107
810.166	8050
810.308	8031
810.45	8016
810.591	7833
810.733	7685
810.875	7597
811.016	7578
811.158	7438
811.299	7594
811.441	7746
811.582	7750
811.724	7616
811.865	7529
812.007	7548
812.148	7662
812.29	7655
812.431	7704
812.573	7849
812.714	7967
812.855	8103
812.997	8176
813.138	8271
813.279	8191
813.421	8092
813.562	8046
813.703	7837
813.845	7674
813.986	7415
814.127	7259
814.268	7244
814.41	7145
814.551	7145
814.692	7190
814.833	7050
814.974	7099
815.115	7042
815.256	6981
815.397	6939
815.539	6905
815.68	6821
815.821	6772
815.962	6787
816.103	6814
816.244	6711
816.385	6604
816.526	6620
816.666	6471
816.807	6289
816.948	6422
817.089	6483
817.23	6471
817.371	6365
817.512	6365
817.653	6357
817.793	6357
817.934	6380
818.075	6441
818.216	6452
818.356	6384
818.497	6235
818.638	6114
818.778	6087
818.919	6121
819.06	6144
819.2	6296
819.341	6289
819.481	6342
819.622	6555
819.762	6760
819.903	6688
820.043	6585
820.184	6509
820.324	6540
820.465	6646
820.605	6650
820.746	6593
820.886	6479
821.026	6631
821.167	6719
821.307	6791
821.447	6730
821.588	6711
821.728	6532
821.868	6483
822.008	6319
822.149	6327
822.289	6361
822.429	6136
822.569	6083
822.709	6117
822.849	5927
822.99	5901
823.13	5935
823.27	5878
823.41	5805
823.55	5840
823.69	5745
823.83	5779
823.97	5649
824.11	5558
824.25	5493
824.389	5524
824.529	5539
824.669	5493
824.809	5630
824.949	5676
825.089	5589
825.228	5505
825.368	5402
825.508	5364
825.648	5307
825.787	5372
825.927	5376
826.067	5318
826.206	5311
826.346	5326
826.485	5417
826.625	5368
826.765	5528
826.904	5501
827.044	5216
827.183	5193
827.323	5090
827.462	5193
827.601	5216
827.741	5155
827.88	5201
828.02	5121
828.159	5239
828.298	5318
828.437	5368
828.577	5273
828.716	5482
828.855	5280
828.994	5162
829.134	5109
829.273	5136
829.412	5124
829.551	5094
829.69	5185
829.829	5227
829.968	5368
830.107	5284
830.246	5250
830.385	5174
830.524	5048
830.663	4999
830.802	5037
830.941	4835
831.08	4919
831.219	4995
831.357	4942
831.496	5155
831.635	4938
831.774	4892
831.913	4839
832.051	4702
832.19	4710
832.329	4881
832.467	4679
832.606	4675
832.744	4725
832.883	4729
833.022	4687
833.16	4828
833.299	4839
833.437	4797
833.576	4816
833.714	4858
833.852	4873
833.991	4866
834.129	4976
834.267	4919
834.406	4881
834.544	4972
834.682	4919
834.821	4953
834.959	5136
835.097	4968
835.235	5136
835.373	5014
835.511	5067
835.65	4999
835.788	5029
835.926	4904
836.064	4870
836.202	4934
836.34	5124
836.478	5216
836.615	5151
836.753	5170
836.891	5258
837.029	5246
837.167	5166
837.305	5124
837.443	5178
837.58	5086
837.718	5250
837.856	5098
837.993	5098
838.131	5231
838.269	5159
838.406	5136
838.544	5231
838.681	5056
838.819	4999
838.956	4885
839.094	4892
839.231	4976
839.369	5048
839.506	5433
839.643	5288
839.781	5067
839.918	5003
840.055	5075
840.193	5098
840.33	5113
840.467	5086
840.604	5201
840.742	5463
840.879	5079
841.016	5048
841.153	5155
841.29	5349
841.427	5315
841.564	5357
841.701	5326
841.838	5250
841.975	5212
842.112	5292
842.249	5151
842.385	5071
842.522	5277
842.659	5162
842.796	5178
842.933	5170
843.069	5140
843.206	5170
843.343	5254
843.479	5166
843.616	5261
843.752	4972
843.889	4980
844.025	5185
844.162	4999
844.298	5193
844.435	5075
844.571	5105
844.708	5201
844.844	5322
844.98	5318
845.117	5292
845.253	5117
845.389	5071
845.525	5136
845.661	5098
845.798	5003
845.934	5124
846.07	5025
846.206	5140
846.342	5280
846.478	5162
846.614	5056
846.75	4934
846.886	4889
847.022	5166
847.158	5014
847.294	5086
847.429	5124
847.565	5048
847.701	5296
847.837	4889
847.972	4771
848.108	4957
848.244	4934
848.379	4767
848.515	4721
848.65	4721
848.786	4748
848.921	4771
849.057	4885
849.192	4854
849.328	4767
849.463	4816
849.598	4767
849.734	4767
849.869	4694
850.004	4649
850.14	4672
850.275	4592
850.41	4538
850.545	4535
850.68	4653
850.815	4542
850.95	4584
851.085	4850
851.22	4725
851.355	4710
851.49	4622
851.625	4645
851.76	4607
851.895	4592
852.03	4512
852.165	4649
852.299	4702
852.434	4782
852.569	4683
852.703	4790
852.838	4812
852.973	4862
853.107	4889
853.242	4729
853.376	4630
853.511	4561
853.645	4588
853.78	4793
853.914	4660
854.048	4668
854.183	4634
854.317	4702
854.451	4782
854.585	4664
854.72	4615
854.854	4755
854.988	4569
855.122	4592
855.256	4500
855.39	4588
855.524	4740
855.658	4691
855.792	4679
855.926	4710
856.06	4740
856.194	4778
856.327	4675
856.461	4565
856.595	4641
856.729	4618
856.862	4748
856.996	4710
857.13	4714
857.263	4759
857.397	4809
857.53	4607
857.664	4710
857.797	4759
857.931	4793
858.064	4691
858.197	4736
858.331	4645
858.464	4615
858.597	4440
858.731	4645
858.864	4607
858.997	4615
859.13	4615
859.263	4698
859.396	4679
859.529	4558
859.662	4523
859.795	4519
859.928	4611
860.061	4759
860.194	4782
860.327	4584
860.46	4531
860.592	4710
860.725	4691
860.858	4706
860.99	4599
861.123	4462
861.256	4558
861.388	4615
861.521	5425
861.653	4470
861.786	4481
861.918	4481
862.05	4542
862.183	4519
862.315	4550
862.447	4637
862.58	4500
862.712	4394
862.844	4348
862.976	4443
863.108	4436
863.24	4847
863.372	4337
863.504	4447
863.636	4417
863.768	4424
863.9	4417
864.032	4379
864.164	4421
864.296	4493
864.428	4569
864.559	4550
864.691	4535
864.823	4508
864.954	4481
865.086	4508
865.217	4428
865.349	4413
865.48	4485
865.612	4504
865.743	4660
865.875	4447
866.006	4394
866.137	4459
866.269	4428
866.4	4421
866.531	4379
866.662	4405
866.793	4394
866.924	4421
867.055	4485
867.186	4424
867.317	4379
867.448	4360
867.579	4375
867.71	4363
867.841	4333
867.972	4451
868.103	4447
868.233	4481
868.364	4398
868.495	4436
868.625	4660
868.756	4763
868.886	4569
869.017	4618
869.147	4736
869.278	4714
869.408	4611
869.539	4615
869.669	4717
869.799	4660
869.929	4691
870.06	4736
870.19	4911
870.32	4904
870.45	4934
870.58	4984
870.71	5083
870.84	5102
870.97	4968
871.1	4843
871.23	5121
871.36	5090
871.489	4987
871.619	5067
871.749	5143
871.879	5098
872.008	5220
872.138	5052
872.267	5025
872.397	4831
872.526	4790
872.656	4763
872.785	4774
872.915	4934
873.044	5018
873.173	4942
873.303	4934
873.432	4995
873.561	4904
873.69	4911
873.819	4858
873.948	4889
874.077	4847
874.206	4717
874.335	4759
874.464	4854
874.593	5067
874.722	4919
874.851	5083
874.979	5022
875.108	5033
875.237	4908
875.365	4797
875.494	4900
875.623	5010
875.751	4839
875.88	4858
876.008	5010
876.136	4987
876.265	5140
876.393	5345
876.521	5284
876.65	5197
876.778	5143
876.906	5079
877.034	4991
877.162	5029
877.29	5006
877.418	5014
877.546	5067
877.674	5010
877.802	5010
877.93	5006
878.058	4904
878.185	4854
878.313	4972
878.441	4968
878.568	4824
878.696	4824
878.824	4991
878.951	4949
879.079	5109
879.206	5288
879.333	5083
879.461	4987
879.588	5006
879.715	5071
879.842	5208
879.97	4991
880.097	4774
880.224	4767
880.351	4816
880.478	4767
880.605	4793
880.732	4778
880.859	5029
880.986	4892
881.112	4930
881.239	4675
881.366	4664
881.493	4649
881.619	4531
881.746	4630
881.872	4656
881.999	4687
882.125	4691
882.252	4793
882.378	4816
882.505	4934
882.631	4809
882.757	4645
882.883	4733
883.01	4691
883.136	4691
883.262	4580
883.388	4615
883.514	4831
883.64	4809
883.766	4797
883.892	4672
884.018	4702
884.143	4911
884.269	4961
884.395	4668
884.52	4618
884.646	4622
884.772	4538
884.897	4538
885.023	4668
885.148	4752
885.274	4816
885.399	4797
885.524	4702
885.65	4672
885.775	4752
885.9	4691
886.025	4843
886.15	4763
886.275	4698
886.4	4649
886.525	4717
886.65	4694
886.775	4767
886.9	4908
887.025	5018
887.149	4752
887.274	4641
887.399	4558
887.523	4634
887.648	4580
887.773	4558
887.897	4793
888.021	4759
888.146	4641
888.27	4835
888.395	4866
888.519	4801
888.643	4820
888.767	4790
888.891	4710
889.015	4637
889.139	4599
889.263	4584
889.387	4744
889.511	4873
889.635	4816
889.759	4641
889.883	4592
890.006	4702
890.13	4812
890.254	4592
890.377	4660
890.501	4519
890.624	4481
890.748	4641
890.871	4493
890.995	4455
891.118	4394
891.241	4531
891.364	4596
891.488	4660
891.611	4527
891.734	4527
891.857	4630
891.98	4516
892.103	4645
892.226	4561
892.349	4550
892.471	4440
892.594	4512
892.717	4607
892.839	4565
892.962	4538
893.085	4622
893.207	4573
893.33	4466
893.452	4512
893.575	4637
893.697	4565
893.819	4736
893.941	4805
894.064	4755
894.186	4603
894.308	4573
894.43	4710
894.552	4790
894.674	4733
894.796	4535
894.918	4588
895.04	4588
895.161	4675
895.283	4641
895.405	4596
895.526	4626
895.648	4653
895.769	4687
895.891	4702
896.012	4748
896.134	4706
896.255	4694
896.376	4622
896.498	4603
896.619	4637
896.74	4626
896.861	4622
896.982	4877
897.103	5098
897.224	4805
897.345	4744
897.466	4656
897.587	4740
897.708	4843
897.828	4778
897.949	4694
898.07	4565
898.19	4603
898.311	4797
898.431	4649
898.552	4729
898.672	4752
898.792	4763
898.913	4782
899.033	4618
899.153	4493
899.273	4440
899.393	4485
899.513	4512
899.633	4500
899.753	4542
899.873	4504
899.993	4596
900.113	4542
900.232	4592
900.352	4569
900.472	4459
900.591	4443
900.711	4443
900.83	4405
900.95	4611
901.069	4672
901.189	4542
901.308	4375
901.427	4291
901.546	4322
901.665	4519
901.784	4508
901.904	4386
902.023	4333
902.141	4192
902.26	4162
902.379	4257
902.498	4192
902.617	4162
902.735	4356
902.854	4402
902.973	4306
903.091	4173
903.21	4227
903.328	4253
903.446	4246
903.565	4249
903.683	4318
903.801	4287
903.919	4405
904.038	4428
904.156	4310
904.274	4447
904.392	4402
904.51	4466
904.627	4451
904.745	4588
904.863	4641
904.981	4383
905.098	4276
905.216	4356
905.334	4428
905.451	4432
905.569	4428
905.686	4538
905.803	4527
905.921	4405
906.038	4531
906.155	4462
906.272	4424
906.389	4443
906.506	4344
906.623	4337
906.74	4337
906.857	4329
906.974	4341
907.091	4577
907.208	4675
907.324	4588
907.441	4497
907.557	4341
907.674	4322
907.79	4337
907.907	4325
908.023	4447
908.139	4485
908.256	4432
908.372	4459
908.488	4436
908.604	4356
908.72	4341
908.836	4394
908.952	4344
909.068	4428
909.184	4577
909.3	4440
909.415	4573
909.531	4561
909.647	4303
909.762	4344
909.878	4337
909.993	4440
910.108	4402
910.224	4421
910.339	4523
910.454	4394
910.57	4394
910.685	4314
910.8	4649
910.915	4577
911.03	4500
911.145	4303
911.259	4325
911.374	4314
911.489	4310
911.604	4200
911.718	4158
911.833	4196
911.947	4067
912.062	4055
912.176	4204
912.291	4219
912.405	4249
912.519	4462
912.633	4512
912.748	4375
912.862	4318
912.976	4207
913.09	4112
913.204	4211
913.318	4272
913.431	4348
913.545	4363
913.659	4462
913.772	4363
913.886	4268
914	4249
914.113	4367
914.226	4421
914.34	4337
914.453	4246
914.566	4413
914.68	4325
914.793	4318
914.906	4188
915.019	4124
915.132	4071
915.245	4181
915.358	4230
915.47	4227
915.583	4230
915.696	4318
915.809	4417
915.921	4417
916.034	4207
916.146	4257
916.259	4234
916.371	4360
916.483	4329
916.595	4234
916.708	4280
916.82	4337
916.932	4318
917.044	4360
917.156	4337
917.268	4227
917.38	4287
917.491	4230
917.603	4386
917.715	4413
917.826	4402
917.938	4360
918.049	4238
918.161	4371
918.272	4497
918.384	4489
918.495	4466
918.606	4360
918.717	4238
918.828	4310
918.939	4383
919.05	4227
919.161	4303
919.272	4109
919.383	4230
919.494	4474
919.604	4656
919.715	4443
919.826	4314
919.936	4394
920.047	4516
920.157	4481
920.267	4675
920.378	4516
920.488	4474
920.598	4729
920.708	4904
920.818	4717
920.928	4797
921.038	4930
921.148	4949
921.258	4615
921.368	4592
921.477	4481
921.587	4428
921.697	4409
921.806	4523
921.916	4424
922.025	4249
922.134	4284
922.244	4207
922.353	4322
922.462	4169
922.571	4154
922.68	3987
922.789	3934
922.898	4021
923.007	3975
923.116	4116
923.224	4051
923.333	4071
923.442	3930
923.55	3945
923.659	4029
923.767	4082
923.876	4025
923.984	4143
924.092	3960
924.201	4105
924.309	4101
924.417	4124
924.525	4067
924.633	4097
924.741	5067
924.849	3934
924.956	4131
925.064	3918
925.172	3918
925.279	3953
925.387	4025
925.494	4013
925.602	4188
925.709	4219
925.816	4025
925.924	4128
926.031	4223
926.138	4173
926.245	4162
926.352	4055
926.459	4200
926.566	4291
926.673	4128
926.779	4040
926.886	4090
926.993	3987
927.099	3953
927.206	3983
927.312	3926
927.419	4025
927.525	4002
927.631	4067
927.737	4006
927.843	3930
927.95	3831
928.056	3918
928.162	3956
928.267	4059
928.373	4577
928.479	4124
928.585	3850
928.69	4006
928.796	4112
928.901	3972
929.007	3861
929.112	4002
929.218	3937
929.323	3937
929.428	3949
929.533	4074
929.638	3869
929.743	3934
929.848	4025
929.953	3937
930.058	3915
930.163	3789
930.267	3781
930.372	3983
930.477	3823
930.581	4051
930.685	3930
930.79	3781
930.894	3873
930.998	3869
931.103	4017
931.207	3717
931.311	3667
931.415	3671
931.519	3519
931.623	3557
