Data from test_V78500241_1542.txt Node
Date: Fri Mar 25 16:59:43 CST 2022
User: usil
Spectrometer: V785-0024
Trigger mode: 0
Integration Time (sec): 4.000000E-1
Scans to average: 1
Nonlinearity correction enabled: false
Boxcar width: 0
Storing dark spectrum: false
XAxis mode: Wavelengths
Number of Pixels in Spectrum: 1024
>>>>>Begin Spectral Data<<<<<
801.071	7989
801.214	8012
801.356	7894
801.499	7871
801.641	7792
801.783	7841
801.926	8058
802.068	7925
802.211	7951
802.353	8077
802.496	7875
802.638	7822
802.78	8001
802.923	7944
803.065	7925
803.208	7868
803.35	7951
803.492	8138
803.635	8138
803.777	8016
803.919	8172
804.061	8412
804.204	8221
804.346	8115
804.488	7989
804.63	8145
804.773	8111
804.915	8119
805.057	8248
805.199	8263
805.341	8248
805.483	8328
805.626	8191
805.768	8153
805.91	8275
806.052	8252
806.194	8107
806.336	8347
806.478	8031
806.62	8054
806.762	8206
806.904	8317
807.046	8571
807.188	8385
807.33	8279
807.472	8385
807.614	8195
807.756	8233
807.898	8119
808.04	7944
808.182	8012
808.324	7940
808.465	7906
808.607	8103
808.749	8088
808.891	8157
809.033	8320
809.174	8202
809.316	8016
809.458	8043
809.6	7978
809.741	8111
809.883	8027
810.025	8103
810.166	8096
810.308	8073
810.45	7997
810.591	7849
810.733	7776
810.875	7655
811.016	7499
811.158	7499
811.299	7567
811.441	7761
811.582	7643
811.724	7632
811.865	7578
812.007	7590
812.148	7590
812.29	7700
812.431	7792
812.573	7887
812.714	7955
812.855	8145
812.997	8168
813.138	8271
813.279	8187
813.421	8092
813.562	8012
813.703	7860
813.845	7715
813.986	7472
814.127	7247
814.268	7274
814.41	7225
814.551	7217
814.692	7247
814.833	7080
814.974	7118
815.115	7137
815.256	7012
815.397	6928
815.539	7012
815.68	6840
815.821	6810
815.962	6878
816.103	6844
816.244	6669
816.385	6620
816.526	6597
816.666	6555
816.807	6315
816.948	6483
817.089	6555
817.23	6422
817.371	6433
817.512	6445
817.653	6414
817.793	6353
817.934	6422
818.075	6486
818.216	6483
818.356	6429
818.497	6266
818.638	6175
818.778	6175
818.919	6182
819.06	6121
819.2	6342
819.341	6338
819.481	6399
819.622	6563
819.762	6760
819.903	6749
820.043	6677
820.184	6623
820.324	6578
820.465	6688
820.605	6738
820.746	6658
820.886	6433
821.026	6688
821.167	6631
821.307	6783
821.447	6772
821.588	6726
821.728	6623
821.868	6467
822.008	6323
822.149	6395
822.289	6407
822.429	6190
822.569	6102
822.709	6159
822.849	5916
822.99	5916
823.13	5897
823.27	5942
823.41	5836
823.55	5786
823.69	5775
823.83	5805
823.97	5691
824.11	5547
824.25	5528
824.389	5562
824.529	5623
824.669	5543
824.809	5619
824.949	5688
825.089	5600
825.228	5592
825.368	5410
825.508	5334
825.648	5448
825.787	5421
825.927	5376
826.067	5337
826.206	5353
826.346	5414
826.485	5448
826.625	5425
826.765	5573
826.904	5490
827.044	5307
827.183	5185
827.323	5124
827.462	5280
827.601	5143
827.741	5189
827.88	5239
828.02	5132
828.159	5242
828.298	5303
828.437	5395
828.577	5318
828.716	5471
828.855	5398
828.994	5193
829.134	5140
829.273	5220
829.412	5185
829.551	5124
829.69	5204
829.829	5258
829.968	5376
830.107	5277
830.246	5292
830.385	5166
830.524	5174
830.663	5086
830.802	5003
830.941	4885
831.08	4885
831.219	4972
831.357	5037
831.496	5189
831.635	4923
831.774	4900
831.913	4892
832.051	4778
832.19	4793
832.329	4858
832.467	4691
832.606	4603
832.744	4740
832.883	4736
833.022	4714
833.16	4797
833.299	4873
833.437	4820
833.576	4858
833.714	4904
833.852	4843
833.991	4873
834.129	4923
834.267	4995
834.406	4904
834.544	4942
834.682	5010
834.821	4995
834.959	5216
835.097	5056
835.235	5147
835.373	5060
835.511	5170
835.65	5048
835.788	5033
835.926	4896
836.064	4927
836.202	4987
836.34	5216
836.478	5208
836.615	5132
836.753	5155
836.891	5261
837.029	5280
837.167	5204
837.305	5162
837.443	5128
837.58	5102
837.718	5280
837.856	5204
837.993	5113
838.131	5246
838.269	5227
838.406	5242
838.544	5239
838.681	5075
838.819	5022
838.956	4915
839.094	4953
839.231	5018
839.369	5155
839.506	5410
839.643	5280
839.781	5083
839.918	5014
840.055	5102
840.193	5121
840.33	5136
840.467	5151
840.604	5159
840.742	5474
840.879	5124
841.016	5117
841.153	5166
841.29	5448
841.427	5398
841.564	5337
841.701	5326
841.838	5315
841.975	5216
842.112	5292
842.249	5140
842.385	5132
842.522	5379
842.659	5193
842.796	5155
842.933	5231
843.069	5132
843.206	5204
843.343	5326
843.479	5220
843.616	5261
843.752	5037
843.889	5045
844.025	5197
844.162	5037
844.298	5178
844.435	5113
844.571	5010
844.708	5204
844.844	5277
844.98	5322
845.117	5284
845.253	5159
845.389	5128
845.525	5143
845.661	5117
845.798	5033
845.934	5132
846.07	5010
846.206	5235
846.342	5303
846.478	5193
846.614	5052
846.75	5006
846.886	4968
847.022	5140
847.158	5064
847.294	5064
847.429	5147
847.565	5056
847.701	5326
847.837	4870
847.972	4790
848.108	4953
848.244	4904
848.379	4812
848.515	4774
848.65	4771
848.786	4774
848.921	4786
849.057	4885
849.192	4873
849.328	4816
849.463	4866
849.598	4755
849.734	4694
849.869	4691
850.004	4626
850.14	4664
850.275	4618
850.41	4527
850.545	4577
850.68	4596
850.815	4637
850.95	4645
851.085	4835
851.22	4774
851.355	4634
851.49	4622
851.625	4649
851.76	4687
851.895	4584
852.03	4538
852.165	4683
852.299	4668
852.434	4778
852.569	4805
852.703	4721
852.838	4835
852.973	4911
853.107	4953
853.242	4748
853.376	4649
853.511	4561
853.645	4603
853.78	4752
853.914	4634
854.048	4725
854.183	4668
854.317	4675
854.451	4812
854.585	4706
854.72	4691
854.854	4797
854.988	4626
855.122	4641
855.256	4493
855.39	4653
855.524	4812
855.658	4710
855.792	4714
855.926	4706
856.06	4790
856.194	4774
856.327	4721
856.461	4611
856.595	4603
856.729	4626
856.862	4710
856.996	4721
857.13	4710
857.263	4714
857.397	4850
857.53	4668
857.664	4767
857.797	4763
857.931	4824
858.064	4740
858.197	4759
858.331	4656
858.464	4634
858.597	4535
858.731	4611
858.864	4626
858.997	4622
859.13	4641
859.263	4645
859.396	4714
859.529	4607
859.662	4554
859.795	4538
859.928	4596
860.061	4755
860.194	4782
860.327	4637
860.46	4565
860.592	4717
860.725	4755
860.858	4714
860.99	4603
861.123	4489
861.256	4516
861.388	4622
861.521	5326
861.653	4478
861.786	4504
861.918	4474
862.05	4573
862.183	4531
862.315	4596
862.447	4630
862.58	4580
862.712	4383
862.844	4303
862.976	4500
863.108	4478
863.24	4752
863.372	4333
863.504	4405
863.636	4459
863.768	4512
863.9	4432
864.032	4383
864.164	4402
864.296	4440
864.428	4519
864.559	4588
864.691	4550
864.823	4565
864.954	4531
865.086	4527
865.217	4485
865.349	4398
865.48	4470
865.612	4523
865.743	4641
865.875	4485
866.006	4428
866.137	4485
866.269	4466
866.4	4436
866.531	4470
866.662	4432
866.793	4383
866.924	4424
867.055	4516
867.186	4493
867.317	4428
867.448	4398
867.579	4405
867.71	4409
867.841	4325
867.972	4417
868.103	4447
868.233	4443
868.364	4462
868.495	4504
868.625	4694
868.756	4771
868.886	4599
869.017	4656
869.147	4786
869.278	4797
869.408	4668
869.539	4630
869.669	4763
869.799	4683
869.929	4755
870.06	4744
870.19	4927
870.32	4900
870.45	4968
870.58	5029
870.71	5064
870.84	5064
870.97	4923
871.1	4866
871.23	5109
871.36	5151
871.489	5003
871.619	5029
871.749	5102
871.879	5102
872.008	5197
872.138	5094
872.267	4995
872.397	4839
872.526	4824
872.656	4744
872.785	4843
872.915	4957
873.044	5010
873.173	4968
873.303	4968
873.432	4965
873.561	4961
873.69	4839
873.819	4847
873.948	4938
874.077	4793
874.206	4759
874.335	4755
874.464	4968
874.593	5060
874.722	4968
874.851	5162
874.979	5132
875.108	5018
875.237	4904
875.365	4870
875.494	4881
875.623	5010
875.751	4824
875.88	4911
876.008	4980
876.136	5010
876.265	5193
876.393	5368
876.521	5265
876.65	5258
876.778	5140
876.906	5117
877.034	5006
877.162	5006
877.29	4999
877.418	5048
877.546	5041
877.674	5041
877.802	4987
877.93	5018
878.058	4949
878.185	4908
878.313	4934
878.441	4923
878.568	4839
878.696	4816
878.824	4995
878.951	4991
879.079	5083
879.206	5311
879.333	5117
879.461	4991
879.588	4991
879.715	5067
879.842	5193
879.97	4976
880.097	4820
880.224	4755
880.351	4828
880.478	4797
880.605	4797
880.732	4782
880.859	5128
880.986	4896
881.112	4923
881.239	4774
881.366	4694
881.493	4622
881.619	4569
881.746	4706
881.872	4645
881.999	4622
882.125	4664
882.252	4809
882.378	4801
882.505	4953
882.631	4801
882.757	4683
882.883	4755
883.01	4733
883.136	4664
883.262	4561
883.388	4626
883.514	4805
883.64	4839
883.766	4755
883.892	4630
884.018	4729
884.143	4889
884.269	5010
884.395	4702
884.52	4603
884.646	4664
884.772	4611
884.897	4527
885.023	4637
885.148	4824
885.274	4862
885.399	4774
885.524	4725
885.65	4698
885.775	4725
885.9	4729
886.025	4850
886.15	4774
886.275	4717
886.4	4660
886.525	4740
886.65	4687
886.775	4672
886.9	4839
887.025	5037
887.149	4801
887.274	4653
887.399	4596
887.523	4630
887.648	4550
887.773	4607
887.897	4801
888.021	4801
888.146	4679
888.27	4774
888.395	4892
888.519	4839
888.643	4828
888.767	4812
888.891	4698
889.015	4622
889.139	4649
889.263	4611
889.387	4786
889.511	4862
889.635	4782
889.759	4618
889.883	4649
890.006	4740
890.13	4839
890.254	4622
890.377	4717
890.501	4592
890.624	4554
890.748	4641
890.871	4565
890.995	4409
891.118	4405
891.241	4550
891.364	4554
891.488	4660
891.611	4508
891.734	4584
891.857	4584
891.98	4561
892.103	4675
892.226	4546
892.349	4516
892.471	4417
892.594	4535
892.717	4626
892.839	4550
892.962	4577
893.085	4675
893.207	4622
893.33	4500
893.452	4489
893.575	4687
893.697	4584
893.819	4782
893.941	4763
894.064	4797
894.186	4580
894.308	4535
894.43	4702
894.552	4793
894.674	4748
894.796	4569
894.918	4637
895.04	4538
895.161	4668
895.283	4634
895.405	4573
895.526	4634
895.648	4687
895.769	4603
895.891	4668
896.012	4748
896.134	4706
896.255	4672
896.376	4675
896.498	4637
896.619	4626
896.74	4580
896.861	4630
896.982	4862
897.103	5045
897.224	4847
897.345	4771
897.466	4649
897.587	4672
897.708	4862
897.828	4755
897.949	4645
898.07	4580
898.19	4603
898.311	4850
898.431	4664
898.552	4733
898.672	4843
898.792	4805
898.913	4717
899.033	4615
899.153	4519
899.273	4413
899.393	4512
899.513	4500
899.633	4508
899.753	4531
899.873	4561
899.993	4561
900.113	4504
900.232	4588
900.352	4493
900.472	4451
900.591	4390
900.711	4527
900.83	4383
900.95	4630
901.069	4687
901.189	4538
901.308	4348
901.427	4310
901.546	4390
901.665	4493
901.784	4516
901.904	4379
902.023	4291
902.141	4219
902.26	4173
902.379	4329
902.498	4230
902.617	4234
902.735	4303
902.854	4348
902.973	4325
903.091	4223
903.21	4265
903.328	4265
903.446	4246
903.565	4219
903.683	4360
903.801	4249
903.919	4379
904.038	4447
904.156	4299
904.274	4413
904.392	4386
904.51	4470
904.627	4474
904.745	4622
904.863	4622
904.981	4383
905.098	4257
905.216	4356
905.334	4405
905.451	4447
905.569	4421
905.686	4565
905.803	4561
905.921	4413
906.038	4569
906.155	4481
906.272	4417
906.389	4440
906.506	4325
906.623	4375
906.74	4348
906.857	4287
906.974	4402
907.091	4497
907.208	4672
907.324	4561
907.441	4504
907.557	4306
907.674	4333
907.79	4322
907.907	4375
908.023	4470
908.139	4443
908.256	4405
908.372	4481
908.488	4428
908.604	4318
908.72	4291
908.836	4383
908.952	4325
909.068	4428
909.184	4546
909.3	4466
909.415	4599
909.531	4535
909.647	4409
909.762	4386
909.878	4375
909.993	4432
910.108	4337
910.224	4402
910.339	4470
910.454	4348
910.57	4371
910.685	4295
910.8	4668
910.915	4577
911.03	4478
911.145	4306
911.259	4344
911.374	4375
911.489	4314
911.604	4261
911.718	4204
911.833	4207
911.947	4086
912.062	4040
912.176	4169
912.291	4242
912.405	4261
912.519	4447
912.633	4500
912.748	4386
912.862	4341
912.976	4181
913.09	4109
913.204	4192
913.318	4246
913.431	4398
913.545	4344
913.659	4428
913.772	4337
913.886	4211
914	4223
914.113	4314
914.226	4417
914.34	4417
914.453	4169
914.566	4398
914.68	4261
914.793	4314
914.906	4112
915.019	4128
915.132	4063
915.245	4128
915.358	4211
915.47	4265
915.583	4211
915.696	4284
915.809	4413
915.921	4470
916.034	4204
916.146	4246
916.259	4234
916.371	4375
916.483	4329
916.595	4265
916.708	4333
916.82	4318
916.932	4322
917.044	4348
917.156	4306
917.268	4200
917.38	4299
917.491	4261
917.603	4280
917.715	4421
917.826	4417
917.938	4310
918.049	4265
918.161	4398
918.272	4523
918.384	4470
918.495	4447
918.606	4230
918.717	4234
918.828	4325
918.939	4375
919.05	4265
919.161	4344
919.272	4131
919.383	4242
919.494	4466
919.604	4622
919.715	4409
919.826	4329
919.936	4409
920.047	4527
920.157	4493
920.267	4664
920.378	4558
920.488	4519
920.598	4702
920.708	4870
920.818	4725
920.928	4725
921.038	4938
921.148	4904
921.258	4626
921.368	4561
921.477	4500
921.587	4443
921.697	4383
921.806	4504
921.916	4440
922.025	4238
922.134	4268
922.244	4242
922.353	4322
922.462	4154
922.571	4082
922.68	4025
922.789	3991
922.898	4044
923.007	4029
923.116	4063
923.224	4067
923.333	4048
923.442	3949
923.55	3945
923.659	3998
923.767	4147
923.876	3972
923.984	4101
924.092	3998
924.201	4086
924.309	4059
924.417	4128
924.525	4048
924.633	4093
924.741	4866
924.849	3884
924.956	4147
925.064	3968
925.172	3888
925.279	3949
925.387	4017
925.494	4048
925.602	4185
925.709	4173
925.816	3979
925.924	4048
926.031	4268
926.138	4150
926.245	4207
926.352	4105
926.459	4242
926.566	4306
926.673	4147
926.779	4059
926.886	4040
926.993	3953
927.099	3911
927.206	3949
927.312	3922
927.419	4040
927.525	3987
927.631	4078
927.737	3972
927.843	3941
927.95	3827
928.056	3945
928.162	3991
928.267	4074
928.373	4561
928.479	4112
928.585	3873
928.69	4002
928.796	4067
928.901	3979
929.007	3804
929.112	3987
929.218	3994
929.323	3937
929.428	3911
929.533	4067
929.638	3934
929.743	3994
929.848	4017
929.953	3960
930.058	3926
930.163	3770
930.267	3789
930.372	3968
930.477	3800
930.581	4090
930.685	3918
930.79	3785
930.894	3846
930.998	3835
931.103	4013
931.207	3732
931.311	3671
931.415	3663
931.519	3523
931.623	3500
