Data from test_V78500241_2785.txt Node
Date: Fri Mar 25 17:08:22 CST 2022
User: usil
Spectrometer: V785-0024
Trigger mode: 0
Integration Time (sec): 4.000000E-1
Scans to average: 1
Nonlinearity correction enabled: false
Boxcar width: 0
Storing dark spectrum: false
XAxis mode: Wavelengths
Number of Pixels in Spectrum: 1024
>>>>>Begin Spectral Data<<<<<
801.071	8024
801.214	8054
801.356	7944
801.499	7875
801.641	7814
801.783	7814
801.926	8001
802.068	7997
802.211	8027
802.353	7986
802.496	7879
802.638	7955
802.78	7906
802.923	8005
803.065	7906
803.208	7906
803.35	7963
803.492	8107
803.635	8183
803.777	8069
803.919	8240
804.061	8476
804.204	8195
804.346	8103
804.488	7928
804.63	8081
804.773	8088
804.915	8176
805.057	8301
805.199	8221
805.341	8202
805.483	8332
805.626	8199
805.768	8103
805.91	8263
806.052	8279
806.194	8084
806.336	8324
806.478	8077
806.62	8111
806.762	8065
806.904	8339
807.046	8514
807.188	8396
807.33	8370
807.472	8366
807.614	8206
807.756	8153
807.898	8039
808.04	7898
808.182	7913
808.324	7837
808.465	7917
808.607	8031
808.749	8199
808.891	8263
809.033	8301
809.174	8199
809.316	8157
809.458	8073
809.6	8062
809.741	8062
809.883	7989
810.025	8168
810.166	8126
810.308	8008
810.45	8103
810.591	7909
810.733	7734
810.875	7662
811.016	7533
811.158	7495
811.299	7620
811.441	7738
811.582	7731
811.724	7651
811.865	7548
812.007	7655
812.148	7613
812.29	7578
812.431	7772
812.573	7868
812.714	8005
812.855	8157
812.997	8237
813.138	8271
813.279	8180
813.421	8123
813.562	8043
813.703	7921
813.845	7738
813.986	7438
814.127	7247
814.268	7198
814.41	7282
814.551	7194
814.692	7206
814.833	7053
814.974	7084
815.115	7175
815.256	6981
815.397	6954
815.539	6958
815.68	6818
815.821	6818
815.962	6867
816.103	6814
816.244	6669
816.385	6627
816.526	6601
816.666	6547
816.807	6357
816.948	6471
817.089	6490
817.23	6429
817.371	6414
817.512	6426
817.653	6384
817.793	6338
817.934	6441
818.075	6471
818.216	6471
818.356	6414
818.497	6285
818.638	6125
818.778	6178
818.919	6144
819.06	6159
819.2	6331
819.341	6296
819.481	6399
819.622	6509
819.762	6764
819.903	6681
820.043	6616
820.184	6623
820.324	6547
820.465	6741
820.605	6734
820.746	6665
820.886	6544
821.026	6715
821.167	6772
821.307	6764
821.447	6760
821.588	6658
821.728	6627
821.868	6570
822.008	6376
822.149	6319
822.289	6388
822.429	6121
822.569	6102
822.709	6171
822.849	5927
822.99	5927
823.13	5992
823.27	5912
823.41	5756
823.55	5760
823.69	5775
823.83	5764
823.97	5661
824.11	5566
824.25	5543
824.389	5547
824.529	5573
824.669	5554
824.809	5611
824.949	5676
825.089	5630
825.228	5566
825.368	5429
825.508	5391
825.648	5322
825.787	5383
825.927	5391
826.067	5341
826.206	5303
826.346	5368
826.485	5414
826.625	5406
826.765	5532
826.904	5524
827.044	5303
827.183	5223
827.323	5147
827.462	5223
827.601	5189
827.741	5166
827.88	5265
828.02	5124
828.159	5280
828.298	5246
828.437	5322
828.577	5242
828.716	5467
828.855	5258
828.994	5140
829.134	5124
829.273	5227
829.412	5128
829.551	5132
829.69	5128
829.829	5254
829.968	5402
830.107	5239
830.246	5296
830.385	5193
830.524	5159
830.663	5075
830.802	5052
830.941	4870
831.08	4923
831.219	4984
831.357	5025
831.496	5128
831.635	4862
831.774	4828
831.913	4850
832.051	4759
832.19	4733
832.329	4839
832.467	4672
832.606	4660
832.744	4759
832.883	4717
833.022	4717
833.16	4801
833.299	4850
833.437	4839
833.576	4881
833.714	4866
833.852	4858
833.991	4908
834.129	4919
834.267	4904
834.406	4938
834.544	4980
834.682	4930
834.821	4987
834.959	5166
835.097	4972
835.235	5140
835.373	5132
835.511	5094
835.65	4991
835.788	5037
835.926	4896
836.064	4915
836.202	4965
836.34	5151
836.478	5280
836.615	5067
836.753	5235
836.891	5280
837.029	5216
837.167	5197
837.305	5105
837.443	5147
837.58	5071
837.718	5220
837.856	5227
837.993	5189
838.131	5208
838.269	5185
838.406	5204
838.544	5159
838.681	5006
838.819	4987
838.956	4889
839.094	4900
839.231	4987
839.369	5086
839.506	5436
839.643	5242
839.781	5029
839.918	5014
840.055	5052
840.193	5105
840.33	5067
840.467	5140
840.604	5174
840.742	5421
840.879	5094
841.016	5105
841.153	5117
841.29	5372
841.427	5360
841.564	5284
841.701	5383
841.838	5246
841.975	5220
842.112	5254
842.249	5128
842.385	5155
842.522	5311
842.659	5170
842.796	5162
842.933	5220
843.069	5174
843.206	5121
843.343	5334
843.479	5246
843.616	5292
843.752	5064
843.889	5010
844.025	5220
844.162	5010
844.298	5250
844.435	5041
844.571	5056
844.708	5208
844.844	5280
844.98	5311
845.117	5318
845.253	5124
845.389	5071
845.525	5170
845.661	5124
845.798	5041
845.934	5155
846.07	5094
846.206	5170
846.342	5296
846.478	5204
846.614	5022
846.75	4942
846.886	4892
847.022	5181
847.158	5083
847.294	5060
847.429	5140
847.565	5083
847.701	5280
847.837	4809
847.972	4771
848.108	4976
848.244	4919
848.379	4759
848.515	4717
848.65	4748
848.786	4691
848.921	4710
849.057	4892
849.192	4896
849.328	4809
849.463	4816
849.598	4782
849.734	4725
849.869	4675
850.004	4660
850.14	4679
850.275	4569
850.41	4550
850.545	4580
850.68	4611
850.815	4660
850.95	4630
851.085	4824
851.22	4748
851.355	4694
851.49	4607
851.625	4660
851.76	4641
851.895	4569
852.03	4527
852.165	4596
852.299	4687
852.434	4790
852.569	4763
852.703	4786
852.838	4904
852.973	4900
853.107	4904
853.242	4786
853.376	4736
853.511	4558
853.645	4664
853.78	4816
853.914	4721
854.048	4687
854.183	4656
854.317	4660
854.451	4816
854.585	4675
854.72	4622
854.854	4725
854.988	4580
855.122	4588
855.256	4508
855.39	4698
855.524	4797
855.658	4729
855.792	4660
855.926	4721
856.06	4786
856.194	4805
856.327	4694
856.461	4596
856.595	4558
856.729	4592
856.862	4748
856.996	4656
857.13	4702
857.263	4752
857.397	4782
857.53	4641
857.664	4755
857.797	4767
857.931	4820
858.064	4675
858.197	4733
858.331	4664
858.464	4580
858.597	4573
858.731	4618
858.864	4615
858.997	4618
859.13	4622
859.263	4634
859.396	4691
859.529	4550
859.662	4538
859.795	4535
859.928	4603
860.061	4759
860.194	4759
860.327	4615
860.46	4565
860.592	4694
860.725	4683
860.858	4714
860.99	4573
861.123	4542
861.256	4504
861.388	4596
861.521	5288
861.653	4481
861.786	4493
861.918	4413
862.05	4569
862.183	4512
862.315	4603
862.447	4653
862.58	4519
862.712	4356
862.844	4299
862.976	4481
863.108	4478
863.24	4736
863.372	4344
863.504	4424
863.636	4394
863.768	4485
863.9	4443
864.032	4405
864.164	4417
864.296	4478
864.428	4565
864.559	4558
864.691	4569
864.823	4554
864.954	4481
865.086	4538
865.217	4447
865.349	4413
865.48	4413
865.612	4508
865.743	4641
865.875	4500
866.006	4451
866.137	4466
866.269	4417
866.4	4424
866.531	4405
866.662	4379
866.793	4322
866.924	4379
867.055	4516
867.186	4451
867.317	4386
867.448	4390
867.579	4383
867.71	4398
867.841	4337
867.972	4451
868.103	4493
868.233	4455
868.364	4451
868.495	4462
868.625	4672
868.756	4774
868.886	4527
869.017	4588
869.147	4793
869.278	4748
869.408	4698
869.539	4622
869.669	4698
869.799	4634
869.929	4755
870.06	4714
870.19	5006
870.32	4908
870.45	4919
870.58	4980
870.71	5037
870.84	5109
870.97	4919
871.1	4873
871.23	5155
871.36	5140
871.489	5045
871.619	5094
871.749	5083
871.879	5136
872.008	5193
872.138	5033
872.267	4980
872.397	4854
872.526	4771
872.656	4714
872.785	4801
872.915	4980
873.044	5010
873.173	4965
873.303	4949
873.432	4927
873.561	4972
873.69	4847
873.819	4850
873.948	4938
874.077	4847
874.206	4790
874.335	4805
874.464	4919
874.593	5071
874.722	4980
874.851	5121
874.979	5075
875.108	5022
875.237	4908
875.365	4873
875.494	4877
875.623	4987
875.751	4828
875.88	4911
876.008	4942
876.136	5079
876.265	5159
876.393	5334
876.521	5223
876.65	5181
876.778	5178
876.906	5086
877.034	5010
877.162	5041
877.29	5014
877.418	5064
877.546	5018
877.674	5010
877.802	5025
877.93	4968
878.058	4885
878.185	4904
878.313	4957
878.441	4987
878.568	4797
878.696	4889
878.824	4991
878.951	4991
879.079	5113
879.206	5288
879.333	5079
879.461	4999
879.588	4999
879.715	5136
879.842	5227
879.97	4961
880.097	4778
880.224	4721
880.351	4809
880.478	4812
880.605	4786
880.732	4774
880.859	5052
880.986	4889
881.112	4896
881.239	4763
881.366	4664
881.493	4573
881.619	4615
881.746	4653
881.872	4615
881.999	4687
882.125	4702
882.252	4812
882.378	4824
882.505	4968
882.631	4828
882.757	4653
882.883	4725
883.01	4721
883.136	4653
883.262	4569
883.388	4588
883.514	4786
883.64	4908
883.766	4820
883.892	4649
884.018	4759
884.143	4896
884.269	5025
884.395	4664
884.52	4622
884.646	4607
884.772	4603
884.897	4554
885.023	4702
885.148	4767
885.274	4889
885.399	4816
885.524	4744
885.65	4698
885.775	4767
885.9	4736
886.025	4824
886.15	4771
886.275	4752
886.4	4645
886.525	4725
886.65	4717
886.775	4748
886.9	4885
887.025	5010
887.149	4759
887.274	4634
887.399	4584
887.523	4626
887.648	4603
887.773	4573
887.897	4793
888.021	4793
888.146	4675
888.27	4812
888.395	4908
888.519	4831
888.643	4843
888.767	4850
888.891	4675
889.015	4618
889.139	4618
889.263	4653
889.387	4793
889.511	4809
889.635	4736
889.759	4634
889.883	4611
890.006	4759
890.13	4850
890.254	4584
890.377	4672
890.501	4565
890.624	4493
890.748	4672
890.871	4538
890.995	4379
891.118	4371
891.241	4550
891.364	4565
891.488	4649
891.611	4523
891.734	4516
891.857	4607
891.98	4577
892.103	4675
892.226	4580
892.349	4504
892.471	4417
892.594	4542
892.717	4611
892.839	4508
892.962	4569
893.085	4717
893.207	4558
893.33	4451
893.452	4527
893.575	4698
893.697	4516
893.819	4847
893.941	4835
894.064	4774
894.186	4546
894.308	4580
894.43	4736
894.552	4850
894.674	4755
894.796	4554
894.918	4603
895.04	4550
895.161	4736
895.283	4626
895.405	4653
895.526	4668
895.648	4721
895.769	4729
895.891	4679
896.012	4721
896.134	4710
896.255	4656
896.376	4634
896.498	4607
896.619	4698
896.74	4603
896.861	4596
896.982	4946
897.103	5037
897.224	4828
897.345	4786
897.466	4641
897.587	4717
897.708	4858
897.828	4767
897.949	4725
898.07	4538
898.19	4668
898.311	4820
898.431	4653
898.552	4740
898.672	4820
898.792	4740
898.913	4694
899.033	4611
899.153	4500
899.273	4436
899.393	4561
899.513	4500
899.633	4527
899.753	4542
899.873	4523
899.993	4584
900.113	4554
900.232	4592
900.352	4519
900.472	4485
900.591	4394
900.711	4504
900.83	4455
900.95	4607
901.069	4714
901.189	4542
901.308	4413
901.427	4333
901.546	4360
901.665	4523
901.784	4531
901.904	4375
902.023	4325
902.141	4215
902.26	4166
902.379	4291
902.498	4265
902.617	4219
902.735	4383
902.854	4383
902.973	4344
903.091	4196
903.21	4227
903.328	4280
903.446	4276
903.565	4284
903.683	4371
903.801	4276
903.919	4409
904.038	4394
904.156	4337
904.274	4421
904.392	4413
904.51	4402
904.627	4466
904.745	4561
904.863	4622
904.981	4413
905.098	4268
905.216	4310
905.334	4428
905.451	4497
905.569	4417
905.686	4523
905.803	4561
905.921	4402
906.038	4523
906.155	4481
906.272	4390
906.389	4462
906.506	4371
906.623	4413
906.74	4409
906.857	4306
906.974	4371
907.091	4550
907.208	4672
907.324	4542
907.441	4497
907.557	4341
907.674	4367
907.79	4341
907.907	4356
908.023	4527
908.139	4500
908.256	4390
908.372	4489
908.488	4443
908.604	4375
908.72	4280
908.836	4386
908.952	4394
909.068	4443
909.184	4588
909.3	4459
909.415	4561
909.531	4542
909.647	4375
909.762	4417
909.878	4310
909.993	4398
910.108	4447
910.224	4341
910.339	4485
910.454	4428
910.57	4363
910.685	4291
910.8	4649
910.915	4622
911.03	4523
911.145	4306
911.259	4375
911.374	4363
911.489	4284
911.604	4299
911.718	4173
911.833	4177
911.947	4086
912.062	4074
912.176	4261
912.291	4242
912.405	4268
912.519	4443
912.633	4512
912.748	4417
912.862	4303
912.976	4192
913.09	4128
913.204	4211
913.318	4238
913.431	4424
913.545	4329
913.659	4394
913.772	4344
913.886	4219
914	4303
914.113	4390
914.226	4436
914.34	4390
914.453	4272
914.566	4436
914.68	4329
914.793	4363
914.906	4150
915.019	4105
915.132	4040
915.245	4177
915.358	4196
915.47	4227
915.583	4238
915.696	4287
915.809	4424
915.921	4405
916.034	4246
916.146	4303
916.259	4204
916.371	4367
916.483	4348
916.595	4272
916.708	4306
916.82	4341
916.932	4306
917.044	4341
917.156	4303
917.268	4284
917.38	4257
917.491	4268
917.603	4363
917.715	4455
917.826	4386
917.938	4341
918.049	4223
918.161	4375
918.272	4542
918.384	4546
918.495	4405
918.606	4306
918.717	4219
918.828	4379
918.939	4356
919.05	4230
919.161	4291
919.272	4109
919.383	4223
919.494	4436
919.604	4565
919.715	4432
919.826	4314
919.936	4402
920.047	4500
920.157	4504
920.267	4717
920.378	4519
920.488	4523
920.598	4725
920.708	4870
920.818	4721
920.928	4816
921.038	4949
921.148	4911
921.258	4618
921.368	4542
921.477	4470
921.587	4489
921.697	4383
921.806	4523
921.916	4440
922.025	4272
922.134	4257
922.244	4207
922.353	4383
922.462	4188
922.571	4143
922.68	4025
922.789	3956
922.898	3991
923.007	3953
923.116	4086
923.224	4093
923.333	4071
923.442	3979
923.55	3983
923.659	4044
923.767	4063
923.876	3987
923.984	4120
924.092	4025
924.201	4074
924.309	4090
924.417	4086
924.525	4101
924.633	4101
924.741	4866
924.849	3911
924.956	4173
925.064	3937
925.172	3926
925.279	3964
925.387	4067
925.494	4090
925.602	4211
925.709	4181
925.816	4067
925.924	4112
926.031	4242
926.138	4169
926.245	4219
926.352	4097
926.459	4204
926.566	4287
926.673	4135
926.779	4048
926.886	4086
926.993	3964
927.099	3876
927.206	3949
927.312	3926
927.419	4071
927.525	4013
927.631	4067
927.737	3979
927.843	3964
927.95	3838
928.056	3987
928.162	3956
928.267	4105
928.373	4721
928.479	4124
928.585	3873
928.69	4048
928.796	4055
928.901	3979
929.007	3804
929.112	4032
929.218	3945
929.323	3934
929.428	3949
929.533	4105
929.638	3873
929.743	3979
929.848	3991
929.953	3983
930.058	3903
930.163	3831
930.267	3823
930.372	3918
930.477	3797
930.581	4059
930.685	3941
930.79	3759
930.894	3899
930.998	3854
931.103	4025
931.207	3732
931.311	3694
931.415	3698
931.519	3488
931.623	3530
