Data from test_V78500241_900.txt Node
Date: Fri Mar 25 16:55:15 CST 2022
User: usil
Spectrometer: V785-0024
Trigger mode: 0
Integration Time (sec): 4.000000E-1
Scans to average: 1
Nonlinearity correction enabled: false
Boxcar width: 0
Storing dark spectrum: false
XAxis mode: Wavelengths
Number of Pixels in Spectrum: 1024
>>>>>Begin Spectral Data<<<<<
801.071	7951
801.214	8069
801.356	7864
801.499	7890
801.641	7814
801.783	7818
801.926	7986
802.068	7921
802.211	7944
802.353	7955
802.496	7852
802.638	7826
802.78	7868
802.923	7902
803.065	7887
803.208	7947
803.35	8024
803.492	8149
803.635	8161
803.777	7963
803.919	8088
804.061	8442
804.204	8077
804.346	8084
804.488	7955
804.63	8138
804.773	8050
804.915	8081
805.057	8290
805.199	8138
805.341	8267
805.483	8210
805.626	8191
805.768	8031
805.91	8195
806.052	8214
806.194	8081
806.336	8214
806.478	8145
806.62	8069
806.762	8092
806.904	8221
807.046	8412
807.188	8336
807.33	8298
807.472	8366
807.614	8195
807.756	8115
807.898	7959
808.04	7841
808.182	7826
808.324	7902
808.465	7868
808.607	8062
808.749	8046
808.891	8183
809.033	8271
809.174	8240
809.316	8084
809.458	8035
809.6	7986
809.741	8027
809.883	8050
810.025	8046
810.166	8050
810.308	7944
810.45	8054
810.591	7879
810.733	7723
810.875	7662
811.016	7582
811.158	7502
811.299	7552
811.441	7655
811.582	7700
811.724	7552
811.865	7514
812.007	7540
812.148	7540
812.29	7571
812.431	7761
812.573	7845
812.714	7856
812.855	8050
812.997	8164
813.138	8298
813.279	8123
813.421	8092
813.562	8054
813.703	7887
813.845	7772
813.986	7438
814.127	7213
814.268	7228
814.41	7179
814.551	7137
814.692	7137
814.833	7072
814.974	7129
815.115	7118
815.256	6970
815.397	6901
815.539	6951
815.68	6825
815.821	6730
815.962	6875
816.103	6837
816.244	6760
816.385	6608
816.526	6623
816.666	6479
816.807	6254
816.948	6452
817.089	6448
817.23	6422
817.371	6388
817.512	6350
817.653	6380
817.793	6342
817.934	6433
818.075	6437
818.216	6437
818.356	6353
818.497	6266
818.638	6140
818.778	6186
818.919	6117
819.06	6133
819.2	6304
819.341	6258
819.481	6388
819.622	6506
819.762	6627
819.903	6703
820.043	6642
820.184	6589
820.324	6555
820.465	6688
820.605	6658
820.746	6566
820.886	6483
821.026	6707
821.167	6696
821.307	6791
821.447	6745
821.588	6631
821.728	6604
821.868	6437
822.008	6327
822.149	6391
822.289	6277
822.429	6121
822.569	6053
822.709	6136
822.849	5878
822.99	5916
823.13	5897
823.27	5885
823.41	5786
823.55	5752
823.69	5722
823.83	5809
823.97	5623
824.11	5551
824.25	5486
824.389	5581
824.529	5547
824.669	5535
824.809	5551
824.949	5604
825.089	5627
825.228	5532
825.368	5341
825.508	5353
825.648	5357
825.787	5398
825.927	5345
826.067	5299
826.206	5307
826.346	5357
826.485	5402
826.625	5391
826.765	5452
826.904	5512
827.044	5220
827.183	5174
827.323	5094
827.462	5269
827.601	5166
827.741	5166
827.88	5181
828.02	5113
828.159	5193
828.298	5288
828.437	5341
828.577	5296
828.716	5505
828.855	5292
828.994	5117
829.134	5174
829.273	5132
829.412	5140
829.551	5113
829.69	5166
829.829	5204
829.968	5299
830.107	5277
830.246	5277
830.385	5136
830.524	5159
830.663	5067
830.802	5045
830.941	4870
831.08	4820
831.219	4991
831.357	4995
831.496	5162
831.635	4911
831.774	4831
831.913	4835
832.051	4733
832.19	4740
832.329	4801
832.467	4683
832.606	4668
832.744	4714
832.883	4733
833.022	4679
833.16	4774
833.299	4797
833.437	4805
833.576	4870
833.714	4843
833.852	4881
833.991	4904
834.129	4972
834.267	4930
834.406	4919
834.544	4972
834.682	4968
834.821	4968
834.959	5159
835.097	5025
835.235	5090
835.373	5105
835.511	5090
835.65	5052
835.788	4980
835.926	4885
836.064	4812
836.202	4885
836.34	5124
836.478	5231
836.615	5151
836.753	5174
836.891	5349
837.029	5143
837.167	5162
837.305	5143
837.443	5178
837.58	5014
837.718	5239
837.856	5246
837.993	5105
838.131	5204
838.269	5193
838.406	5155
838.544	5204
838.681	5022
838.819	4984
838.956	4915
839.094	4892
839.231	4976
839.369	5079
839.506	5406
839.643	5254
839.781	5098
839.918	5022
840.055	5136
840.193	5079
840.33	5113
840.467	5117
840.604	5197
840.742	5433
840.879	5064
841.016	5124
841.153	5147
841.29	5372
841.427	5318
841.564	5322
841.701	5315
841.838	5292
841.975	5235
842.112	5250
842.249	5166
842.385	5064
842.522	5337
842.659	5109
842.796	5166
842.933	5174
843.069	5143
843.206	5170
843.343	5242
843.479	5223
843.616	5193
843.752	5037
843.889	5025
844.025	5239
844.162	5006
844.298	5235
844.435	5079
844.571	5064
844.708	5181
844.844	5299
844.98	5357
845.117	5296
845.253	5128
845.389	5041
845.525	5079
845.661	5159
845.798	5018
845.934	5124
846.07	5075
846.206	5159
846.342	5246
846.478	5162
846.614	4999
846.75	4995
846.886	4892
847.022	5151
847.158	5010
847.294	5048
847.429	5098
847.565	5060
847.701	5265
847.837	4809
847.972	4812
848.108	4961
848.244	4934
848.379	4790
848.515	4721
848.65	4675
848.786	4702
848.921	4790
849.057	4896
849.192	4877
849.328	4824
849.463	4862
849.598	4820
849.734	4740
849.869	4656
850.004	4649
850.14	4660
850.275	4607
850.41	4516
850.545	4561
850.68	4550
850.815	4554
850.95	4592
851.085	4828
851.22	4725
851.355	4660
851.49	4599
851.625	4615
851.76	4653
851.895	4504
852.03	4504
852.165	4607
852.299	4714
852.434	4816
852.569	4733
852.703	4725
852.838	4835
852.973	4961
853.107	4953
853.242	4698
853.376	4656
853.511	4531
853.645	4588
853.78	4786
853.914	4660
854.048	4668
854.183	4641
854.317	4660
854.451	4870
854.585	4668
854.72	4622
854.854	4752
854.988	4523
855.122	4660
855.256	4523
855.39	4664
855.524	4771
855.658	4649
855.792	4645
855.926	4702
856.06	4725
856.194	4782
856.327	4660
856.461	4584
856.595	4615
856.729	4596
856.862	4771
856.996	4649
857.13	4725
857.263	4717
857.397	4717
857.53	4573
857.664	4733
857.797	4767
857.931	4740
858.064	4694
858.197	4706
858.331	4622
858.464	4596
858.597	4527
858.731	4577
858.864	4672
858.997	4588
859.13	4649
859.263	4653
859.396	4687
859.529	4599
859.662	4596
859.795	4516
859.928	4607
860.061	4782
860.194	4729
860.327	4565
860.46	4531
860.592	4679
860.725	4702
860.858	4763
860.99	4538
861.123	4478
861.256	4523
861.388	4592
861.521	5242
861.653	4500
861.786	4455
861.918	4459
862.05	4489
862.183	4558
862.315	4580
862.447	4618
862.58	4504
862.712	4451
862.844	4337
862.976	4478
863.108	4417
863.24	4778
863.372	4341
863.504	4402
863.636	4363
863.768	4512
863.9	4390
864.032	4352
864.164	4379
864.296	4459
864.428	4577
864.559	4558
864.691	4512
864.823	4470
864.954	4459
865.086	4527
865.217	4394
865.349	4424
865.48	4432
865.612	4535
865.743	4584
865.875	4436
866.006	4481
866.137	4436
866.269	4447
866.4	4428
866.531	4413
866.662	4367
866.793	4417
866.924	4371
867.055	4466
867.186	4405
867.317	4398
867.448	4367
867.579	4390
867.71	4398
867.841	4367
867.972	4436
868.103	4455
868.233	4440
868.364	4459
868.495	4432
868.625	4622
868.756	4706
868.886	4584
869.017	4588
869.147	4755
869.278	4748
869.408	4691
869.539	4637
869.669	4748
869.799	4694
869.929	4771
870.06	4736
870.19	4900
870.32	4889
870.45	4930
870.58	4934
870.71	5086
870.84	5086
870.97	4923
871.1	4831
871.23	5132
871.36	5048
871.489	5025
871.619	5102
871.749	5060
871.879	5113
872.008	5151
872.138	5025
872.267	5025
872.397	4847
872.526	4790
872.656	4698
872.785	4793
872.915	4934
873.044	5029
873.173	4927
873.303	4900
873.432	4946
873.561	4968
873.69	4873
873.819	4858
873.948	4900
874.077	4797
874.206	4736
874.335	4767
874.464	4923
874.593	5064
874.722	4949
874.851	5075
874.979	5090
875.108	4980
875.237	4915
875.365	4831
875.494	4862
875.623	4984
875.751	4786
875.88	4877
876.008	4930
876.136	5018
876.265	5181
876.393	5334
876.521	5193
876.65	5174
876.778	5208
876.906	5018
877.034	4984
877.162	5014
877.29	4984
877.418	5048
877.546	5041
877.674	5041
877.802	5003
877.93	5006
878.058	4953
878.185	4850
878.313	4991
878.441	4946
878.568	4763
878.696	4889
878.824	4961
878.951	4961
879.079	5136
879.206	5269
879.333	5098
879.461	5006
879.588	5003
879.715	5067
879.842	5193
879.97	5018
880.097	4763
880.224	4721
880.351	4748
880.478	4778
880.605	4812
880.732	4778
880.859	5083
880.986	4896
881.112	4919
881.239	4828
881.366	4653
881.493	4577
881.619	4599
881.746	4645
881.872	4656
881.999	4626
882.125	4691
882.252	4790
882.378	4778
882.505	4892
882.631	4812
882.757	4645
882.883	4706
883.01	4683
883.136	4694
883.262	4565
883.388	4607
883.514	4866
883.64	4866
883.766	4767
883.892	4691
884.018	4733
884.143	4911
884.269	4980
884.395	4653
884.52	4641
884.646	4645
884.772	4592
884.897	4603
885.023	4618
885.148	4816
885.274	4847
885.399	4782
885.524	4698
885.65	4660
885.775	4725
885.9	4683
886.025	4889
886.15	4793
886.275	4710
886.4	4653
886.525	4755
886.65	4649
886.775	4706
886.9	4866
887.025	5022
887.149	4801
887.274	4649
887.399	4603
887.523	4599
887.648	4584
887.773	4618
887.897	4759
888.021	4725
888.146	4672
888.27	4854
888.395	4896
888.519	4790
888.643	4854
888.767	4854
888.891	4679
889.015	4569
889.139	4672
889.263	4584
889.387	4721
889.511	4839
889.635	4809
889.759	4550
889.883	4645
890.006	4721
890.13	4889
890.254	4622
890.377	4622
890.501	4538
890.624	4470
890.748	4691
890.871	4519
890.995	4428
891.118	4375
891.241	4512
891.364	4531
891.488	4634
891.611	4428
891.734	4558
891.857	4615
891.98	4538
892.103	4637
892.226	4588
892.349	4455
892.471	4386
892.594	4535
892.717	4565
892.839	4577
892.962	4577
893.085	4637
893.207	4573
893.33	4474
893.452	4538
893.575	4698
893.697	4527
893.819	4812
893.941	4809
894.064	4759
894.186	4554
894.308	4558
894.43	4721
894.552	4820
894.674	4710
894.796	4527
894.918	4603
895.04	4531
895.161	4668
895.283	4672
895.405	4565
895.526	4615
895.648	4691
895.769	4656
895.891	4687
896.012	4733
896.134	4691
896.255	4675
896.376	4645
896.498	4656
896.619	4664
896.74	4626
896.861	4637
896.982	4934
897.103	5037
897.224	4809
897.345	4717
897.466	4683
897.587	4691
897.708	4782
897.828	4714
897.949	4634
898.07	4523
898.19	4637
898.311	4873
898.431	4687
898.552	4710
898.672	4786
898.792	4816
898.913	4748
899.033	4641
899.153	4478
899.273	4409
899.393	4466
899.513	4519
899.633	4493
899.753	4550
899.873	4474
899.993	4580
900.113	4558
900.232	4649
900.352	4508
900.472	4504
900.591	4417
900.711	4478
900.83	4440
900.95	4641
901.069	4683
901.189	4531
901.308	4360
901.427	4367
901.546	4379
901.665	4508
901.784	4538
901.904	4394
902.023	4329
902.141	4162
902.26	4158
902.379	4268
902.498	4249
902.617	4242
902.735	4363
902.854	4367
902.973	4337
903.091	4185
903.21	4238
903.328	4265
903.446	4306
903.565	4204
903.683	4314
903.801	4242
903.919	4398
904.038	4466
904.156	4299
904.274	4383
904.392	4386
904.51	4402
904.627	4455
904.745	4561
904.863	4645
904.981	4390
905.098	4341
905.216	4371
905.334	4375
905.451	4462
905.569	4421
905.686	4546
905.803	4538
905.921	4398
906.038	4592
906.155	4466
906.272	4390
906.389	4459
906.506	4344
906.623	4379
906.74	4360
906.857	4310
906.974	4352
907.091	4538
907.208	4660
907.324	4580
907.441	4478
907.557	4337
907.674	4356
907.79	4303
907.907	4409
908.023	4459
908.139	4447
908.256	4459
908.372	4443
908.488	4421
908.604	4344
908.72	4287
908.836	4394
908.952	4318
909.068	4405
909.184	4497
909.3	4493
909.415	4603
909.531	4558
909.647	4383
909.762	4337
909.878	4344
909.993	4440
910.108	4371
910.224	4459
910.339	4462
910.454	4367
910.57	4344
910.685	4322
910.8	4668
910.915	4558
911.03	4459
911.145	4303
911.259	4344
911.374	4337
911.489	4306
911.604	4276
911.718	4128
911.833	4207
911.947	4074
912.062	4055
912.176	4227
912.291	4196
912.405	4173
912.519	4447
912.633	4497
912.748	4375
912.862	4299
912.976	4185
913.09	4090
913.204	4154
913.318	4242
913.431	4329
913.545	4352
913.659	4402
913.772	4306
913.886	4211
914	4188
914.113	4390
914.226	4413
914.34	4379
914.453	4257
914.566	4443
914.68	4303
914.793	4295
914.906	4158
915.019	4150
915.132	4116
915.245	4177
915.358	4200
915.47	4219
915.583	4249
915.696	4272
915.809	4413
915.921	4428
916.034	4181
916.146	4234
916.259	4253
916.371	4360
916.483	4371
916.595	4280
916.708	4341
916.82	4295
916.932	4310
917.044	4325
917.156	4272
917.268	4207
917.38	4253
917.491	4257
917.603	4322
917.715	4367
917.826	4470
917.938	4352
918.049	4234
918.161	4386
918.272	4538
918.384	4573
918.495	4447
918.606	4306
918.717	4249
918.828	4344
918.939	4337
919.05	4230
919.161	4367
919.272	4112
919.383	4249
919.494	4459
919.604	4603
919.715	4421
919.826	4363
919.936	4413
920.047	4508
920.157	4493
920.267	4694
920.378	4481
920.488	4512
920.598	4691
920.708	4828
920.818	4710
920.928	4771
921.038	4930
921.148	4900
921.258	4641
921.368	4523
921.477	4508
921.587	4443
921.697	4375
921.806	4535
921.916	4470
922.025	4295
922.134	4242
922.244	4223
922.353	4356
922.462	4192
922.571	4105
922.68	3979
922.789	3907
922.898	3991
923.007	3998
923.116	4078
923.224	4082
923.333	4025
923.442	3926
923.55	3964
923.659	3994
923.767	4116
923.876	3968
923.984	4097
924.092	3956
924.201	4017
924.309	4116
924.417	4109
924.525	4044
924.633	4086
924.741	4911
924.849	3937
924.956	4139
925.064	3953
925.172	3937
925.279	3949
925.387	4017
925.494	4059
925.602	4219
925.709	4131
925.816	4044
925.924	4131
926.031	4230
926.138	4154
926.245	4215
926.352	4074
926.459	4200
926.566	4322
926.673	4181
926.779	4090
926.886	4078
926.993	3960
927.099	3899
927.206	3941
927.312	3964
927.419	4036
927.525	4032
927.631	4059
927.737	3979
927.843	3899
927.95	3835
928.056	3949
928.162	4002
928.267	4048
928.373	4584
928.479	4101
928.585	3865
928.69	3972
928.796	4021
928.901	3968
929.007	3838
929.112	3994
929.218	3975
929.323	3903
929.428	3941
929.533	4128
929.638	3850
929.743	3941
929.848	4040
929.953	3994
930.058	3892
930.163	3755
930.267	3804
930.372	3941
930.477	3800
930.581	4078
930.685	3934
930.79	3743
930.894	3918
930.998	3781
931.103	4040
931.207	3698
931.311	3724
931.415	3656
931.519	3534
931.623	3511
