Data from test_V78500241_147.txt Node
Date: Fri Mar 25 16:50:01 CST 2022
User: usil
Spectrometer: V785-0024
Trigger mode: 0
Integration Time (sec): 4.000000E-1
Scans to average: 1
Nonlinearity correction enabled: false
Boxcar width: 0
Storing dark spectrum: false
XAxis mode: Wavelengths
Number of Pixels in Spectrum: 1024
>>>>>Begin Spectral Data<<<<<
801.071	8043
801.214	7925
801.356	7921
801.499	7902
801.641	7849
801.783	7868
801.926	7978
802.068	7982
802.211	7989
802.353	8039
802.496	7822
802.638	7913
802.78	7955
802.923	7967
803.065	7822
803.208	7932
803.35	7902
803.492	8111
803.635	8073
803.777	7997
803.919	8062
804.061	8355
804.204	8069
804.346	7993
804.488	7928
804.63	8035
804.773	7967
804.915	8103
805.057	8202
805.199	8168
805.341	8123
805.483	8279
805.626	8229
805.768	8084
805.91	8164
806.052	8180
806.194	8126
806.336	8313
806.478	8062
806.62	8054
806.762	8161
806.904	8199
807.046	8362
807.188	8347
807.33	8233
807.472	8305
807.614	8183
807.756	8130
807.898	8054
808.04	7902
808.182	7906
808.324	7932
808.465	7932
808.607	8031
808.749	8054
808.891	8180
809.033	8377
809.174	8168
809.316	8008
809.458	8054
809.6	8016
809.741	8111
809.883	7997
810.025	8130
810.166	8088
810.308	8088
810.45	8020
810.591	7947
810.733	7750
810.875	7681
811.016	7552
811.158	7533
811.299	7594
811.441	7780
811.582	7788
811.724	7597
811.865	7639
812.007	7670
812.148	7628
812.29	7639
812.431	7830
812.573	7921
812.714	8046
812.855	8157
812.997	8336
813.138	8396
813.279	8267
813.421	8161
813.562	8035
813.703	7864
813.845	7845
813.986	7483
814.127	7320
814.268	7236
814.41	7259
814.551	7168
814.692	7179
814.833	7168
814.974	7141
815.115	7206
815.256	6985
815.397	6985
815.539	7008
815.68	6878
815.821	6840
815.962	6871
816.103	6814
816.244	6719
816.385	6639
816.526	6635
816.666	6555
816.807	6327
816.948	6479
817.089	6448
817.23	6410
817.371	6418
817.512	6395
817.653	6388
817.793	6372
817.934	6403
818.075	6445
818.216	6441
818.356	6433
818.497	6289
818.638	6144
818.778	6239
818.919	6144
819.06	6190
819.2	6376
819.341	6361
819.481	6414
819.622	6570
819.762	6696
819.903	6681
820.043	6639
820.184	6650
820.324	6646
820.465	6658
820.605	6745
820.746	6646
820.886	6593
821.026	6722
821.167	6760
821.307	6753
821.447	6810
821.588	6688
821.728	6589
821.868	6551
822.008	6338
822.149	6399
822.289	6395
822.429	6205
822.569	6117
822.709	6114
822.849	5942
822.99	5901
823.13	5931
823.27	5954
823.41	5824
823.55	5802
823.69	5832
823.83	5802
823.97	5623
824.11	5570
824.25	5562
824.389	5512
824.529	5547
824.669	5577
824.809	5688
824.949	5676
825.089	5653
825.228	5592
825.368	5379
825.508	5326
825.648	5372
825.787	5398
825.927	5395
826.067	5334
826.206	5242
826.346	5436
826.485	5414
826.625	5474
826.765	5535
826.904	5478
827.044	5265
827.183	5212
827.323	5197
827.462	5239
827.601	5181
827.741	5189
827.88	5250
828.02	5155
828.159	5189
828.298	5296
828.437	5383
828.577	5284
828.716	5505
828.855	5303
828.994	5124
829.134	5162
829.273	5193
829.412	5212
829.551	5185
829.69	5208
829.829	5288
829.968	5383
830.107	5284
830.246	5246
830.385	5178
830.524	5128
830.663	5037
830.802	5014
830.941	4870
831.08	4911
831.219	5033
831.357	4949
831.496	5124
831.635	4919
831.774	4824
831.913	4885
832.051	4786
832.19	4755
832.329	4839
832.467	4694
832.606	4656
832.744	4717
832.883	4717
833.022	4744
833.16	4805
833.299	4843
833.437	4850
833.576	4854
833.714	4824
833.852	4862
833.991	4900
834.129	4953
834.267	4987
834.406	4904
834.544	4991
834.682	5006
834.821	4976
834.959	5143
835.097	4980
835.235	5136
835.373	5090
835.511	5117
835.65	5033
835.788	5041
835.926	4942
836.064	4885
836.202	4885
836.34	5174
836.478	5246
836.615	5151
836.753	5265
836.891	5277
837.029	5303
837.167	5185
837.305	5143
837.443	5121
837.58	5124
837.718	5292
837.856	5235
837.993	5155
838.131	5303
838.269	5181
838.406	5216
838.544	5216
838.681	5048
838.819	5010
838.956	4911
839.094	4949
839.231	4938
839.369	5113
839.506	5429
839.643	5277
839.781	5105
839.918	5056
840.055	5045
840.193	5136
840.33	5140
840.467	5140
840.604	5136
840.742	5459
840.879	5121
841.016	5170
841.153	5124
841.29	5391
841.427	5349
841.564	5372
841.701	5402
841.838	5307
841.975	5208
842.112	5254
842.249	5140
842.385	5060
842.522	5330
842.659	5162
842.796	5132
842.933	5204
843.069	5136
843.206	5212
843.343	5315
843.479	5246
843.616	5315
843.752	5048
843.889	4999
844.025	5235
844.162	5037
844.298	5220
844.435	5083
844.571	5048
844.708	5227
844.844	5288
844.98	5383
845.117	5311
845.253	5132
845.389	5041
845.525	5140
845.661	5109
845.798	5067
845.934	5159
846.07	5086
846.206	5208
846.342	5288
846.478	5181
846.614	5064
846.75	5003
846.886	4923
847.022	5151
847.158	5037
847.294	5067
847.429	5121
847.565	5041
847.701	5303
847.837	4862
847.972	4805
848.108	4934
848.244	4915
848.379	4744
848.515	4771
848.65	4725
848.786	4740
848.921	4835
849.057	4889
849.192	4923
849.328	4839
849.463	4904
849.598	4786
849.734	4774
849.869	4641
850.004	4664
850.14	4660
850.275	4611
850.41	4535
850.545	4592
850.68	4611
850.815	4626
850.95	4653
851.085	4866
851.22	4774
851.355	4714
851.49	4664
851.625	4653
851.76	4618
851.895	4615
852.03	4497
852.165	4656
852.299	4717
852.434	4786
852.569	4763
852.703	4809
852.838	4839
852.973	4927
853.107	4911
853.242	4698
853.376	4637
853.511	4546
853.645	4691
853.78	4786
853.914	4675
854.048	4653
854.183	4649
854.317	4664
854.451	4850
854.585	4694
854.72	4641
854.854	4755
854.988	4664
855.122	4672
855.256	4596
855.39	4653
855.524	4771
855.658	4714
855.792	4702
855.926	4763
856.06	4721
856.194	4820
856.327	4736
856.461	4580
856.595	4645
856.729	4668
856.862	4767
856.996	4717
857.13	4717
857.263	4740
857.397	4767
857.53	4641
857.664	4694
857.797	4786
857.931	4824
858.064	4702
858.197	4759
858.331	4637
858.464	4622
858.597	4497
858.731	4668
858.864	4630
858.997	4626
859.13	4615
859.263	4679
859.396	4641
859.529	4592
859.662	4577
859.795	4497
859.928	4679
860.061	4733
860.194	4790
860.327	4603
860.46	4535
860.592	4729
860.725	4744
860.858	4714
860.99	4584
861.123	4447
861.256	4535
861.388	4630
861.521	5353
861.653	4508
861.786	4421
861.918	4424
862.05	4531
862.183	4546
862.315	4599
862.447	4660
862.58	4542
862.712	4421
862.844	4344
862.976	4428
863.108	4466
863.24	4862
863.372	4325
863.504	4379
863.636	4413
863.768	4470
863.9	4459
864.032	4379
864.164	4409
864.296	4470
864.428	4546
864.559	4531
864.691	4558
864.823	4558
864.954	4519
865.086	4504
865.217	4466
865.349	4432
865.48	4481
865.612	4516
865.743	4675
865.875	4489
866.006	4398
866.137	4455
866.269	4417
866.4	4424
866.531	4485
866.662	4455
866.793	4402
866.924	4447
867.055	4531
867.186	4440
867.317	4478
867.448	4360
867.579	4405
867.71	4428
867.841	4424
867.972	4538
868.103	4485
868.233	4470
868.364	4459
868.495	4550
868.625	4714
868.756	4793
868.886	4565
869.017	4672
869.147	4812
869.278	4755
869.408	4736
869.539	4717
869.669	4740
869.799	4736
869.929	4782
870.06	4759
870.19	4976
870.32	4949
870.45	4961
870.58	5048
870.71	5189
870.84	5178
870.97	4995
871.1	4972
871.23	5181
871.36	5181
871.489	5067
871.619	5162
871.749	5143
871.879	5189
872.008	5193
872.138	5147
872.267	5048
872.397	4900
872.526	4889
872.656	4805
872.785	4809
872.915	5075
873.044	5090
873.173	4984
873.303	5029
873.432	5025
873.561	5094
873.69	4927
873.819	4923
873.948	4938
874.077	4831
874.206	4812
874.335	4896
874.464	5014
874.593	5170
874.722	5025
874.851	5151
874.979	5083
875.108	5045
875.237	4961
875.365	4942
875.494	4923
875.623	5064
875.751	4904
875.88	4946
876.008	5014
876.136	5113
876.265	5258
876.393	5364
876.521	5265
876.65	5258
876.778	5193
876.906	5140
877.034	5109
877.162	5105
877.29	5048
877.418	5079
877.546	5075
877.674	5075
877.802	5075
877.93	5067
878.058	4980
878.185	4961
878.313	5048
878.441	5018
878.568	4839
878.696	4938
878.824	5022
878.951	5064
879.079	5227
879.206	5307
879.333	5178
879.461	5025
879.588	5052
879.715	5143
879.842	5231
879.97	5071
880.097	4847
880.224	4797
880.351	4835
880.478	4843
880.605	4850
880.732	4828
880.859	5132
880.986	4934
881.112	4930
881.239	4820
881.366	4740
881.493	4622
881.619	4668
881.746	4694
881.872	4710
881.999	4702
882.125	4702
882.252	4820
882.378	4885
882.505	4995
882.631	4904
882.757	4687
882.883	4793
883.01	4790
883.136	4717
883.262	4672
883.388	4645
883.514	4866
883.64	4923
883.766	4873
883.892	4710
884.018	4717
884.143	4957
884.269	5052
884.395	4721
884.52	4683
884.646	4721
884.772	4645
884.897	4573
885.023	4733
885.148	4824
885.274	4820
885.399	4862
885.524	4790
885.65	4717
885.775	4805
885.9	4748
886.025	4911
886.15	4793
886.275	4767
886.4	4668
886.525	4774
886.65	4774
886.775	4717
886.9	4908
887.025	5117
887.149	4824
887.274	4702
887.399	4664
887.523	4637
887.648	4660
887.773	4622
887.897	4797
888.021	4797
888.146	4744
888.27	4843
888.395	4923
888.519	4835
888.643	4873
888.767	4809
888.891	4702
889.015	4611
889.139	4729
889.263	4607
889.387	4801
889.511	4927
889.635	4885
889.759	4679
889.883	4702
890.006	4748
890.13	4820
890.254	4634
890.377	4744
890.501	4584
890.624	4573
890.748	4675
890.871	4542
890.995	4535
891.118	4363
891.241	4580
891.364	4554
891.488	4675
891.611	4577
891.734	4588
891.857	4630
891.98	4569
892.103	4706
892.226	4672
892.349	4550
892.471	4440
892.594	4603
892.717	4637
892.839	4630
892.962	4592
893.085	4691
893.207	4656
893.33	4516
893.452	4558
893.575	4725
893.697	4599
893.819	4862
893.941	4908
894.064	4755
894.186	4653
894.308	4626
894.43	4736
894.552	4877
894.674	4809
894.796	4653
894.918	4611
895.04	4592
895.161	4782
895.283	4717
895.405	4634
895.526	4721
895.648	4733
895.769	4748
895.891	4729
896.012	4797
896.134	4717
896.255	4698
896.376	4694
896.498	4645
896.619	4729
896.74	4656
896.861	4736
896.982	4991
897.103	5109
897.224	4881
897.345	4843
897.466	4774
897.587	4767
897.708	4889
897.828	4828
897.949	4717
898.07	4561
898.19	4683
898.311	4858
898.431	4714
898.552	4782
898.672	4892
898.792	4850
898.913	4839
899.033	4649
899.153	4569
899.273	4485
899.393	4504
899.513	4599
899.633	4565
899.753	4592
899.873	4535
899.993	4626
900.113	4546
900.232	4622
900.352	4641
900.472	4558
900.591	4443
900.711	4531
900.83	4493
900.95	4645
901.069	4748
901.189	4584
901.308	4386
901.427	4394
901.546	4424
901.665	4531
901.784	4554
901.904	4459
902.023	4341
902.141	4177
902.26	4219
902.379	4329
902.498	4318
902.617	4268
902.735	4440
902.854	4413
902.973	4356
903.091	4268
903.21	4284
903.328	4306
903.446	4306
903.565	4276
903.683	4383
903.801	4291
903.919	4424
904.038	4531
904.156	4383
904.274	4512
904.392	4405
904.51	4485
904.627	4497
904.745	4584
904.863	4645
904.981	4478
905.098	4322
905.216	4409
905.334	4474
905.451	4462
905.569	4470
905.686	4588
905.803	4645
905.921	4432
906.038	4611
906.155	4531
906.272	4428
906.389	4489
906.506	4394
906.623	4421
906.74	4447
906.857	4341
906.974	4470
907.091	4634
907.208	4706
907.324	4641
907.441	4573
907.557	4398
907.674	4363
907.79	4337
907.907	4428
908.023	4478
908.139	4481
908.256	4440
908.372	4447
908.488	4451
908.604	4413
908.72	4379
908.836	4398
908.952	4409
909.068	4443
909.184	4607
909.3	4516
909.415	4626
909.531	4603
909.647	4371
909.762	4352
909.878	4383
909.993	4474
910.108	4466
910.224	4462
910.339	4565
910.454	4443
910.57	4405
910.685	4371
910.8	4698
910.915	4649
911.03	4554
911.145	4363
911.259	4341
911.374	4402
911.489	4348
911.604	4333
911.718	4196
911.833	4261
911.947	4143
912.062	4059
912.176	4284
912.291	4272
912.405	4303
912.519	4527
912.633	4546
912.748	4405
912.862	4383
912.976	4227
913.09	4135
913.204	4246
913.318	4299
913.431	4474
913.545	4383
913.659	4481
913.772	4424
913.886	4230
914	4238
914.113	4459
914.226	4497
914.34	4432
914.453	4295
914.566	4436
914.68	4367
914.793	4348
914.906	4185
915.019	4177
915.132	4154
915.245	4280
915.358	4249
915.47	4253
915.583	4333
915.696	4329
915.809	4409
915.921	4504
916.034	4295
916.146	4276
916.259	4287
916.371	4394
916.483	4413
916.595	4284
916.708	4386
916.82	4337
916.932	4360
917.044	4371
917.156	4344
917.268	4314
917.38	4329
917.491	4295
917.603	4337
917.715	4451
917.826	4462
917.938	4367
918.049	4268
918.161	4432
918.272	4603
918.384	4611
918.495	4478
918.606	4318
918.717	4284
918.828	4371
918.939	4409
919.05	4287
919.161	4367
919.272	4173
919.383	4291
919.494	4497
919.604	4618
919.715	4470
919.826	4394
919.936	4451
920.047	4535
920.157	4558
920.267	4771
920.378	4577
920.488	4542
920.598	4809
920.708	4980
920.818	4793
920.928	4782
921.038	4991
921.148	4927
921.258	4694
921.368	4611
921.477	4546
921.587	4561
921.697	4394
921.806	4550
921.916	4527
922.025	4306
922.134	4306
922.244	4272
922.353	4371
922.462	4211
922.571	4196
922.68	4059
922.789	4059
922.898	4055
923.007	4002
923.116	4147
923.224	4101
923.333	4097
923.442	4055
923.55	4002
923.659	4090
923.767	4120
923.876	4048
923.984	4112
924.092	4036
924.201	4105
924.309	4116
924.417	4143
924.525	4090
924.633	4158
924.741	4896
924.849	3956
924.956	4219
925.064	3945
925.172	3941
925.279	3987
925.387	4040
925.494	4093
925.602	4246
925.709	4204
925.816	4090
925.924	4147
926.031	4284
926.138	4223
926.245	4242
926.352	4120
926.459	4287
926.566	4356
926.673	4150
926.779	4162
926.886	4147
926.993	4036
927.099	3987
927.206	3941
927.312	3968
927.419	4055
927.525	4048
927.631	4139
927.737	3998
927.843	3972
927.95	3876
928.056	3972
928.162	4029
928.267	4090
928.373	4733
928.479	4177
928.585	3930
928.69	4082
928.796	4101
928.901	4055
929.007	3899
929.112	4063
929.218	4025
929.323	4021
929.428	3945
929.533	4166
929.638	3972
929.743	4002
929.848	4097
929.953	4006
930.058	3918
930.163	3838
930.267	3850
930.372	4010
930.477	3896
930.581	4116
930.685	3945
930.79	3831
930.894	3953
930.998	3850
931.103	4067
931.207	3686
931.311	3759
931.415	3736
931.519	3545
931.623	3614
