Data from test_V78500241_615.txt Node
Date: Fri Mar 25 16:53:16 CST 2022
User: usil
Spectrometer: V785-0024
Trigger mode: 0
Integration Time (sec): 4.000000E-1
Scans to average: 1
Nonlinearity correction enabled: false
Boxcar width: 0
Storing dark spectrum: false
XAxis mode: Wavelengths
Number of Pixels in Spectrum: 1024
>>>>>Begin Spectral Data<<<<<
801.071	8005
801.214	7887
801.356	7875
801.499	7906
801.641	7814
801.783	7864
801.926	7982
802.068	8020
802.211	8024
802.353	8027
802.496	7871
802.638	7902
802.78	7959
802.923	7849
803.065	7887
803.208	7875
803.35	7963
803.492	8024
803.635	8221
803.777	7997
803.919	8123
804.061	8389
804.204	8092
804.346	8039
804.488	7974
804.63	8081
804.773	7947
804.915	8077
805.057	8252
805.199	8176
805.341	8240
805.483	8294
805.626	8256
805.768	8130
805.91	8206
806.052	8149
806.194	8149
806.336	8298
806.478	8119
806.62	8020
806.762	8180
806.904	8240
807.046	8412
807.188	8313
807.33	8305
807.472	8328
807.614	8172
807.756	8172
807.898	7978
808.04	7906
808.182	7894
808.324	7921
808.465	7955
808.607	8020
808.749	8115
808.891	8298
809.033	8282
809.174	8256
809.316	8054
809.458	8005
809.6	7978
809.741	7989
809.883	8035
810.025	8126
810.166	8084
810.308	7982
810.45	7997
810.591	7928
810.733	7715
810.875	7666
811.016	7502
811.158	7540
811.299	7601
811.441	7662
811.582	7674
811.724	7582
811.865	7510
812.007	7658
812.148	7575
812.29	7586
812.431	7734
812.573	7864
812.714	8092
812.855	8111
812.997	8199
813.138	8313
813.279	8195
813.421	8119
813.562	7993
813.703	7940
813.845	7803
813.986	7499
814.127	7377
814.268	7247
814.41	7251
814.551	7133
814.692	7137
814.833	7027
814.974	7114
815.115	7099
815.256	6913
815.397	6928
815.539	6916
815.68	6894
815.821	6783
815.962	6890
816.103	6840
816.244	6711
816.385	6646
816.526	6604
816.666	6540
816.807	6315
816.948	6407
817.089	6494
817.23	6452
817.371	6380
817.512	6422
817.653	6452
817.793	6399
817.934	6414
818.075	6410
818.216	6361
818.356	6448
818.497	6266
818.638	6129
818.778	6205
818.919	6155
819.06	6152
819.2	6323
819.341	6292
819.481	6334
819.622	6547
819.762	6662
819.903	6749
820.043	6604
820.184	6517
820.324	6532
820.465	6734
820.605	6642
820.746	6646
820.886	6410
821.026	6677
821.167	6703
821.307	6768
821.447	6760
821.588	6616
821.728	6513
821.868	6498
822.008	6281
822.149	6346
822.289	6334
822.429	6087
822.569	6053
822.709	6136
822.849	5889
822.99	5904
823.13	5950
823.27	5847
823.41	5748
823.55	5729
823.69	5745
823.83	5767
823.97	5668
824.11	5543
824.25	5532
824.389	5543
824.529	5573
824.669	5524
824.809	5615
824.949	5619
825.089	5642
825.228	5547
825.368	5357
825.508	5368
825.648	5391
825.787	5364
825.927	5341
826.067	5322
826.206	5258
826.346	5402
826.485	5425
826.625	5402
826.765	5532
826.904	5474
827.044	5265
827.183	5170
827.323	5086
827.462	5227
827.601	5181
827.741	5208
827.88	5242
828.02	5102
828.159	5197
828.298	5242
828.437	5269
828.577	5299
828.716	5459
828.855	5292
828.994	5178
829.134	5121
829.273	5288
829.412	5147
829.551	5086
829.69	5121
829.829	5220
829.968	5353
830.107	5242
830.246	5242
830.385	5166
830.524	5166
830.663	5010
830.802	4911
830.941	4873
831.08	4892
831.219	4946
831.357	4930
831.496	5083
831.635	4949
831.774	4866
831.913	4854
832.051	4736
832.19	4748
832.329	4835
832.467	4668
832.606	4668
832.744	4759
832.883	4702
833.022	4736
833.16	4736
833.299	4786
833.437	4793
833.576	4870
833.714	4873
833.852	4854
833.991	4896
834.129	4938
834.267	4911
834.406	4866
834.544	4980
834.682	4980
834.821	4984
834.959	5147
835.097	4911
835.235	5155
835.373	5109
835.511	5151
835.65	5048
835.788	4984
835.926	4881
836.064	4847
836.202	4927
836.34	5170
836.478	5261
836.615	5132
836.753	5159
836.891	5311
837.029	5208
837.167	5197
837.305	5159
837.443	5162
837.58	5124
837.718	5231
837.856	5201
837.993	5128
838.131	5227
838.269	5223
838.406	5201
838.544	5223
838.681	5006
838.819	5056
838.956	4911
839.094	4919
839.231	4999
839.369	5067
839.506	5402
839.643	5269
839.781	5102
839.918	5010
840.055	5098
840.193	5105
840.33	5105
840.467	5162
840.604	5166
840.742	5444
840.879	5128
841.016	5094
841.153	5147
841.29	5372
841.427	5368
841.564	5341
841.701	5318
841.838	5235
841.975	5254
842.112	5254
842.249	5132
842.385	5102
842.522	5315
842.659	5223
842.796	5124
842.933	5193
843.069	5128
843.206	5166
843.343	5292
843.479	5250
843.616	5265
843.752	5071
843.889	5006
844.025	5208
844.162	5041
844.298	5181
844.435	5052
844.571	5045
844.708	5201
844.844	5296
844.98	5303
845.117	5296
845.253	5162
845.389	5075
845.525	5201
845.661	5143
845.798	5006
845.934	5113
846.07	5052
846.206	5181
846.342	5288
846.478	5181
846.614	5006
846.75	4991
846.886	4953
847.022	5075
847.158	4961
847.294	5056
847.429	5109
847.565	5048
847.701	5318
847.837	4862
847.972	4801
848.108	4957
848.244	4862
848.379	4801
848.515	4714
848.65	4714
848.786	4740
848.921	4714
849.057	4877
849.192	4896
849.328	4843
849.463	4843
849.598	4729
849.734	4778
849.869	4599
850.004	4641
850.14	4675
850.275	4584
850.41	4542
850.545	4584
850.68	4622
850.815	4634
850.95	4660
851.085	4892
851.22	4767
851.355	4702
851.49	4649
851.625	4618
851.76	4626
851.895	4561
852.03	4538
852.165	4634
852.299	4710
852.434	4752
852.569	4725
852.703	4790
852.838	4831
852.973	4953
853.107	4930
853.242	4759
853.376	4679
853.511	4527
853.645	4577
853.78	4774
853.914	4702
854.048	4687
854.183	4645
854.317	4675
854.451	4862
854.585	4656
854.72	4588
854.854	4744
854.988	4561
855.122	4641
855.256	4512
855.39	4653
855.524	4790
855.658	4721
855.792	4668
855.926	4763
856.06	4729
856.194	4790
856.327	4694
856.461	4641
856.595	4626
856.729	4634
856.862	4763
856.996	4694
857.13	4725
857.263	4694
857.397	4809
857.53	4668
857.664	4729
857.797	4759
857.931	4744
858.064	4702
858.197	4752
858.331	4649
858.464	4611
858.597	4573
858.731	4599
858.864	4607
858.997	4592
859.13	4702
859.263	4634
859.396	4706
859.529	4558
859.662	4538
859.795	4500
859.928	4611
860.061	4778
860.194	4790
860.327	4607
860.46	4584
860.592	4706
860.725	4752
860.858	4710
860.99	4573
861.123	4535
861.256	4512
861.388	4626
861.521	5406
861.653	4481
861.786	4493
861.918	4421
862.05	4535
862.183	4512
862.315	4596
862.447	4641
862.58	4584
862.712	4409
862.844	4299
862.976	4462
863.108	4447
863.24	4889
863.372	4318
863.504	4394
863.636	4432
863.768	4519
863.9	4462
864.032	4356
864.164	4383
864.296	4470
864.428	4546
864.559	4592
864.691	4546
864.823	4474
864.954	4485
865.086	4531
865.217	4478
865.349	4371
865.48	4440
865.612	4481
865.743	4569
865.875	4451
866.006	4398
866.137	4443
866.269	4413
866.4	4421
866.531	4394
866.662	4356
866.793	4383
866.924	4409
867.055	4459
867.186	4440
867.317	4432
867.448	4344
867.579	4375
867.71	4398
867.841	4383
867.972	4436
868.103	4455
868.233	4386
868.364	4424
868.495	4443
868.625	4675
868.756	4752
868.886	4592
869.017	4596
869.147	4755
869.278	4812
869.408	4649
869.539	4592
869.669	4706
869.799	4649
869.929	4809
870.06	4691
870.19	5010
870.32	4938
870.45	4919
870.58	5010
870.71	5098
870.84	5071
870.97	4919
871.1	4919
871.23	5132
871.36	5151
871.489	5014
871.619	5083
871.749	5067
871.879	5124
872.008	5197
872.138	5102
872.267	4946
872.397	4809
872.526	4805
872.656	4702
872.785	4812
872.915	4968
873.044	5067
873.173	4904
873.303	4995
873.432	4938
873.561	4961
873.69	4885
873.819	4866
873.948	4881
874.077	4805
874.206	4778
874.335	4828
874.464	4896
874.593	4991
874.722	4900
874.851	5075
874.979	5037
875.108	5033
875.237	4881
875.365	4889
875.494	4858
875.623	4946
875.751	4824
875.88	4900
876.008	4987
876.136	5014
876.265	5174
876.393	5318
876.521	5242
876.65	5239
876.778	5231
876.906	5071
877.034	5033
877.162	5048
877.29	4991
877.418	5102
877.546	5018
877.674	5098
877.802	5006
877.93	4961
878.058	4919
878.185	4866
878.313	4934
878.441	4976
878.568	4820
878.696	4896
878.824	4927
878.951	5037
879.079	5147
879.206	5296
879.333	5086
879.461	4987
879.588	5014
879.715	5090
879.842	5239
879.97	5006
880.097	4790
880.224	4736
880.351	4854
880.478	4835
880.605	4828
880.732	4767
880.859	5086
880.986	4870
881.112	4968
881.239	4774
881.366	4702
881.493	4558
881.619	4615
881.746	4626
881.872	4653
881.999	4687
882.125	4717
882.252	4786
882.378	4805
882.505	4949
882.631	4824
882.757	4630
882.883	4740
883.01	4714
883.136	4706
883.262	4584
883.388	4596
883.514	4843
883.64	4881
883.766	4790
883.892	4603
884.018	4683
884.143	4839
884.269	5010
884.395	4660
884.52	4584
884.646	4653
884.772	4558
884.897	4565
885.023	4691
885.148	4828
885.274	4847
885.399	4820
885.524	4706
885.65	4691
885.775	4816
885.9	4717
886.025	4847
886.15	4774
886.275	4706
886.4	4649
886.525	4683
886.65	4679
886.775	4721
886.9	4885
887.025	5022
887.149	4778
887.274	4630
887.399	4550
887.523	4603
887.648	4550
887.773	4546
887.897	4755
888.021	4797
888.146	4675
888.27	4786
888.395	4862
888.519	4748
888.643	4778
888.767	4812
888.891	4664
889.015	4592
889.139	4656
889.263	4611
889.387	4733
889.511	4835
889.635	4771
889.759	4634
889.883	4626
890.006	4748
890.13	4805
890.254	4634
890.377	4683
890.501	4542
890.624	4527
890.748	4626
890.871	4447
890.995	4398
891.118	4390
891.241	4474
891.364	4550
891.488	4599
891.611	4489
891.734	4554
891.857	4603
891.98	4527
892.103	4656
892.226	4588
892.349	4512
892.471	4443
892.594	4546
892.717	4577
892.839	4584
892.962	4630
893.085	4588
893.207	4592
893.33	4466
893.452	4481
893.575	4698
893.697	4592
893.819	4809
893.941	4873
894.064	4793
894.186	4565
894.308	4538
894.43	4729
894.552	4881
894.674	4763
894.796	4565
894.918	4603
895.04	4618
895.161	4683
895.283	4729
895.405	4626
895.526	4630
895.648	4714
895.769	4744
895.891	4717
896.012	4736
896.134	4744
896.255	4675
896.376	4653
896.498	4656
896.619	4740
896.74	4634
896.861	4656
896.982	4968
897.103	5071
897.224	4892
897.345	4771
897.466	4755
897.587	4793
897.708	4908
897.828	4843
897.949	4691
898.07	4599
898.19	4702
898.311	4835
898.431	4664
898.552	4797
898.672	4854
898.792	4850
898.913	4786
899.033	4698
899.153	4554
899.273	4466
899.393	4519
899.513	4599
899.633	4577
899.753	4558
899.873	4516
899.993	4603
900.113	4561
900.232	4615
900.352	4584
900.472	4546
900.591	4417
900.711	4516
900.83	4500
900.95	4675
901.069	4767
901.189	4577
901.308	4417
901.427	4371
901.546	4409
901.665	4527
901.784	4558
901.904	4428
902.023	4405
902.141	4215
902.26	4242
902.379	4352
902.498	4265
902.617	4287
902.735	4383
902.854	4428
902.973	4409
903.091	4246
903.21	4261
903.328	4375
903.446	4284
903.565	4287
903.683	4409
903.801	4310
903.919	4417
904.038	4474
904.156	4348
904.274	4466
904.392	4413
904.51	4466
904.627	4538
904.745	4626
904.863	4698
904.981	4451
905.098	4379
905.216	4352
905.334	4443
905.451	4451
905.569	4478
905.686	4561
905.803	4584
905.921	4447
906.038	4561
906.155	4504
906.272	4478
906.389	4462
906.506	4405
906.623	4424
906.74	4451
906.857	4344
906.974	4451
907.091	4542
907.208	4767
907.324	4599
907.441	4546
907.557	4379
907.674	4394
907.79	4329
907.907	4383
908.023	4519
908.139	4523
908.256	4516
908.372	4584
908.488	4470
908.604	4421
908.72	4360
908.836	4398
908.952	4383
909.068	4466
909.184	4615
909.3	4512
909.415	4599
909.531	4626
909.647	4386
909.762	4398
909.878	4386
909.993	4470
910.108	4470
910.224	4428
910.339	4508
910.454	4432
910.57	4447
910.685	4333
910.8	4687
910.915	4630
911.03	4516
911.145	4375
911.259	4375
911.374	4428
911.489	4341
911.604	4276
911.718	4227
911.833	4265
911.947	4116
912.062	4040
912.176	4253
912.291	4329
912.405	4284
912.519	4497
912.633	4554
912.748	4424
912.862	4363
912.976	4200
913.09	4120
913.204	4192
913.318	4314
913.431	4409
913.545	4402
913.659	4451
913.772	4386
913.886	4291
914	4238
914.113	4383
914.226	4516
914.34	4417
914.453	4230
914.566	4443
914.68	4360
914.793	4383
914.906	4219
915.019	4147
915.132	4158
915.245	4192
915.358	4230
915.47	4265
915.583	4303
915.696	4325
915.809	4462
915.921	4462
916.034	4322
916.146	4249
916.259	4261
916.371	4405
916.483	4390
916.595	4291
916.708	4363
916.82	4379
916.932	4337
917.044	4360
917.156	4363
917.268	4287
917.38	4344
917.491	4322
917.603	4371
917.715	4417
917.826	4478
917.938	4417
918.049	4265
918.161	4443
918.272	4588
918.384	4542
918.495	4436
918.606	4341
918.717	4242
918.828	4394
918.939	4379
919.05	4276
919.161	4371
919.272	4169
919.383	4249
919.494	4474
919.604	4649
919.715	4459
919.826	4375
919.936	4470
920.047	4546
920.157	4493
920.267	4714
920.378	4588
920.488	4523
920.598	4736
920.708	4908
920.818	4774
920.928	4744
921.038	4972
921.148	4984
921.258	4675
921.368	4603
921.477	4527
921.587	4478
921.697	4481
921.806	4596
921.916	4527
922.025	4303
922.134	4280
922.244	4284
922.353	4375
922.462	4188
922.571	4154
922.68	4067
922.789	4006
922.898	4021
923.007	4051
923.116	4116
923.224	4109
923.333	4135
923.442	4036
923.55	4032
923.659	4074
923.767	4109
923.876	4002
923.984	4166
924.092	4006
924.201	4078
924.309	4067
924.417	4166
924.525	4109
924.633	4135
924.741	5102
924.849	3960
924.956	4158
925.064	4032
925.172	3934
925.279	3979
925.387	4063
925.494	4090
925.602	4227
925.709	4192
925.816	4078
925.924	4147
926.031	4211
926.138	4223
926.245	4196
926.352	4063
926.459	4261
926.566	4310
926.673	4204
926.779	4097
926.886	4105
926.993	4021
927.099	4013
927.206	3991
927.312	3972
927.419	4086
927.525	4040
927.631	4090
927.737	3960
927.843	3918
927.95	3838
928.056	4013
928.162	3983
928.267	4082
928.373	4679
928.479	4169
928.585	3854
928.69	4017
928.796	4097
928.901	4006
929.007	3903
929.112	4032
929.218	3991
929.323	3979
929.428	3949
929.533	4101
929.638	3926
929.743	3998
929.848	4086
929.953	4010
930.058	3953
930.163	3804
930.267	3869
930.372	3964
930.477	3854
930.581	4124
930.685	3983
930.79	3846
930.894	3911
930.998	3865
931.103	4059
931.207	3720
931.311	3747
931.415	3701
931.519	3515
931.623	3542
