Data from test_V78500241_693.txt Node
Date: Fri Mar 25 16:53:49 CST 2022
User: usil
Spectrometer: V785-0024
Trigger mode: 0
Integration Time (sec): 4.000000E-1
Scans to average: 1
Nonlinearity correction enabled: false
Boxcar width: 0
Storing dark spectrum: false
XAxis mode: Wavelengths
Number of Pixels in Spectrum: 1024
>>>>>Begin Spectral Data<<<<<
801.071	8058
801.214	7993
801.356	7814
801.499	7841
801.641	7738
801.783	7864
801.926	7982
802.068	7974
802.211	8008
802.353	7944
802.496	7932
802.638	7959
802.78	7887
802.923	7909
803.065	7803
803.208	7921
803.35	7997
803.492	8142
803.635	8138
803.777	7993
803.919	8084
804.061	8393
804.204	8096
804.346	8027
804.488	7986
804.63	8088
804.773	7974
804.915	8069
805.057	8332
805.199	8180
805.341	8206
805.483	8256
805.626	8206
805.768	8195
805.91	8195
806.052	8233
806.194	8153
806.336	8309
806.478	8130
806.62	8020
806.762	8191
806.904	8328
807.046	8469
807.188	8393
807.33	8400
807.472	8358
807.614	8187
807.756	8202
807.898	7951
808.04	7887
808.182	7864
808.324	7986
808.465	7955
808.607	8020
808.749	8123
808.891	8206
809.033	8336
809.174	8199
809.316	8123
809.458	8126
809.6	7986
809.741	8043
809.883	8077
810.025	8100
810.166	8123
810.308	8035
810.45	8050
810.591	7898
810.733	7746
810.875	7708
811.016	7609
811.158	7567
811.299	7666
811.441	7761
811.582	7719
811.724	7616
811.865	7563
812.007	7613
812.148	7639
812.29	7609
812.431	7715
812.573	7818
812.714	7967
812.855	8149
812.997	8210
813.138	8317
813.279	8176
813.421	8206
813.562	8073
813.703	7902
813.845	7765
813.986	7438
814.127	7285
814.268	7285
814.41	7247
814.551	7107
814.692	7171
814.833	7076
814.974	7091
815.115	7137
815.256	6989
815.397	6973
815.539	7046
815.68	6833
815.821	6806
815.962	6901
816.103	6825
816.244	6722
816.385	6688
816.526	6696
816.666	6509
816.807	6346
816.948	6467
817.089	6513
817.23	6498
817.371	6426
817.512	6448
817.653	6407
817.793	6365
817.934	6445
818.075	6448
818.216	6483
818.356	6445
818.497	6239
818.638	6163
818.778	6159
818.919	6129
819.06	6121
819.2	6346
819.341	6410
819.481	6342
819.622	6597
819.762	6829
819.903	6741
820.043	6612
820.184	6551
820.324	6536
820.465	6787
820.605	6738
820.746	6593
820.886	6509
821.026	6639
821.167	6696
821.307	6825
821.447	6791
821.588	6681
821.728	6563
821.868	6528
822.008	6315
822.149	6361
822.289	6357
822.429	6201
822.569	6072
822.709	6079
822.849	5931
822.99	5882
823.13	5935
823.27	5950
823.41	5817
823.55	5764
823.69	5805
823.83	5821
823.97	5672
824.11	5554
824.25	5520
824.389	5573
824.529	5623
824.669	5528
824.809	5661
824.949	5649
825.089	5604
825.228	5562
825.368	5429
825.508	5391
825.648	5364
825.787	5429
825.927	5395
826.067	5395
826.206	5368
826.346	5444
826.485	5444
826.625	5417
826.765	5592
826.904	5482
827.044	5250
827.183	5284
827.323	5132
827.462	5242
827.601	5235
827.741	5185
827.88	5231
828.02	5094
828.159	5246
828.298	5303
828.437	5379
828.577	5242
828.716	5524
828.855	5345
828.994	5216
829.134	5105
829.273	5208
829.412	5147
829.551	5147
829.69	5185
829.829	5231
829.968	5417
830.107	5288
830.246	5269
830.385	5185
830.524	5113
830.663	5098
830.802	4999
830.941	4892
831.08	4927
831.219	5041
831.357	4957
831.496	5155
831.635	4923
831.774	4862
831.913	4870
832.051	4740
832.19	4786
832.329	4915
832.467	4725
832.606	4668
832.744	4733
832.883	4748
833.022	4736
833.16	4782
833.299	4843
833.437	4847
833.576	4831
833.714	4854
833.852	4892
833.991	4915
834.129	4968
834.267	4984
834.406	4961
834.544	4999
834.682	4995
834.821	4972
834.959	5189
835.097	4987
835.235	5181
835.373	5086
835.511	5132
835.65	5079
835.788	4995
835.926	4900
836.064	4885
836.202	4957
836.34	5193
836.478	5197
836.615	5162
836.753	5208
836.891	5284
837.029	5269
837.167	5193
837.305	5170
837.443	5189
837.58	5090
837.718	5288
837.856	5193
837.993	5124
838.131	5246
838.269	5216
838.406	5174
838.544	5162
838.681	5041
838.819	5033
838.956	4866
839.094	4915
839.231	5014
839.369	5132
839.506	5455
839.643	5330
839.781	5098
839.918	4991
840.055	5132
840.193	5193
840.33	5124
840.467	5098
840.604	5208
840.742	5486
840.879	5117
841.016	5071
841.153	5189
841.29	5395
841.427	5376
841.564	5288
841.701	5383
841.838	5334
841.975	5258
842.112	5273
842.249	5155
842.385	5109
842.522	5322
842.659	5201
842.796	5216
842.933	5155
843.069	5166
843.206	5151
843.343	5284
843.479	5250
843.616	5307
843.752	5022
843.889	5029
844.025	5220
844.162	5014
844.298	5220
844.435	5140
844.571	5079
844.708	5151
844.844	5280
844.98	5341
845.117	5311
845.253	5121
845.389	5083
845.525	5174
845.661	5147
845.798	5060
845.934	5140
846.07	5071
846.206	5185
846.342	5246
846.478	5178
846.614	5075
846.75	4961
846.886	5003
847.022	5136
847.158	5048
847.294	5056
847.429	5132
847.565	5067
847.701	5334
847.837	4889
847.972	4843
848.108	4999
848.244	4919
848.379	4805
848.515	4767
848.65	4752
848.786	4771
848.921	4752
849.057	4854
849.192	4889
849.328	4812
849.463	4881
849.598	4843
849.734	4752
849.869	4706
850.004	4664
850.14	4653
850.275	4584
850.41	4588
850.545	4588
850.68	4622
850.815	4603
850.95	4649
851.085	4843
851.22	4774
851.355	4706
851.49	4588
851.625	4637
851.76	4641
851.895	4573
852.03	4561
852.165	4656
852.299	4714
852.434	4748
852.569	4767
852.703	4767
852.838	4881
852.973	4919
853.107	4930
853.242	4782
853.376	4710
853.511	4584
853.645	4687
853.78	4805
853.914	4698
854.048	4687
854.183	4660
854.317	4668
854.451	4862
854.585	4717
854.72	4672
854.854	4740
854.988	4611
855.122	4664
855.256	4584
855.39	4725
855.524	4801
855.658	4714
855.792	4744
855.926	4793
856.06	4740
856.194	4801
856.327	4694
856.461	4637
856.595	4573
856.729	4698
856.862	4767
856.996	4714
857.13	4725
857.263	4824
857.397	4828
857.53	4615
857.664	4683
857.797	4763
857.931	4774
858.064	4710
858.197	4771
858.331	4656
858.464	4645
858.597	4546
858.731	4691
858.864	4596
858.997	4565
859.13	4634
859.263	4679
859.396	4710
859.529	4584
859.662	4615
859.795	4596
859.928	4649
860.061	4801
860.194	4862
860.327	4615
860.46	4618
860.592	4702
860.725	4744
860.858	4736
860.99	4577
861.123	4504
861.256	4512
861.388	4653
861.521	5318
861.653	4470
861.786	4443
861.918	4485
862.05	4535
862.183	4615
862.315	4603
862.447	4660
862.58	4508
862.712	4375
862.844	4379
862.976	4485
863.108	4531
863.24	4858
863.372	4341
863.504	4459
863.636	4436
863.768	4527
863.9	4470
864.032	4371
864.164	4424
864.296	4478
864.428	4584
864.559	4580
864.691	4554
864.823	4478
864.954	4542
865.086	4474
865.217	4481
865.349	4447
865.48	4531
865.612	4508
865.743	4664
865.875	4470
866.006	4432
866.137	4455
866.269	4432
866.4	4451
866.531	4466
866.662	4383
866.793	4398
866.924	4462
867.055	4500
867.186	4455
867.317	4402
867.448	4379
867.579	4405
867.71	4443
867.841	4394
867.972	4462
868.103	4485
868.233	4466
868.364	4459
868.495	4516
868.625	4645
868.756	4782
868.886	4615
869.017	4622
869.147	4790
869.278	4763
869.408	4626
869.539	4618
869.669	4725
869.799	4645
869.929	4744
870.06	4763
870.19	4942
870.32	4942
870.45	4915
870.58	4987
870.71	5109
870.84	5117
870.97	4930
871.1	4877
871.23	5113
871.36	5136
871.489	5018
871.619	5018
871.749	5086
871.879	5117
872.008	5151
872.138	5079
872.267	4987
872.397	4870
872.526	4858
872.656	4653
872.785	4793
872.915	4946
873.044	5006
873.173	4946
873.303	4961
873.432	4911
873.561	4938
873.69	4858
873.819	4831
873.948	4927
874.077	4824
874.206	4736
874.335	4793
874.464	4927
874.593	5113
874.722	5010
874.851	5102
874.979	5075
875.108	4999
875.237	4930
875.365	4839
875.494	4862
875.623	5029
875.751	4759
875.88	4900
876.008	4995
876.136	5067
876.265	5181
876.393	5315
876.521	5280
876.65	5223
876.778	5174
876.906	5067
877.034	5022
877.162	5037
877.29	4942
877.418	5041
877.546	5003
877.674	5056
877.802	4999
877.93	4995
878.058	4911
878.185	4896
878.313	4968
878.441	4953
878.568	4778
878.696	4919
878.824	4965
878.951	4968
879.079	5185
879.206	5239
879.333	5090
879.461	4995
879.588	4991
879.715	5113
879.842	5231
879.97	5064
880.097	4763
880.224	4744
880.351	4820
880.478	4828
880.605	4812
880.732	4839
880.859	5052
880.986	4892
881.112	4915
881.239	4763
881.366	4660
881.493	4611
881.619	4592
881.746	4691
881.872	4664
881.999	4596
882.125	4694
882.252	4786
882.378	4820
882.505	4980
882.631	4816
882.757	4687
882.883	4736
883.01	4687
883.136	4679
883.262	4584
883.388	4645
883.514	4786
883.64	4843
883.766	4717
883.892	4672
884.018	4706
884.143	4870
884.269	5071
884.395	4721
884.52	4729
884.646	4649
884.772	4611
884.897	4516
885.023	4687
885.148	4759
885.274	4889
885.399	4786
885.524	4748
885.65	4679
885.775	4721
885.9	4714
886.025	4854
886.15	4778
886.275	4759
886.4	4656
886.525	4687
886.65	4717
886.775	4710
886.9	4938
887.025	5014
887.149	4835
887.274	4653
887.399	4626
887.523	4580
887.648	4558
887.773	4561
887.897	4744
888.021	4752
888.146	4710
888.27	4805
888.395	4892
888.519	4752
888.643	4831
888.767	4889
888.891	4668
889.015	4592
889.139	4653
889.263	4649
889.387	4801
889.511	4828
889.635	4809
889.759	4626
889.883	4653
890.006	4729
890.13	4877
890.254	4596
890.377	4694
890.501	4561
890.624	4527
890.748	4622
890.871	4504
890.995	4428
891.118	4379
891.241	4497
891.364	4504
891.488	4645
891.611	4531
891.734	4523
891.857	4596
891.98	4565
892.103	4622
892.226	4626
892.349	4485
892.471	4459
892.594	4531
892.717	4622
892.839	4569
892.962	4588
893.085	4668
893.207	4561
893.33	4481
893.452	4531
893.575	4672
893.697	4592
893.819	4812
893.941	4877
894.064	4816
894.186	4558
894.308	4561
894.43	4725
894.552	4831
894.674	4782
894.796	4481
894.918	4630
895.04	4554
895.161	4683
895.283	4626
895.405	4588
895.526	4687
895.648	4683
895.769	4683
895.891	4733
896.012	4793
896.134	4744
896.255	4645
896.376	4596
896.498	4618
896.619	4683
896.74	4603
896.861	4656
896.982	4980
897.103	5094
897.224	4831
897.345	4755
897.466	4649
897.587	4748
897.708	4835
897.828	4763
897.949	4694
898.07	4558
898.19	4599
898.311	4812
898.431	4664
898.552	4714
898.672	4793
898.792	4835
898.913	4717
899.033	4618
899.153	4497
899.273	4394
899.393	4519
899.513	4493
899.633	4527
899.753	4542
899.873	4489
899.993	4554
900.113	4508
900.232	4618
900.352	4577
900.472	4470
900.591	4405
900.711	4516
900.83	4478
900.95	4615
901.069	4714
901.189	4531
901.308	4329
901.427	4310
901.546	4383
901.665	4489
901.784	4485
901.904	4409
902.023	4318
902.141	4223
902.26	4166
902.379	4291
902.498	4242
902.617	4265
902.735	4367
902.854	4409
902.973	4341
903.091	4181
903.21	4177
903.328	4310
903.446	4276
903.565	4249
903.683	4333
903.801	4276
903.919	4405
904.038	4440
904.156	4314
904.274	4489
904.392	4417
904.51	4443
904.627	4455
904.745	4580
904.863	4641
904.981	4424
905.098	4352
905.216	4383
905.334	4417
905.451	4455
905.569	4432
905.686	4538
905.803	4596
905.921	4371
906.038	4550
906.155	4500
906.272	4375
906.389	4470
906.506	4325
906.623	4322
906.74	4394
906.857	4325
906.974	4428
907.091	4580
907.208	4702
907.324	4584
907.441	4489
907.557	4329
907.674	4356
907.79	4318
907.907	4371
908.023	4512
908.139	4489
908.256	4440
908.372	4455
908.488	4443
908.604	4363
908.72	4337
908.836	4375
908.952	4341
909.068	4432
909.184	4538
909.3	4474
909.415	4615
909.531	4535
909.647	4371
909.762	4390
909.878	4360
909.993	4436
910.108	4390
910.224	4405
910.339	4523
910.454	4421
910.57	4341
910.685	4280
910.8	4607
910.915	4649
911.03	4497
911.145	4329
911.259	4341
911.374	4356
911.489	4284
911.604	4227
911.718	4169
911.833	4238
911.947	4109
912.062	4025
912.176	4238
912.291	4200
912.405	4291
912.519	4455
912.633	4516
912.748	4379
912.862	4303
912.976	4257
913.09	4086
913.204	4177
913.318	4234
913.431	4352
913.545	4344
913.659	4413
913.772	4383
913.886	4200
914	4219
914.113	4367
914.226	4462
914.34	4344
914.453	4249
914.566	4432
914.68	4276
914.793	4341
914.906	4169
915.019	4093
915.132	4090
915.245	4192
915.358	4173
915.47	4249
915.583	4261
915.696	4314
915.809	4394
915.921	4417
916.034	4272
916.146	4261
916.259	4207
916.371	4398
916.483	4329
916.595	4257
916.708	4306
916.82	4306
916.932	4265
917.044	4356
917.156	4314
917.268	4234
917.38	4329
917.491	4284
917.603	4303
917.715	4409
917.826	4436
917.938	4352
918.049	4249
918.161	4451
918.272	4527
918.384	4569
918.495	4402
918.606	4333
918.717	4234
918.828	4322
918.939	4356
919.05	4227
919.161	4337
919.272	4116
919.383	4211
919.494	4424
919.604	4630
919.715	4424
919.826	4310
919.936	4417
920.047	4527
920.157	4535
920.267	4698
920.378	4554
920.488	4493
920.598	4687
920.708	4919
920.818	4706
920.928	4797
921.038	4927
921.148	4919
921.258	4637
921.368	4573
921.477	4478
921.587	4428
921.697	4409
921.806	4569
921.916	4459
922.025	4215
922.134	4310
922.244	4188
922.353	4314
922.462	4185
922.571	4090
922.68	3979
922.789	3987
922.898	4025
923.007	3953
923.116	4082
923.224	4055
923.333	4093
923.442	4025
923.55	3991
923.659	4044
923.767	4150
923.876	3964
923.984	4150
924.092	3968
924.201	4101
924.309	4105
924.417	4154
924.525	4059
924.633	4128
924.741	5071
924.849	3926
924.956	4150
925.064	3949
925.172	3892
925.279	3979
925.387	4086
925.494	4074
925.602	4246
925.709	4196
925.816	4036
925.924	4082
926.031	4261
926.138	4150
926.245	4227
926.352	4082
926.459	4230
926.566	4314
926.673	4166
926.779	4063
926.886	4097
926.993	4036
927.099	3930
927.206	3949
927.312	3930
927.419	4074
927.525	4036
927.631	4086
927.737	3979
927.843	3911
927.95	3857
928.056	3934
928.162	4017
928.267	4059
928.373	4683
928.479	4143
928.585	3880
928.69	4017
928.796	4055
928.901	3953
929.007	3838
929.112	4010
929.218	4025
929.323	3968
929.428	3903
929.533	4105
929.638	3903
929.743	3964
929.848	4051
929.953	3998
930.058	3922
930.163	3816
930.267	3835
930.372	3922
930.477	3797
930.581	4090
930.685	3934
930.79	3797
930.894	3861
930.998	3892
931.103	4013
931.207	3717
931.311	3675
931.415	3671
931.519	3515
931.623	3526
