Data from test_V78500241_2374.txt Node
Date: Fri Mar 25 17:05:30 CST 2022
User: usil
Spectrometer: V785-0024
Trigger mode: 0
Integration Time (sec): 4.000000E-1
Scans to average: 1
Nonlinearity correction enabled: false
Boxcar width: 0
Storing dark spectrum: false
XAxis mode: Wavelengths
Number of Pixels in Spectrum: 1024
>>>>>Begin Spectral Data<<<<<
801.071	8054
801.214	8054
801.356	7894
801.499	7860
801.641	7898
801.783	7814
801.926	8001
802.068	7936
802.211	7913
802.353	8058
802.496	7883
802.638	7879
802.78	7940
802.923	7902
803.065	7883
803.208	7917
803.35	8035
803.492	8153
803.635	8164
803.777	8092
803.919	8172
804.061	8457
804.204	8145
804.346	8073
804.488	7955
804.63	8153
804.773	7986
804.915	8149
805.057	8286
805.199	8233
805.341	8153
805.483	8225
805.626	8210
805.768	8123
805.91	8252
806.052	8206
806.194	8157
806.336	8339
806.478	8115
806.62	8096
806.762	8092
806.904	8161
807.046	8457
807.188	8339
807.33	8336
807.472	8320
807.614	8199
807.756	8180
807.898	7947
808.04	7917
808.182	7833
808.324	7822
808.465	7932
808.607	8111
808.749	8153
808.891	8267
809.033	8332
809.174	8248
809.316	8069
809.458	8058
809.6	8092
809.741	8031
809.883	8039
810.025	8157
810.166	8088
810.308	8024
810.45	8020
810.591	7860
810.733	7776
810.875	7677
811.016	7540
811.158	7480
811.299	7590
811.441	7746
811.582	7674
811.724	7540
811.865	7578
812.007	7609
812.148	7651
812.29	7674
812.431	7807
812.573	7879
812.714	7978
812.855	8168
812.997	8214
813.138	8351
813.279	8237
813.421	8081
813.562	7970
813.703	7826
813.845	7738
813.986	7514
814.127	7301
814.268	7217
814.41	7198
814.551	7194
814.692	7228
814.833	7061
814.974	7141
815.115	7149
815.256	6943
815.397	6913
815.539	7012
815.68	6844
815.821	6837
815.962	6890
816.103	6810
816.244	6684
816.385	6639
816.526	6646
816.666	6494
816.807	6342
816.948	6479
817.089	6517
817.23	6502
817.371	6429
817.512	6319
817.653	6369
817.793	6414
817.934	6452
818.075	6502
818.216	6452
818.356	6418
818.497	6262
818.638	6144
818.778	6136
818.919	6121
819.06	6091
819.2	6384
819.341	6357
819.481	6448
819.622	6601
819.762	6753
819.903	6696
820.043	6601
820.184	6578
820.324	6566
820.465	6711
820.605	6677
820.746	6703
820.886	6574
821.026	6696
821.167	6722
821.307	6802
821.447	6779
821.588	6673
821.728	6597
821.868	6566
822.008	6331
822.149	6350
822.289	6380
822.429	6205
822.569	6079
822.709	6159
822.849	5961
822.99	5870
823.13	5927
823.27	5908
823.41	5832
823.55	5798
823.69	5752
823.83	5733
823.97	5680
824.11	5604
824.25	5474
824.389	5551
824.529	5596
824.669	5509
824.809	5611
824.949	5657
825.089	5619
825.228	5619
825.368	5406
825.508	5376
825.648	5311
825.787	5395
825.927	5406
826.067	5250
826.206	5299
826.346	5330
826.485	5433
826.625	5421
826.765	5573
826.904	5444
827.044	5277
827.183	5201
827.323	5052
827.462	5235
827.601	5178
827.741	5155
827.88	5212
828.02	5079
828.159	5254
828.298	5292
828.437	5383
828.577	5318
828.716	5474
828.855	5349
828.994	5197
829.134	5140
829.273	5136
829.412	5155
829.551	5155
829.69	5170
829.829	5242
829.968	5345
830.107	5303
830.246	5296
830.385	5178
830.524	5159
830.663	5117
830.802	4965
830.941	4896
831.08	4843
831.219	4991
831.357	5014
831.496	5208
831.635	4927
831.774	4866
831.913	4870
832.051	4767
832.19	4706
832.329	4824
832.467	4656
832.606	4630
832.744	4717
832.883	4752
833.022	4691
833.16	4767
833.299	4850
833.437	4816
833.576	4820
833.714	4873
833.852	4885
833.991	4915
834.129	4987
834.267	4976
834.406	4908
834.544	4987
834.682	4968
834.821	4923
834.959	5212
835.097	5010
835.235	5159
835.373	5090
835.511	5140
835.65	5102
835.788	5067
835.926	4904
836.064	4908
836.202	4919
836.34	5197
836.478	5246
836.615	5193
836.753	5185
836.891	5299
837.029	5261
837.167	5155
837.305	5189
837.443	5136
837.58	5079
837.718	5284
837.856	5193
837.993	5147
838.131	5216
838.269	5220
838.406	5204
838.544	5208
838.681	5033
838.819	5003
838.956	4870
839.094	4919
839.231	4980
839.369	5117
839.506	5433
839.643	5242
839.781	5105
839.918	5025
840.055	5121
840.193	5071
840.33	5189
840.467	5162
840.604	5155
840.742	5406
840.879	5105
841.016	5102
841.153	5136
841.29	5269
841.427	5311
841.564	5322
841.701	5376
841.838	5254
841.975	5231
842.112	5242
842.249	5174
842.385	5086
842.522	5311
842.659	5159
842.796	5117
842.933	5124
843.069	5166
843.206	5147
843.343	5284
843.479	5216
843.616	5258
843.752	5041
843.889	5003
844.025	5250
844.162	5033
844.298	5208
844.435	5109
844.571	5025
844.708	5189
844.844	5353
844.98	5349
845.117	5303
845.253	5098
845.389	5090
845.525	5136
845.661	5128
845.798	5029
845.934	5147
846.07	5083
846.206	5216
846.342	5337
846.478	5189
846.614	5048
846.75	4957
846.886	4957
847.022	5147
847.158	4995
847.294	5052
847.429	5094
847.565	5090
847.701	5311
847.837	4828
847.972	4809
848.108	4911
848.244	4946
848.379	4771
848.515	4725
848.65	4725
848.786	4744
848.921	4793
849.057	4892
849.192	4896
849.328	4812
849.463	4782
849.598	4847
849.734	4729
849.869	4641
850.004	4618
850.14	4679
850.275	4615
850.41	4516
850.545	4561
850.68	4558
850.815	4603
850.95	4653
851.085	4843
851.22	4736
851.355	4687
851.49	4596
851.625	4653
851.76	4611
851.895	4577
852.03	4538
852.165	4630
852.299	4748
852.434	4763
852.569	4797
852.703	4736
852.838	4843
852.973	4911
853.107	4873
853.242	4729
853.376	4653
853.511	4546
853.645	4653
853.78	4778
853.914	4679
854.048	4630
854.183	4691
854.317	4672
854.451	4801
854.585	4710
854.72	4660
854.854	4763
854.988	4565
855.122	4634
855.256	4531
855.39	4645
855.524	4790
855.658	4763
855.792	4706
855.926	4710
856.06	4740
856.194	4755
856.327	4656
856.461	4641
856.595	4626
856.729	4637
856.862	4733
856.996	4679
857.13	4740
857.263	4733
857.397	4797
857.53	4641
857.664	4683
857.797	4752
857.931	4786
858.064	4668
858.197	4801
858.331	4698
858.464	4596
858.597	4531
858.731	4611
858.864	4618
858.997	4607
859.13	4668
859.263	4698
859.396	4698
859.529	4558
859.662	4588
859.795	4538
859.928	4622
860.061	4733
860.194	4740
860.327	4630
860.46	4577
860.592	4771
860.725	4744
860.858	4729
860.99	4584
861.123	4523
861.256	4500
861.388	4626
861.521	5326
861.653	4512
861.786	4478
861.918	4497
862.05	4512
862.183	4561
862.315	4611
862.447	4649
862.58	4546
862.712	4379
862.844	4314
862.976	4474
863.108	4451
863.24	4835
863.372	4329
863.504	4424
863.636	4398
863.768	4417
863.9	4436
864.032	4398
864.164	4390
864.296	4489
864.428	4577
864.559	4550
864.691	4523
864.823	4516
864.954	4512
865.086	4478
865.217	4424
865.349	4417
865.48	4455
865.612	4443
865.743	4634
865.875	4440
866.006	4440
866.137	4531
866.269	4455
866.4	4462
866.531	4417
866.662	4417
866.793	4436
866.924	4405
867.055	4466
867.186	4459
867.317	4455
867.448	4375
867.579	4337
867.71	4428
867.841	4375
867.972	4485
868.103	4455
868.233	4443
868.364	4428
868.495	4440
868.625	4660
868.756	4778
868.886	4558
869.017	4634
869.147	4774
869.278	4774
869.408	4637
869.539	4649
869.669	4706
869.799	4691
869.929	4793
870.06	4702
870.19	4976
870.32	4927
870.45	4927
870.58	4995
870.71	5098
870.84	5105
870.97	4934
871.1	4889
871.23	5174
871.36	5109
871.489	5033
871.619	5132
871.749	5067
871.879	5098
872.008	5162
872.138	5022
872.267	4930
872.397	4786
872.526	4805
872.656	4759
872.785	4801
872.915	4980
873.044	5029
873.173	4881
873.303	4976
873.432	4923
873.561	5029
873.69	4881
873.819	4839
873.948	4908
874.077	4835
874.206	4790
874.335	4805
874.464	4949
874.593	5086
874.722	4961
874.851	5140
874.979	5067
875.108	5052
875.237	4904
875.365	4858
875.494	4881
875.623	4949
875.751	4809
875.88	4877
876.008	4976
876.136	5025
876.265	5201
876.393	5345
876.521	5265
876.65	5284
876.778	5166
876.906	5117
877.034	4995
877.162	5067
877.29	5014
877.418	5037
877.546	5029
877.674	5033
877.802	5025
877.93	5037
878.058	4927
878.185	4889
878.313	5003
878.441	4934
878.568	4820
878.696	4866
878.824	4987
878.951	5003
879.079	5132
879.206	5254
879.333	5083
879.461	4991
879.588	4980
879.715	5136
879.842	5197
879.97	4976
880.097	4801
880.224	4748
880.351	4805
880.478	4866
880.605	4797
880.732	4839
880.859	5064
880.986	4870
881.112	4934
881.239	4793
881.366	4672
881.493	4622
881.619	4580
881.746	4626
881.872	4656
881.999	4634
882.125	4630
882.252	4793
882.378	4812
882.505	4957
882.631	4809
882.757	4672
882.883	4691
883.01	4752
883.136	4649
883.262	4603
883.388	4622
883.514	4816
883.64	4870
883.766	4809
883.892	4767
884.018	4668
884.143	4892
884.269	4980
884.395	4706
884.52	4649
884.646	4653
884.772	4607
884.897	4508
885.023	4675
885.148	4790
885.274	4843
885.399	4854
885.524	4759
885.65	4714
885.775	4717
885.9	4687
886.025	4858
886.15	4778
886.275	4706
886.4	4607
886.525	4736
886.65	4675
886.775	4683
886.9	4900
887.025	5060
887.149	4782
887.274	4691
887.399	4538
887.523	4645
887.648	4592
887.773	4607
887.897	4736
888.021	4748
888.146	4675
888.27	4786
888.395	4915
888.519	4767
888.643	4790
888.767	4786
888.891	4687
889.015	4596
889.139	4645
889.263	4611
889.387	4801
889.511	4809
889.635	4797
889.759	4656
889.883	4641
890.006	4687
890.13	4812
890.254	4668
890.377	4706
890.501	4527
890.624	4519
890.748	4637
890.871	4500
890.995	4440
891.118	4344
891.241	4481
891.364	4519
891.488	4607
891.611	4523
891.734	4538
891.857	4580
891.98	4550
892.103	4603
892.226	4592
892.349	4512
892.471	4440
892.594	4489
892.717	4569
892.839	4550
892.962	4622
893.085	4622
893.207	4615
893.33	4466
893.452	4550
893.575	4668
893.697	4577
893.819	4797
893.941	4831
894.064	4774
894.186	4596
894.308	4535
894.43	4733
894.552	4805
894.674	4793
894.796	4577
894.918	4599
895.04	4542
895.161	4706
895.283	4687
895.405	4531
895.526	4622
895.648	4698
895.769	4672
895.891	4736
896.012	4733
896.134	4729
896.255	4664
896.376	4706
896.498	4611
896.619	4668
896.74	4611
896.861	4634
896.982	4915
897.103	5075
897.224	4797
897.345	4714
897.466	4698
897.587	4752
897.708	4896
897.828	4759
897.949	4645
898.07	4535
898.19	4618
898.311	4805
898.431	4675
898.552	4725
898.672	4820
898.792	4790
898.913	4725
899.033	4607
899.153	4466
899.273	4402
899.393	4474
899.513	4538
899.633	4500
899.753	4531
899.873	4504
899.993	4580
900.113	4546
900.232	4626
900.352	4565
900.472	4508
900.591	4390
900.711	4478
900.83	4447
900.95	4558
901.069	4683
901.189	4584
901.308	4348
901.427	4291
901.546	4409
901.665	4459
901.784	4497
901.904	4428
902.023	4344
902.141	4200
902.26	4143
902.379	4299
902.498	4249
902.617	4265
902.735	4352
902.854	4386
902.973	4375
903.091	4249
903.21	4196
903.328	4268
903.446	4295
903.565	4242
903.683	4360
903.801	4303
903.919	4394
904.038	4455
904.156	4322
904.274	4447
904.392	4447
904.51	4417
904.627	4538
904.745	4622
904.863	4626
904.981	4417
905.098	4363
905.216	4341
905.334	4432
905.451	4409
905.569	4413
905.686	4561
905.803	4577
905.921	4379
906.038	4580
906.155	4508
906.272	4413
906.389	4432
906.506	4341
906.623	4409
906.74	4386
906.857	4356
906.974	4325
907.091	4561
907.208	4645
907.324	4649
907.441	4474
907.557	4348
907.674	4344
907.79	4337
907.907	4394
908.023	4508
908.139	4497
908.256	4462
908.372	4466
908.488	4409
908.604	4344
908.72	4306
908.836	4333
908.952	4379
909.068	4436
909.184	4535
909.3	4523
909.415	4588
909.531	4550
909.647	4352
909.762	4371
909.878	4322
909.993	4436
910.108	4383
910.224	4413
910.339	4485
910.454	4421
910.57	4386
910.685	4306
910.8	4618
910.915	4580
911.03	4470
911.145	4333
911.259	4348
911.374	4348
911.489	4284
911.604	4249
911.718	4211
911.833	4215
911.947	4063
912.062	4006
912.176	4158
912.291	4211
912.405	4322
912.519	4451
912.633	4474
912.748	4398
912.862	4318
912.976	4215
913.09	4071
913.204	4116
913.318	4253
913.431	4363
913.545	4360
913.659	4386
913.772	4390
913.886	4272
914	4234
914.113	4363
914.226	4436
914.34	4383
914.453	4211
914.566	4421
914.68	4329
914.793	4318
914.906	4169
915.019	4154
915.132	4055
915.245	4124
915.358	4207
915.47	4230
915.583	4295
915.696	4329
915.809	4402
915.921	4402
916.034	4227
916.146	4253
916.259	4200
916.371	4314
916.483	4375
916.595	4223
916.708	4306
916.82	4322
916.932	4325
917.044	4379
917.156	4337
917.268	4185
917.38	4299
917.491	4299
917.603	4329
917.715	4470
917.826	4451
917.938	4375
918.049	4238
918.161	4363
918.272	4554
918.384	4542
918.495	4455
918.606	4306
918.717	4265
918.828	4306
918.939	4341
919.05	4287
919.161	4280
919.272	4128
919.383	4177
919.494	4436
919.604	4664
919.715	4451
919.826	4322
919.936	4413
920.047	4504
920.157	4489
920.267	4691
920.378	4554
920.488	4508
920.598	4782
920.708	4866
920.818	4797
920.928	4733
921.038	4934
921.148	4919
921.258	4622
921.368	4580
921.477	4485
921.587	4474
921.697	4383
921.806	4512
921.916	4443
922.025	4287
922.134	4276
922.244	4246
922.353	4386
922.462	4173
922.571	4135
922.68	4002
922.789	3975
922.898	4067
923.007	4040
923.116	4059
923.224	4086
923.333	4036
923.442	3964
923.55	3956
923.659	4040
923.767	4074
923.876	4017
923.984	4124
924.092	3983
924.201	4059
924.309	4158
924.417	4074
924.525	4013
924.633	4105
924.741	5098
924.849	3968
924.956	4116
925.064	3972
925.172	3888
925.279	3979
925.387	4051
925.494	4051
925.602	4204
925.709	4162
925.816	4040
925.924	4112
926.031	4211
926.138	4188
926.245	4158
926.352	4109
926.459	4207
926.566	4322
926.673	4135
926.779	4124
926.886	4040
926.993	3975
927.099	4017
927.206	3975
927.312	3975
927.419	4086
927.525	4025
927.631	4082
927.737	3953
927.843	3930
927.95	3842
928.056	3918
928.162	3987
928.267	4048
928.373	4603
928.479	4090
928.585	3911
928.69	3991
928.796	4090
928.901	3983
929.007	3884
929.112	4032
929.218	3937
929.323	3911
929.428	3953
929.533	4120
929.638	3911
929.743	3930
929.848	4017
929.953	4021
930.058	3937
930.163	3774
930.267	3838
930.372	3964
930.477	3846
930.581	4112
930.685	3968
930.79	3835
930.894	3892
930.998	3854
931.103	4002
931.207	3717
931.311	3724
931.415	3675
931.519	3519
931.623	3511
