Data from test_V78500241_1834.txt Node
Date: Fri Mar 25 17:01:45 CST 2022
User: usil
Spectrometer: V785-0024
Trigger mode: 0
Integration Time (sec): 4.000000E-1
Scans to average: 1
Nonlinearity correction enabled: false
Boxcar width: 0
Storing dark spectrum: false
XAxis mode: Wavelengths
Number of Pixels in Spectrum: 1024
>>>>>Begin Spectral Data<<<<<
801.071	8020
801.214	7978
801.356	7868
801.499	7849
801.641	7807
801.783	7841
801.926	7951
802.068	7947
802.211	7967
802.353	8016
802.496	7871
802.638	7849
802.78	7845
802.923	7932
803.065	7822
803.208	7837
803.35	7944
803.492	8062
803.635	8149
803.777	8039
803.919	8126
804.061	8469
804.204	8119
804.346	8058
804.488	7967
804.63	8119
804.773	8005
804.915	8008
805.057	8320
805.199	8130
805.341	8248
805.483	8240
805.626	8191
805.768	8123
805.91	8256
806.052	8237
806.194	8168
806.336	8351
806.478	8119
806.62	8043
806.762	8180
806.904	8259
807.046	8522
807.188	8366
807.33	8298
807.472	8362
807.614	8107
807.756	8107
807.898	8027
808.04	7837
808.182	7902
808.324	7890
808.465	7894
808.607	8046
808.749	8092
808.891	8240
809.033	8309
809.174	8195
809.316	8103
809.458	8081
809.6	8043
809.741	8005
809.883	8031
810.025	8058
810.166	8043
810.308	8005
810.45	7978
810.591	7845
810.733	7708
810.875	7655
811.016	7540
811.158	7407
811.299	7597
811.441	7723
811.582	7636
811.724	7632
811.865	7628
812.007	7559
812.148	7529
812.29	7613
812.431	7734
812.573	7917
812.714	8043
812.855	8107
812.997	8199
813.138	8256
813.279	8187
813.421	8088
813.562	7921
813.703	7814
813.845	7780
813.986	7438
814.127	7209
814.268	7217
814.41	7236
814.551	7156
814.692	7236
814.833	7046
814.974	7179
815.115	7107
815.256	7027
815.397	6977
815.539	6920
815.68	6867
815.821	6703
815.962	6837
816.103	6875
816.244	6715
816.385	6650
816.526	6639
816.666	6506
816.807	6342
816.948	6471
817.089	6483
817.23	6464
817.371	6346
817.512	6331
817.653	6384
817.793	6331
817.934	6403
818.075	6486
818.216	6372
818.356	6414
818.497	6216
818.638	6129
818.778	6163
818.919	6136
819.06	6209
819.2	6300
819.341	6372
819.481	6327
819.622	6544
819.762	6688
819.903	6692
820.043	6566
820.184	6544
820.324	6582
820.465	6745
820.605	6681
820.746	6627
820.886	6502
821.026	6684
821.167	6703
821.307	6703
821.447	6776
821.588	6654
821.728	6570
821.868	6494
822.008	6365
822.149	6391
822.289	6319
822.429	6171
822.569	6091
822.709	6079
822.849	5916
822.99	5897
823.13	5889
823.27	5939
823.41	5779
823.55	5767
823.69	5836
823.83	5748
823.97	5684
824.11	5532
824.25	5516
824.389	5581
824.529	5604
824.669	5543
824.809	5623
824.949	5661
825.089	5638
825.228	5558
825.368	5406
825.508	5364
825.648	5353
825.787	5353
825.927	5368
826.067	5280
826.206	5292
826.346	5383
826.485	5341
826.625	5360
826.765	5474
826.904	5501
827.044	5303
827.183	5185
827.323	5162
827.462	5250
827.601	5159
827.741	5121
827.88	5227
828.02	5143
828.159	5162
828.298	5296
828.437	5372
828.577	5227
828.716	5482
828.855	5299
828.994	5151
829.134	5132
829.273	5201
829.412	5124
829.551	5155
829.69	5132
829.829	5254
829.968	5341
830.107	5254
830.246	5277
830.385	5201
830.524	5159
830.663	5086
830.802	5014
830.941	4904
831.08	4885
831.219	4987
831.357	5033
831.496	5124
831.635	4938
831.774	4900
831.913	4854
832.051	4721
832.19	4767
832.329	4835
832.467	4691
832.606	4672
832.744	4687
832.883	4717
833.022	4706
833.16	4793
833.299	4839
833.437	4877
833.576	4801
833.714	4801
833.852	4919
833.991	4892
834.129	4957
834.267	4927
834.406	4873
834.544	4930
834.682	5003
834.821	4946
834.959	5162
835.097	4987
835.235	5166
835.373	5071
835.511	5155
835.65	5006
835.788	4995
835.926	4904
836.064	4900
836.202	4911
836.34	5143
836.478	5181
836.615	5143
836.753	5212
836.891	5273
837.029	5261
837.167	5143
837.305	5159
837.443	5105
837.58	5102
837.718	5265
837.856	5162
837.993	5136
838.131	5197
838.269	5261
838.406	5239
838.544	5170
838.681	5029
838.819	4984
838.956	4858
839.094	4896
839.231	4972
839.369	5064
839.506	5436
839.643	5242
839.781	5094
839.918	5014
840.055	5117
840.193	5143
840.33	5140
840.467	5117
840.604	5204
840.742	5440
840.879	5067
841.016	5094
841.153	5159
841.29	5349
841.427	5277
841.564	5337
841.701	5303
841.838	5288
841.975	5216
842.112	5216
842.249	5136
842.385	5086
842.522	5345
842.659	5151
842.796	5170
842.933	5159
843.069	5124
843.206	5132
843.343	5292
843.479	5250
843.616	5269
843.752	5090
843.889	5022
844.025	5220
844.162	5029
844.298	5201
844.435	5033
844.571	5067
844.708	5147
844.844	5315
844.98	5387
845.117	5311
845.253	5128
845.389	5075
845.525	5162
845.661	5094
845.798	5052
845.934	5147
846.07	5045
846.206	5201
846.342	5307
846.478	5128
846.614	5022
846.75	4972
846.886	4877
847.022	5162
847.158	5045
847.294	5098
847.429	5090
847.565	5060
847.701	5315
847.837	4877
847.972	4873
848.108	4930
848.244	4949
848.379	4755
848.515	4729
848.65	4706
848.786	4755
848.921	4767
849.057	4892
849.192	4949
849.328	4797
849.463	4786
849.598	4820
849.734	4740
849.869	4672
850.004	4592
850.14	4668
850.275	4599
850.41	4538
850.545	4535
850.68	4622
850.815	4645
850.95	4603
851.085	4828
851.22	4748
851.355	4653
851.49	4607
851.625	4664
851.76	4599
851.895	4554
852.03	4550
852.165	4679
852.299	4710
852.434	4820
852.569	4786
852.703	4774
852.838	4873
852.973	4900
853.107	4889
853.242	4729
853.376	4672
853.511	4558
853.645	4641
853.78	4801
853.914	4675
854.048	4630
854.183	4611
854.317	4698
854.451	4866
854.585	4577
854.72	4630
854.854	4752
854.988	4569
855.122	4649
855.256	4580
855.39	4615
855.524	4778
855.658	4752
855.792	4691
855.926	4725
856.06	4748
856.194	4763
856.327	4672
856.461	4611
856.595	4603
856.729	4592
856.862	4755
856.996	4691
857.13	4717
857.263	4759
857.397	4774
857.53	4630
857.664	4710
857.797	4740
857.931	4725
858.064	4698
858.197	4721
858.331	4672
858.464	4637
858.597	4485
858.731	4653
858.864	4622
858.997	4645
859.13	4653
859.263	4626
859.396	4717
859.529	4523
859.662	4561
859.795	4569
859.928	4649
860.061	4748
860.194	4774
860.327	4630
860.46	4512
860.592	4679
860.725	4687
860.858	4698
860.99	4542
861.123	4523
861.256	4538
861.388	4626
861.521	5360
861.653	4497
861.786	4436
861.918	4455
862.05	4519
862.183	4538
862.315	4641
862.447	4664
862.58	4558
862.712	4451
862.844	4272
862.976	4455
863.108	4462
863.24	4824
863.372	4322
863.504	4379
863.636	4466
863.768	4436
863.9	4413
864.032	4367
864.164	4398
864.296	4466
864.428	4558
864.559	4550
864.691	4558
864.823	4531
864.954	4527
865.086	4535
865.217	4443
865.349	4402
865.48	4447
865.612	4451
865.743	4641
865.875	4493
866.006	4409
866.137	4451
866.269	4417
866.4	4432
866.531	4424
866.662	4352
866.793	4409
866.924	4432
867.055	4485
867.186	4409
867.317	4413
867.448	4421
867.579	4375
867.71	4379
867.841	4383
867.972	4493
868.103	4466
868.233	4436
868.364	4432
868.495	4462
868.625	4683
868.756	4774
868.886	4577
869.017	4649
869.147	4763
869.278	4744
869.408	4710
869.539	4634
869.669	4698
869.799	4672
869.929	4797
870.06	4744
870.19	4934
870.32	4923
870.45	4889
870.58	5006
870.71	5083
870.84	5098
870.97	4934
871.1	4881
871.23	5124
871.36	5086
871.489	5033
871.619	5052
871.749	5128
871.879	5117
872.008	5159
872.138	5041
872.267	4965
872.397	4847
872.526	4809
872.656	4698
872.785	4782
872.915	4961
873.044	5006
873.173	4946
873.303	4991
873.432	4942
873.561	4972
873.69	4873
873.819	4866
873.948	4900
874.077	4786
874.206	4717
874.335	4793
874.464	4915
874.593	5018
874.722	4980
874.851	5098
874.979	5045
875.108	4976
875.237	4896
875.365	4843
875.494	4877
875.623	4946
875.751	4831
875.88	4889
876.008	4965
876.136	5075
876.265	5220
876.393	5318
876.521	5216
876.65	5189
876.778	5143
876.906	5033
877.034	5033
877.162	5037
877.29	4976
877.418	5056
877.546	5022
877.674	5067
877.802	5014
877.93	5014
878.058	4930
878.185	4862
878.313	4930
878.441	4923
878.568	4801
878.696	4839
878.824	4965
878.951	4968
879.079	5121
879.206	5288
879.333	5098
879.461	4961
879.588	4961
879.715	5128
879.842	5208
879.97	4949
880.097	4736
880.224	4729
880.351	4797
880.478	4790
880.605	4736
880.732	4812
880.859	5105
880.986	4930
881.112	4889
881.239	4759
881.366	4660
881.493	4630
881.619	4588
881.746	4656
881.872	4645
881.999	4630
882.125	4664
882.252	4763
882.378	4793
882.505	4946
882.631	4767
882.757	4656
882.883	4717
883.01	4752
883.136	4653
883.262	4550
883.388	4626
883.514	4854
883.64	4816
883.766	4839
883.892	4630
884.018	4691
884.143	4885
884.269	4972
884.395	4626
884.52	4607
884.646	4618
884.772	4603
884.897	4569
885.023	4672
885.148	4786
885.274	4854
885.399	4809
885.524	4710
885.65	4683
885.775	4710
885.9	4710
886.025	4824
886.15	4774
886.275	4748
886.4	4668
886.525	4733
886.65	4630
886.775	4656
886.9	4892
887.025	5029
887.149	4805
887.274	4580
887.399	4592
887.523	4626
887.648	4603
887.773	4573
887.897	4752
888.021	4774
888.146	4687
888.27	4793
888.395	4915
888.519	4870
888.643	4797
888.767	4786
888.891	4687
889.015	4592
889.139	4626
889.263	4626
889.387	4736
889.511	4866
889.635	4778
889.759	4615
889.883	4641
890.006	4721
890.13	4797
890.254	4615
890.377	4691
890.501	4535
890.624	4531
890.748	4645
890.871	4462
890.995	4436
891.118	4375
891.241	4508
891.364	4531
891.488	4626
891.611	4489
891.734	4519
891.857	4622
891.98	4550
892.103	4615
892.226	4535
892.349	4527
892.471	4424
892.594	4584
892.717	4561
892.839	4569
892.962	4565
893.085	4653
893.207	4596
893.33	4421
893.452	4504
893.575	4679
893.697	4577
893.819	4759
893.941	4831
894.064	4805
894.186	4592
894.308	4546
894.43	4714
894.552	4812
894.674	4763
894.796	4577
894.918	4611
895.04	4596
895.161	4691
895.283	4660
895.405	4542
895.526	4649
895.648	4660
895.769	4721
895.891	4649
896.012	4748
896.134	4668
896.255	4588
896.376	4672
896.498	4569
896.619	4687
896.74	4588
896.861	4634
896.982	4885
897.103	5083
897.224	4816
897.345	4691
897.466	4649
897.587	4752
897.708	4877
897.828	4748
897.949	4645
898.07	4538
898.19	4653
898.311	4847
898.431	4702
898.552	4752
898.672	4790
898.792	4793
898.913	4725
899.033	4607
899.153	4478
899.273	4428
899.393	4508
899.513	4508
899.633	4558
899.753	4519
899.873	4531
899.993	4599
900.113	4542
900.232	4561
900.352	4554
900.472	4497
900.591	4432
900.711	4485
900.83	4481
900.95	4641
901.069	4675
901.189	4561
901.308	4356
901.427	4265
901.546	4371
901.665	4485
901.784	4466
901.904	4405
902.023	4344
902.141	4204
902.26	4204
902.379	4303
902.498	4200
902.617	4211
902.735	4386
902.854	4405
902.973	4348
903.091	4192
903.21	4223
903.328	4314
903.446	4329
903.565	4295
903.683	4325
903.801	4280
903.919	4402
904.038	4443
904.156	4295
904.274	4405
904.392	4344
904.51	4379
904.627	4447
904.745	4546
904.863	4664
904.981	4394
905.098	4303
905.216	4390
905.334	4405
905.451	4443
905.569	4447
905.686	4523
905.803	4565
905.921	4402
906.038	4542
906.155	4428
906.272	4371
906.389	4485
906.506	4341
906.623	4436
906.74	4367
906.857	4322
906.974	4352
907.091	4538
907.208	4710
907.324	4584
907.441	4542
907.557	4341
907.674	4318
907.79	4303
907.907	4402
908.023	4474
908.139	4455
908.256	4478
908.372	4402
908.488	4428
908.604	4314
908.72	4325
908.836	4398
908.952	4363
909.068	4383
909.184	4584
909.3	4443
909.415	4584
909.531	4527
909.647	4348
909.762	4371
909.878	4329
909.993	4417
910.108	4413
910.224	4398
910.339	4443
910.454	4417
910.57	4386
910.685	4295
910.8	4649
910.915	4588
911.03	4474
911.145	4322
911.259	4344
911.374	4360
911.489	4314
911.604	4223
911.718	4227
911.833	4200
911.947	4048
912.062	4067
912.176	4204
912.291	4215
912.405	4246
912.519	4443
912.633	4489
912.748	4386
912.862	4318
912.976	4219
913.09	4116
913.204	4177
913.318	4257
913.431	4371
913.545	4325
913.659	4459
913.772	4352
913.886	4238
914	4234
914.113	4341
914.226	4428
914.34	4356
914.453	4310
914.566	4394
914.68	4325
914.793	4360
914.906	4139
915.019	4097
915.132	4040
915.245	4150
915.358	4181
915.47	4261
915.583	4280
915.696	4287
915.809	4390
915.921	4428
916.034	4242
916.146	4261
916.259	4249
916.371	4360
916.483	4337
916.595	4295
916.708	4276
916.82	4295
916.932	4272
917.044	4325
917.156	4310
917.268	4242
917.38	4325
917.491	4280
917.603	4363
917.715	4367
917.826	4436
917.938	4398
918.049	4276
918.161	4363
918.272	4573
918.384	4535
918.495	4440
918.606	4299
918.717	4219
918.828	4314
918.939	4356
919.05	4242
919.161	4325
919.272	4154
919.383	4200
919.494	4459
919.604	4618
919.715	4390
919.826	4322
919.936	4360
920.047	4531
920.157	4478
920.267	4679
920.378	4565
920.488	4470
920.598	4710
920.708	4889
920.818	4702
920.928	4771
921.038	4904
921.148	4953
921.258	4656
921.368	4607
921.477	4447
921.587	4478
921.697	4379
921.806	4565
921.916	4432
922.025	4253
922.134	4284
922.244	4230
922.353	4310
922.462	4109
922.571	4120
922.68	4010
922.789	4002
922.898	4013
923.007	3975
923.116	4082
923.224	4040
923.333	4055
923.442	4021
923.55	4010
923.659	4006
923.767	4116
923.876	4017
923.984	4112
924.092	3979
924.201	4112
924.309	4101
924.417	4135
924.525	4055
924.633	4112
924.741	5041
924.849	3903
924.956	4143
925.064	3941
925.172	3915
925.279	3964
925.387	4086
925.494	4059
925.602	4211
925.709	4147
925.816	4044
925.924	4147
926.031	4246
926.138	4196
926.245	4173
926.352	4101
926.459	4265
926.566	4295
926.673	4124
926.779	4090
926.886	4090
926.993	3953
927.099	3979
927.206	3937
927.312	3968
927.419	4040
927.525	3983
927.631	4093
927.737	3987
927.843	3949
927.95	3842
928.056	3968
928.162	3956
928.267	4036
928.373	4584
928.479	4112
928.585	3892
928.69	3983
928.796	4082
928.901	4002
929.007	3812
929.112	3964
929.218	4013
929.323	3983
929.428	3922
929.533	4105
929.638	3926
929.743	4021
929.848	4025
929.953	3983
930.058	3876
930.163	3797
930.267	3804
930.372	3975
930.477	3808
930.581	4112
930.685	3953
930.79	3812
930.894	3903
930.998	3854
931.103	4040
931.207	3728
931.311	3736
931.415	3633
931.519	3507
931.623	3526
