Data from test_V78500241_205.txt Node
Date: Fri Mar 25 16:50:25 CST 2022
User: usil
Spectrometer: V785-0024
Trigger mode: 0
Integration Time (sec): 4.000000E-1
Scans to average: 1
Nonlinearity correction enabled: false
Boxcar width: 0
Storing dark spectrum: false
XAxis mode: Wavelengths
Number of Pixels in Spectrum: 1024
>>>>>Begin Spectral Data<<<<<
801.071	8035
801.214	8100
801.356	7875
801.499	7894
801.641	7814
801.783	7841
801.926	8031
802.068	8008
802.211	7883
802.353	8020
802.496	7875
802.638	7875
802.78	7913
802.923	7906
803.065	7761
803.208	7811
803.35	8020
803.492	8054
803.635	8081
803.777	8012
803.919	8153
804.061	8366
804.204	8073
804.346	8054
804.488	7986
804.63	8065
804.773	7974
804.915	8065
805.057	8195
805.199	8115
805.341	8142
805.483	8176
805.626	8229
805.768	8043
805.91	8172
806.052	8164
806.194	8073
806.336	8218
806.478	8081
806.62	8073
806.762	8065
806.904	8199
807.046	8415
807.188	8294
807.33	8279
807.472	8396
807.614	8180
807.756	8043
807.898	7978
808.04	7879
808.182	7921
808.324	7928
808.465	7936
808.607	8081
808.749	8126
808.891	8229
809.033	8339
809.174	8145
809.316	8100
809.458	8043
809.6	7928
809.741	8016
809.883	8054
810.025	8123
810.166	8039
810.308	7978
810.45	8008
810.591	7906
810.733	7807
810.875	7647
811.016	7495
811.158	7480
811.299	7594
811.441	7731
811.582	7643
811.724	7521
811.865	7533
812.007	7590
812.148	7563
812.29	7563
812.431	7765
812.573	7944
812.714	8012
812.855	8172
812.997	8248
813.138	8374
813.279	8149
813.421	8107
813.562	7997
813.703	7849
813.845	7731
813.986	7472
814.127	7293
814.268	7255
814.41	7194
814.551	7164
814.692	7251
814.833	7099
814.974	7152
815.115	7149
815.256	7004
815.397	6962
815.539	6932
815.68	6848
815.821	6749
815.962	6806
816.103	6779
816.244	6772
816.385	6616
816.526	6642
816.666	6494
816.807	6380
816.948	6407
817.089	6391
817.23	6483
817.371	6353
817.512	6380
817.653	6399
817.793	6372
817.934	6448
818.075	6532
818.216	6429
818.356	6353
818.497	6190
818.638	6148
818.778	6106
818.919	6140
819.06	6117
819.2	6292
819.341	6273
819.481	6350
819.622	6502
819.762	6776
819.903	6642
820.043	6528
820.184	6528
820.324	6582
820.465	6627
820.605	6677
820.746	6673
820.886	6494
821.026	6635
821.167	6719
821.307	6795
821.447	6730
821.588	6692
821.728	6597
821.868	6490
822.008	6327
822.149	6410
822.289	6376
822.429	6114
822.569	6079
822.709	6129
822.849	5916
822.99	5889
823.13	5878
823.27	5946
823.41	5756
823.55	5809
823.69	5748
823.83	5741
823.97	5688
824.11	5547
824.25	5501
824.389	5570
824.529	5592
824.669	5543
824.809	5619
824.949	5653
825.089	5627
825.228	5554
825.368	5376
825.508	5360
825.648	5292
825.787	5357
825.927	5376
826.067	5307
826.206	5239
826.346	5402
826.485	5417
826.625	5433
826.765	5535
826.904	5486
827.044	5235
827.183	5204
827.323	5155
827.462	5258
827.601	5155
827.741	5147
827.88	5193
828.02	5140
828.159	5208
828.298	5284
828.437	5368
828.577	5337
828.716	5482
828.855	5318
828.994	5197
829.134	5151
829.273	5193
829.412	5159
829.551	5170
829.69	5162
829.829	5265
829.968	5372
830.107	5261
830.246	5254
830.385	5136
830.524	5151
830.663	5098
830.802	5006
830.941	4911
831.08	4911
831.219	4991
831.357	4991
831.496	5162
831.635	4934
831.774	4835
831.913	4850
832.051	4759
832.19	4733
832.329	4801
832.467	4675
832.606	4645
832.744	4748
832.883	4702
833.022	4748
833.16	4797
833.299	4850
833.437	4831
833.576	4824
833.714	4889
833.852	4839
833.991	4976
834.129	4934
834.267	4923
834.406	4915
834.544	4965
834.682	5003
834.821	5033
834.959	5155
835.097	4972
835.235	5174
835.373	5151
835.511	5151
835.65	5056
835.788	5025
835.926	4915
836.064	4889
836.202	4904
836.34	5155
836.478	5201
836.615	5185
836.753	5250
836.891	5315
837.029	5208
837.167	5162
837.305	5155
837.443	5140
837.58	5105
837.718	5170
837.856	5140
837.993	5090
838.131	5265
838.269	5170
838.406	5181
838.544	5136
838.681	5022
838.819	5041
838.956	4904
839.094	4908
839.231	4984
839.369	5102
839.506	5372
839.643	5277
839.781	5071
839.918	5006
840.055	5090
840.193	5166
840.33	5109
840.467	5140
840.604	5235
840.742	5452
840.879	5086
841.016	5083
841.153	5155
841.29	5376
841.427	5341
841.564	5296
841.701	5296
841.838	5322
841.975	5250
842.112	5223
842.249	5117
842.385	5117
842.522	5303
842.659	5185
842.796	5155
842.933	5193
843.069	5124
843.206	5136
843.343	5307
843.479	5246
843.616	5288
843.752	5025
843.889	5003
844.025	5208
844.162	5041
844.298	5178
844.435	5079
844.571	5067
844.708	5189
844.844	5265
844.98	5315
845.117	5299
845.253	5094
845.389	5117
845.525	5170
845.661	5147
845.798	5037
845.934	5155
846.07	5052
846.206	5155
846.342	5299
846.478	5212
846.614	5029
846.75	5010
846.886	4968
847.022	5105
847.158	5003
847.294	5079
847.429	5117
847.565	5025
847.701	5360
847.837	4873
847.972	4793
848.108	5010
848.244	4942
848.379	4763
848.515	4729
848.65	4778
848.786	4714
848.921	4740
849.057	4900
849.192	4854
849.328	4862
849.463	4850
849.598	4816
849.734	4755
849.869	4687
850.004	4637
850.14	4645
850.275	4615
850.41	4546
850.545	4580
850.68	4592
850.815	4641
850.95	4691
851.085	4809
851.22	4702
851.355	4672
851.49	4580
851.625	4607
851.76	4615
851.895	4542
852.03	4558
852.165	4630
852.299	4710
852.434	4797
852.569	4721
852.703	4778
852.838	4900
852.973	4957
853.107	4881
853.242	4733
853.376	4687
853.511	4573
853.645	4599
853.78	4771
853.914	4675
854.048	4675
854.183	4630
854.317	4672
854.451	4843
854.585	4710
854.72	4634
854.854	4774
854.988	4603
855.122	4664
855.256	4512
855.39	4702
855.524	4797
855.658	4694
855.792	4710
855.926	4679
856.06	4763
856.194	4828
856.327	4706
856.461	4615
856.595	4588
856.729	4645
856.862	4752
856.996	4691
857.13	4721
857.263	4706
857.397	4786
857.53	4653
857.664	4771
857.797	4771
857.931	4850
858.064	4687
858.197	4744
858.331	4626
858.464	4588
858.597	4516
858.731	4645
858.864	4637
858.997	4622
859.13	4683
859.263	4637
859.396	4729
859.529	4596
859.662	4531
859.795	4538
859.928	4615
860.061	4763
860.194	4748
860.327	4637
860.46	4535
860.592	4683
860.725	4778
860.858	4714
860.99	4558
861.123	4512
861.256	4596
861.388	4607
861.521	5254
861.653	4489
861.786	4466
861.918	4462
862.05	4516
862.183	4554
862.315	4580
862.447	4672
862.58	4512
862.712	4413
862.844	4333
862.976	4455
863.108	4474
863.24	4930
863.372	4287
863.504	4386
863.636	4390
863.768	4485
863.9	4421
864.032	4360
864.164	4398
864.296	4466
864.428	4516
864.559	4565
864.691	4523
864.823	4531
864.954	4535
865.086	4554
865.217	4470
865.349	4436
865.48	4470
865.612	4504
865.743	4637
865.875	4466
866.006	4432
866.137	4474
866.269	4451
866.4	4417
866.531	4421
866.662	4386
866.793	4421
866.924	4428
867.055	4493
867.186	4466
867.317	4363
867.448	4447
867.579	4375
867.71	4405
867.841	4371
867.972	4466
868.103	4447
868.233	4432
868.364	4436
868.495	4519
868.625	4664
868.756	4740
868.886	4554
869.017	4668
869.147	4725
869.278	4771
869.408	4679
869.539	4622
869.669	4767
869.799	4660
869.929	4744
870.06	4744
870.19	4961
870.32	4930
870.45	4923
870.58	5071
870.71	5025
870.84	5105
870.97	4961
871.1	4896
871.23	5132
871.36	5109
871.489	5006
871.619	5094
871.749	5064
871.879	5075
872.008	5174
872.138	5048
872.267	4984
872.397	4824
872.526	4809
872.656	4694
872.785	4774
872.915	4957
873.044	5052
873.173	4946
873.303	4942
873.432	4919
873.561	4953
873.69	4854
873.819	4831
873.948	4911
874.077	4828
874.206	4782
874.335	4786
874.464	4919
874.593	5064
874.722	4961
874.851	5117
874.979	5113
875.108	5033
875.237	4847
875.365	4835
875.494	4881
875.623	4927
875.751	4850
875.88	4892
876.008	4999
876.136	4949
876.265	5193
876.393	5307
876.521	5258
876.65	5227
876.778	5155
876.906	5117
877.034	5018
877.162	5041
877.29	5014
877.418	5079
877.546	5033
877.674	5003
877.802	5041
877.93	5010
878.058	4873
878.185	4896
878.313	4984
878.441	4949
878.568	4797
878.696	4809
878.824	4957
878.951	5041
879.079	5132
879.206	5292
879.333	5109
879.461	4942
879.588	4987
879.715	5094
879.842	5254
879.97	4976
880.097	4805
880.224	4767
880.351	4831
880.478	4843
880.605	4843
880.732	4816
880.859	5102
880.986	4915
881.112	4889
881.239	4790
881.366	4698
881.493	4637
881.619	4622
881.746	4687
881.872	4683
881.999	4664
882.125	4774
882.252	4801
882.378	4839
882.505	4984
882.631	4850
882.757	4675
882.883	4790
883.01	4759
883.136	4683
883.262	4641
883.388	4618
883.514	4877
883.64	4858
883.766	4835
883.892	4733
884.018	4774
884.143	4854
884.269	5037
884.395	4683
884.52	4687
884.646	4721
884.772	4641
884.897	4637
885.023	4698
885.148	4877
885.274	4896
885.399	4862
885.524	4790
885.65	4755
885.775	4771
885.9	4801
886.025	4919
886.15	4873
886.275	4774
886.4	4717
886.525	4812
886.65	4736
886.775	4786
886.9	4923
887.025	5045
887.149	4839
887.274	4694
887.399	4634
887.523	4653
887.648	4622
887.773	4687
887.897	4778
888.021	4896
888.146	4729
888.27	4854
888.395	4976
888.519	4889
888.643	4847
888.767	4896
888.891	4717
889.015	4675
889.139	4721
889.263	4675
889.387	4793
889.511	4949
889.635	4835
889.759	4668
889.883	4710
890.006	4767
890.13	4904
890.254	4675
890.377	4706
890.501	4580
890.624	4573
890.748	4691
890.871	4554
890.995	4493
891.118	4447
891.241	4565
891.364	4630
891.488	4675
891.611	4554
891.734	4607
891.857	4637
891.98	4584
892.103	4694
892.226	4637
892.349	4603
892.471	4508
892.594	4611
892.717	4603
892.839	4630
892.962	4615
893.085	4725
893.207	4607
893.33	4497
893.452	4565
893.575	4706
893.697	4607
893.819	4843
893.941	4881
894.064	4828
894.186	4531
894.308	4618
894.43	4774
894.552	4839
894.674	4824
894.796	4645
894.918	4653
895.04	4653
895.161	4740
895.283	4736
895.405	4656
895.526	4706
895.648	4752
895.769	4736
895.891	4774
896.012	4786
896.134	4774
896.255	4725
896.376	4694
896.498	4641
896.619	4767
896.74	4611
896.861	4668
896.982	4934
897.103	5121
897.224	4915
897.345	4752
897.466	4710
897.587	4767
897.708	4850
897.828	4801
897.949	4717
898.07	4588
898.19	4656
898.311	4915
898.431	4729
898.552	4755
898.672	4877
898.792	4801
898.913	4782
899.033	4653
899.153	4558
899.273	4443
899.393	4493
899.513	4535
899.633	4535
899.753	4569
899.873	4542
899.993	4645
900.113	4641
900.232	4664
900.352	4588
900.472	4523
900.591	4470
900.711	4519
900.83	4481
900.95	4653
901.069	4710
901.189	4596
901.308	4424
901.427	4363
901.546	4402
901.665	4504
901.784	4535
901.904	4455
902.023	4341
902.141	4238
902.26	4215
902.379	4352
902.498	4314
902.617	4261
902.735	4371
902.854	4371
902.973	4402
903.091	4215
903.21	4276
903.328	4356
903.446	4314
903.565	4295
903.683	4409
903.801	4333
903.919	4455
904.038	4455
904.156	4341
904.274	4485
904.392	4470
904.51	4485
904.627	4538
904.745	4603
904.863	4694
904.981	4421
905.098	4413
905.216	4386
905.334	4447
905.451	4485
905.569	4447
905.686	4573
905.803	4626
905.921	4455
906.038	4588
906.155	4500
906.272	4455
906.389	4481
906.506	4371
906.623	4371
906.74	4409
906.857	4360
906.974	4402
907.091	4622
907.208	4698
907.324	4630
907.441	4577
907.557	4367
907.674	4390
907.79	4371
907.907	4455
908.023	4516
908.139	4516
908.256	4481
908.372	4489
908.488	4542
908.604	4383
908.72	4348
908.836	4436
908.952	4432
909.068	4474
909.184	4565
909.3	4558
909.415	4580
909.531	4550
909.647	4424
909.762	4432
909.878	4356
909.993	4478
910.108	4428
910.224	4432
910.339	4519
910.454	4417
910.57	4398
910.685	4318
910.8	4687
910.915	4634
911.03	4554
911.145	4348
911.259	4363
911.374	4451
911.489	4375
911.604	4314
911.718	4181
911.833	4272
911.947	4162
912.062	4040
912.176	4261
912.291	4261
912.405	4310
912.519	4504
912.633	4546
912.748	4402
912.862	4299
912.976	4219
913.09	4116
913.204	4173
913.318	4276
913.431	4421
913.545	4390
913.659	4428
913.772	4390
913.886	4272
914	4242
914.113	4424
914.226	4462
914.34	4459
914.453	4261
914.566	4424
914.68	4348
914.793	4318
914.906	4181
915.019	4154
915.132	4124
915.245	4215
915.358	4227
915.47	4265
915.583	4314
915.696	4295
915.809	4474
915.921	4470
916.034	4291
916.146	4318
916.259	4238
916.371	4402
916.483	4379
916.595	4329
916.708	4337
916.82	4333
916.932	4379
917.044	4390
917.156	4379
917.268	4287
917.38	4363
917.491	4360
917.603	4386
917.715	4443
917.826	4443
917.938	4344
918.049	4295
918.161	4436
918.272	4592
918.384	4546
918.495	4512
918.606	4325
918.717	4295
918.828	4386
918.939	4432
919.05	4303
919.161	4344
919.272	4188
919.383	4249
919.494	4485
919.604	4672
919.715	4413
919.826	4375
919.936	4455
920.047	4535
920.157	4500
920.267	4698
920.378	4588
920.488	4493
920.598	4774
920.708	4908
920.818	4805
920.928	4782
921.038	4995
921.148	4938
921.258	4717
921.368	4569
921.477	4493
921.587	4500
921.697	4443
921.806	4584
921.916	4436
922.025	4272
922.134	4310
922.244	4306
922.353	4333
922.462	4200
922.571	4188
922.68	4071
922.789	3991
922.898	4078
923.007	4021
923.116	4154
923.224	4078
923.333	4120
923.442	4036
923.55	4055
923.659	4040
923.767	4139
923.876	4040
923.984	4181
924.092	4021
924.201	4067
924.309	4135
924.417	4150
924.525	4128
924.633	4169
924.741	5094
924.849	3968
924.956	4192
925.064	4029
925.172	3949
925.279	4002
925.387	4116
925.494	4067
925.602	4238
925.709	4204
925.816	4067
925.924	4173
926.031	4287
926.138	4211
926.245	4238
926.352	4128
926.459	4272
926.566	4371
926.673	4211
926.779	4143
926.886	4112
926.993	4006
927.099	4010
927.206	3964
927.312	3975
927.419	4124
927.525	4093
927.631	4090
927.737	3979
927.843	4029
927.95	3880
928.056	3987
928.162	4013
928.267	4040
928.373	4721
928.479	4116
928.585	3880
928.69	4006
928.796	4147
928.901	4002
929.007	3888
929.112	4029
929.218	4017
929.323	3953
929.428	4006
929.533	4169
929.638	3930
929.743	3991
929.848	4090
929.953	4040
930.058	3876
930.163	3808
930.267	3831
930.372	3968
930.477	3865
930.581	4147
930.685	3960
930.79	3861
930.894	3934
930.998	3857
931.103	4059
931.207	3762
931.311	3762
931.415	3709
931.519	3526
931.623	3606
