Data from test_V78500241_1156.txt Node
Date: Fri Mar 25 16:57:02 CST 2022
User: usil
Spectrometer: V785-0024
Trigger mode: 0
Integration Time (sec): 4.000000E-1
Scans to average: 1
Nonlinearity correction enabled: false
Boxcar width: 0
Storing dark spectrum: false
XAxis mode: Wavelengths
Number of Pixels in Spectrum: 1024
>>>>>Begin Spectral Data<<<<<
801.071	8092
801.214	8073
801.356	7928
801.499	7841
801.641	7761
801.783	7849
801.926	7936
802.068	7913
802.211	7974
802.353	7898
802.496	7864
802.638	7883
802.78	7887
802.923	7925
803.065	7864
803.208	7811
803.35	7955
803.492	8119
803.635	8187
803.777	8008
803.919	8123
804.061	8400
804.204	8130
804.346	8092
804.488	7959
804.63	8077
804.773	8012
804.915	8046
805.057	8267
805.199	8176
805.341	8286
805.483	8286
805.626	8305
805.768	8202
805.91	8259
806.052	8145
806.194	8130
806.336	8252
806.478	8012
806.62	8088
806.762	8062
806.904	8275
807.046	8427
807.188	8275
807.33	8263
807.472	8347
807.614	8130
807.756	8073
807.898	8012
808.04	7898
808.182	7917
808.324	7849
808.465	7944
808.607	8084
808.749	8073
808.891	8202
809.033	8275
809.174	8142
809.316	8119
809.458	7993
809.6	7944
809.741	8043
809.883	7963
810.025	8088
810.166	8050
810.308	8039
810.45	7963
810.591	7947
810.733	7715
810.875	7655
811.016	7506
811.158	7571
811.299	7601
811.441	7708
811.582	7643
811.724	7552
811.865	7499
812.007	7472
812.148	7597
812.29	7632
812.431	7746
812.573	7822
812.714	7902
812.855	8126
812.997	8138
813.138	8298
813.279	8180
813.421	8107
813.562	8001
813.703	7947
813.845	7792
813.986	7495
814.127	7213
814.268	7179
814.41	7225
814.551	7126
814.692	7209
814.833	7065
814.974	7091
815.115	7091
815.256	6973
815.397	6890
815.539	6977
815.68	6890
815.821	6810
815.962	6829
816.103	6848
816.244	6707
816.385	6616
816.526	6540
816.666	6509
816.807	6319
816.948	6429
817.089	6460
817.23	6437
817.371	6391
817.512	6388
817.653	6384
817.793	6361
817.934	6414
818.075	6437
818.216	6471
818.356	6380
818.497	6273
818.638	6133
818.778	6152
818.919	6182
819.06	6110
819.2	6346
819.341	6311
819.481	6304
819.622	6490
819.762	6726
819.903	6734
820.043	6570
820.184	6578
820.324	6555
820.465	6681
820.605	6662
820.746	6597
820.886	6475
821.026	6608
821.167	6608
821.307	6783
821.447	6741
821.588	6669
821.728	6566
821.868	6490
822.008	6285
822.149	6281
822.289	6292
822.429	6144
822.569	6057
822.709	6098
822.849	5950
822.99	5908
823.13	5893
823.27	5904
823.41	5779
823.55	5741
823.69	5745
823.83	5733
823.97	5619
824.11	5512
824.25	5490
824.389	5539
824.529	5615
824.669	5512
824.809	5581
824.949	5638
825.089	5627
825.228	5581
825.368	5391
825.508	5357
825.648	5398
825.787	5364
825.927	5345
826.067	5307
826.206	5258
826.346	5402
826.485	5444
826.625	5429
826.765	5520
826.904	5505
827.044	5258
827.183	5136
827.323	5109
827.462	5269
827.601	5204
827.741	5212
827.88	5204
828.02	5109
828.159	5204
828.298	5311
828.437	5376
828.577	5303
828.716	5448
828.855	5353
828.994	5132
829.134	5124
829.273	5280
829.412	5102
829.551	5140
829.69	5147
829.829	5227
829.968	5379
830.107	5353
830.246	5292
830.385	5246
830.524	5117
830.663	5067
830.802	4999
830.941	4892
831.08	4919
831.219	5045
831.357	5003
831.496	5197
831.635	4984
831.774	4828
831.913	4850
832.051	4752
832.19	4759
832.329	4824
832.467	4740
832.606	4645
832.744	4714
832.883	4710
833.022	4755
833.16	4820
833.299	4904
833.437	4831
833.576	4889
833.714	4862
833.852	4873
833.991	4911
834.129	5014
834.267	4972
834.406	4953
834.544	5037
834.682	5033
834.821	4999
834.959	5170
835.097	5003
835.235	5109
835.373	5071
835.511	5140
835.65	5094
835.788	5022
835.926	4908
836.064	4934
836.202	4946
836.34	5178
836.478	5242
836.615	5185
836.753	5201
836.891	5376
837.029	5307
837.167	5261
837.305	5201
837.443	5143
837.58	5064
837.718	5254
837.856	5201
837.993	5185
838.131	5246
838.269	5277
838.406	5185
838.544	5265
838.681	5128
838.819	5010
838.956	4892
839.094	4995
839.231	5010
839.369	5098
839.506	5402
839.643	5292
839.781	5098
839.918	5025
840.055	5140
840.193	5147
840.33	5197
840.467	5159
840.604	5216
840.742	5459
840.879	5121
841.016	5079
841.153	5189
841.29	5414
841.427	5360
841.564	5337
841.701	5383
841.838	5318
841.975	5273
842.112	5258
842.249	5181
842.385	5124
842.522	5330
842.659	5170
842.796	5193
842.933	5246
843.069	5162
843.206	5212
843.343	5273
843.479	5231
843.616	5254
843.752	5079
843.889	5033
844.025	5231
844.162	4991
844.298	5231
844.435	5132
844.571	5067
844.708	5235
844.844	5337
844.98	5387
845.117	5322
845.253	5151
845.389	5132
845.525	5178
845.661	5140
845.798	5079
845.934	5212
846.07	5022
846.206	5265
846.342	5311
846.478	5159
846.614	5064
846.75	4938
846.886	4987
847.022	5185
847.158	5037
847.294	5102
847.429	5140
847.565	5025
847.701	5322
847.837	4892
847.972	4835
848.108	4961
848.244	4938
848.379	4797
848.515	4774
848.65	4752
848.786	4782
848.921	4805
849.057	4873
849.192	4923
849.328	4839
849.463	4835
849.598	4843
849.734	4835
849.869	4706
850.004	4641
850.14	4698
850.275	4607
850.41	4542
850.545	4577
850.68	4630
850.815	4660
850.95	4607
851.085	4892
851.22	4748
851.355	4668
851.49	4649
851.625	4668
851.76	4637
851.895	4634
852.03	4580
852.165	4725
852.299	4767
852.434	4771
852.569	4767
852.703	4809
852.838	4862
852.973	4919
853.107	4938
853.242	4736
853.376	4653
853.511	4588
853.645	4660
853.78	4820
853.914	4679
854.048	4679
854.183	4706
854.317	4725
854.451	4828
854.585	4714
854.72	4672
854.854	4786
854.988	4656
855.122	4626
855.256	4523
855.39	4668
855.524	4793
855.658	4748
855.792	4702
855.926	4740
856.06	4771
856.194	4801
856.327	4653
856.461	4618
856.595	4641
856.729	4649
856.862	4767
856.996	4725
857.13	4721
857.263	4755
857.397	4870
857.53	4672
857.664	4763
857.797	4774
857.931	4843
858.064	4683
858.197	4691
858.331	4679
858.464	4630
858.597	4554
858.731	4691
858.864	4649
858.997	4622
859.13	4630
859.263	4691
859.396	4729
859.529	4637
859.662	4615
859.795	4546
859.928	4615
860.061	4801
860.194	4767
860.327	4664
860.46	4603
860.592	4782
860.725	4767
860.858	4733
860.99	4599
861.123	4573
861.256	4519
861.388	4622
861.521	5277
861.653	4554
861.786	4447
861.918	4489
862.05	4527
862.183	4580
862.315	4607
862.447	4630
862.58	4603
862.712	4436
862.844	4371
862.976	4504
863.108	4493
863.24	4930
863.372	4405
863.504	4481
863.636	4424
863.768	4497
863.9	4462
864.032	4390
864.164	4417
864.296	4478
864.428	4561
864.559	4538
864.691	4558
864.823	4504
864.954	4550
865.086	4516
865.217	4466
865.349	4424
865.48	4451
865.612	4462
865.743	4668
865.875	4447
866.006	4478
866.137	4497
866.269	4474
866.4	4451
866.531	4421
866.662	4417
866.793	4390
866.924	4447
867.055	4535
867.186	4470
867.317	4428
867.448	4402
867.579	4398
867.71	4421
867.841	4379
867.972	4451
868.103	4421
868.233	4466
868.364	4512
868.495	4459
868.625	4687
868.756	4790
868.886	4565
869.017	4672
869.147	4748
869.278	4782
869.408	4694
869.539	4702
869.669	4763
869.799	4675
869.929	4744
870.06	4698
870.19	4961
870.32	4946
870.45	4930
870.58	5041
870.71	5056
870.84	5086
870.97	4938
871.1	4904
871.23	5147
871.36	5166
871.489	5029
871.619	5052
871.749	5102
871.879	5121
872.008	5216
872.138	5090
872.267	4980
872.397	4850
872.526	4835
872.656	4812
872.785	4797
872.915	4995
873.044	5064
873.173	4957
873.303	4946
873.432	4972
873.561	4980
873.69	4862
873.819	4870
873.948	4938
874.077	4809
874.206	4755
874.335	4763
874.464	4923
874.593	5079
874.722	4946
874.851	5170
874.979	5075
875.108	5033
875.237	4938
875.365	4930
875.494	4900
875.623	5018
875.751	4900
875.88	4904
876.008	4961
876.136	5060
876.265	5155
876.393	5326
876.521	5239
876.65	5250
876.778	5174
876.906	5064
877.034	5079
877.162	5083
877.29	5033
877.418	5094
877.546	5098
877.674	5067
877.802	5033
877.93	5067
878.058	4911
878.185	4889
878.313	4946
878.441	4934
878.568	4843
878.696	4919
878.824	4968
878.951	4984
879.079	5162
879.206	5280
879.333	5178
879.461	4999
879.588	5014
879.715	5117
879.842	5235
879.97	5018
880.097	4782
880.224	4752
880.351	4839
880.478	4816
880.605	4847
880.732	4873
880.859	5105
880.986	4923
881.112	4904
881.239	4812
881.366	4694
881.493	4656
881.619	4580
881.746	4637
881.872	4714
881.999	4630
882.125	4717
882.252	4759
882.378	4816
882.505	4927
882.631	4820
882.757	4649
882.883	4740
883.01	4778
883.136	4679
883.262	4607
883.388	4630
883.514	4828
883.64	4904
883.766	4778
883.892	4698
884.018	4786
884.143	4904
884.269	5003
884.395	4668
884.52	4630
884.646	4660
884.772	4603
884.897	4535
885.023	4660
885.148	4839
885.274	4881
885.399	4812
885.524	4733
885.65	4664
885.775	4714
885.9	4706
886.025	4892
886.15	4828
886.275	4740
886.4	4672
886.525	4675
886.65	4672
886.775	4744
886.9	4877
887.025	5056
887.149	4828
887.274	4714
887.399	4592
887.523	4561
887.648	4569
887.773	4637
887.897	4801
888.021	4778
888.146	4687
888.27	4816
888.395	4923
888.519	4801
888.643	4767
888.767	4790
888.891	4748
889.015	4641
889.139	4641
889.263	4615
889.387	4809
889.511	4831
889.635	4850
889.759	4710
889.883	4668
890.006	4740
890.13	4809
890.254	4637
890.377	4687
890.501	4542
890.624	4481
890.748	4649
890.871	4474
890.995	4481
891.118	4398
891.241	4512
891.364	4573
891.488	4630
891.611	4535
891.734	4550
891.857	4580
891.98	4588
892.103	4630
892.226	4626
892.349	4523
892.471	4432
892.594	4531
892.717	4588
892.839	4569
892.962	4645
893.085	4660
893.207	4622
893.33	4455
893.452	4508
893.575	4721
893.697	4561
893.819	4839
893.941	4790
894.064	4744
894.186	4618
894.308	4584
894.43	4729
894.552	4847
894.674	4744
894.796	4531
894.918	4588
895.04	4546
895.161	4694
895.283	4664
895.405	4592
895.526	4637
895.648	4694
895.769	4691
895.891	4759
896.012	4790
896.134	4740
896.255	4664
896.376	4618
896.498	4622
896.619	4679
896.74	4645
896.861	4668
896.982	4965
897.103	5113
897.224	4881
897.345	4778
897.466	4672
897.587	4759
897.708	4873
897.828	4786
897.949	4694
898.07	4546
898.19	4656
898.311	4809
898.431	4687
898.552	4740
898.672	4835
898.792	4835
898.913	4752
899.033	4607
899.153	4561
899.273	4466
899.393	4474
899.513	4535
899.633	4569
899.753	4550
899.873	4523
899.993	4573
900.113	4504
900.232	4580
900.352	4584
900.472	4470
900.591	4409
900.711	4531
900.83	4436
900.95	4599
901.069	4725
901.189	4542
901.308	4344
901.427	4249
901.546	4348
901.665	4489
901.784	4535
901.904	4386
902.023	4367
902.141	4188
902.26	4173
902.379	4333
902.498	4219
902.617	4238
902.735	4371
902.854	4390
902.973	4383
903.091	4219
903.21	4230
903.328	4325
903.446	4234
903.565	4295
903.683	4348
903.801	4310
903.919	4405
904.038	4455
904.156	4299
904.274	4459
904.392	4462
904.51	4440
904.627	4508
904.745	4580
904.863	4603
904.981	4402
905.098	4314
905.216	4409
905.334	4443
905.451	4485
905.569	4424
905.686	4592
905.803	4588
905.921	4402
906.038	4573
906.155	4531
906.272	4383
906.389	4417
906.506	4367
906.623	4375
906.74	4363
906.857	4291
906.974	4367
907.091	4580
907.208	4694
907.324	4596
907.441	4500
907.557	4344
907.674	4356
907.79	4371
907.907	4390
908.023	4455
908.139	4470
908.256	4417
908.372	4516
908.488	4459
908.604	4360
908.72	4303
908.836	4360
908.952	4341
909.068	4402
909.184	4592
909.3	4459
909.415	4607
909.531	4599
909.647	4310
909.762	4375
909.878	4344
909.993	4428
910.108	4447
910.224	4409
910.339	4474
910.454	4402
910.57	4310
910.685	4329
910.8	4675
910.915	4611
911.03	4493
911.145	4314
911.259	4329
911.374	4352
911.489	4268
911.604	4299
911.718	4109
911.833	4227
911.947	4082
912.062	4032
912.176	4154
912.291	4268
912.405	4249
912.519	4470
912.633	4493
912.748	4333
912.862	4333
912.976	4223
913.09	4063
913.204	4169
913.318	4265
913.431	4375
913.545	4375
913.659	4432
913.772	4348
913.886	4291
914	4242
914.113	4383
914.226	4440
914.34	4379
914.453	4230
914.566	4379
914.68	4295
914.793	4360
914.906	4131
915.019	4082
915.132	4059
915.245	4120
915.358	4230
915.47	4265
915.583	4207
915.696	4322
915.809	4432
915.921	4424
916.034	4230
916.146	4234
916.259	4249
916.371	4405
916.483	4367
916.595	4306
916.708	4318
916.82	4344
916.932	4341
917.044	4265
917.156	4284
917.268	4234
917.38	4284
917.491	4257
917.603	4306
917.715	4409
917.826	4432
917.938	4306
918.049	4246
918.161	4398
918.272	4542
918.384	4546
918.495	4481
918.606	4310
918.717	4215
918.828	4318
918.939	4371
919.05	4253
919.161	4318
919.272	4147
919.383	4249
919.494	4447
919.604	4672
919.715	4455
919.826	4386
919.936	4455
920.047	4508
920.157	4462
920.267	4717
920.378	4508
920.488	4493
920.598	4668
920.708	4854
920.818	4698
920.928	4774
921.038	5064
921.148	4923
921.258	4660
921.368	4584
921.477	4531
921.587	4478
921.697	4360
921.806	4569
921.916	4421
922.025	4287
922.134	4230
922.244	4223
922.353	4318
922.462	4181
922.571	4150
922.68	4025
922.789	3941
922.898	4025
923.007	4048
923.116	4044
923.224	4059
923.333	4093
923.442	3994
923.55	3972
923.659	3994
923.767	4082
923.876	3968
923.984	4135
924.092	4017
924.201	4036
924.309	4090
924.417	4109
924.525	4048
924.633	4112
924.741	5037
924.849	3937
924.956	4112
925.064	3964
925.172	3892
925.279	3979
925.387	4002
925.494	4078
925.602	4238
925.709	4230
925.816	4090
925.924	4169
926.031	4242
926.138	4196
926.245	4211
926.352	4147
926.459	4272
926.566	4333
926.673	4143
926.779	4097
926.886	4067
926.993	4010
927.099	3987
927.206	3987
927.312	3956
927.419	4067
927.525	4006
927.631	4120
927.737	3994
927.843	3972
927.95	3857
928.056	3934
928.162	3945
928.267	4082
928.373	4675
928.479	4116
928.585	3831
928.69	4063
928.796	4090
928.901	4010
929.007	3816
929.112	4002
929.218	3994
929.323	3907
929.428	3979
929.533	4101
929.638	3899
929.743	3972
929.848	4040
929.953	4002
930.058	3907
930.163	3759
930.267	3823
930.372	3983
930.477	3842
930.581	4067
930.685	3975
930.79	3819
930.894	3899
930.998	3892
931.103	4013
931.207	3713
931.311	3713
931.415	3644
931.519	3523
931.623	3534
