Data from test_V78500241_376.txt Node
Date: Fri Mar 25 16:51:37 CST 2022
User: usil
Spectrometer: V785-0024
Trigger mode: 0
Integration Time (sec): 4.000000E-1
Scans to average: 1
Nonlinearity correction enabled: false
Boxcar width: 0
Storing dark spectrum: false
XAxis mode: Wavelengths
Number of Pixels in Spectrum: 1024
>>>>>Begin Spectral Data<<<<<
801.071	8111
801.214	8016
801.356	7864
801.499	7913
801.641	7833
801.783	7830
801.926	8012
802.068	7997
802.211	7963
802.353	8050
802.496	7803
802.638	7890
802.78	7894
802.923	7932
803.065	7883
803.208	7852
803.35	7986
803.492	8005
803.635	8138
803.777	7997
803.919	8172
804.061	8473
804.204	8164
804.346	8031
804.488	7951
804.63	8031
804.773	7986
804.915	8081
805.057	8301
805.199	8168
805.341	8263
805.483	8259
805.626	8153
805.768	8008
805.91	8123
806.052	8195
806.194	8172
806.336	8267
806.478	8191
806.62	8172
806.762	8233
806.904	8313
807.046	8499
807.188	8374
807.33	8267
807.472	8290
807.614	8161
807.756	8168
807.898	8031
808.04	7875
808.182	7902
808.324	7951
808.465	7917
808.607	8103
808.749	8050
808.891	8172
809.033	8267
809.174	8214
809.316	8035
809.458	8096
809.6	8058
809.741	7993
809.883	8046
810.025	8119
810.166	8134
810.308	8084
810.45	8046
810.591	7868
810.733	7792
810.875	7715
811.016	7525
811.158	7518
811.299	7700
811.441	7830
811.582	7765
811.724	7575
811.865	7609
812.007	7666
812.148	7624
812.29	7620
812.431	7830
812.573	7925
812.714	7944
812.855	8214
812.997	8214
813.138	8317
813.279	8210
813.421	8123
813.562	8096
813.703	8016
813.845	7860
813.986	7594
814.127	7331
814.268	7278
814.41	7202
814.551	7274
814.692	7194
814.833	7149
814.974	7141
815.115	7160
815.256	6981
815.397	6905
815.539	6882
815.68	6821
815.821	6852
815.962	6897
816.103	6886
816.244	6768
816.385	6681
816.526	6700
816.666	6506
816.807	6372
816.948	6490
817.089	6502
817.23	6467
817.371	6433
817.512	6414
817.653	6441
817.793	6376
817.934	6429
818.075	6475
818.216	6490
818.356	6422
818.497	6327
818.638	6155
818.778	6152
818.919	6197
819.06	6140
819.2	6361
819.341	6331
819.481	6395
819.622	6547
819.762	6779
819.903	6722
820.043	6627
820.184	6547
820.324	6574
820.465	6738
820.605	6753
820.746	6593
820.886	6574
821.026	6662
821.167	6745
821.307	6871
821.447	6791
821.588	6673
821.728	6642
821.868	6559
822.008	6331
822.149	6365
822.289	6369
822.429	6178
822.569	6121
822.709	6171
822.849	5935
822.99	5912
823.13	5897
823.27	5965
823.41	5794
823.55	5859
823.69	5783
823.83	5756
823.97	5646
824.11	5520
824.25	5535
824.389	5615
824.529	5611
824.669	5592
824.809	5638
824.949	5657
825.089	5581
825.228	5562
825.368	5406
825.508	5376
825.648	5345
825.787	5364
825.927	5391
826.067	5307
826.206	5334
826.346	5376
826.485	5410
826.625	5433
826.765	5539
826.904	5497
827.044	5250
827.183	5193
827.323	5143
827.462	5265
827.601	5261
827.741	5220
827.88	5155
828.02	5128
828.159	5235
828.298	5318
828.437	5387
828.577	5296
828.716	5467
828.855	5398
828.994	5162
829.134	5178
829.273	5201
829.412	5193
829.551	5140
829.69	5140
829.829	5193
829.968	5402
830.107	5277
830.246	5292
830.385	5227
830.524	5086
830.663	5071
830.802	4991
830.941	4896
831.08	4892
831.219	4980
831.357	4968
831.496	5086
831.635	4911
831.774	4873
831.913	4862
832.051	4725
832.19	4786
832.329	4793
832.467	4702
832.606	4626
832.744	4767
832.883	4736
833.022	4714
833.16	4816
833.299	4839
833.437	4850
833.576	4854
833.714	4877
833.852	4904
833.991	4930
834.129	4965
834.267	4991
834.406	4946
834.544	5006
834.682	4934
834.821	5022
834.959	5143
835.097	4995
835.235	5155
835.373	5132
835.511	5132
835.65	5014
835.788	5083
835.926	4938
836.064	4942
836.202	4892
836.34	5159
836.478	5246
836.615	5090
836.753	5189
836.891	5322
837.029	5296
837.167	5124
837.305	5185
837.443	5128
837.58	5113
837.718	5189
837.856	5223
837.993	5174
838.131	5277
838.269	5261
838.406	5220
838.544	5212
838.681	5105
838.819	5052
838.956	4957
839.094	4885
839.231	4995
839.369	5098
839.506	5391
839.643	5299
839.781	5094
839.918	5025
840.055	5086
840.193	5086
840.33	5170
840.467	5109
840.604	5193
840.742	5497
840.879	5029
841.016	5037
841.153	5189
841.29	5391
841.427	5299
841.564	5303
841.701	5353
841.838	5322
841.975	5235
842.112	5288
842.249	5178
842.385	5048
842.522	5318
842.659	5166
842.796	5151
842.933	5185
843.069	5204
843.206	5124
843.343	5318
843.479	5254
843.616	5258
843.752	4999
843.889	4999
844.025	5269
844.162	5029
844.298	5185
844.435	5094
844.571	5022
844.708	5212
844.844	5311
844.98	5299
845.117	5311
845.253	5117
845.389	5094
845.525	5162
845.661	5159
845.798	5079
845.934	5151
846.07	5079
846.206	5223
846.342	5296
846.478	5162
846.614	5003
846.75	4999
846.886	4953
847.022	5185
847.158	5071
847.294	5067
847.429	5151
847.565	5102
847.701	5330
847.837	4919
847.972	4885
848.108	5022
848.244	4934
848.379	4839
848.515	4786
848.65	4736
848.786	4740
848.921	4763
849.057	4881
849.192	4843
849.328	4831
849.463	4885
849.598	4801
849.734	4790
849.869	4679
850.004	4668
850.14	4660
850.275	4660
850.41	4554
850.545	4580
850.68	4645
850.815	4645
850.95	4615
851.085	4831
851.22	4759
851.355	4664
851.49	4607
851.625	4675
851.76	4641
851.895	4573
852.03	4523
852.165	4675
852.299	4714
852.434	4835
852.569	4778
852.703	4752
852.838	4839
852.973	4972
853.107	4919
853.242	4793
853.376	4634
853.511	4565
853.645	4641
853.78	4790
853.914	4691
854.048	4679
854.183	4683
854.317	4733
854.451	4858
854.585	4683
854.72	4637
854.854	4763
854.988	4641
855.122	4660
855.256	4512
855.39	4683
855.524	4763
855.658	4710
855.792	4675
855.926	4740
856.06	4774
856.194	4793
856.327	4691
856.461	4592
856.595	4641
856.729	4649
856.862	4771
856.996	4679
857.13	4786
857.263	4778
857.397	4820
857.53	4698
857.664	4740
857.797	4782
857.931	4816
858.064	4672
858.197	4744
858.331	4687
858.464	4580
858.597	4519
858.731	4577
858.864	4637
858.997	4615
859.13	4668
859.263	4721
859.396	4748
859.529	4618
859.662	4626
859.795	4538
859.928	4618
860.061	4752
860.194	4809
860.327	4596
860.46	4580
860.592	4733
860.725	4759
860.858	4710
860.99	4569
861.123	4550
861.256	4558
861.388	4584
861.521	5337
861.653	4474
861.786	4451
861.918	4512
862.05	4542
862.183	4565
862.315	4607
862.447	4634
862.58	4558
862.712	4394
862.844	4356
862.976	4489
863.108	4451
863.24	4778
863.372	4337
863.504	4436
863.636	4402
863.768	4493
863.9	4451
864.032	4360
864.164	4428
864.296	4508
864.428	4546
864.559	4554
864.691	4538
864.823	4500
864.954	4485
865.086	4531
865.217	4447
865.349	4398
865.48	4493
865.612	4474
865.743	4626
865.875	4481
866.006	4443
866.137	4512
866.269	4474
866.4	4417
866.531	4405
866.662	4417
866.793	4398
866.924	4428
867.055	4481
867.186	4451
867.317	4447
867.448	4375
867.579	4390
867.71	4413
867.841	4367
867.972	4459
868.103	4497
868.233	4489
868.364	4409
868.495	4519
868.625	4679
868.756	4805
868.886	4550
869.017	4649
869.147	4755
869.278	4828
869.408	4668
869.539	4675
869.669	4702
869.799	4698
869.929	4786
870.06	4729
870.19	4927
870.32	4930
870.45	4930
870.58	4995
870.71	5109
870.84	5105
870.97	4965
871.1	4934
871.23	5128
871.36	5151
871.489	5056
871.619	5113
871.749	5140
871.879	5132
872.008	5227
872.138	5113
872.267	5048
872.397	4854
872.526	4809
872.656	4793
872.785	4839
872.915	4961
873.044	5025
873.173	4999
873.303	4938
873.432	4904
873.561	4968
873.69	4934
873.819	4850
873.948	4923
874.077	4877
874.206	4752
874.335	4797
874.464	4896
874.593	5045
874.722	4953
874.851	5098
874.979	5056
875.108	5060
875.237	4858
875.365	4896
875.494	4934
875.623	4934
875.751	4839
875.88	4839
876.008	4984
876.136	5029
876.265	5216
876.393	5315
876.521	5242
876.65	5220
876.778	5162
876.906	5060
877.034	5045
877.162	5090
877.29	4987
877.418	5045
877.546	5029
877.674	5041
877.802	5025
877.93	5064
878.058	4930
878.185	4847
878.313	4949
878.441	4984
878.568	4835
878.696	4908
878.824	4953
878.951	4980
879.079	5140
879.206	5235
879.333	5113
879.461	4995
879.588	5045
879.715	5098
879.842	5284
879.97	4991
880.097	4786
880.224	4752
880.351	4786
880.478	4850
880.605	4801
880.732	4831
880.859	5064
880.986	4877
881.112	4923
881.239	4759
881.366	4729
881.493	4618
881.619	4554
881.746	4725
881.872	4637
881.999	4641
882.125	4717
882.252	4809
882.378	4858
882.505	4953
882.631	4850
882.757	4691
882.883	4725
883.01	4736
883.136	4683
883.262	4569
883.388	4615
883.514	4828
883.64	4850
883.766	4771
883.892	4683
884.018	4721
884.143	4835
884.269	5014
884.395	4675
884.52	4634
884.646	4653
884.772	4611
884.897	4577
885.023	4649
885.148	4786
885.274	4911
885.399	4824
885.524	4725
885.65	4725
885.775	4774
885.9	4698
886.025	4850
886.15	4786
886.275	4683
886.4	4706
886.525	4736
886.65	4702
886.775	4706
886.9	4892
887.025	5022
887.149	4774
887.274	4641
887.399	4615
887.523	4618
887.648	4577
887.773	4664
887.897	4790
888.021	4778
888.146	4717
888.27	4866
888.395	4919
888.519	4824
888.643	4843
888.767	4816
888.891	4668
889.015	4630
889.139	4656
889.263	4615
889.387	4793
889.511	4858
889.635	4805
889.759	4626
889.883	4683
890.006	4736
890.13	4831
890.254	4569
890.377	4694
890.501	4523
890.624	4542
890.748	4603
890.871	4538
890.995	4398
891.118	4398
891.241	4527
891.364	4546
891.488	4637
891.611	4474
891.734	4550
891.857	4645
891.98	4569
892.103	4649
892.226	4653
892.349	4561
892.471	4462
892.594	4569
892.717	4603
892.839	4569
892.962	4577
893.085	4672
893.207	4546
893.33	4455
893.452	4550
893.575	4653
893.697	4584
893.819	4805
893.941	4847
894.064	4809
894.186	4561
894.308	4558
894.43	4759
894.552	4850
894.674	4740
894.796	4573
894.918	4630
895.04	4569
895.161	4691
895.283	4660
895.405	4565
895.526	4626
895.648	4653
895.769	4687
895.891	4744
896.012	4736
896.134	4725
896.255	4691
896.376	4641
896.498	4630
896.619	4691
896.74	4607
896.861	4649
896.982	4911
897.103	5075
897.224	4843
897.345	4748
897.466	4691
897.587	4752
897.708	4892
897.828	4710
897.949	4683
898.07	4592
898.19	4573
898.311	4828
898.431	4656
898.552	4729
898.672	4824
898.792	4763
898.913	4733
899.033	4626
899.153	4569
899.273	4470
899.393	4489
899.513	4523
899.633	4512
899.753	4573
899.873	4519
899.993	4622
900.113	4527
900.232	4592
900.352	4523
900.472	4512
900.591	4455
900.711	4470
900.83	4489
900.95	4656
901.069	4710
901.189	4584
901.308	4398
901.427	4310
901.546	4398
901.665	4481
901.784	4516
901.904	4383
902.023	4337
902.141	4192
902.26	4154
902.379	4337
902.498	4287
902.617	4272
902.735	4371
902.854	4402
902.973	4390
903.091	4211
903.21	4261
903.328	4276
903.446	4329
903.565	4265
903.683	4371
903.801	4295
903.919	4421
904.038	4428
904.156	4318
904.274	4459
904.392	4383
904.51	4436
904.627	4485
904.745	4584
904.863	4611
904.981	4394
905.098	4333
905.216	4386
905.334	4447
905.451	4481
905.569	4436
905.686	4546
905.803	4580
905.921	4405
906.038	4531
906.155	4447
906.272	4421
906.389	4447
906.506	4325
906.623	4371
906.74	4440
906.857	4318
906.974	4383
907.091	4497
907.208	4694
907.324	4546
907.441	4516
907.557	4310
907.674	4333
907.79	4329
907.907	4417
908.023	4519
908.139	4455
908.256	4402
908.372	4451
908.488	4455
908.604	4379
908.72	4329
908.836	4318
908.952	4402
909.068	4390
909.184	4569
909.3	4538
909.415	4592
909.531	4596
909.647	4329
909.762	4390
909.878	4428
909.993	4409
910.108	4424
910.224	4379
910.339	4497
910.454	4413
910.57	4371
910.685	4318
910.8	4683
910.915	4577
911.03	4569
911.145	4329
911.259	4360
911.374	4360
911.489	4325
911.604	4276
911.718	4192
911.833	4238
911.947	4090
912.062	4048
912.176	4204
912.291	4249
912.405	4268
912.519	4462
912.633	4485
912.748	4386
912.862	4291
912.976	4204
913.09	4086
913.204	4188
913.318	4234
913.431	4352
913.545	4367
913.659	4459
913.772	4371
913.886	4238
914	4234
914.113	4367
914.226	4421
914.34	4402
914.453	4257
914.566	4455
914.68	4348
914.793	4306
914.906	4109
915.019	4166
915.132	4055
915.245	4234
915.358	4238
915.47	4246
915.583	4272
915.696	4284
915.809	4421
915.921	4413
916.034	4299
916.146	4249
916.259	4249
916.371	4394
916.483	4352
916.595	4265
916.708	4318
916.82	4333
916.932	4344
917.044	4386
917.156	4303
917.268	4230
917.38	4287
917.491	4272
917.603	4310
917.715	4421
917.826	4443
917.938	4356
918.049	4234
918.161	4371
918.272	4561
918.384	4542
918.495	4466
918.606	4303
918.717	4276
918.828	4390
918.939	4383
919.05	4287
919.161	4287
919.272	4082
919.383	4272
919.494	4421
919.604	4596
919.715	4421
919.826	4341
919.936	4409
920.047	4535
920.157	4485
920.267	4694
920.378	4588
920.488	4531
920.598	4763
920.708	4877
920.818	4687
920.928	4748
921.038	4923
921.148	4904
921.258	4637
921.368	4618
921.477	4527
921.587	4470
921.697	4390
921.806	4554
921.916	4428
922.025	4287
922.134	4276
922.244	4230
922.353	4344
922.462	4131
922.571	4086
922.68	4013
922.789	3994
922.898	4029
923.007	4002
923.116	4051
923.224	4078
923.333	4074
923.442	3979
923.55	3953
923.659	4048
923.767	4059
923.876	4002
923.984	4128
924.092	3998
924.201	4116
924.309	4150
924.417	4169
924.525	4029
924.633	4074
924.741	4870
924.849	3945
924.956	4101
925.064	4048
925.172	3899
925.279	3975
925.387	4029
925.494	4006
925.602	4230
925.709	4196
925.816	4059
925.924	4162
926.031	4261
926.138	4185
926.245	4215
926.352	4135
926.459	4295
926.566	4291
926.673	4143
926.779	4112
926.886	4048
926.993	3975
927.099	3968
927.206	3918
927.312	3949
927.419	4032
927.525	4044
927.631	4128
927.737	3979
927.843	3918
927.95	3831
928.056	3968
928.162	3934
928.267	4112
928.373	4656
928.479	4093
928.585	3907
928.69	4006
928.796	4097
928.901	4002
929.007	3846
929.112	4048
929.218	4017
929.323	3945
929.428	3960
929.533	4112
929.638	3930
929.743	3979
929.848	4059
929.953	4010
930.058	3915
930.163	3770
930.267	3831
930.372	4021
930.477	3808
930.581	4101
930.685	3888
930.79	3835
930.894	3861
930.998	3823
931.103	4002
931.207	3720
931.311	3671
931.415	3656
931.519	3526
931.623	3549
