Data from test_V78500241_402.txt Node
Date: Fri Mar 25 16:51:47 CST 2022
User: usil
Spectrometer: V785-0024
Trigger mode: 0
Integration Time (sec): 4.000000E-1
Scans to average: 1
Nonlinearity correction enabled: false
Boxcar width: 0
Storing dark spectrum: false
XAxis mode: Wavelengths
Number of Pixels in Spectrum: 1024
>>>>>Begin Spectral Data<<<<<
801.071	8039
801.214	7967
801.356	7894
801.499	7875
801.641	7852
801.783	7944
801.926	7993
802.068	7932
802.211	8008
802.353	7982
802.496	7864
802.638	7997
802.78	7890
802.923	7917
803.065	7803
803.208	7887
803.35	8005
803.492	8016
803.635	8134
803.777	8016
803.919	8172
804.061	8366
804.204	8103
804.346	8081
804.488	7967
804.63	8081
804.773	8016
804.915	8092
805.057	8286
805.199	8183
805.341	8221
805.483	8271
805.626	8153
805.768	8107
805.91	8123
806.052	8149
806.194	8130
806.336	8301
806.478	8161
806.62	8157
806.762	8206
806.904	8199
807.046	8484
807.188	8343
807.33	8298
807.472	8259
807.614	8123
807.756	8092
807.898	8096
808.04	7902
808.182	7970
808.324	7936
808.465	7974
808.607	8103
808.749	8043
808.891	8164
809.033	8301
809.174	8153
809.316	8054
809.458	8077
809.6	7989
809.741	8031
809.883	8134
810.025	8115
810.166	8077
810.308	8065
810.45	8012
810.591	7830
810.733	7761
810.875	7662
811.016	7499
811.158	7567
811.299	7620
811.441	7742
811.582	7788
811.724	7544
811.865	7567
812.007	7696
812.148	7613
812.29	7620
812.431	7814
812.573	7917
812.714	8084
812.855	8218
812.997	8168
813.138	8317
813.279	8248
813.421	8157
813.562	8020
813.703	7879
813.845	7864
813.986	7521
814.127	7407
814.268	7236
814.41	7274
814.551	7187
814.692	7217
814.833	7076
814.974	7076
815.115	7107
815.256	6966
815.397	6962
815.539	6985
815.68	6821
815.821	6818
815.962	6913
816.103	6837
816.244	6844
816.385	6654
816.526	6642
816.666	6517
816.807	6327
816.948	6456
817.089	6502
817.23	6456
817.371	6433
817.512	6395
817.653	6403
817.793	6365
817.934	6429
818.075	6422
818.216	6448
818.356	6403
818.497	6232
818.638	6095
818.778	6182
818.919	6133
819.06	6155
819.2	6319
819.341	6292
819.481	6414
819.622	6513
819.762	6783
819.903	6730
820.043	6665
820.184	6574
820.324	6597
820.465	6669
820.605	6696
820.746	6608
820.886	6486
821.026	6654
821.167	6696
821.307	6859
821.447	6783
821.588	6673
821.728	6612
821.868	6528
822.008	6365
822.149	6418
822.289	6380
822.429	6209
822.569	6133
822.709	6121
822.849	5927
822.99	5916
823.13	5927
823.27	5927
823.41	5798
823.55	5790
823.69	5821
823.83	5817
823.97	5707
824.11	5547
824.25	5539
824.389	5554
824.529	5589
824.669	5539
824.809	5642
824.949	5665
825.089	5642
825.228	5535
825.368	5376
825.508	5318
825.648	5334
825.787	5330
825.927	5417
826.067	5330
826.206	5322
826.346	5341
826.485	5463
826.625	5406
826.765	5547
826.904	5471
827.044	5223
827.183	5239
827.323	5147
827.462	5265
827.601	5113
827.741	5181
827.88	5231
828.02	5094
828.159	5273
828.298	5269
828.437	5391
828.577	5261
828.716	5501
828.855	5315
828.994	5143
829.134	5170
829.273	5197
829.412	5083
829.551	5117
829.69	5140
829.829	5242
829.968	5360
830.107	5292
830.246	5280
830.385	5204
830.524	5155
830.663	5079
830.802	5029
830.941	4866
831.08	4873
831.219	4965
831.357	5010
831.496	5128
831.635	4949
831.774	4862
831.913	4816
832.051	4774
832.19	4752
832.329	4858
832.467	4729
832.606	4637
832.744	4778
832.883	4717
833.022	4725
833.16	4782
833.299	4771
833.437	4835
833.576	4797
833.714	4854
833.852	4862
833.991	4881
834.129	4984
834.267	4961
834.406	4889
834.544	5003
834.682	4976
834.821	4915
834.959	5174
835.097	4965
835.235	5109
835.373	5155
835.511	5109
835.65	5037
835.788	5025
835.926	4885
836.064	4839
836.202	4892
836.34	5223
836.478	5231
836.615	5132
836.753	5201
836.891	5296
837.029	5246
837.167	5143
837.305	5159
837.443	5197
837.58	5075
837.718	5242
837.856	5223
837.993	5212
838.131	5231
838.269	5201
838.406	5140
838.544	5235
838.681	5041
838.819	5041
838.956	4938
839.094	4839
839.231	4991
839.369	5071
839.506	5433
839.643	5258
839.781	5090
839.918	4995
840.055	5102
840.193	5064
840.33	5071
840.467	5147
840.604	5162
840.742	5433
840.879	5079
841.016	5140
841.153	5166
841.29	5368
841.427	5387
841.564	5292
841.701	5395
841.838	5296
841.975	5242
842.112	5273
842.249	5166
842.385	5086
842.522	5357
842.659	5155
842.796	5109
842.933	5235
843.069	5132
843.206	5178
843.343	5284
843.479	5197
843.616	5277
843.752	5014
843.889	4991
844.025	5193
844.162	5033
844.298	5220
844.435	5113
844.571	5067
844.708	5178
844.844	5288
844.98	5406
845.117	5307
845.253	5124
845.389	5064
845.525	5189
845.661	5162
845.798	5033
845.934	5136
846.07	5060
846.206	5174
846.342	5303
846.478	5197
846.614	4980
846.75	5014
846.886	4938
847.022	5083
847.158	5022
847.294	5010
847.429	5090
847.565	5010
847.701	5296
847.837	4824
847.972	4862
848.108	4953
848.244	4911
848.379	4824
848.515	4710
848.65	4755
848.786	4740
848.921	4748
849.057	4858
849.192	4915
849.328	4805
849.463	4862
849.598	4824
849.734	4733
849.869	4694
850.004	4630
850.14	4706
850.275	4573
850.41	4573
850.545	4588
850.68	4615
850.815	4573
850.95	4637
851.085	4812
851.22	4744
851.355	4679
851.49	4687
851.625	4618
851.76	4618
851.895	4558
852.03	4535
852.165	4634
852.299	4702
852.434	4809
852.569	4725
852.703	4759
852.838	4854
852.973	4953
853.107	4938
853.242	4752
853.376	4675
853.511	4516
853.645	4611
853.78	4759
853.914	4687
854.048	4702
854.183	4645
854.317	4725
854.451	4858
854.585	4668
854.72	4618
854.854	4774
854.988	4596
855.122	4622
855.256	4554
855.39	4645
855.524	4793
855.658	4725
855.792	4729
855.926	4717
856.06	4774
856.194	4763
856.327	4717
856.461	4660
856.595	4634
856.729	4622
856.862	4717
856.996	4694
857.13	4755
857.263	4752
857.397	4771
857.53	4649
857.664	4691
857.797	4778
857.931	4786
858.064	4702
858.197	4721
858.331	4653
858.464	4630
858.597	4512
858.731	4599
858.864	4626
858.997	4615
859.13	4664
859.263	4634
859.396	4721
859.529	4596
859.662	4599
859.795	4485
859.928	4637
860.061	4740
860.194	4748
860.327	4607
860.46	4573
860.592	4721
860.725	4778
860.858	4702
860.99	4569
861.123	4523
861.256	4508
861.388	4653
861.521	5360
861.653	4531
861.786	4447
861.918	4459
862.05	4527
862.183	4580
862.315	4653
862.447	4668
862.58	4535
862.712	4402
862.844	4337
862.976	4455
863.108	4455
863.24	4801
863.372	4337
863.504	4428
863.636	4451
863.768	4478
863.9	4440
864.032	4402
864.164	4424
864.296	4432
864.428	4519
864.559	4592
864.691	4550
864.823	4493
864.954	4459
865.086	4531
865.217	4478
865.349	4421
865.48	4462
865.612	4508
865.743	4706
865.875	4447
866.006	4459
866.137	4493
866.269	4443
866.4	4417
866.531	4470
866.662	4436
866.793	4398
866.924	4474
867.055	4478
867.186	4474
867.317	4417
867.448	4348
867.579	4447
867.71	4436
867.841	4413
867.972	4478
868.103	4462
868.233	4443
868.364	4485
868.495	4497
868.625	4694
868.756	4805
868.886	4611
869.017	4561
869.147	4824
869.278	4763
869.408	4664
869.539	4691
869.669	4725
869.799	4653
869.929	4698
870.06	4714
870.19	4987
870.32	4949
870.45	4942
870.58	4968
870.71	5121
870.84	5094
870.97	4965
871.1	4900
871.23	5166
871.36	5140
871.489	5029
871.619	5079
871.749	5090
871.879	5075
872.008	5170
872.138	5071
872.267	4991
872.397	4870
872.526	4805
872.656	4687
872.785	4782
872.915	4949
873.044	4984
873.173	4930
873.303	4991
873.432	5029
873.561	4987
873.69	4870
873.819	4862
873.948	4885
874.077	4805
874.206	4736
874.335	4831
874.464	4946
874.593	5064
874.722	4961
874.851	5079
874.979	5060
875.108	5075
875.237	4927
875.365	4892
875.494	4881
875.623	4949
875.751	4828
875.88	4908
876.008	5003
876.136	5041
876.265	5178
876.393	5334
876.521	5277
876.65	5250
876.778	5151
876.906	5083
877.034	5071
877.162	5022
877.29	4949
877.418	5075
877.546	5056
877.674	5083
877.802	5060
877.93	5022
878.058	4904
878.185	4816
878.313	5006
878.441	4949
878.568	4831
878.696	4889
878.824	4915
878.951	4991
879.079	5162
879.206	5284
879.333	5098
879.461	4980
879.588	5033
879.715	5113
879.842	5246
879.97	4938
880.097	4828
880.224	4714
880.351	4786
880.478	4816
880.605	4774
880.732	4812
880.859	5079
880.986	4892
881.112	4938
881.239	4774
881.366	4691
881.493	4611
881.619	4561
881.746	4653
881.872	4668
881.999	4702
882.125	4702
882.252	4843
882.378	4816
882.505	4987
882.631	4831
882.757	4702
882.883	4721
883.01	4744
883.136	4729
883.262	4618
883.388	4569
883.514	4786
883.64	4820
883.766	4881
883.892	4675
884.018	4748
884.143	4896
884.269	4972
884.395	4694
884.52	4615
884.646	4668
884.772	4607
884.897	4565
885.023	4717
885.148	4797
885.274	4923
885.399	4843
885.524	4694
885.65	4710
885.775	4759
885.9	4736
886.025	4858
886.15	4771
886.275	4736
886.4	4717
886.525	4702
886.65	4714
886.775	4664
886.9	4900
887.025	5064
887.149	4831
887.274	4660
887.399	4542
887.523	4603
887.648	4596
887.773	4584
887.897	4755
888.021	4763
888.146	4717
888.27	4759
888.395	4908
888.519	4820
888.643	4831
888.767	4828
888.891	4637
889.015	4607
889.139	4660
889.263	4577
889.387	4725
889.511	4850
889.635	4763
889.759	4668
889.883	4698
890.006	4744
890.13	4850
890.254	4622
890.377	4675
890.501	4558
890.624	4523
890.748	4622
890.871	4516
890.995	4462
891.118	4398
891.241	4519
891.364	4554
891.488	4588
891.611	4489
891.734	4550
891.857	4634
891.98	4561
892.103	4622
892.226	4584
892.349	4573
892.471	4447
892.594	4519
892.717	4626
892.839	4577
892.962	4672
893.085	4664
893.207	4580
893.33	4424
893.452	4500
893.575	4664
893.697	4558
893.819	4828
893.941	4835
894.064	4786
894.186	4535
894.308	4577
894.43	4672
894.552	4812
894.674	4721
894.796	4527
894.918	4599
895.04	4607
895.161	4729
895.283	4664
895.405	4584
895.526	4618
895.648	4706
895.769	4679
895.891	4691
896.012	4733
896.134	4725
896.255	4649
896.376	4611
896.498	4615
896.619	4702
896.74	4611
896.861	4660
896.982	4934
897.103	5083
897.224	4847
897.345	4744
897.466	4649
897.587	4710
897.708	4809
897.828	4805
897.949	4710
898.07	4554
898.19	4634
898.311	4824
898.431	4664
898.552	4744
898.672	4858
898.792	4778
898.913	4752
899.033	4626
899.153	4569
899.273	4428
899.393	4474
899.513	4512
899.633	4531
899.753	4577
899.873	4546
899.993	4599
900.113	4535
900.232	4565
900.352	4538
900.472	4516
900.591	4417
900.711	4470
900.83	4409
900.95	4626
901.069	4641
901.189	4573
901.308	4363
901.427	4360
901.546	4409
901.665	4489
901.784	4508
901.904	4409
902.023	4383
902.141	4200
902.26	4204
902.379	4284
902.498	4188
902.617	4207
902.735	4352
902.854	4409
902.973	4379
903.091	4234
903.21	4223
903.328	4291
903.446	4272
903.565	4268
903.683	4337
903.801	4306
903.919	4402
904.038	4432
904.156	4276
904.274	4436
904.392	4417
904.51	4424
904.627	4478
904.745	4569
904.863	4645
904.981	4413
905.098	4348
905.216	4318
905.334	4428
905.451	4470
905.569	4474
905.686	4561
905.803	4561
905.921	4363
906.038	4580
906.155	4538
906.272	4390
906.389	4462
906.506	4360
906.623	4360
906.74	4394
906.857	4287
906.974	4341
907.091	4577
907.208	4694
907.324	4611
907.441	4451
907.557	4322
907.674	4356
907.79	4344
907.907	4360
908.023	4462
908.139	4466
908.256	4421
908.372	4478
908.488	4485
908.604	4337
908.72	4344
908.836	4322
908.952	4405
909.068	4428
909.184	4531
909.3	4493
909.415	4615
909.531	4599
909.647	4371
909.762	4337
909.878	4318
909.993	4409
910.108	4428
910.224	4443
910.339	4493
910.454	4436
910.57	4329
910.685	4303
910.8	4649
910.915	4577
911.03	4523
911.145	4333
911.259	4333
911.374	4386
911.489	4295
911.604	4284
911.718	4185
911.833	4211
911.947	4051
912.062	4044
912.176	4227
912.291	4253
912.405	4295
912.519	4474
912.633	4519
912.748	4371
912.862	4322
912.976	4223
913.09	4120
913.204	4188
913.318	4265
913.431	4325
913.545	4337
913.659	4440
913.772	4344
913.886	4238
914	4242
914.113	4417
914.226	4451
914.34	4405
914.453	4207
914.566	4451
914.68	4303
914.793	4306
914.906	4135
915.019	4150
915.132	4093
915.245	4185
915.358	4185
915.47	4207
915.583	4253
915.696	4337
915.809	4436
915.921	4360
916.034	4272
916.146	4265
916.259	4249
916.371	4394
916.483	4360
916.595	4261
916.708	4299
916.82	4329
916.932	4329
917.044	4329
917.156	4253
917.268	4230
917.38	4310
917.491	4295
917.603	4337
917.715	4424
917.826	4436
917.938	4310
918.049	4291
918.161	4405
918.272	4550
918.384	4561
918.495	4451
918.606	4284
918.717	4249
918.828	4363
918.939	4398
919.05	4234
919.161	4356
919.272	4105
919.383	4242
919.494	4470
919.604	4607
919.715	4466
919.826	4325
919.936	4386
920.047	4489
920.157	4466
920.267	4752
920.378	4577
920.488	4497
920.598	4736
920.708	4934
920.818	4748
920.928	4790
921.038	4961
921.148	4953
921.258	4630
921.368	4573
921.477	4546
921.587	4447
921.697	4352
921.806	4561
921.916	4451
922.025	4280
922.134	4280
922.244	4238
922.353	4337
922.462	4200
922.571	4128
922.68	4051
922.789	3964
922.898	4051
923.007	4013
923.116	4120
923.224	4097
923.333	4093
923.442	4036
923.55	4021
923.659	4055
923.767	4071
923.876	3994
923.984	4173
924.092	3972
924.201	4086
924.309	4112
924.417	4090
924.525	4051
924.633	4109
924.741	5037
924.849	3926
924.956	4181
925.064	3941
925.172	3915
925.279	4017
925.387	4051
925.494	4086
925.602	4185
925.709	4166
925.816	4059
925.924	4131
926.031	4211
926.138	4139
926.245	4200
926.352	4078
926.459	4207
926.566	4344
926.673	4143
926.779	4040
926.886	4074
926.993	3949
927.099	3968
927.206	3945
927.312	3899
927.419	4017
927.525	4021
927.631	4150
927.737	3949
927.843	3956
927.95	3846
928.056	3926
928.162	3953
928.267	4071
928.373	4668
928.479	4101
928.585	3896
928.69	4044
928.796	4071
928.901	3979
929.007	3861
929.112	4010
929.218	3998
929.323	3926
929.428	3934
929.533	4078
929.638	3941
929.743	3945
929.848	4055
929.953	3956
930.058	3956
930.163	3781
930.267	3831
930.372	3983
930.477	3846
930.581	4051
930.685	3975
930.79	3850
930.894	3941
930.998	3876
931.103	4017
931.207	3720
931.311	3705
931.415	3663
931.519	3534
931.623	3545
