Data from test_V78500241_1655.txt Node
Date: Fri Mar 25 17:00:30 CST 2022
User: usil
Spectrometer: V785-0024
Trigger mode: 0
Integration Time (sec): 4.000000E-1
Scans to average: 1
Nonlinearity correction enabled: false
Boxcar width: 0
Storing dark spectrum: false
XAxis mode: Wavelengths
Number of Pixels in Spectrum: 1024
>>>>>Begin Spectral Data<<<<<
801.071	7967
801.214	7959
801.356	7822
801.499	7811
801.641	7837
801.783	7860
801.926	7982
802.068	7932
802.211	7963
802.353	8001
802.496	7871
802.638	7849
802.78	7845
802.923	7845
803.065	7860
803.208	7837
803.35	7917
803.492	8081
803.635	8149
803.777	8035
803.919	8145
804.061	8396
804.204	8088
804.346	8016
804.488	7951
804.63	8027
804.773	8058
804.915	8065
805.057	8343
805.199	8157
805.341	8168
805.483	8237
805.626	8225
805.768	8081
805.91	8252
806.052	8237
806.194	8103
806.336	8301
806.478	8142
806.62	8046
806.762	8138
806.904	8263
807.046	8495
807.188	8351
807.33	8275
807.472	8282
807.614	8130
807.756	8183
807.898	7955
808.04	7906
808.182	7947
808.324	7852
808.465	7944
808.607	8050
808.749	8016
808.891	8172
809.033	8279
809.174	8221
809.316	8081
809.458	8043
809.6	8054
809.741	8103
809.883	7989
810.025	8119
810.166	8043
810.308	7967
810.45	7989
810.591	7830
810.733	7742
810.875	7700
811.016	7594
811.158	7422
811.299	7636
811.441	7685
811.582	7647
811.724	7582
811.865	7495
812.007	7601
812.148	7559
812.29	7662
812.431	7731
812.573	7856
812.714	7989
812.855	8081
812.997	8176
813.138	8282
813.279	8202
813.421	8145
813.562	7967
813.703	7833
813.845	7784
813.986	7499
814.127	7293
814.268	7289
814.41	7202
814.551	7183
814.692	7209
814.833	7042
814.974	7114
815.115	7103
815.256	6932
815.397	6966
815.539	6886
815.68	6867
815.821	6798
815.962	6878
816.103	6783
816.244	6730
816.385	6642
816.526	6612
816.666	6490
816.807	6319
816.948	6418
817.089	6445
817.23	6464
817.371	6346
817.512	6426
817.653	6376
817.793	6281
817.934	6376
818.075	6483
818.216	6376
818.356	6426
818.497	6247
818.638	6140
818.778	6152
818.919	6159
819.06	6125
819.2	6304
819.341	6289
819.481	6357
819.622	6517
819.762	6665
819.903	6696
820.043	6604
820.184	6521
820.324	6593
820.465	6696
820.605	6696
820.746	6578
820.886	6441
821.026	6646
821.167	6642
821.307	6795
821.447	6776
821.588	6696
821.728	6559
821.868	6486
822.008	6270
822.149	6357
822.289	6369
822.429	6159
822.569	6083
822.709	6068
822.849	5908
822.99	5901
823.13	5897
823.27	5920
823.41	5828
823.55	5794
823.69	5748
823.83	5756
823.97	5733
824.11	5486
824.25	5509
824.389	5608
824.529	5592
824.669	5539
824.809	5623
824.949	5634
825.089	5566
825.228	5478
825.368	5376
825.508	5383
825.648	5307
825.787	5372
825.927	5337
826.067	5307
826.206	5265
826.346	5402
826.485	5368
826.625	5372
826.765	5543
826.904	5463
827.044	5201
827.183	5242
827.323	5083
827.462	5231
827.601	5197
827.741	5220
827.88	5235
828.02	5136
828.159	5212
828.298	5311
828.437	5330
828.577	5303
828.716	5463
828.855	5307
828.994	5121
829.134	5094
829.273	5170
829.412	5155
829.551	5105
829.69	5147
829.829	5166
829.968	5326
830.107	5277
830.246	5284
830.385	5220
830.524	5124
830.663	5098
830.802	4999
830.941	4877
831.08	4858
831.219	5018
831.357	4949
831.496	5181
831.635	4965
831.774	4862
831.913	4870
832.051	4733
832.19	4740
832.329	4843
832.467	4679
832.606	4649
832.744	4687
832.883	4675
833.022	4725
833.16	4797
833.299	4820
833.437	4831
833.576	4786
833.714	4839
833.852	4854
833.991	4896
834.129	4991
834.267	4908
834.406	4911
834.544	5025
834.682	4999
834.821	4991
834.959	5155
835.097	4987
835.235	5086
835.373	5094
835.511	5128
835.65	5052
835.788	5022
835.926	4911
836.064	4870
836.202	4965
836.34	5174
836.478	5246
836.615	5117
836.753	5246
836.891	5246
837.029	5254
837.167	5189
837.305	5178
837.443	5170
837.58	5083
837.718	5208
837.856	5170
837.993	5174
838.131	5258
838.269	5235
838.406	5216
838.544	5117
838.681	4972
838.819	4984
838.956	4850
839.094	4908
839.231	4968
839.369	5033
839.506	5326
839.643	5227
839.781	5064
839.918	5022
840.055	5083
840.193	5105
840.33	5159
840.467	5121
840.604	5189
840.742	5417
840.879	5060
841.016	5075
841.153	5170
841.29	5368
841.427	5345
841.564	5288
841.701	5322
841.838	5246
841.975	5181
842.112	5288
842.249	5132
842.385	5109
842.522	5242
842.659	5178
842.796	5189
842.933	5185
843.069	5128
843.206	5140
843.343	5288
843.479	5208
843.616	5292
843.752	5003
843.889	4949
844.025	5193
844.162	5071
844.298	5235
844.435	5083
844.571	5056
844.708	5166
844.844	5337
844.98	5330
845.117	5220
845.253	5143
845.389	5022
845.525	5170
845.661	5094
845.798	4976
845.934	5102
846.07	5098
846.206	5128
846.342	5254
846.478	5151
846.614	4999
846.75	4961
846.886	4896
847.022	5181
847.158	4995
847.294	5067
847.429	5071
847.565	5014
847.701	5318
847.837	4854
847.972	4782
848.108	4972
848.244	4942
848.379	4748
848.515	4668
848.65	4725
848.786	4717
848.921	4793
849.057	4847
849.192	4854
849.328	4839
849.463	4850
849.598	4797
849.734	4733
849.869	4683
850.004	4615
850.14	4694
850.275	4660
850.41	4523
850.545	4546
850.68	4618
850.815	4641
850.95	4641
851.085	4809
851.22	4710
851.355	4672
851.49	4599
851.625	4634
851.76	4637
851.895	4554
852.03	4546
852.165	4656
852.299	4733
852.434	4767
852.569	4744
852.703	4767
852.838	4828
852.973	4930
853.107	4915
853.242	4740
853.376	4672
853.511	4558
853.645	4641
853.78	4812
853.914	4672
854.048	4668
854.183	4615
854.317	4759
854.451	4858
854.585	4687
854.72	4637
854.854	4729
854.988	4588
855.122	4645
855.256	4535
855.39	4698
855.524	4801
855.658	4702
855.792	4710
855.926	4733
856.06	4748
856.194	4782
856.327	4687
856.461	4618
856.595	4641
856.729	4645
856.862	4721
856.996	4649
857.13	4786
857.263	4809
857.397	4816
857.53	4698
857.664	4717
857.797	4797
857.931	4759
858.064	4733
858.197	4729
858.331	4596
858.464	4554
858.597	4497
858.731	4645
858.864	4649
858.997	4573
859.13	4653
859.263	4630
859.396	4683
859.529	4607
859.662	4577
859.795	4542
859.928	4634
860.061	4801
860.194	4736
860.327	4649
860.46	4611
860.592	4710
860.725	4733
860.858	4710
860.99	4565
861.123	4497
861.256	4519
861.388	4596
861.521	5185
861.653	4436
861.786	4459
861.918	4470
862.05	4508
862.183	4569
862.315	4615
862.447	4660
862.58	4622
862.712	4424
862.844	4352
862.976	4436
863.108	4447
863.24	4790
863.372	4318
863.504	4402
863.636	4402
863.768	4455
863.9	4413
864.032	4348
864.164	4383
864.296	4455
864.428	4538
864.559	4538
864.691	4535
864.823	4504
864.954	4519
865.086	4542
865.217	4462
865.349	4440
865.48	4421
865.612	4459
865.743	4618
865.875	4512
866.006	4394
866.137	4478
866.269	4440
866.4	4413
866.531	4474
866.662	4352
866.793	4402
866.924	4466
867.055	4447
867.186	4390
867.317	4432
867.448	4386
867.579	4341
867.71	4375
867.841	4344
867.972	4440
868.103	4440
868.233	4447
868.364	4478
868.495	4466
868.625	4603
868.756	4752
868.886	4550
869.017	4626
869.147	4763
869.278	4748
869.408	4630
869.539	4664
869.669	4694
869.799	4649
869.929	4774
870.06	4702
870.19	4991
870.32	4915
870.45	4919
870.58	5010
870.71	5048
870.84	5090
870.97	4896
871.1	4908
871.23	5109
871.36	5109
871.489	5022
871.619	5037
871.749	5071
871.879	5086
872.008	5170
872.138	5075
872.267	4980
872.397	4862
872.526	4740
872.656	4755
872.785	4763
872.915	4934
873.044	4991
873.173	4976
873.303	4949
873.432	4946
873.561	5003
873.69	4850
873.819	4881
873.948	4919
874.077	4801
874.206	4774
874.335	4767
874.464	4961
874.593	5060
874.722	4953
874.851	5079
874.979	5003
875.108	5025
875.237	4923
875.365	4881
875.494	4862
875.623	4949
875.751	4828
875.88	4919
876.008	5014
876.136	5033
876.265	5178
876.393	5334
876.521	5258
876.65	5197
876.778	5159
876.906	5071
877.034	5029
877.162	5018
877.29	5010
877.418	5003
877.546	5029
877.674	5048
877.802	5056
877.93	5025
878.058	4946
878.185	4828
878.313	4946
878.441	4919
878.568	4774
878.696	4881
878.824	4957
878.951	5014
879.079	5113
879.206	5284
879.333	5121
879.461	5022
879.588	4987
879.715	5132
879.842	5204
879.97	4949
880.097	4759
880.224	4717
880.351	4831
880.478	4778
880.605	4809
880.732	4812
880.859	5102
880.986	4839
881.112	4858
881.239	4759
881.366	4634
881.493	4599
881.619	4607
881.746	4668
881.872	4664
881.999	4649
882.125	4717
882.252	4771
882.378	4816
882.505	4934
882.631	4805
882.757	4634
882.883	4733
883.01	4717
883.136	4645
883.262	4573
883.388	4569
883.514	4801
883.64	4877
883.766	4797
883.892	4637
884.018	4725
884.143	4892
884.269	4987
884.395	4660
884.52	4596
884.646	4618
884.772	4611
884.897	4561
885.023	4653
885.148	4774
885.274	4850
885.399	4805
885.524	4710
885.65	4706
885.775	4710
885.9	4630
886.025	4812
886.15	4793
886.275	4706
886.4	4653
886.525	4744
886.65	4645
886.775	4710
886.9	4873
887.025	4995
887.149	4786
887.274	4668
887.399	4569
887.523	4618
887.648	4603
887.773	4649
887.897	4763
888.021	4809
888.146	4694
888.27	4774
888.395	4885
888.519	4797
888.643	4820
888.767	4801
888.891	4615
889.015	4649
889.139	4626
889.263	4611
889.387	4790
889.511	4881
889.635	4797
889.759	4618
889.883	4626
890.006	4733
890.13	4752
890.254	4603
890.377	4675
890.501	4538
890.624	4489
890.748	4634
890.871	4512
890.995	4451
891.118	4344
891.241	4516
891.364	4538
891.488	4645
891.611	4493
891.734	4508
891.857	4596
891.98	4542
892.103	4649
892.226	4626
892.349	4527
892.471	4417
892.594	4546
892.717	4611
892.839	4588
892.962	4603
893.085	4653
893.207	4599
893.33	4466
893.452	4500
893.575	4637
893.697	4527
893.819	4767
893.941	4835
894.064	4774
894.186	4580
894.308	4554
894.43	4717
894.552	4816
894.674	4736
894.796	4512
894.918	4588
895.04	4577
895.161	4733
895.283	4706
895.405	4546
895.526	4596
895.648	4672
895.769	4683
895.891	4698
896.012	4710
896.134	4660
896.255	4687
896.376	4653
896.498	4653
896.619	4675
896.74	4618
896.861	4618
896.982	4934
897.103	5105
897.224	4839
897.345	4755
897.466	4637
897.587	4721
897.708	4809
897.828	4771
897.949	4698
898.07	4584
898.19	4668
898.311	4824
898.431	4702
898.552	4786
898.672	4790
898.792	4843
898.913	4767
899.033	4630
899.153	4485
899.273	4432
899.393	4481
899.513	4531
899.633	4512
899.753	4550
899.873	4508
899.993	4599
900.113	4554
900.232	4573
900.352	4481
900.472	4451
900.591	4371
900.711	4493
900.83	4466
900.95	4611
901.069	4672
901.189	4550
901.308	4352
901.427	4337
901.546	4379
901.665	4447
901.784	4493
901.904	4394
902.023	4287
902.141	4200
902.26	4150
902.379	4272
902.498	4253
902.617	4192
902.735	4383
902.854	4379
902.973	4360
903.091	4215
903.21	4192
903.328	4314
903.446	4314
903.565	4287
903.683	4314
903.801	4253
903.919	4440
904.038	4398
904.156	4322
904.274	4462
904.392	4348
904.51	4451
904.627	4493
904.745	4577
904.863	4653
904.981	4421
905.098	4303
905.216	4367
905.334	4428
905.451	4451
905.569	4459
905.686	4531
905.803	4615
905.921	4379
906.038	4584
906.155	4481
906.272	4356
906.389	4478
906.506	4352
906.623	4402
906.74	4337
906.857	4272
906.974	4417
907.091	4535
907.208	4649
907.324	4558
907.441	4470
907.557	4356
907.674	4390
907.79	4303
907.907	4405
908.023	4474
908.139	4478
908.256	4371
908.372	4478
908.488	4421
908.604	4390
908.72	4299
908.836	4344
908.952	4360
909.068	4421
909.184	4596
909.3	4500
909.415	4538
909.531	4580
909.647	4291
909.762	4424
909.878	4299
909.993	4436
910.108	4413
910.224	4390
910.339	4459
910.454	4421
910.57	4383
910.685	4291
910.8	4607
910.915	4603
911.03	4481
911.145	4352
911.259	4268
911.374	4367
911.489	4344
911.604	4261
911.718	4185
911.833	4249
911.947	4105
912.062	3998
912.176	4246
912.291	4207
912.405	4238
912.519	4424
912.633	4485
912.748	4386
912.862	4310
912.976	4196
913.09	4112
913.204	4181
913.318	4253
913.431	4379
913.545	4367
913.659	4447
913.772	4405
913.886	4306
914	4181
914.113	4421
914.226	4363
914.34	4367
914.453	4238
914.566	4466
914.68	4295
914.793	4303
914.906	4150
915.019	4135
915.132	4082
915.245	4185
915.358	4200
915.47	4200
915.583	4268
915.696	4318
915.809	4409
915.921	4398
916.034	4242
916.146	4257
916.259	4177
916.371	4344
916.483	4360
916.595	4287
916.708	4272
916.82	4306
916.932	4280
917.044	4325
917.156	4280
917.268	4249
917.38	4276
917.491	4276
917.603	4310
917.715	4474
917.826	4451
917.938	4367
918.049	4284
918.161	4424
918.272	4504
918.384	4554
918.495	4447
918.606	4284
918.717	4223
918.828	4363
918.939	4325
919.05	4318
919.161	4322
919.272	4120
919.383	4234
919.494	4436
919.604	4592
919.715	4402
919.826	4303
919.936	4394
920.047	4504
920.157	4455
920.267	4675
920.378	4512
920.488	4436
920.598	4675
920.708	4831
920.818	4736
920.928	4736
921.038	4927
921.148	4904
921.258	4641
921.368	4577
921.477	4455
921.587	4455
921.697	4322
921.806	4580
921.916	4402
922.025	4257
922.134	4272
922.244	4196
922.353	4291
922.462	4162
922.571	4158
922.68	4029
922.789	3941
922.898	4029
923.007	3987
923.116	4112
923.224	4067
923.333	4074
923.442	4010
923.55	4006
923.659	4063
923.767	4128
923.876	3998
923.984	4166
924.092	3956
924.201	4093
924.309	4093
924.417	4086
924.525	4063
924.633	4154
924.741	4923
924.849	3892
924.956	4086
925.064	4006
925.172	3915
925.279	3956
925.387	4071
925.494	4051
925.602	4253
925.709	4158
925.816	4048
925.924	4116
926.031	4246
926.138	4188
926.245	4207
926.352	4071
926.459	4242
926.566	4341
926.673	4177
926.779	4063
926.886	4067
926.993	3983
927.099	3911
927.206	3922
927.312	3953
927.419	4021
927.525	4006
927.631	4093
927.737	3968
927.843	3911
927.95	3816
928.056	3953
928.162	3991
928.267	4032
928.373	4565
928.479	4139
928.585	3854
928.69	3991
928.796	4059
928.901	3964
929.007	3838
929.112	4029
929.218	3956
929.323	3983
929.428	3960
929.533	4105
929.638	3888
929.743	3972
929.848	4025
929.953	4017
930.058	3968
930.163	3751
930.267	3816
930.372	3964
930.477	3778
930.581	4150
930.685	3972
930.79	3842
930.894	3850
930.998	3861
931.103	4006
931.207	3671
931.311	3701
931.415	3682
931.519	3526
931.623	3561
