Data from test_V78500241_1689.txt Node
Date: Fri Mar 25 17:00:44 CST 2022
User: usil
Spectrometer: V785-0024
Trigger mode: 0
Integration Time (sec): 4.000000E-1
Scans to average: 1
Nonlinearity correction enabled: false
Boxcar width: 0
Storing dark spectrum: false
XAxis mode: Wavelengths
Number of Pixels in Spectrum: 1024
>>>>>Begin Spectral Data<<<<<
801.071	8039
801.214	8031
801.356	7894
801.499	7898
801.641	7883
801.783	7788
801.926	7970
802.068	7959
802.211	7967
802.353	8020
802.496	7894
802.638	7833
802.78	7852
802.923	7906
803.065	7871
803.208	7830
803.35	7963
803.492	8103
803.635	8142
803.777	7978
803.919	8100
804.061	8469
804.204	8130
804.346	8077
804.488	7925
804.63	8088
804.773	8024
804.915	8107
805.057	8351
805.199	8164
805.341	8172
805.483	8248
805.626	8240
805.768	8142
805.91	8157
806.052	8256
806.194	8123
806.336	8309
806.478	8081
806.62	8054
806.762	8088
806.904	8282
807.046	8499
807.188	8412
807.33	8309
807.472	8328
807.614	8138
807.756	8088
807.898	7997
808.04	7898
808.182	7906
808.324	7849
808.465	7909
808.607	8058
808.749	8134
808.891	8191
809.033	8282
809.174	8252
809.316	8054
809.458	8043
809.6	8001
809.741	8027
809.883	8069
810.025	8046
810.166	8062
810.308	7986
810.45	8005
810.591	7776
810.733	7731
810.875	7639
811.016	7476
811.158	7495
811.299	7578
811.441	7620
811.582	7655
811.724	7582
811.865	7518
812.007	7540
812.148	7575
812.29	7693
812.431	7753
812.573	7959
812.714	7928
812.855	8088
812.997	8191
813.138	8351
813.279	8267
813.421	8123
813.562	7967
813.703	7822
813.845	7677
813.986	7426
814.127	7198
814.268	7206
814.41	7183
814.551	7152
814.692	7285
814.833	7110
814.974	7129
815.115	7076
815.256	6981
815.397	6928
815.539	6878
815.68	6810
815.821	6802
815.962	6867
816.103	6806
816.244	6741
816.385	6627
816.526	6585
816.666	6483
816.807	6300
816.948	6410
817.089	6445
817.23	6433
817.371	6369
817.512	6365
817.653	6353
817.793	6346
817.934	6380
818.075	6399
818.216	6372
818.356	6410
818.497	6201
818.638	6087
818.778	6129
818.919	6121
819.06	6110
819.2	6311
819.341	6315
819.481	6384
819.622	6544
819.762	6715
819.903	6684
820.043	6635
820.184	6574
820.324	6544
820.465	6669
820.605	6730
820.746	6631
820.886	6528
821.026	6608
821.167	6688
821.307	6882
821.447	6745
821.588	6696
821.728	6566
821.868	6509
822.008	6319
822.149	6361
822.289	6372
822.429	6121
822.569	6068
822.709	6163
822.849	5897
822.99	5836
823.13	5904
823.27	5942
823.41	5798
823.55	5794
823.69	5805
823.83	5737
823.97	5672
824.11	5547
824.25	5543
824.389	5562
824.529	5623
824.669	5528
824.809	5642
824.949	5668
825.089	5615
825.228	5554
825.368	5337
825.508	5299
825.648	5318
825.787	5368
825.927	5425
826.067	5269
826.206	5322
826.346	5417
826.485	5448
826.625	5398
826.765	5562
826.904	5478
827.044	5261
827.183	5185
827.323	5128
827.462	5197
827.601	5227
827.741	5220
827.88	5197
828.02	5147
828.159	5227
828.298	5318
828.437	5353
828.577	5349
828.716	5497
828.855	5349
828.994	5155
829.134	5189
829.273	5254
829.412	5235
829.551	5151
829.69	5181
829.829	5265
829.968	5421
830.107	5345
830.246	5326
830.385	5208
830.524	5185
830.663	5132
830.802	5048
830.941	4919
831.08	4889
831.219	4965
831.357	5003
831.496	5162
831.635	4946
831.774	4908
831.913	4900
832.051	4774
832.19	4706
832.329	4881
832.467	4744
832.606	4664
832.744	4767
832.883	4740
833.022	4767
833.16	4812
833.299	4786
833.437	4847
833.576	4847
833.714	4889
833.852	4908
833.991	4911
834.129	5025
834.267	5018
834.406	4938
834.544	5045
834.682	4999
834.821	4991
834.959	5151
835.097	4991
835.235	5124
835.373	5079
835.511	5124
835.65	5090
835.788	5090
835.926	4934
836.064	4919
836.202	4999
836.34	5231
836.478	5273
836.615	5136
836.753	5189
836.891	5303
837.029	5311
837.167	5277
837.305	5159
837.443	5204
837.58	5124
837.718	5246
837.856	5258
837.993	5189
838.131	5235
838.269	5254
838.406	5250
838.544	5204
838.681	5067
838.819	5064
838.956	4953
839.094	4934
839.231	4965
839.369	5079
839.506	5509
839.643	5220
839.781	5048
839.918	5048
840.055	5105
840.193	5140
840.33	5140
840.467	5143
840.604	5166
840.742	5459
840.879	5094
841.016	5124
841.153	5197
841.29	5395
841.427	5326
841.564	5353
841.701	5387
841.838	5273
841.975	5280
842.112	5277
842.249	5147
842.385	5162
842.522	5383
842.659	5155
842.796	5197
842.933	5193
843.069	5166
843.206	5166
843.343	5299
843.479	5227
843.616	5315
843.752	5090
843.889	5041
844.025	5258
844.162	5014
844.298	5242
844.435	5098
844.571	5102
844.708	5201
844.844	5326
844.98	5387
845.117	5345
845.253	5143
845.389	5090
845.525	5197
845.661	5143
845.798	5086
845.934	5143
846.07	5060
846.206	5246
846.342	5322
846.478	5166
846.614	5045
846.75	4980
846.886	4949
847.022	5235
847.158	5056
847.294	5067
847.429	5132
847.565	5075
847.701	5303
847.837	4915
847.972	4854
848.108	4961
848.244	4949
848.379	4793
848.515	4801
848.65	4759
848.786	4786
848.921	4862
849.057	4866
849.192	4923
849.328	4805
849.463	4889
849.598	4870
849.734	4771
849.869	4748
850.004	4702
850.14	4702
850.275	4626
850.41	4546
850.545	4569
850.68	4660
850.815	4645
850.95	4637
851.085	4854
851.22	4812
851.355	4717
851.49	4672
851.625	4664
851.76	4611
851.895	4554
852.03	4584
852.165	4725
852.299	4748
852.434	4790
852.569	4763
852.703	4778
852.838	4858
852.973	4911
853.107	4904
853.242	4740
853.376	4691
853.511	4561
853.645	4626
853.78	4831
853.914	4725
854.048	4710
854.183	4710
854.317	4740
854.451	4839
854.585	4679
854.72	4698
854.854	4736
854.988	4596
855.122	4664
855.256	4569
855.39	4687
855.524	4831
855.658	4740
855.792	4725
855.926	4763
856.06	4778
856.194	4847
856.327	4733
856.461	4618
856.595	4675
856.729	4653
856.862	4759
856.996	4763
857.13	4721
857.263	4782
857.397	4862
857.53	4637
857.664	4740
857.797	4809
857.931	4862
858.064	4706
858.197	4805
858.331	4664
858.464	4607
858.597	4558
858.731	4694
858.864	4660
858.997	4634
859.13	4656
859.263	4675
859.396	4733
859.529	4603
859.662	4599
859.795	4558
859.928	4645
860.061	4759
860.194	4767
860.327	4637
860.46	4630
860.592	4740
860.725	4721
860.858	4759
860.99	4573
861.123	4558
861.256	4558
861.388	4683
861.521	5277
861.653	4527
861.786	4466
861.918	4436
862.05	4504
862.183	4519
862.315	4649
862.447	4679
862.58	4531
862.712	4409
862.844	4356
862.976	4512
863.108	4466
863.24	4911
863.372	4322
863.504	4466
863.636	4424
863.768	4481
863.9	4516
864.032	4409
864.164	4428
864.296	4489
864.428	4523
864.559	4554
864.691	4603
864.823	4558
864.954	4493
865.086	4550
865.217	4531
865.349	4474
865.48	4474
865.612	4523
865.743	4603
865.875	4512
866.006	4466
866.137	4443
866.269	4459
866.4	4421
866.531	4428
866.662	4409
866.793	4413
866.924	4451
867.055	4558
867.186	4466
867.317	4459
867.448	4424
867.579	4390
867.71	4405
867.841	4432
867.972	4489
868.103	4500
868.233	4443
868.364	4470
868.495	4500
868.625	4679
868.756	4790
868.886	4599
869.017	4622
869.147	4850
869.278	4805
869.408	4717
869.539	4687
869.669	4740
869.799	4660
869.929	4759
870.06	4740
870.19	5003
870.32	4957
870.45	4900
870.58	5067
870.71	5105
870.84	5121
870.97	4885
871.1	4892
871.23	5159
871.36	5155
871.489	5018
871.619	5071
871.749	5075
871.879	5170
872.008	5201
872.138	5056
872.267	4946
872.397	4816
872.526	4850
872.656	4752
872.785	4820
872.915	4965
873.044	5041
873.173	4953
873.303	4968
873.432	4976
873.561	4957
873.69	4877
873.819	4854
873.948	4934
874.077	4816
874.206	4782
874.335	4824
874.464	4904
874.593	5140
874.722	5006
874.851	5086
874.979	5102
875.108	5056
875.237	4942
875.365	4873
875.494	4900
875.623	4987
875.751	4820
875.88	4896
876.008	5018
876.136	5067
876.265	5193
876.393	5345
876.521	5292
876.65	5246
876.778	5189
876.906	5079
877.034	5079
877.162	5056
877.29	4995
877.418	5045
877.546	5094
877.674	5105
877.802	5048
877.93	5029
878.058	4923
878.185	4934
878.313	4984
878.441	5010
878.568	4771
878.696	4949
878.824	4976
878.951	5022
879.079	5155
879.206	5376
879.333	5140
879.461	4965
879.588	4968
879.715	5155
879.842	5212
879.97	5048
880.097	4809
880.224	4786
880.351	4828
880.478	4835
880.605	4831
880.732	4744
880.859	5090
880.986	4923
881.112	4934
881.239	4820
881.366	4706
881.493	4653
881.619	4592
881.746	4656
881.872	4660
881.999	4698
882.125	4691
882.252	4812
882.378	4847
882.505	4980
882.631	4797
882.757	4653
882.883	4748
883.01	4698
883.136	4744
883.262	4603
883.388	4656
883.514	4877
883.64	4870
883.766	4793
883.892	4752
884.018	4714
884.143	4915
884.269	5041
884.395	4664
884.52	4649
884.646	4706
884.772	4592
884.897	4573
885.023	4694
885.148	4767
885.274	4953
885.399	4812
885.524	4767
885.65	4694
885.775	4763
885.9	4721
886.025	4870
886.15	4820
886.275	4763
886.4	4649
886.525	4774
886.65	4763
886.775	4675
886.9	4942
887.025	5041
887.149	4793
887.274	4656
887.399	4565
887.523	4656
887.648	4622
887.773	4615
887.897	4763
888.021	4755
888.146	4698
888.27	4858
888.395	4946
888.519	4828
888.643	4816
888.767	4850
888.891	4660
889.015	4660
889.139	4664
889.263	4611
889.387	4793
889.511	4866
889.635	4786
889.759	4634
889.883	4653
890.006	4710
890.13	4850
890.254	4622
890.377	4721
890.501	4580
890.624	4531
890.748	4641
890.871	4588
890.995	4455
891.118	4405
891.241	4519
891.364	4592
891.488	4634
891.611	4481
891.734	4554
891.857	4645
891.98	4569
892.103	4645
892.226	4596
892.349	4561
892.471	4421
892.594	4546
892.717	4668
892.839	4569
892.962	4603
893.085	4687
893.207	4596
893.33	4447
893.452	4550
893.575	4641
893.697	4580
893.819	4812
893.941	4854
894.064	4797
894.186	4580
894.308	4603
894.43	4752
894.552	4835
894.674	4786
894.796	4588
894.918	4656
895.04	4596
895.161	4725
895.283	4679
895.405	4561
895.526	4645
895.648	4710
895.769	4691
895.891	4717
896.012	4793
896.134	4759
896.255	4664
896.376	4683
896.498	4641
896.619	4721
896.74	4645
896.861	4706
896.982	4987
897.103	5060
897.224	4835
897.345	4774
897.466	4656
897.587	4683
897.708	4870
897.828	4820
897.949	4687
898.07	4569
898.19	4653
898.311	4854
898.431	4672
898.552	4763
898.672	4793
898.792	4786
898.913	4725
899.033	4656
899.153	4508
899.273	4447
899.393	4550
899.513	4531
899.633	4558
899.753	4558
899.873	4485
899.993	4630
900.113	4561
900.232	4550
900.352	4519
900.472	4519
900.591	4386
900.711	4474
900.83	4455
900.95	4626
901.069	4687
901.189	4599
901.308	4367
901.427	4375
901.546	4398
901.665	4489
901.784	4485
901.904	4405
902.023	4341
902.141	4185
902.26	4177
902.379	4322
902.498	4253
902.617	4261
902.735	4383
902.854	4481
902.973	4348
903.091	4196
903.21	4227
903.328	4318
903.446	4291
903.565	4333
903.683	4390
903.801	4299
903.919	4394
904.038	4470
904.156	4318
904.274	4455
904.392	4383
904.51	4428
904.627	4493
904.745	4599
904.863	4653
904.981	4386
905.098	4295
905.216	4352
905.334	4451
905.451	4451
905.569	4470
905.686	4599
905.803	4592
905.921	4459
906.038	4550
906.155	4497
906.272	4402
906.389	4447
906.506	4356
906.623	4386
906.74	4398
906.857	4280
906.974	4356
907.091	4546
907.208	4675
907.324	4550
907.441	4481
907.557	4341
907.674	4356
907.79	4341
907.907	4390
908.023	4432
908.139	4478
908.256	4405
908.372	4451
908.488	4432
908.604	4344
908.72	4306
908.836	4405
908.952	4337
909.068	4443
909.184	4592
909.3	4489
909.415	4535
909.531	4527
909.647	4348
909.762	4379
909.878	4325
909.993	4466
910.108	4421
910.224	4440
910.339	4500
910.454	4421
910.57	4360
910.685	4310
910.8	4664
910.915	4577
911.03	4573
911.145	4344
911.259	4371
911.374	4329
911.489	4295
911.604	4303
911.718	4181
911.833	4192
911.947	4086
912.062	4078
912.176	4162
912.291	4261
912.405	4242
912.519	4478
912.633	4535
912.748	4333
912.862	4303
912.976	4230
913.09	4086
913.204	4139
913.318	4249
913.431	4432
913.545	4360
913.659	4432
913.772	4394
913.886	4265
914	4268
914.113	4379
914.226	4466
914.34	4356
914.453	4234
914.566	4421
914.68	4299
914.793	4325
914.906	4147
915.019	4120
915.132	4112
915.245	4207
915.358	4181
915.47	4207
915.583	4253
915.696	4284
915.809	4421
915.921	4485
916.034	4257
916.146	4242
916.259	4242
916.371	4440
916.483	4363
916.595	4306
916.708	4303
916.82	4386
916.932	4287
917.044	4303
917.156	4375
917.268	4272
917.38	4272
917.491	4318
917.603	4356
917.715	4409
917.826	4447
917.938	4360
918.049	4261
918.161	4443
918.272	4546
918.384	4516
918.495	4478
918.606	4295
918.717	4257
918.828	4337
918.939	4386
919.05	4234
919.161	4352
919.272	4173
919.383	4169
919.494	4421
919.604	4637
919.715	4440
919.826	4329
919.936	4386
920.047	4542
920.157	4478
920.267	4691
920.378	4489
920.488	4500
920.598	4717
920.708	4919
920.818	4763
920.928	4763
921.038	4961
921.148	4919
921.258	4615
921.368	4569
921.477	4500
921.587	4459
921.697	4344
921.806	4493
921.916	4447
922.025	4303
922.134	4272
922.244	4227
922.353	4352
922.462	4147
922.571	4135
922.68	4002
922.789	3960
922.898	3998
923.007	3953
923.116	4078
923.224	4105
923.333	4101
923.442	4032
923.55	3998
923.659	4010
923.767	4063
923.876	4029
923.984	4131
924.092	4025
924.201	4101
924.309	4101
924.417	4124
924.525	4017
924.633	4063
924.741	4900
924.849	3926
924.956	4135
925.064	3975
925.172	3850
925.279	3960
925.387	4074
925.494	4082
925.602	4143
925.709	4169
925.816	4040
925.924	4139
926.031	4215
926.138	4143
926.245	4169
926.352	4082
926.459	4272
926.566	4310
926.673	4188
926.779	4040
926.886	4086
926.993	3983
927.099	3983
927.206	3956
927.312	3972
927.419	4040
927.525	4025
927.631	4074
927.737	3972
927.843	3983
927.95	3846
928.056	3987
928.162	3987
928.267	4040
928.373	4694
928.479	4124
928.585	3869
928.69	4086
928.796	4071
928.901	4002
929.007	3827
929.112	4006
929.218	3975
929.323	3945
929.428	3896
929.533	4112
929.638	3899
929.743	3907
929.848	4059
929.953	4013
930.058	3937
930.163	3800
930.267	3842
930.372	3987
930.477	3831
930.581	4090
930.685	3911
930.79	3797
930.894	3876
930.998	3869
931.103	4059
931.207	3705
931.311	3663
931.415	3644
931.519	3507
931.623	3553
