Data from test_V78500241_1867.txt Node
Date: Fri Mar 25 17:01:58 CST 2022
User: usil
Spectrometer: V785-0024
Trigger mode: 0
Integration Time (sec): 4.000000E-1
Scans to average: 1
Nonlinearity correction enabled: false
Boxcar width: 0
Storing dark spectrum: false
XAxis mode: Wavelengths
Number of Pixels in Spectrum: 1024
>>>>>Begin Spectral Data<<<<<
801.071	7993
801.214	7978
801.356	7830
801.499	7811
801.641	7803
801.783	7788
801.926	7997
802.068	7894
802.211	7993
802.353	8050
802.496	7852
802.638	7871
802.78	7917
802.923	7944
803.065	7909
803.208	7860
803.35	7917
803.492	8073
803.635	8145
803.777	8054
803.919	8157
804.061	8423
804.204	8180
804.346	7982
804.488	7970
804.63	8069
804.773	8077
804.915	8111
805.057	8286
805.199	8214
805.341	8183
805.483	8267
805.626	8229
805.768	8111
805.91	8240
806.052	8172
806.194	8119
806.336	8324
806.478	8142
806.62	8115
806.762	8153
806.904	8237
807.046	8556
807.188	8408
807.33	8324
807.472	8389
807.614	8153
807.756	8263
807.898	8024
808.04	7932
808.182	7970
808.324	7944
808.465	7928
808.607	8084
808.749	8149
808.891	8202
809.033	8328
809.174	8240
809.316	8084
809.458	8054
809.6	7997
809.741	8031
809.883	8096
810.025	8153
810.166	8126
810.308	8065
810.45	7963
810.591	7959
810.733	7757
810.875	7632
811.016	7548
811.158	7449
811.299	7571
811.441	7742
811.582	7769
811.724	7575
811.865	7578
812.007	7578
812.148	7609
812.29	7647
812.431	7792
812.573	7860
812.714	8020
812.855	8195
812.997	8256
813.138	8374
813.279	8244
813.421	8111
813.562	7944
813.703	7898
813.845	7753
813.986	7491
814.127	7263
814.268	7225
814.41	7251
814.551	7206
814.692	7206
814.833	7095
814.974	7080
815.115	7137
815.256	7000
815.397	6924
815.539	6977
815.68	6943
815.821	6818
815.962	6890
816.103	6894
816.244	6719
816.385	6696
816.526	6608
816.666	6498
816.807	6342
816.948	6452
817.089	6483
817.23	6426
817.371	6361
817.512	6399
817.653	6399
817.793	6338
817.934	6395
818.075	6448
818.216	6460
818.356	6486
818.497	6292
818.638	6110
818.778	6129
818.919	6197
819.06	6087
819.2	6327
819.341	6369
819.481	6376
819.622	6532
819.762	6779
819.903	6726
820.043	6578
820.184	6585
820.324	6544
820.465	6700
820.605	6715
820.746	6673
820.886	6566
821.026	6635
821.167	6741
821.307	6798
821.447	6787
821.588	6707
821.728	6547
821.868	6521
822.008	6334
822.149	6388
822.289	6357
822.429	6194
822.569	6136
822.709	6121
822.849	5954
822.99	5958
823.13	5920
823.27	5961
823.41	5783
823.55	5805
823.69	5764
823.83	5809
823.97	5695
824.11	5577
824.25	5505
824.389	5562
824.529	5554
824.669	5566
824.809	5668
824.949	5710
825.089	5657
825.228	5566
825.368	5383
825.508	5406
825.648	5383
825.787	5455
825.927	5440
826.067	5299
826.206	5357
826.346	5425
826.485	5402
826.625	5505
826.765	5589
826.904	5490
827.044	5261
827.183	5246
827.323	5143
827.462	5223
827.601	5151
827.741	5178
827.88	5189
828.02	5109
828.159	5280
828.298	5254
828.437	5391
828.577	5330
828.716	5554
828.855	5315
828.994	5151
829.134	5094
829.273	5197
829.412	5181
829.551	5155
829.69	5159
829.829	5216
829.968	5406
830.107	5326
830.246	5318
830.385	5201
830.524	5162
830.663	5113
830.802	4980
830.941	4953
831.08	4919
831.219	5064
831.357	5014
831.496	5136
831.635	4942
831.774	4870
831.913	4873
832.051	4748
832.19	4710
832.329	4900
832.467	4702
832.606	4653
832.744	4763
832.883	4778
833.022	4717
833.16	4790
833.299	4870
833.437	4870
833.576	4828
833.714	4854
833.852	4873
833.991	4927
834.129	4942
834.267	4968
834.406	4923
834.544	5045
834.682	5025
834.821	5014
834.959	5166
835.097	5018
835.235	5151
835.373	5090
835.511	5064
835.65	4995
835.788	5060
835.926	4942
836.064	4911
836.202	4930
836.34	5189
836.478	5258
836.615	5136
836.753	5239
836.891	5284
837.029	5269
837.167	5227
837.305	5208
837.443	5170
837.58	5124
837.718	5208
837.856	5193
837.993	5204
838.131	5246
838.269	5242
838.406	5223
838.544	5235
838.681	5083
838.819	5022
838.956	4911
839.094	4885
839.231	4995
839.369	5147
839.506	5436
839.643	5303
839.781	5022
839.918	5052
840.055	5105
840.193	5136
840.33	5094
840.467	5151
840.604	5239
840.742	5417
840.879	5124
841.016	5086
841.153	5136
841.29	5376
841.427	5364
841.564	5315
841.701	5372
841.838	5227
841.975	5254
842.112	5258
842.249	5166
842.385	5090
842.522	5364
842.659	5162
842.796	5147
842.933	5235
843.069	5197
843.206	5124
843.343	5303
843.479	5258
843.616	5280
843.752	5067
843.889	5052
844.025	5250
844.162	5041
844.298	5197
844.435	5109
844.571	5105
844.708	5178
844.844	5284
844.98	5364
845.117	5265
845.253	5147
845.389	5121
845.525	5197
845.661	5166
845.798	5071
845.934	5140
846.07	5075
846.206	5185
846.342	5296
846.478	5212
846.614	5075
846.75	4968
846.886	4972
847.022	5208
847.158	5022
847.294	5094
847.429	5121
847.565	5071
847.701	5318
847.837	4877
847.972	4801
848.108	4991
848.244	4972
848.379	4812
848.515	4710
848.65	4736
848.786	4767
848.921	4736
849.057	4854
849.192	4915
849.328	4831
849.463	4812
849.598	4847
849.734	4767
849.869	4710
850.004	4698
850.14	4683
850.275	4615
850.41	4588
850.545	4599
850.68	4630
850.815	4634
850.95	4592
851.085	4915
851.22	4740
851.355	4687
851.49	4615
851.625	4660
851.76	4637
851.895	4542
852.03	4584
852.165	4672
852.299	4694
852.434	4774
852.569	4725
852.703	4801
852.838	4900
852.973	4938
853.107	4995
853.242	4725
853.376	4691
853.511	4577
853.645	4641
853.78	4831
853.914	4771
854.048	4691
854.183	4611
854.317	4759
854.451	4873
854.585	4675
854.72	4649
854.854	4767
854.988	4637
855.122	4679
855.256	4512
855.39	4679
855.524	4744
855.658	4748
855.792	4714
855.926	4752
856.06	4805
856.194	4831
856.327	4733
856.461	4622
856.595	4645
856.729	4637
856.862	4812
856.996	4687
857.13	4759
857.263	4809
857.397	4774
857.53	4611
857.664	4721
857.797	4755
857.931	4771
858.064	4748
858.197	4793
858.331	4714
858.464	4664
858.597	4565
858.731	4664
858.864	4615
858.997	4660
859.13	4653
859.263	4687
859.396	4679
859.529	4626
859.662	4569
859.795	4535
859.928	4672
860.061	4752
860.194	4782
860.327	4630
860.46	4569
860.592	4691
860.725	4748
860.858	4763
860.99	4550
861.123	4523
861.256	4535
861.388	4622
861.521	5311
861.653	4538
861.786	4459
861.918	4489
862.05	4508
862.183	4584
862.315	4584
862.447	4641
862.58	4542
862.712	4466
862.844	4337
862.976	4432
863.108	4523
863.24	4896
863.372	4344
863.504	4421
863.636	4413
863.768	4455
863.9	4383
864.032	4367
864.164	4436
864.296	4508
864.428	4531
864.559	4580
864.691	4565
864.823	4561
864.954	4497
865.086	4531
865.217	4459
865.349	4436
865.48	4440
865.612	4516
865.743	4656
865.875	4474
866.006	4440
866.137	4436
866.269	4481
866.4	4379
866.531	4440
866.662	4394
866.793	4405
866.924	4394
867.055	4504
867.186	4470
867.317	4402
867.448	4371
867.579	4440
867.71	4417
867.841	4417
867.972	4493
868.103	4451
868.233	4455
868.364	4432
868.495	4455
868.625	4660
868.756	4752
868.886	4561
869.017	4622
869.147	4790
869.278	4763
869.408	4691
869.539	4675
869.669	4710
869.799	4618
869.929	4809
870.06	4752
870.19	4930
870.32	4915
870.45	4915
870.58	5041
870.71	5128
870.84	5136
870.97	4938
871.1	4908
871.23	5128
871.36	5128
871.489	4991
871.619	5086
871.749	5090
871.879	5151
872.008	5151
872.138	5079
872.267	5006
872.397	4828
872.526	4771
872.656	4706
872.785	4801
872.915	4946
873.044	5041
873.173	4938
873.303	4968
873.432	4949
873.561	4987
873.69	4870
873.819	4866
873.948	4915
874.077	4812
874.206	4812
874.335	4812
874.464	4934
874.593	5018
874.722	4930
874.851	5105
874.979	5075
875.108	5033
875.237	4908
875.365	4870
875.494	4885
875.623	4972
875.751	4847
875.88	4858
876.008	4987
876.136	5022
876.265	5170
876.393	5360
876.521	5311
876.65	5239
876.778	5220
876.906	5094
877.034	5022
877.162	5041
877.29	5018
877.418	5025
877.546	5045
877.674	5075
877.802	5003
877.93	5056
878.058	4949
878.185	4862
878.313	4976
878.441	5006
878.568	4786
878.696	4889
878.824	4923
878.951	5048
879.079	5090
879.206	5311
879.333	5117
879.461	5006
879.588	5018
879.715	5143
879.842	5223
879.97	4984
880.097	4801
880.224	4771
880.351	4850
880.478	4790
880.605	4824
880.732	4786
880.859	5121
880.986	4930
881.112	4938
881.239	4782
881.366	4714
881.493	4664
881.619	4683
881.746	4645
881.872	4649
881.999	4721
882.125	4733
882.252	4790
882.378	4866
882.505	4987
882.631	4812
882.757	4736
882.883	4725
883.01	4759
883.136	4698
883.262	4607
883.388	4664
883.514	4889
883.64	4850
883.766	4870
883.892	4710
884.018	4740
884.143	4892
884.269	5033
884.395	4668
884.52	4675
884.646	4725
884.772	4599
884.897	4607
885.023	4744
885.148	4870
885.274	4889
885.399	4854
885.524	4706
885.65	4710
885.775	4782
885.9	4771
886.025	4881
886.15	4812
886.275	4759
886.4	4698
886.525	4771
886.65	4714
886.775	4683
886.9	4991
887.025	5079
887.149	4862
887.274	4668
887.399	4626
887.523	4645
887.648	4653
887.773	4668
887.897	4774
888.021	4805
888.146	4733
888.27	4835
888.395	4927
888.519	4839
888.643	4862
888.767	4896
888.891	4706
889.015	4626
889.139	4668
889.263	4641
889.387	4752
889.511	4904
889.635	4839
889.759	4706
889.883	4653
890.006	4793
890.13	4812
890.254	4653
890.377	4729
890.501	4554
890.624	4558
890.748	4653
890.871	4546
890.995	4462
891.118	4375
891.241	4561
891.364	4596
891.488	4672
891.611	4535
891.734	4535
891.857	4626
891.98	4588
892.103	4672
892.226	4656
892.349	4527
892.471	4398
892.594	4558
892.717	4645
892.839	4645
892.962	4611
893.085	4736
893.207	4599
893.33	4474
893.452	4561
893.575	4721
893.697	4634
893.819	4835
893.941	4877
894.064	4782
894.186	4630
894.308	4599
894.43	4793
894.552	4900
894.674	4778
894.796	4592
894.918	4630
895.04	4607
895.161	4786
895.283	4729
895.405	4615
895.526	4710
895.648	4687
895.769	4698
895.891	4740
896.012	4759
896.134	4736
896.255	4721
896.376	4691
896.498	4603
896.619	4687
896.74	4664
896.861	4710
896.982	4892
897.103	5121
897.224	4812
897.345	4809
897.466	4706
897.587	4805
897.708	4873
897.828	4835
897.949	4744
898.07	4592
898.19	4645
898.311	4816
898.431	4683
898.552	4809
898.672	4862
898.792	4828
898.913	4771
899.033	4691
899.153	4558
899.273	4459
899.393	4546
899.513	4554
899.633	4531
899.753	4596
899.873	4531
899.993	4641
900.113	4561
900.232	4607
900.352	4592
900.472	4500
900.591	4417
900.711	4538
900.83	4440
900.95	4618
901.069	4717
901.189	4588
901.308	4402
901.427	4394
901.546	4379
901.665	4519
901.784	4542
901.904	4447
902.023	4375
902.141	4257
902.26	4223
902.379	4329
902.498	4253
902.617	4253
902.735	4402
902.854	4451
902.973	4363
903.091	4284
903.21	4276
903.328	4352
903.446	4303
903.565	4291
903.683	4417
903.801	4303
903.919	4417
904.038	4493
904.156	4344
904.274	4493
904.392	4440
904.51	4478
904.627	4493
904.745	4592
904.863	4660
904.981	4455
905.098	4295
905.216	4383
905.334	4432
905.451	4481
905.569	4432
905.686	4527
905.803	4630
905.921	4428
906.038	4577
906.155	4512
906.272	4459
906.389	4459
906.506	4363
906.623	4405
906.74	4394
906.857	4341
906.974	4371
907.091	4618
907.208	4660
907.324	4622
907.441	4481
907.557	4371
907.674	4363
907.79	4367
907.907	4424
908.023	4504
908.139	4504
908.256	4451
908.372	4478
908.488	4493
908.604	4371
908.72	4337
908.836	4424
908.952	4413
909.068	4466
909.184	4584
909.3	4481
909.415	4618
909.531	4550
909.647	4436
909.762	4405
909.878	4299
909.993	4470
910.108	4462
910.224	4409
910.339	4516
910.454	4481
910.57	4405
910.685	4337
910.8	4660
910.915	4637
911.03	4497
911.145	4367
911.259	4341
911.374	4367
911.489	4306
911.604	4280
911.718	4207
911.833	4223
911.947	4082
912.062	4040
912.176	4242
912.291	4299
912.405	4265
912.519	4516
912.633	4485
912.748	4402
912.862	4337
912.976	4215
913.09	4078
913.204	4169
913.318	4276
913.431	4344
913.545	4383
913.659	4409
913.772	4405
913.886	4322
914	4246
914.113	4428
914.226	4432
914.34	4383
914.453	4207
914.566	4424
914.68	4329
914.793	4344
914.906	4177
915.019	4166
915.132	4120
915.245	4257
915.358	4265
915.47	4227
915.583	4344
915.696	4344
915.809	4428
915.921	4424
916.034	4261
916.146	4246
916.259	4211
916.371	4409
916.483	4398
916.595	4246
916.708	4325
916.82	4363
916.932	4394
917.044	4325
917.156	4371
917.268	4242
917.38	4280
917.491	4295
917.603	4367
917.715	4500
917.826	4432
917.938	4363
918.049	4246
918.161	4409
918.272	4588
918.384	4535
918.495	4481
918.606	4310
918.717	4234
918.828	4409
918.939	4390
919.05	4284
919.161	4295
919.272	4162
919.383	4234
919.494	4424
919.604	4626
919.715	4485
919.826	4348
919.936	4440
920.047	4569
920.157	4478
920.267	4725
920.378	4512
920.488	4478
920.598	4740
920.708	4923
920.818	4763
920.928	4816
921.038	4984
921.148	4949
921.258	4679
921.368	4592
921.477	4546
921.587	4447
921.697	4348
921.806	4580
921.916	4478
922.025	4314
922.134	4310
922.244	4268
922.353	4322
922.462	4196
922.571	4196
922.68	4036
922.789	3972
922.898	4090
923.007	4021
923.116	4147
923.224	4093
923.333	4078
923.442	3960
923.55	4036
923.659	4002
923.767	4109
923.876	4048
923.984	4177
924.092	4029
924.201	4082
924.309	4128
924.417	4188
924.525	4048
924.633	4162
924.741	5022
924.849	3972
924.956	4143
925.064	3972
925.172	3869
925.279	4044
925.387	4074
925.494	4105
925.602	4268
925.709	4147
925.816	4048
925.924	4128
926.031	4230
926.138	4215
926.245	4227
926.352	4101
926.459	4249
926.566	4272
926.673	4181
926.779	4120
926.886	4082
926.993	3987
927.099	3994
927.206	3953
927.312	3949
927.419	4105
927.525	4074
927.631	4131
927.737	3991
927.843	3960
927.95	3854
928.056	3987
928.162	4036
928.267	4051
928.373	4603
928.479	4124
928.585	3915
928.69	3987
928.796	4101
928.901	4051
929.007	3854
929.112	4044
929.218	4013
929.323	3979
929.428	3972
929.533	4109
929.638	3918
929.743	3979
929.848	4036
929.953	3991
930.058	3937
930.163	3800
930.267	3838
930.372	3991
930.477	3804
930.581	4078
930.685	3953
930.79	3876
930.894	3892
930.998	3846
931.103	4044
931.207	3717
931.311	3694
931.415	3682
931.519	3568
931.623	3606
