Data from test_V78500241_756.txt Node
Date: Fri Mar 25 16:54:15 CST 2022
User: usil
Spectrometer: V785-0024
Trigger mode: 0
Integration Time (sec): 4.000000E-1
Scans to average: 1
Nonlinearity correction enabled: false
Boxcar width: 0
Storing dark spectrum: false
XAxis mode: Wavelengths
Number of Pixels in Spectrum: 1024
>>>>>Begin Spectral Data<<<<<
801.071	7936
801.214	8046
801.356	7913
801.499	7928
801.641	7826
801.783	7826
801.926	7940
802.068	7974
802.211	7944
802.353	7909
802.496	7845
802.638	7894
802.78	7894
802.923	7883
803.065	7849
803.208	7883
803.35	7902
803.492	8111
803.635	8100
803.777	8027
803.919	8077
804.061	8404
804.204	8107
804.346	8058
804.488	7967
804.63	8043
804.773	8043
804.915	8130
805.057	8286
805.199	8164
805.341	8183
805.483	8214
805.626	8176
805.768	8126
805.91	8195
806.052	8119
806.194	8145
806.336	8313
806.478	8088
806.62	8054
806.762	8164
806.904	8237
807.046	8446
807.188	8377
807.33	8263
807.472	8305
807.614	8187
807.756	8081
807.898	8020
808.04	7776
808.182	7906
808.324	7864
808.465	7909
808.607	8073
808.749	8062
808.891	8183
809.033	8286
809.174	8149
809.316	8012
809.458	8058
809.6	8001
809.741	8054
809.883	7974
810.025	8058
810.166	8115
810.308	8069
810.45	8096
810.591	7936
810.733	7757
810.875	7658
811.016	7567
811.158	7472
811.299	7518
811.441	7746
811.582	7689
811.724	7567
811.865	7590
812.007	7571
812.148	7559
812.29	7552
812.431	7769
812.573	7902
812.714	7944
812.855	8130
812.997	8142
813.138	8275
813.279	8195
813.421	8081
813.562	7986
813.703	7864
813.845	7723
813.986	7445
814.127	7270
814.268	7274
814.41	7164
814.551	7122
814.692	7107
814.833	7114
814.974	7065
815.115	7065
815.256	6932
815.397	6958
815.539	6989
815.68	6844
815.821	6768
815.962	6848
816.103	6779
816.244	6669
816.385	6555
816.526	6601
816.666	6502
816.807	6281
816.948	6407
817.089	6452
817.23	6494
817.371	6365
817.512	6334
817.653	6334
817.793	6369
817.934	6376
818.075	6441
818.216	6372
818.356	6372
818.497	6197
818.638	6178
818.778	6163
818.919	6144
819.06	6098
819.2	6296
819.341	6277
819.481	6315
819.622	6536
819.762	6730
819.903	6730
820.043	6616
820.184	6540
820.324	6525
820.465	6719
820.605	6707
820.746	6662
820.886	6528
821.026	6589
821.167	6726
821.307	6787
821.447	6749
821.588	6646
821.728	6627
821.868	6452
822.008	6304
822.149	6418
822.289	6372
822.429	6201
822.569	6083
822.709	6087
822.849	5882
822.99	5889
823.13	5946
823.27	5908
823.41	5771
823.55	5722
823.69	5794
823.83	5832
823.97	5703
824.11	5501
824.25	5482
824.389	5554
824.529	5539
824.669	5493
824.809	5672
824.949	5649
825.089	5581
825.228	5512
825.368	5391
825.508	5307
825.648	5349
825.787	5417
825.927	5337
826.067	5280
826.206	5292
826.346	5391
826.485	5425
826.625	5376
826.765	5524
826.904	5516
827.044	5288
827.183	5178
827.323	5181
827.462	5231
827.601	5216
827.741	5212
827.88	5223
828.02	5086
828.159	5246
828.298	5220
828.437	5311
828.577	5277
828.716	5482
828.855	5288
828.994	5151
829.134	5166
829.273	5193
829.412	5113
829.551	5067
829.69	5162
829.829	5220
829.968	5372
830.107	5261
830.246	5273
830.385	5159
830.524	5113
830.663	5071
830.802	4991
830.941	4896
831.08	4949
831.219	4968
831.357	4961
831.496	5117
831.635	4930
831.774	4866
831.913	4831
832.051	4736
832.19	4782
832.329	4892
832.467	4691
832.606	4622
832.744	4774
832.883	4767
833.022	4725
833.16	4767
833.299	4831
833.437	4801
833.576	4793
833.714	4843
833.852	4843
833.991	4873
834.129	5003
834.267	4930
834.406	4934
834.544	4949
834.682	4953
834.821	4984
834.959	5159
835.097	4927
835.235	5151
835.373	5071
835.511	5105
835.65	5025
835.788	5033
835.926	4934
836.064	4892
836.202	4915
836.34	5197
836.478	5201
836.615	5109
836.753	5197
836.891	5296
837.029	5254
837.167	5212
837.305	5113
837.443	5155
837.58	5075
837.718	5269
837.856	5147
837.993	5109
838.131	5235
838.269	5178
838.406	5201
838.544	5193
838.681	5086
838.819	4999
838.956	4881
839.094	4862
839.231	4987
839.369	5067
839.506	5402
839.643	5250
839.781	5052
839.918	4984
840.055	5143
840.193	5045
840.33	5124
840.467	5132
840.604	5216
840.742	5425
840.879	5102
841.016	5025
841.153	5181
841.29	5364
841.427	5235
841.564	5345
841.701	5326
841.838	5273
841.975	5174
842.112	5277
842.249	5204
842.385	5083
842.522	5383
842.659	5189
842.796	5132
842.933	5170
843.069	5132
843.206	5170
843.343	5273
843.479	5201
843.616	5288
843.752	5056
843.889	5029
844.025	5242
844.162	4972
844.298	5189
844.435	5105
844.571	5022
844.708	5239
844.844	5299
844.98	5345
845.117	5265
845.253	5147
845.389	5056
845.525	5113
845.661	5178
845.798	5045
845.934	5159
846.07	5033
846.206	5212
846.342	5292
846.478	5159
846.614	5037
846.75	4968
846.886	4957
847.022	5102
847.158	5064
847.294	5045
847.429	5071
847.565	5006
847.701	5303
847.837	4809
847.972	4778
848.108	4942
848.244	4885
848.379	4801
848.515	4740
848.65	4706
848.786	4714
848.921	4805
849.057	4877
849.192	4885
849.328	4782
849.463	4828
849.598	4748
849.734	4793
849.869	4691
850.004	4634
850.14	4675
850.275	4607
850.41	4512
850.545	4519
850.68	4577
850.815	4637
850.95	4615
851.085	4797
851.22	4778
851.355	4668
851.49	4588
851.625	4588
851.76	4615
851.895	4615
852.03	4519
852.165	4596
852.299	4714
852.434	4740
852.569	4717
852.703	4774
852.838	4801
852.973	4892
853.107	4904
853.242	4717
853.376	4664
853.511	4550
853.645	4592
853.78	4790
853.914	4668
854.048	4626
854.183	4618
854.317	4660
854.451	4839
854.585	4675
854.72	4622
854.854	4755
854.988	4588
855.122	4603
855.256	4519
855.39	4660
855.524	4725
855.658	4717
855.792	4706
855.926	4725
856.06	4717
856.194	4793
856.327	4675
856.461	4592
856.595	4603
856.729	4588
856.862	4755
856.996	4698
857.13	4755
857.263	4725
857.397	4801
857.53	4626
857.664	4672
857.797	4759
857.931	4812
858.064	4698
858.197	4733
858.331	4675
858.464	4577
858.597	4512
858.731	4611
858.864	4637
858.997	4580
859.13	4664
859.263	4694
859.396	4679
859.529	4569
859.662	4531
859.795	4527
859.928	4615
860.061	4755
860.194	4763
860.327	4649
860.46	4561
860.592	4702
860.725	4729
860.858	4694
860.99	4565
861.123	4462
861.256	4493
861.388	4630
861.521	5425
861.653	4455
861.786	4459
861.918	4489
862.05	4569
862.183	4523
862.315	4596
862.447	4702
862.58	4527
862.712	4379
862.844	4268
862.976	4443
863.108	4481
863.24	4862
863.372	4386
863.504	4489
863.636	4417
863.768	4478
863.9	4417
864.032	4371
864.164	4341
864.296	4474
864.428	4493
864.559	4519
864.691	4493
864.823	4519
864.954	4500
865.086	4474
865.217	4478
865.349	4459
865.48	4451
865.612	4474
865.743	4622
865.875	4466
866.006	4375
866.137	4500
866.269	4447
866.4	4417
866.531	4424
866.662	4341
866.793	4421
866.924	4417
867.055	4474
867.186	4497
867.317	4371
867.448	4405
867.579	4409
867.71	4443
867.841	4367
867.972	4466
868.103	4470
868.233	4474
868.364	4459
868.495	4447
868.625	4710
868.756	4721
868.886	4535
869.017	4584
869.147	4744
869.278	4809
869.408	4668
869.539	4630
869.669	4717
869.799	4706
869.929	4774
870.06	4748
870.19	4938
870.32	4957
870.45	4957
870.58	4980
870.71	5086
870.84	5083
870.97	4949
871.1	4866
871.23	5155
871.36	5109
871.489	4991
871.619	5086
871.749	5056
871.879	5098
872.008	5143
872.138	5045
872.267	4923
872.397	4820
872.526	4778
872.656	4744
872.785	4805
872.915	4942
873.044	5052
873.173	4976
873.303	4946
873.432	4949
873.561	4953
873.69	4866
873.819	4812
873.948	4908
874.077	4805
874.206	4729
874.335	4812
874.464	4858
874.593	5056
874.722	4927
874.851	5079
874.979	5060
875.108	5010
875.237	4938
875.365	4854
875.494	4839
875.623	4942
875.751	4828
875.88	4923
876.008	4999
876.136	5056
876.265	5124
876.393	5326
876.521	5254
876.65	5239
876.778	5136
876.906	5079
877.034	4968
877.162	4980
877.29	4972
877.418	5052
877.546	5006
877.674	5025
877.802	4987
877.93	5010
878.058	4923
878.185	4847
878.313	4984
878.441	4934
878.568	4820
878.696	4797
878.824	4942
878.951	5025
879.079	5136
879.206	5258
879.333	5090
879.461	4942
879.588	5014
879.715	5079
879.842	5227
879.97	4980
880.097	4778
880.224	4725
880.351	4816
880.478	4767
880.605	4786
880.732	4759
880.859	5094
880.986	4934
881.112	4881
881.239	4801
881.366	4634
881.493	4637
881.619	4588
881.746	4637
881.872	4649
881.999	4653
882.125	4694
882.252	4763
882.378	4850
882.505	4961
882.631	4801
882.757	4687
882.883	4748
883.01	4752
883.136	4622
883.262	4596
883.388	4626
883.514	4752
883.64	4812
883.766	4759
883.892	4664
884.018	4687
884.143	4908
884.269	5022
884.395	4717
884.52	4592
884.646	4637
884.772	4573
884.897	4500
885.023	4656
885.148	4759
885.274	4850
885.399	4805
885.524	4736
885.65	4675
885.775	4733
885.9	4755
886.025	4866
886.15	4706
886.275	4679
886.4	4626
886.525	4698
886.65	4668
886.775	4683
886.9	4900
887.025	5014
887.149	4812
887.274	4691
887.399	4535
887.523	4584
887.648	4615
887.773	4573
887.897	4755
888.021	4790
888.146	4698
888.27	4809
888.395	4904
888.519	4835
888.643	4816
888.767	4858
888.891	4694
889.015	4664
889.139	4630
889.263	4615
889.387	4786
889.511	4839
889.635	4820
889.759	4637
889.883	4660
890.006	4702
890.13	4812
890.254	4596
890.377	4656
890.501	4508
890.624	4470
890.748	4596
890.871	4485
890.995	4386
891.118	4348
891.241	4527
891.364	4531
891.488	4664
891.611	4500
891.734	4538
891.857	4596
891.98	4558
892.103	4637
892.226	4603
892.349	4519
892.471	4451
892.594	4519
892.717	4535
892.839	4599
892.962	4577
893.085	4660
893.207	4634
893.33	4436
893.452	4538
893.575	4683
893.697	4527
893.819	4793
893.941	4843
894.064	4755
894.186	4584
894.308	4546
894.43	4778
894.552	4835
894.674	4740
894.796	4519
894.918	4637
895.04	4580
895.161	4687
895.283	4664
895.405	4569
895.526	4641
895.648	4664
895.769	4710
895.891	4725
896.012	4771
896.134	4755
896.255	4653
896.376	4634
896.498	4607
896.619	4687
896.74	4569
896.861	4622
896.982	4942
897.103	4995
897.224	4831
897.345	4805
897.466	4618
897.587	4725
897.708	4854
897.828	4725
897.949	4649
898.07	4596
898.19	4653
898.311	4801
898.431	4615
898.552	4733
898.672	4820
898.792	4774
898.913	4748
899.033	4626
899.153	4481
899.273	4386
899.393	4500
899.513	4523
899.633	4531
899.753	4497
899.873	4538
899.993	4626
900.113	4550
900.232	4569
900.352	4531
900.472	4481
900.591	4379
900.711	4447
900.83	4455
900.95	4637
901.069	4637
901.189	4493
901.308	4405
901.427	4303
901.546	4383
901.665	4478
901.784	4531
901.904	4383
902.023	4291
902.141	4196
902.26	4234
902.379	4295
902.498	4234
902.617	4227
902.735	4360
902.854	4451
902.973	4383
903.091	4173
903.21	4196
903.328	4314
903.446	4249
903.565	4261
903.683	4314
903.801	4295
903.919	4402
904.038	4413
904.156	4299
904.274	4402
904.392	4379
904.51	4481
904.627	4516
904.745	4607
904.863	4580
904.981	4478
905.098	4306
905.216	4394
905.334	4394
905.451	4451
905.569	4478
905.686	4573
905.803	4546
905.921	4413
906.038	4569
906.155	4497
906.272	4390
906.389	4462
906.506	4322
906.623	4379
906.74	4367
906.857	4303
906.974	4303
907.091	4561
907.208	4687
907.324	4573
907.441	4516
907.557	4314
907.674	4329
907.79	4325
907.907	4360
908.023	4466
908.139	4512
908.256	4394
908.372	4485
908.488	4421
908.604	4363
908.72	4325
908.836	4398
908.952	4363
909.068	4413
909.184	4512
909.3	4451
909.415	4573
909.531	4577
909.647	4314
909.762	4344
909.878	4299
909.993	4440
910.108	4440
910.224	4413
910.339	4462
910.454	4386
910.57	4352
910.685	4371
910.8	4679
910.915	4596
911.03	4478
911.145	4344
911.259	4325
911.374	4363
911.489	4325
911.604	4242
911.718	4150
911.833	4207
911.947	4090
912.062	4040
912.176	4238
912.291	4215
912.405	4322
912.519	4417
912.633	4531
912.748	4360
912.862	4329
912.976	4177
913.09	4109
913.204	4124
913.318	4272
913.431	4394
913.545	4402
913.659	4421
913.772	4356
913.886	4215
914	4227
914.113	4341
914.226	4394
914.34	4413
914.453	4230
914.566	4466
914.68	4314
914.793	4337
914.906	4135
915.019	4185
915.132	4063
915.245	4124
915.358	4204
915.47	4223
915.583	4230
915.696	4303
915.809	4402
915.921	4379
916.034	4261
916.146	4238
916.259	4207
916.371	4394
916.483	4402
916.595	4287
916.708	4356
916.82	4261
916.932	4318
917.044	4371
917.156	4291
917.268	4219
917.38	4253
917.491	4284
917.603	4303
917.715	4398
917.826	4421
917.938	4322
918.049	4246
918.161	4413
918.272	4554
918.384	4485
918.495	4443
918.606	4333
918.717	4249
918.828	4310
918.939	4360
919.05	4299
919.161	4352
919.272	4124
919.383	4227
919.494	4447
919.604	4637
919.715	4462
919.826	4333
919.936	4394
920.047	4527
920.157	4485
920.267	4653
920.378	4584
920.488	4497
920.598	4683
920.708	4892
920.818	4721
920.928	4771
921.038	4961
921.148	4923
921.258	4634
921.368	4573
921.477	4504
921.587	4466
921.697	4371
921.806	4527
921.916	4421
922.025	4268
922.134	4211
922.244	4215
922.353	4341
922.462	4207
922.571	4154
922.68	4025
922.789	4010
922.898	4021
923.007	3975
923.116	4090
923.224	4109
923.333	4025
923.442	4040
923.55	3994
923.659	4032
923.767	4105
923.876	4055
923.984	4101
924.092	3991
924.201	4078
924.309	4105
924.417	4147
924.525	4002
924.633	4105
924.741	4854
924.849	3892
924.956	4116
925.064	3987
925.172	3896
925.279	3937
925.387	4059
925.494	4097
925.602	4215
925.709	4147
925.816	4040
925.924	4128
926.031	4207
926.138	4109
926.245	4166
926.352	4105
926.459	4280
926.566	4284
926.673	4135
926.779	4109
926.886	4086
926.993	4040
927.099	3975
927.206	3899
927.312	3937
927.419	4036
927.525	4025
927.631	4074
927.737	3945
927.843	3937
927.95	3808
928.056	3926
928.162	4040
928.267	4032
928.373	4698
928.479	4071
928.585	3892
928.69	4002
928.796	4059
928.901	3941
929.007	3865
929.112	3964
929.218	3945
929.323	3949
929.428	3945
929.533	4135
929.638	3899
929.743	3953
929.848	4059
929.953	3998
930.058	3934
930.163	3759
930.267	3804
930.372	3949
930.477	3819
930.581	4029
930.685	3922
930.79	3827
930.894	3892
930.998	3869
931.103	4051
931.207	3732
931.311	3736
931.415	3641
931.519	3526
931.623	3561
