Data from test_V78500241_2369.txt Node
Date: Fri Mar 25 17:05:28 CST 2022
User: usil
Spectrometer: V785-0024
Trigger mode: 0
Integration Time (sec): 4.000000E-1
Scans to average: 1
Nonlinearity correction enabled: false
Boxcar width: 0
Storing dark spectrum: false
XAxis mode: Wavelengths
Number of Pixels in Spectrum: 1024
>>>>>Begin Spectral Data<<<<<
801.071	8058
801.214	7974
801.356	7811
801.499	7822
801.641	7803
801.783	7788
801.926	7932
802.068	7967
802.211	7921
802.353	8065
802.496	7887
802.638	7875
802.78	7947
802.923	7894
803.065	7887
803.208	7845
803.35	8031
803.492	8065
803.635	8123
803.777	8039
803.919	8157
804.061	8450
804.204	8123
804.346	8096
804.488	7887
804.63	8073
804.773	7944
804.915	8115
805.057	8298
805.199	8176
805.341	8138
805.483	8218
805.626	8275
805.768	8111
805.91	8237
806.052	8168
806.194	8164
806.336	8279
806.478	8092
806.62	8035
806.762	8176
806.904	8244
807.046	8514
807.188	8317
807.33	8286
807.472	8324
807.614	8180
807.756	8191
807.898	8020
808.04	7864
808.182	7883
808.324	7887
808.465	7932
808.607	8012
808.749	8176
808.891	8229
809.033	8309
809.174	8218
809.316	8119
809.458	8092
809.6	7993
809.741	7986
809.883	8054
810.025	8134
810.166	8081
810.308	8058
810.45	8008
810.591	7906
810.733	7750
810.875	7632
811.016	7510
811.158	7422
811.299	7529
811.441	7734
811.582	7700
811.724	7571
811.865	7563
812.007	7556
812.148	7658
812.29	7704
812.431	7742
812.573	7883
812.714	8016
812.855	8168
812.997	8214
813.138	8279
813.279	8187
813.421	8145
813.562	7967
813.703	7841
813.845	7769
813.986	7476
814.127	7285
814.268	7198
814.41	7202
814.551	7133
814.692	7225
814.833	7141
814.974	7107
815.115	7141
815.256	7015
815.397	7012
815.539	6928
815.68	6856
815.821	6779
815.962	6863
816.103	6867
816.244	6749
816.385	6589
816.526	6589
816.666	6399
816.807	6334
816.948	6467
817.089	6494
817.23	6448
817.371	6426
817.512	6391
817.653	6418
817.793	6403
817.934	6376
818.075	6414
818.216	6437
818.356	6395
818.497	6270
818.638	6163
818.778	6144
818.919	6121
819.06	6175
819.2	6319
819.341	6357
819.481	6350
819.622	6528
819.762	6791
819.903	6688
820.043	6654
820.184	6623
820.324	6570
820.465	6745
820.605	6673
820.746	6601
820.886	6559
821.026	6673
821.167	6719
821.307	6802
821.447	6749
821.588	6650
821.728	6589
821.868	6544
822.008	6273
822.149	6380
822.289	6361
822.429	6155
822.569	6083
822.709	6133
822.849	5893
822.99	5912
823.13	5931
823.27	5942
823.41	5752
823.55	5786
823.69	5764
823.83	5771
823.97	5642
824.11	5566
824.25	5573
824.389	5581
824.529	5596
824.669	5493
824.809	5665
824.949	5642
825.089	5558
825.228	5562
825.368	5402
825.508	5345
825.648	5341
825.787	5349
825.927	5364
826.067	5288
826.206	5307
826.346	5349
826.485	5406
826.625	5493
826.765	5524
826.904	5478
827.044	5261
827.183	5239
827.323	5136
827.462	5250
827.601	5181
827.741	5250
827.88	5204
828.02	5128
828.159	5258
828.298	5357
828.437	5337
828.577	5288
828.716	5512
828.855	5326
828.994	5147
829.134	5124
829.273	5189
829.412	5140
829.551	5140
829.69	5185
829.829	5254
829.968	5376
830.107	5277
830.246	5261
830.385	5193
830.524	5136
830.663	5071
830.802	4949
830.941	4877
831.08	4889
831.219	4976
831.357	4999
831.496	5178
831.635	4976
831.774	4881
831.913	4877
832.051	4763
832.19	4725
832.329	4881
832.467	4714
832.606	4702
832.744	4729
832.883	4748
833.022	4687
833.16	4831
833.299	4831
833.437	4862
833.576	4820
833.714	4923
833.852	4873
833.991	4870
834.129	4942
834.267	4938
834.406	4904
834.544	4919
834.682	5003
834.821	4991
834.959	5166
835.097	4946
835.235	5124
835.373	5117
835.511	5075
835.65	5086
835.788	4961
835.926	4923
836.064	4870
836.202	4927
836.34	5193
836.478	5201
836.615	5147
836.753	5254
836.891	5223
837.029	5288
837.167	5216
837.305	5193
837.443	5136
837.58	5090
837.718	5204
837.856	5201
837.993	5178
838.131	5284
838.269	5201
838.406	5235
838.544	5212
838.681	5079
838.819	4949
838.956	4896
839.094	4896
839.231	4976
839.369	5098
839.506	5372
839.643	5265
839.781	5079
839.918	4984
840.055	5037
840.193	5064
840.33	5098
840.467	5098
840.604	5231
840.742	5398
840.879	5048
841.016	5132
841.153	5140
841.29	5353
841.427	5303
841.564	5288
841.701	5372
841.838	5277
841.975	5185
842.112	5299
842.249	5143
842.385	5128
842.522	5303
842.659	5197
842.796	5159
842.933	5201
843.069	5147
843.206	5170
843.343	5292
843.479	5212
843.616	5265
843.752	5003
843.889	4961
844.025	5162
844.162	5018
844.298	5227
844.435	5060
844.571	5048
844.708	5162
844.844	5315
844.98	5334
845.117	5280
845.253	5140
845.389	5094
845.525	5193
845.661	5124
845.798	5033
845.934	5124
846.07	5086
846.206	5204
846.342	5269
846.478	5201
846.614	5052
846.75	4991
846.886	4949
847.022	5083
847.158	5045
847.294	5067
847.429	5136
847.565	5060
847.701	5360
847.837	4828
847.972	4790
848.108	4965
848.244	4995
848.379	4809
848.515	4702
848.65	4668
848.786	4714
848.921	4752
849.057	4892
849.192	4870
849.328	4820
849.463	4873
849.598	4790
849.734	4797
849.869	4721
850.004	4618
850.14	4664
850.275	4641
850.41	4504
850.545	4550
850.68	4622
850.815	4607
850.95	4603
851.085	4866
851.22	4714
851.355	4668
851.49	4603
851.625	4588
851.76	4630
851.895	4550
852.03	4531
852.165	4683
852.299	4706
852.434	4816
852.569	4774
852.703	4786
852.838	4797
852.973	4904
853.107	4938
853.242	4740
853.376	4660
853.511	4512
853.645	4622
853.78	4812
853.914	4702
854.048	4637
854.183	4596
854.317	4687
854.451	4862
854.585	4729
854.72	4645
854.854	4767
854.988	4599
855.122	4660
855.256	4519
855.39	4641
855.524	4797
855.658	4733
855.792	4729
855.926	4736
856.06	4759
856.194	4790
856.327	4660
856.461	4618
856.595	4569
856.729	4607
856.862	4729
856.996	4717
857.13	4729
857.263	4755
857.397	4771
857.53	4672
857.664	4725
857.797	4740
857.931	4759
858.064	4649
858.197	4706
858.331	4626
858.464	4577
858.597	4535
858.731	4656
858.864	4588
858.997	4565
859.13	4618
859.263	4679
859.396	4645
859.529	4599
859.662	4607
859.795	4577
859.928	4626
860.061	4706
860.194	4767
860.327	4603
860.46	4596
860.592	4691
860.725	4721
860.858	4721
860.99	4588
861.123	4500
861.256	4508
861.388	4580
861.521	5258
861.653	4459
861.786	4466
861.918	4417
862.05	4493
862.183	4550
862.315	4569
862.447	4660
862.58	4569
862.712	4409
862.844	4306
862.976	4466
863.108	4459
863.24	4923
863.372	4333
863.504	4363
863.636	4413
863.768	4508
863.9	4428
864.032	4383
864.164	4390
864.296	4455
864.428	4569
864.559	4516
864.691	4500
864.823	4516
864.954	4489
865.086	4500
865.217	4466
865.349	4447
865.48	4432
865.612	4462
865.743	4634
865.875	4451
866.006	4421
866.137	4413
866.269	4440
866.4	4417
866.531	4428
866.662	4424
866.793	4394
866.924	4424
867.055	4478
867.186	4481
867.317	4371
867.448	4367
867.579	4402
867.71	4402
867.841	4363
867.972	4405
868.103	4409
868.233	4451
868.364	4436
868.495	4459
868.625	4664
868.756	4733
868.886	4546
869.017	4580
869.147	4778
869.278	4763
869.408	4679
869.539	4691
869.669	4733
869.799	4615
869.929	4748
870.06	4729
870.19	4965
870.32	4949
870.45	4923
870.58	4980
870.71	5121
870.84	5064
870.97	4923
871.1	4915
871.23	5102
871.36	5105
871.489	5056
871.619	5056
871.749	5033
871.879	5128
872.008	5212
872.138	5075
872.267	4965
872.397	4858
872.526	4797
872.656	4714
872.785	4782
872.915	4908
873.044	5014
873.173	4942
873.303	4946
873.432	4984
873.561	4980
873.69	4877
873.819	4877
873.948	4850
874.077	4866
874.206	4748
874.335	4816
874.464	4919
874.593	5056
874.722	4923
874.851	5094
874.979	5045
875.108	4987
875.237	4919
875.365	4889
875.494	4831
875.623	4961
875.751	4824
875.88	4900
876.008	4976
876.136	5014
876.265	5181
876.393	5341
876.521	5235
876.65	5254
876.778	5204
876.906	5094
877.034	5075
877.162	5029
877.29	4987
877.418	5067
877.546	5033
877.674	5071
877.802	5022
877.93	4984
878.058	4991
878.185	4854
878.313	4923
878.441	4995
878.568	4786
878.696	4927
878.824	4946
878.951	5022
879.079	5155
879.206	5261
879.333	5071
879.461	4972
879.588	5010
879.715	5105
879.842	5216
879.97	5014
880.097	4778
880.224	4706
880.351	4812
880.478	4847
880.605	4805
880.732	4805
880.859	5136
880.986	4885
881.112	4900
881.239	4752
881.366	4622
881.493	4584
881.619	4565
881.746	4607
881.872	4603
881.999	4611
882.125	4694
882.252	4748
882.378	4816
882.505	4961
882.631	4828
882.757	4714
882.883	4717
883.01	4721
883.136	4645
883.262	4584
883.388	4535
883.514	4774
883.64	4828
883.766	4809
883.892	4649
884.018	4744
884.143	4873
884.269	4976
884.395	4683
884.52	4615
884.646	4634
884.772	4622
884.897	4584
885.023	4649
885.148	4736
885.274	4828
885.399	4786
885.524	4748
885.65	4672
885.775	4786
885.9	4714
886.025	4843
886.15	4790
886.275	4679
886.4	4622
886.525	4736
886.65	4691
886.775	4660
886.9	4934
887.025	5022
887.149	4790
887.274	4653
887.399	4523
887.523	4565
887.648	4577
887.773	4569
887.897	4782
888.021	4744
888.146	4706
888.27	4774
888.395	4889
888.519	4801
888.643	4782
888.767	4839
888.891	4634
889.015	4535
889.139	4660
889.263	4580
889.387	4752
889.511	4873
889.635	4790
889.759	4615
889.883	4611
890.006	4675
890.13	4782
890.254	4569
890.377	4645
890.501	4508
890.624	4561
890.748	4588
890.871	4516
890.995	4489
891.118	4363
891.241	4535
891.364	4561
891.488	4622
891.611	4512
891.734	4489
891.857	4580
891.98	4554
892.103	4653
892.226	4577
892.349	4519
892.471	4428
892.594	4519
892.717	4580
892.839	4596
892.962	4569
893.085	4656
893.207	4588
893.33	4493
893.452	4542
893.575	4675
893.697	4626
893.819	4797
893.941	4767
894.064	4778
894.186	4626
894.308	4599
894.43	4721
894.552	4847
894.674	4725
894.796	4519
894.918	4596
895.04	4577
895.161	4706
895.283	4714
895.405	4538
895.526	4656
895.648	4752
895.769	4714
895.891	4736
896.012	4748
896.134	4771
896.255	4679
896.376	4641
896.498	4630
896.619	4698
896.74	4622
896.861	4679
896.982	4965
897.103	5121
897.224	4885
897.345	4759
897.466	4660
897.587	4782
897.708	4927
897.828	4812
897.949	4744
898.07	4653
898.19	4691
898.311	4858
898.431	4702
898.552	4763
898.672	4847
898.792	4877
898.913	4740
899.033	4672
899.153	4527
899.273	4459
899.393	4554
899.513	4554
899.633	4618
899.753	4573
899.873	4554
899.993	4611
900.113	4558
900.232	4603
900.352	4592
900.472	4516
900.591	4440
900.711	4546
900.83	4493
900.95	4656
901.069	4679
901.189	4561
901.308	4424
901.427	4363
901.546	4417
901.665	4508
901.784	4538
901.904	4466
902.023	4371
902.141	4219
902.26	4185
902.379	4348
902.498	4310
902.617	4299
902.735	4428
902.854	4421
902.973	4383
903.091	4211
903.21	4268
903.328	4333
903.446	4318
903.565	4280
903.683	4371
903.801	4261
903.919	4436
904.038	4462
904.156	4375
904.274	4470
904.392	4440
904.51	4451
904.627	4481
904.745	4641
904.863	4691
904.981	4432
905.098	4371
905.216	4398
905.334	4474
905.451	4447
905.569	4462
905.686	4607
905.803	4569
905.921	4462
906.038	4603
906.155	4504
906.272	4440
906.389	4493
906.506	4375
906.623	4386
906.74	4443
906.857	4356
906.974	4443
907.091	4607
907.208	4736
907.324	4611
907.441	4531
907.557	4383
907.674	4333
907.79	4352
907.907	4402
908.023	4500
908.139	4523
908.256	4489
908.372	4500
908.488	4470
908.604	4383
908.72	4352
908.836	4398
908.952	4409
909.068	4424
909.184	4618
909.3	4531
909.415	4580
909.531	4546
909.647	4451
909.762	4459
909.878	4409
909.993	4440
910.108	4447
910.224	4440
910.339	4512
910.454	4405
910.57	4421
910.685	4383
910.8	4691
910.915	4645
911.03	4451
911.145	4360
911.259	4367
911.374	4413
911.489	4333
911.604	4371
911.718	4242
911.833	4223
911.947	4116
912.062	4097
912.176	4234
912.291	4280
912.405	4291
912.519	4500
912.633	4550
912.748	4417
912.862	4333
912.976	4227
913.09	4109
913.204	4223
913.318	4268
913.431	4398
913.545	4405
913.659	4462
913.772	4417
913.886	4284
914	4246
914.113	4424
914.226	4440
914.34	4402
914.453	4249
914.566	4504
914.68	4329
914.793	4363
914.906	4188
915.019	4173
915.132	4082
915.245	4272
915.358	4242
915.47	4257
915.583	4299
915.696	4310
915.809	4424
915.921	4455
916.034	4261
916.146	4318
916.259	4253
916.371	4398
916.483	4329
916.595	4223
916.708	4344
916.82	4360
916.932	4398
917.044	4352
917.156	4363
917.268	4227
917.38	4265
917.491	4348
917.603	4360
917.715	4485
917.826	4527
917.938	4363
918.049	4295
918.161	4451
918.272	4580
918.384	4527
918.495	4512
918.606	4348
918.717	4322
918.828	4371
918.939	4348
919.05	4280
919.161	4344
919.272	4162
919.383	4261
919.494	4497
919.604	4637
919.715	4481
919.826	4363
919.936	4462
920.047	4577
920.157	4485
920.267	4744
920.378	4527
920.488	4546
920.598	4714
920.708	4927
920.818	4752
920.928	4805
921.038	4980
921.148	4927
921.258	4630
921.368	4538
921.477	4531
921.587	4508
921.697	4398
921.806	4542
921.916	4459
922.025	4333
922.134	4322
922.244	4272
922.353	4383
922.462	4227
922.571	4128
922.68	4040
922.789	4017
922.898	4078
923.007	4040
923.116	4116
923.224	4048
923.333	4090
923.442	3979
923.55	4048
923.659	4071
923.767	4158
923.876	4010
923.984	4120
924.092	4002
924.201	4093
924.309	4139
924.417	4139
924.525	4074
924.633	4116
924.741	5090
924.849	3956
924.956	4128
925.064	3979
925.172	3922
925.279	3949
925.387	4048
925.494	4074
925.602	4227
925.709	4154
925.816	4040
925.924	4131
926.031	4249
926.138	4177
926.245	4276
926.352	4101
926.459	4253
926.566	4360
926.673	4181
926.779	4071
926.886	4067
926.993	3987
927.099	3979
927.206	3994
927.312	3953
927.419	4071
927.525	4051
927.631	4074
927.737	3960
927.843	3953
927.95	3857
928.056	3987
928.162	4013
928.267	4078
928.373	4603
928.479	4158
928.585	3926
928.69	4071
928.796	4071
928.901	3991
929.007	3857
929.112	4071
929.218	3979
929.323	3968
929.428	3937
929.533	4200
929.638	3956
929.743	3987
929.848	4055
929.953	4002
930.058	3945
930.163	3804
930.267	3850
930.372	4006
930.477	3797
930.581	4109
930.685	3983
930.79	3865
930.894	3972
930.998	3892
931.103	4036
931.207	3747
931.311	3762
931.415	3690
931.519	3534
931.623	3599
