Data from test_V78500241_902.txt Node
Date: Fri Mar 25 16:55:16 CST 2022
User: usil
Spectrometer: V785-0024
Trigger mode: 0
Integration Time (sec): 4.000000E-1
Scans to average: 1
Nonlinearity correction enabled: false
Boxcar width: 0
Storing dark spectrum: false
XAxis mode: Wavelengths
Number of Pixels in Spectrum: 1024
>>>>>Begin Spectral Data<<<<<
801.071	7917
801.214	8043
801.356	7849
801.499	7890
801.641	7814
801.783	7849
801.926	7947
802.068	7887
802.211	7978
802.353	7947
802.496	7776
802.638	7811
802.78	7811
802.923	7913
803.065	7921
803.208	7871
803.35	8077
803.492	8119
803.635	8142
803.777	8043
803.919	8123
804.061	8393
804.204	8088
804.346	8058
804.488	7936
804.63	8084
804.773	8039
804.915	7978
805.057	8267
805.199	8145
805.341	8180
805.483	8244
805.626	8168
805.768	8081
805.91	8233
806.052	8164
806.194	8039
806.336	8244
806.478	8050
806.62	8084
806.762	8081
806.904	8237
807.046	8495
807.188	8343
807.33	8271
807.472	8317
807.614	8126
807.756	8130
807.898	7959
808.04	7913
808.182	7909
808.324	7860
808.465	7932
808.607	8043
808.749	8054
808.891	8119
809.033	8286
809.174	8214
809.316	8119
809.458	7986
809.6	7951
809.741	7982
809.883	8043
810.025	8138
810.166	8035
810.308	7967
810.45	8024
810.591	7936
810.733	7765
810.875	7628
811.016	7460
811.158	7548
811.299	7601
811.441	7693
811.582	7674
811.724	7533
811.865	7548
812.007	7563
812.148	7700
812.29	7693
812.431	7746
812.573	7856
812.714	8005
812.855	8069
812.997	8157
813.138	8313
813.279	8153
813.421	8100
813.562	7970
813.703	7928
813.845	7761
813.986	7502
814.127	7240
814.268	7255
814.41	7171
814.551	7061
814.692	7110
814.833	7034
814.974	7042
815.115	7175
815.256	6954
815.397	6943
815.539	6939
815.68	6848
815.821	6829
815.962	6856
816.103	6818
816.244	6692
816.385	6623
816.526	6627
816.666	6536
816.807	6285
816.948	6437
817.089	6441
817.23	6452
817.371	6361
817.512	6357
817.653	6418
817.793	6331
817.934	6350
818.075	6418
818.216	6426
818.356	6391
818.497	6186
818.638	6117
818.778	6121
818.919	6171
819.06	6076
819.2	6369
819.341	6281
819.481	6353
819.622	6532
819.762	6719
819.903	6646
820.043	6635
820.184	6551
820.324	6540
820.465	6700
820.605	6623
820.746	6601
820.886	6494
821.026	6620
821.167	6692
821.307	6779
821.447	6700
821.588	6681
821.728	6532
821.868	6471
822.008	6350
822.149	6414
822.289	6372
822.429	6167
822.569	6068
822.709	6034
822.849	5908
822.99	5889
823.13	5893
823.27	5901
823.41	5752
823.55	5809
823.69	5703
823.83	5760
823.97	5661
824.11	5497
824.25	5573
824.389	5532
824.529	5589
824.669	5501
824.809	5615
824.949	5600
825.089	5611
825.228	5539
825.368	5395
825.508	5357
825.648	5349
825.787	5345
825.927	5391
826.067	5273
826.206	5322
826.346	5357
826.485	5410
826.625	5376
826.765	5486
826.904	5482
827.044	5284
827.183	5242
827.323	5109
827.462	5269
827.601	5178
827.741	5143
827.88	5208
828.02	5136
828.159	5254
828.298	5284
828.437	5353
828.577	5277
828.716	5467
828.855	5322
828.994	5178
829.134	5090
829.273	5216
829.412	5140
829.551	5105
829.69	5174
829.829	5189
829.968	5330
830.107	5201
830.246	5269
830.385	5136
830.524	5102
830.663	5048
830.802	4949
830.941	4930
831.08	4889
831.219	5014
831.357	4976
831.496	5170
831.635	4968
831.774	4797
831.913	4797
832.051	4748
832.19	4733
832.329	4752
832.467	4683
832.606	4618
832.744	4702
832.883	4710
833.022	4744
833.16	4755
833.299	4778
833.437	4824
833.576	4786
833.714	4862
833.852	4881
833.991	4904
834.129	4984
834.267	4991
834.406	4896
834.544	5014
834.682	4915
834.821	5018
834.959	5083
835.097	4984
835.235	5094
835.373	5060
835.511	5098
835.65	5056
835.788	5010
835.926	4885
836.064	4889
836.202	4915
836.34	5143
836.478	5201
836.615	5094
836.753	5185
836.891	5254
837.029	5220
837.167	5235
837.305	5162
837.443	5147
837.58	5067
837.718	5284
837.856	5151
837.993	5155
838.131	5174
838.269	5189
838.406	5170
838.544	5121
838.681	5064
838.819	4961
838.956	4866
839.094	4862
839.231	5010
839.369	5056
839.506	5368
839.643	5269
839.781	5025
839.918	5033
840.055	5121
840.193	5105
840.33	5071
840.467	5094
840.604	5178
840.742	5379
840.879	5052
841.016	5037
841.153	5155
841.29	5379
841.427	5376
841.564	5288
841.701	5303
841.838	5227
841.975	5216
842.112	5239
842.249	5121
842.385	5075
842.522	5299
842.659	5185
842.796	5155
842.933	5189
843.069	5121
843.206	5155
843.343	5288
843.479	5204
843.616	5223
843.752	4999
843.889	4987
844.025	5170
844.162	5025
844.298	5185
844.435	5022
844.571	5029
844.708	5185
844.844	5288
844.98	5345
845.117	5284
845.253	5067
845.389	5022
845.525	5113
845.661	5124
845.798	5033
845.934	5143
846.07	5045
846.206	5159
846.342	5231
846.478	5204
846.614	5048
846.75	4987
846.886	4919
847.022	5174
847.158	4987
847.294	5113
847.429	5064
847.565	5029
847.701	5345
847.837	4793
847.972	4797
848.108	4915
848.244	4976
848.379	4759
848.515	4790
848.65	4672
848.786	4778
848.921	4763
849.057	4862
849.192	4889
849.328	4793
849.463	4782
849.598	4752
849.734	4721
849.869	4664
850.004	4599
850.14	4641
850.275	4607
850.41	4531
850.545	4497
850.68	4645
850.815	4588
850.95	4630
851.085	4820
851.22	4759
851.355	4649
851.49	4618
851.625	4573
851.76	4611
851.895	4546
852.03	4531
852.165	4641
852.299	4767
852.434	4771
852.569	4721
852.703	4740
852.838	4854
852.973	4911
853.107	4927
853.242	4729
853.376	4668
853.511	4531
853.645	4630
853.78	4771
853.914	4641
854.048	4675
854.183	4645
854.317	4664
854.451	4843
854.585	4668
854.72	4626
854.854	4717
854.988	4580
855.122	4588
855.256	4489
855.39	4641
855.524	4759
855.658	4675
855.792	4694
855.926	4710
856.06	4778
856.194	4790
856.327	4706
856.461	4599
856.595	4573
856.729	4596
856.862	4748
856.996	4683
857.13	4729
857.263	4683
857.397	4729
857.53	4672
857.664	4691
857.797	4755
857.931	4729
858.064	4641
858.197	4752
858.331	4664
858.464	4599
858.597	4519
858.731	4675
858.864	4626
858.997	4569
859.13	4683
859.263	4721
859.396	4679
859.529	4546
859.662	4542
859.795	4516
859.928	4626
860.061	4744
860.194	4706
860.327	4626
860.46	4561
860.592	4679
860.725	4736
860.858	4725
860.99	4542
861.123	4493
861.256	4531
861.388	4577
861.521	5189
861.653	4497
861.786	4455
861.918	4436
862.05	4546
862.183	4542
862.315	4599
862.447	4668
862.58	4561
862.712	4398
862.844	4276
862.976	4421
863.108	4421
863.24	4721
863.372	4287
863.504	4443
863.636	4367
863.768	4466
863.9	4417
864.032	4341
864.164	4413
864.296	4447
864.428	4546
864.559	4535
864.691	4516
864.823	4474
864.954	4542
865.086	4500
865.217	4383
865.349	4421
865.48	4424
865.612	4466
865.743	4649
865.875	4440
866.006	4447
866.137	4500
866.269	4443
866.4	4455
866.531	4432
866.662	4356
866.793	4402
866.924	4383
867.055	4508
867.186	4462
867.317	4428
867.448	4424
867.579	4383
867.71	4379
867.841	4356
867.972	4497
868.103	4443
868.233	4424
868.364	4432
868.495	4470
868.625	4641
868.756	4778
868.886	4538
869.017	4554
869.147	4733
869.278	4793
869.408	4668
869.539	4649
869.669	4694
869.799	4645
869.929	4725
870.06	4698
870.19	4938
870.32	4896
870.45	4949
870.58	4995
870.71	5037
870.84	5090
870.97	4942
871.1	4896
871.23	5155
871.36	5083
871.489	4999
871.619	5041
871.749	5067
871.879	5132
872.008	5166
872.138	5056
872.267	4938
872.397	4854
872.526	4774
872.656	4714
872.785	4797
872.915	4930
873.044	5025
873.173	4873
873.303	4949
873.432	4919
873.561	4885
873.69	4885
873.819	4843
873.948	4873
874.077	4839
874.206	4725
874.335	4763
874.464	4957
874.593	5014
874.722	4991
874.851	5067
874.979	5029
875.108	5014
875.237	4927
875.365	4858
875.494	4862
875.623	4984
875.751	4812
875.88	4885
876.008	4961
876.136	4999
876.265	5147
876.393	5284
876.521	5197
876.65	5242
876.778	5113
876.906	5067
877.034	4984
877.162	5006
877.29	4995
877.418	5056
877.546	5010
877.674	4976
877.802	5048
877.93	5018
878.058	4934
878.185	4885
878.313	4908
878.441	4961
878.568	4858
878.696	4854
878.824	4930
878.951	4987
879.079	5128
879.206	5261
879.333	5102
879.461	4976
879.588	4995
879.715	5113
879.842	5193
879.97	4995
880.097	4755
880.224	4774
880.351	4801
880.478	4774
880.605	4710
880.732	4763
880.859	5098
880.986	4900
881.112	4858
881.239	4793
881.366	4649
881.493	4596
881.619	4645
881.746	4675
881.872	4622
881.999	4626
882.125	4698
882.252	4786
882.378	4839
882.505	4923
882.631	4805
882.757	4672
882.883	4714
883.01	4675
883.136	4664
883.262	4573
883.388	4596
883.514	4831
883.64	4847
883.766	4790
883.892	4599
884.018	4675
884.143	4881
884.269	5052
884.395	4641
884.52	4622
884.646	4615
884.772	4592
884.897	4561
885.023	4630
885.148	4778
885.274	4797
885.399	4736
885.524	4714
885.65	4706
885.775	4714
885.9	4649
886.025	4885
886.15	4767
886.275	4691
886.4	4634
886.525	4656
886.65	4675
886.775	4645
886.9	4934
887.025	4965
887.149	4767
887.274	4607
887.399	4588
887.523	4577
887.648	4561
887.773	4573
887.897	4771
888.021	4744
888.146	4694
888.27	4782
888.395	4824
888.519	4816
888.643	4824
888.767	4820
888.891	4637
889.015	4607
889.139	4626
889.263	4615
889.387	4748
889.511	4862
889.635	4763
889.759	4618
889.883	4622
890.006	4710
890.13	4839
890.254	4611
890.377	4637
890.501	4569
890.624	4497
890.748	4634
890.871	4421
890.995	4455
891.118	4375
891.241	4470
891.364	4538
891.488	4611
891.611	4493
891.734	4535
891.857	4596
891.98	4561
892.103	4618
892.226	4573
892.349	4554
892.471	4405
892.594	4508
892.717	4577
892.839	4531
892.962	4588
893.085	4607
893.207	4554
893.33	4417
893.452	4516
893.575	4618
893.697	4626
893.819	4820
893.941	4801
894.064	4752
894.186	4584
894.308	4554
894.43	4706
894.552	4793
894.674	4748
894.796	4512
894.918	4607
895.04	4546
895.161	4698
895.283	4698
895.405	4542
895.526	4645
895.648	4668
895.769	4634
895.891	4656
896.012	4733
896.134	4714
896.255	4664
896.376	4691
896.498	4592
896.619	4687
896.74	4615
896.861	4634
896.982	4938
897.103	5121
897.224	4824
897.345	4740
897.466	4664
897.587	4683
897.708	4839
897.828	4790
897.949	4634
898.07	4592
898.19	4611
898.311	4778
898.431	4645
898.552	4744
898.672	4793
898.792	4835
898.913	4763
899.033	4653
899.153	4531
899.273	4413
899.393	4504
899.513	4500
899.633	4504
899.753	4538
899.873	4500
899.993	4546
900.113	4493
900.232	4584
900.352	4542
900.472	4451
900.591	4413
900.711	4436
900.83	4421
900.95	4592
901.069	4683
901.189	4527
901.308	4341
901.427	4295
901.546	4371
901.665	4493
901.784	4523
901.904	4360
902.023	4268
902.141	4211
902.26	4139
902.379	4303
902.498	4261
902.617	4207
902.735	4383
902.854	4383
902.973	4318
903.091	4181
903.21	4215
903.328	4314
903.446	4253
903.565	4219
903.683	4310
903.801	4234
903.919	4375
904.038	4394
904.156	4329
904.274	4417
904.392	4398
904.51	4390
904.627	4508
904.745	4550
904.863	4611
904.981	4367
905.098	4322
905.216	4348
905.334	4413
905.451	4405
905.569	4409
905.686	4550
905.803	4527
905.921	4402
906.038	4504
906.155	4466
906.272	4360
906.389	4440
906.506	4310
906.623	4367
906.74	4348
906.857	4261
906.974	4405
907.091	4535
907.208	4641
907.324	4569
907.441	4466
907.557	4352
907.674	4360
907.79	4322
907.907	4383
908.023	4462
908.139	4459
908.256	4447
908.372	4466
908.488	4443
908.604	4280
908.72	4284
908.836	4428
908.952	4341
909.068	4428
909.184	4554
909.3	4462
909.415	4603
909.531	4489
909.647	4398
909.762	4341
909.878	4386
909.993	4428
910.108	4383
910.224	4432
910.339	4485
910.454	4413
910.57	4363
910.685	4303
910.8	4626
910.915	4592
911.03	4485
911.145	4344
911.259	4337
911.374	4356
911.489	4238
911.604	4223
911.718	4158
911.833	4173
911.947	4071
912.062	3983
912.176	4219
912.291	4211
912.405	4272
912.519	4443
912.633	4497
912.748	4379
912.862	4333
912.976	4162
913.09	4071
913.204	4166
913.318	4242
913.431	4363
913.545	4341
913.659	4424
913.772	4352
913.886	4295
914	4249
914.113	4383
914.226	4455
914.34	4352
914.453	4242
914.566	4428
914.68	4280
914.793	4303
914.906	4147
915.019	4067
915.132	4090
915.245	4135
915.358	4192
915.47	4249
915.583	4249
915.696	4272
915.809	4409
915.921	4413
916.034	4204
916.146	4249
916.259	4207
916.371	4333
916.483	4352
916.595	4227
916.708	4299
916.82	4284
916.932	4280
917.044	4314
917.156	4299
917.268	4223
917.38	4265
917.491	4268
917.603	4356
917.715	4421
917.826	4390
917.938	4337
918.049	4291
918.161	4325
918.272	4592
918.384	4512
918.495	4455
918.606	4318
918.717	4257
918.828	4280
918.939	4371
919.05	4223
919.161	4303
919.272	4143
919.383	4268
919.494	4455
919.604	4618
919.715	4417
919.826	4341
919.936	4440
920.047	4512
920.157	4481
920.267	4687
920.378	4554
920.488	4481
920.598	4740
920.708	4881
920.818	4691
920.928	4774
921.038	4953
921.148	4892
921.258	4653
921.368	4588
921.477	4443
921.587	4466
921.697	4379
921.806	4538
921.916	4451
922.025	4249
922.134	4295
922.244	4211
922.353	4360
922.462	4196
922.571	4124
922.68	4002
922.789	3964
922.898	4051
923.007	4010
923.116	4112
923.224	4067
923.333	4029
923.442	4002
923.55	3983
923.659	4021
923.767	4074
923.876	4002
923.984	4101
924.092	4010
924.201	4093
924.309	4074
924.417	4120
924.525	4063
924.633	4124
924.741	4877
924.849	3907
924.956	4109
925.064	3937
925.172	3869
925.279	3960
925.387	4021
925.494	4002
925.602	4196
925.709	4169
925.816	4021
925.924	4109
926.031	4234
926.138	4177
926.245	4200
926.352	4074
926.459	4265
926.566	4253
926.673	4173
926.779	4086
926.886	4063
926.993	3956
927.099	3953
927.206	3915
927.312	3911
927.419	4063
927.525	4025
927.631	4025
927.737	3987
927.843	3953
927.95	3842
928.056	3941
928.162	3983
928.267	4059
928.373	4565
928.479	4082
928.585	3835
928.69	4013
928.796	4109
928.901	3968
929.007	3835
929.112	3964
929.218	3983
929.323	3926
929.428	3972
929.533	4078
929.638	3945
929.743	3941
929.848	4040
929.953	3968
930.058	3918
930.163	3759
930.267	3850
930.372	3956
930.477	3804
930.581	4135
930.685	3972
930.79	3846
930.894	3896
930.998	3876
931.103	4032
931.207	3740
931.311	3667
931.415	3656
931.519	3538
931.623	3549
