Data from test_V78500241_1693.txt Node
Date: Fri Mar 25 17:00:46 CST 2022
User: usil
Spectrometer: V785-0024
Trigger mode: 0
Integration Time (sec): 4.000000E-1
Scans to average: 1
Nonlinearity correction enabled: false
Boxcar width: 0
Storing dark spectrum: false
XAxis mode: Wavelengths
Number of Pixels in Spectrum: 1024
>>>>>Begin Spectral Data<<<<<
801.071	8043
801.214	8031
801.356	7909
801.499	7852
801.641	7750
801.783	7807
801.926	7993
802.068	7951
802.211	7974
802.353	7986
802.496	7860
802.638	7894
802.78	7890
802.923	7902
803.065	7890
803.208	7860
803.35	7997
803.492	8100
803.635	8206
803.777	8001
803.919	8103
804.061	8533
804.204	8202
804.346	8111
804.488	7921
804.63	8176
804.773	8062
804.915	8119
805.057	8370
805.199	8195
805.341	8252
805.483	8172
805.626	8183
805.768	8138
805.91	8229
806.052	8256
806.194	8115
806.336	8320
806.478	8161
806.62	8103
806.762	8206
806.904	8294
807.046	8530
807.188	8415
807.33	8358
807.472	8290
807.614	8164
807.756	8157
807.898	8039
808.04	7890
808.182	7879
808.324	7871
808.465	7875
808.607	8062
808.749	8145
808.891	8206
809.033	8351
809.174	8195
809.316	8020
809.458	8065
809.6	8012
809.741	8024
809.883	8024
810.025	8164
810.166	8020
810.308	8035
810.45	8020
810.591	7818
810.733	7761
810.875	7681
811.016	7533
811.158	7480
811.299	7605
811.441	7765
811.582	7685
811.724	7597
811.865	7582
812.007	7559
812.148	7567
812.29	7681
812.431	7750
812.573	7959
812.714	7974
812.855	8168
812.997	8145
813.138	8320
813.279	8244
813.421	8054
813.562	7986
813.703	7795
813.845	7693
813.986	7468
814.127	7236
814.268	7209
814.41	7190
814.551	7179
814.692	7247
814.833	7099
814.974	7103
815.115	7137
815.256	6954
815.397	6951
815.539	6951
815.68	6863
815.821	6760
815.962	6814
816.103	6779
816.244	6707
816.385	6620
816.526	6631
816.666	6559
816.807	6285
816.948	6403
817.089	6540
817.23	6448
817.371	6346
817.512	6342
817.653	6407
817.793	6334
817.934	6441
818.075	6429
818.216	6467
818.356	6365
818.497	6247
818.638	6117
818.778	6163
818.919	6083
819.06	6155
819.2	6388
819.341	6403
819.481	6361
819.622	6525
819.762	6719
819.903	6700
820.043	6642
820.184	6612
820.324	6597
820.465	6753
820.605	6719
820.746	6662
820.886	6547
821.026	6620
821.167	6677
821.307	6749
821.447	6840
821.588	6646
821.728	6532
821.868	6528
822.008	6285
822.149	6296
822.289	6331
822.429	6140
822.569	6121
822.709	6068
822.849	5916
822.99	5901
823.13	5939
823.27	5897
823.41	5786
823.55	5756
823.69	5741
823.83	5802
823.97	5680
824.11	5539
824.25	5558
824.389	5505
824.529	5566
824.669	5486
824.809	5634
824.949	5684
825.089	5596
825.228	5604
825.368	5402
825.508	5334
825.648	5326
825.787	5395
825.927	5353
826.067	5334
826.206	5277
826.346	5402
826.485	5345
826.625	5421
826.765	5501
826.904	5501
827.044	5280
827.183	5231
827.323	5124
827.462	5280
827.601	5151
827.741	5178
827.88	5208
828.02	5086
828.159	5258
828.298	5246
828.437	5345
828.577	5315
828.716	5463
828.855	5353
828.994	5124
829.134	5121
829.273	5170
829.412	5132
829.551	5162
829.69	5162
829.829	5227
829.968	5379
830.107	5299
830.246	5261
830.385	5166
830.524	5155
830.663	5098
830.802	4991
830.941	4873
831.08	4866
831.219	5003
831.357	4965
831.496	5140
831.635	4900
831.774	4854
831.913	4812
832.051	4755
832.19	4759
832.329	4816
832.467	4729
832.606	4622
832.744	4698
832.883	4763
833.022	4736
833.16	4774
833.299	4877
833.437	4793
833.576	4809
833.714	4858
833.852	4881
833.991	4904
834.129	4995
834.267	4968
834.406	4908
834.544	4972
834.682	5006
834.821	4984
834.959	5162
835.097	4987
835.235	5140
835.373	5079
835.511	5071
835.65	5003
835.788	5075
835.926	4908
836.064	4866
836.202	4915
836.34	5113
836.478	5242
836.615	5102
836.753	5189
836.891	5288
837.029	5284
837.167	5189
837.305	5174
837.443	5143
837.58	5071
837.718	5318
837.856	5174
837.993	5170
838.131	5235
838.269	5178
838.406	5181
838.544	5174
838.681	5025
838.819	5018
838.956	4839
839.094	4946
839.231	4949
839.369	5064
839.506	5459
839.643	5242
839.781	5041
839.918	5041
840.055	5178
840.193	5052
840.33	5113
840.467	5193
840.604	5132
840.742	5452
840.879	5018
841.016	5083
841.153	5178
841.29	5406
841.427	5349
841.564	5296
841.701	5341
841.838	5246
841.975	5208
842.112	5246
842.249	5128
842.385	5128
842.522	5322
842.659	5193
842.796	5090
842.933	5143
843.069	5162
843.206	5155
843.343	5292
843.479	5239
843.616	5246
843.752	4999
843.889	5033
844.025	5151
844.162	4957
844.298	5136
844.435	5056
844.571	5075
844.708	5231
844.844	5299
844.98	5330
845.117	5379
845.253	5155
845.389	5025
845.525	5094
845.661	5079
845.798	5022
845.934	5121
846.07	5067
846.206	5151
846.342	5292
846.478	5147
846.614	4987
846.75	4949
846.886	4930
847.022	5132
847.158	5071
847.294	5022
847.429	5064
847.565	5033
847.701	5280
847.837	4862
847.972	4790
848.108	4946
848.244	4911
848.379	4771
848.515	4759
848.65	4736
848.786	4828
848.921	4763
849.057	4858
849.192	4839
849.328	4793
849.463	4763
849.598	4839
849.734	4771
849.869	4729
850.004	4607
850.14	4672
850.275	4645
850.41	4531
850.545	4558
850.68	4626
850.815	4641
850.95	4656
851.085	4915
851.22	4790
851.355	4668
851.49	4599
851.625	4637
851.76	4634
851.895	4573
852.03	4535
852.165	4664
852.299	4691
852.434	4733
852.569	4740
852.703	4782
852.838	4828
852.973	4927
853.107	4911
853.242	4721
853.376	4675
853.511	4546
853.645	4603
853.78	4831
853.914	4653
854.048	4653
854.183	4691
854.317	4744
854.451	4812
854.585	4679
854.72	4683
854.854	4717
854.988	4618
855.122	4649
855.256	4527
855.39	4649
855.524	4816
855.658	4748
855.792	4687
855.926	4698
856.06	4763
856.194	4809
856.327	4672
856.461	4626
856.595	4611
856.729	4592
856.862	4767
856.996	4660
857.13	4744
857.263	4740
857.397	4801
857.53	4584
857.664	4717
857.797	4729
857.931	4729
858.064	4611
858.197	4736
858.331	4596
858.464	4618
858.597	4500
858.731	4596
858.864	4622
858.997	4592
859.13	4656
859.263	4683
859.396	4710
859.529	4592
859.662	4569
859.795	4554
859.928	4592
860.061	4786
860.194	4710
860.327	4618
860.46	4611
860.592	4694
860.725	4740
860.858	4694
860.99	4561
861.123	4497
861.256	4519
861.388	4641
861.521	5223
861.653	4443
861.786	4455
861.918	4447
862.05	4497
862.183	4504
862.315	4637
862.447	4637
862.58	4580
862.712	4421
862.844	4310
862.976	4481
863.108	4481
863.24	4877
863.372	4360
863.504	4451
863.636	4398
863.768	4504
863.9	4379
864.032	4352
864.164	4405
864.296	4447
864.428	4527
864.559	4561
864.691	4531
864.823	4538
864.954	4474
865.086	4519
865.217	4440
865.349	4440
865.48	4432
865.612	4523
865.743	4637
865.875	4462
866.006	4440
866.137	4451
866.269	4459
866.4	4424
866.531	4432
866.662	4390
866.793	4386
866.924	4428
867.055	4500
867.186	4466
867.317	4390
867.448	4383
867.579	4398
867.71	4417
867.841	4325
867.972	4470
868.103	4478
868.233	4466
868.364	4443
868.495	4459
868.625	4653
868.756	4752
868.886	4550
869.017	4660
869.147	4759
869.278	4790
869.408	4687
869.539	4664
869.669	4679
869.799	4637
869.929	4797
870.06	4771
870.19	4942
870.32	4915
870.45	4953
870.58	4984
870.71	5090
870.84	5086
870.97	4972
871.1	4919
871.23	5105
871.36	5075
871.489	5048
871.619	5079
871.749	5037
871.879	5086
872.008	5204
872.138	5083
872.267	4946
872.397	4824
872.526	4778
872.656	4763
872.785	4748
872.915	4953
873.044	5029
873.173	4938
873.303	4946
873.432	4930
873.561	4927
873.69	4870
873.819	4828
873.948	4911
874.077	4812
874.206	4771
874.335	4786
874.464	4889
874.593	5048
874.722	4949
874.851	5048
874.979	5105
875.108	5033
875.237	4904
875.365	4885
875.494	4866
875.623	4946
875.751	4828
875.88	4881
876.008	4980
876.136	5048
876.265	5178
876.393	5357
876.521	5227
876.65	5201
876.778	5174
876.906	5029
877.034	4968
877.162	5056
877.29	5037
877.418	5060
877.546	4991
877.674	5029
877.802	5029
877.93	4949
878.058	4915
878.185	4881
878.313	4946
878.441	4927
878.568	4778
878.696	4835
878.824	4908
878.951	5006
879.079	5071
879.206	5250
879.333	5094
879.461	4984
879.588	4999
879.715	5143
879.842	5239
879.97	4999
880.097	4793
880.224	4736
880.351	4797
880.478	4816
880.605	4816
880.732	4786
880.859	5128
880.986	4862
881.112	4900
881.239	4771
881.366	4710
881.493	4607
881.619	4611
881.746	4645
881.872	4637
881.999	4694
882.125	4706
882.252	4759
882.378	4828
882.505	4961
882.631	4809
882.757	4660
882.883	4668
883.01	4710
883.136	4649
883.262	4626
883.388	4618
883.514	4839
883.64	4816
883.766	4759
883.892	4618
884.018	4717
884.143	4915
884.269	5048
884.395	4721
884.52	4634
884.646	4618
884.772	4596
884.897	4550
885.023	4668
885.148	4744
885.274	4862
885.399	4847
885.524	4679
885.65	4714
885.775	4702
885.9	4729
886.025	4824
886.15	4778
886.275	4714
886.4	4675
886.525	4763
886.65	4714
886.775	4660
886.9	4919
887.025	5010
887.149	4816
887.274	4664
887.399	4558
887.523	4561
887.648	4588
887.773	4573
887.897	4793
888.021	4801
888.146	4691
888.27	4824
888.395	4923
888.519	4816
888.643	4831
888.767	4816
888.891	4645
889.015	4630
889.139	4630
889.263	4641
889.387	4733
889.511	4850
889.635	4816
889.759	4622
889.883	4641
890.006	4717
890.13	4820
890.254	4615
890.377	4649
890.501	4569
890.624	4516
890.748	4683
890.871	4470
890.995	4409
891.118	4451
891.241	4516
891.364	4478
891.488	4668
891.611	4474
891.734	4535
891.857	4618
891.98	4561
892.103	4668
892.226	4607
892.349	4504
892.471	4451
892.594	4546
892.717	4611
892.839	4584
892.962	4561
893.085	4649
893.207	4577
893.33	4493
893.452	4478
893.575	4679
893.697	4569
893.819	4790
893.941	4847
894.064	4740
894.186	4561
894.308	4588
894.43	4668
894.552	4778
894.674	4782
894.796	4546
894.918	4584
895.04	4565
895.161	4691
895.283	4656
895.405	4569
895.526	4611
895.648	4645
895.769	4649
895.891	4744
896.012	4721
896.134	4729
896.255	4645
896.376	4626
896.498	4626
896.619	4702
896.74	4679
896.861	4618
896.982	4976
897.103	5090
897.224	4816
897.345	4729
897.466	4641
897.587	4710
897.708	4870
897.828	4748
897.949	4698
898.07	4569
898.19	4634
898.311	4828
898.431	4691
898.552	4801
898.672	4801
898.792	4824
898.913	4778
899.033	4630
899.153	4489
899.273	4447
899.393	4542
899.513	4535
899.633	4523
899.753	4565
899.873	4474
899.993	4584
900.113	4538
900.232	4535
900.352	4538
900.472	4485
900.591	4424
900.711	4478
900.83	4402
900.95	4603
901.069	4706
901.189	4546
901.308	4356
901.427	4322
901.546	4383
901.665	4474
901.784	4512
901.904	4375
902.023	4287
902.141	4177
902.26	4147
902.379	4318
902.498	4261
902.617	4204
902.735	4402
902.854	4344
902.973	4421
903.091	4154
903.21	4246
903.328	4303
903.446	4280
903.565	4253
903.683	4325
903.801	4268
903.919	4443
904.038	4440
904.156	4318
904.274	4379
904.392	4405
904.51	4371
904.627	4489
904.745	4626
904.863	4618
904.981	4405
905.098	4318
905.216	4383
905.334	4405
905.451	4436
905.569	4443
905.686	4538
905.803	4523
905.921	4409
906.038	4538
906.155	4470
906.272	4363
906.389	4390
906.506	4363
906.623	4341
906.74	4394
906.857	4299
906.974	4325
907.091	4554
907.208	4656
907.324	4588
907.441	4504
907.557	4352
907.674	4322
907.79	4322
907.907	4390
908.023	4504
908.139	4500
908.256	4405
908.372	4443
908.488	4402
908.604	4379
908.72	4310
908.836	4386
908.952	4352
909.068	4424
909.184	4538
909.3	4523
909.415	4561
909.531	4519
909.647	4379
909.762	4363
909.878	4348
909.993	4421
910.108	4394
910.224	4409
910.339	4512
910.454	4360
910.57	4386
910.685	4318
910.8	4653
910.915	4569
911.03	4500
911.145	4341
911.259	4360
911.374	4379
911.489	4291
911.604	4268
911.718	4204
911.833	4230
911.947	4116
912.062	4048
912.176	4207
912.291	4192
912.405	4211
912.519	4459
912.633	4466
912.748	4367
912.862	4249
912.976	4147
913.09	4105
913.204	4204
913.318	4276
913.431	4348
913.545	4371
913.659	4405
913.772	4356
913.886	4211
914	4211
914.113	4379
914.226	4421
914.34	4394
914.453	4177
914.566	4424
914.68	4318
914.793	4318
914.906	4139
915.019	4090
915.132	4116
915.245	4166
915.358	4204
915.47	4238
915.583	4261
915.696	4227
915.809	4428
915.921	4405
916.034	4280
916.146	4207
916.259	4219
916.371	4344
916.483	4360
916.595	4253
916.708	4329
916.82	4291
916.932	4276
917.044	4280
917.156	4329
917.268	4192
917.38	4253
917.491	4276
917.603	4329
917.715	4451
917.826	4409
917.938	4352
918.049	4227
918.161	4402
918.272	4538
918.384	4531
918.495	4459
918.606	4303
918.717	4192
918.828	4322
918.939	4322
919.05	4227
919.161	4310
919.272	4158
919.383	4234
919.494	4432
919.604	4618
919.715	4447
919.826	4257
919.936	4375
920.047	4527
920.157	4466
920.267	4672
920.378	4531
920.488	4504
920.598	4714
920.708	4927
920.818	4740
920.928	4725
921.038	4930
921.148	4885
921.258	4607
921.368	4569
921.477	4470
921.587	4421
921.697	4375
921.806	4493
921.916	4405
922.025	4291
922.134	4295
922.244	4196
922.353	4284
922.462	4169
922.571	4101
922.68	4013
922.789	3979
922.898	4017
923.007	3945
923.116	4082
923.224	4067
923.333	4093
923.442	3987
923.55	3953
923.659	4044
923.767	4150
923.876	4017
923.984	4044
924.092	3960
924.201	4071
924.309	4101
924.417	4120
924.525	4029
924.633	4090
924.741	4850
924.849	3888
924.956	4147
925.064	3994
925.172	3896
925.279	3964
925.387	4040
925.494	4036
925.602	4227
925.709	4158
925.816	4048
925.924	4147
926.031	4154
926.138	4181
926.245	4238
926.352	4109
926.459	4242
926.566	4322
926.673	4181
926.779	4048
926.886	4086
926.993	3994
927.099	3964
927.206	3945
927.312	3953
927.419	4044
927.525	4006
927.631	4101
927.737	3968
927.843	3915
927.95	3808
928.056	3949
928.162	3975
928.267	4063
928.373	4664
928.479	4101
928.585	3896
928.69	4002
928.796	4017
928.901	3991
929.007	3800
929.112	3987
929.218	3998
929.323	3972
929.428	3903
929.533	4116
929.638	3937
929.743	3956
929.848	4036
929.953	3994
930.058	3907
930.163	3816
930.267	3827
930.372	3983
930.477	3781
930.581	4093
930.685	3972
930.79	3823
930.894	3888
930.998	3835
931.103	4017
931.207	3694
931.311	3717
931.415	3675
931.519	3534
931.623	3572
