Data from test_V78500241_2412.txt Node
Date: Fri Mar 25 17:05:46 CST 2022
User: usil
Spectrometer: V785-0024
Trigger mode: 0
Integration Time (sec): 4.000000E-1
Scans to average: 1
Nonlinearity correction enabled: false
Boxcar width: 0
Storing dark spectrum: false
XAxis mode: Wavelengths
Number of Pixels in Spectrum: 1024
>>>>>Begin Spectral Data<<<<<
801.071	8027
801.214	7982
801.356	7898
801.499	7833
801.641	7822
801.783	7799
801.926	8016
802.068	7982
802.211	8016
802.353	8012
802.496	7852
802.638	7898
802.78	7917
802.923	7959
803.065	7864
803.208	7906
803.35	8050
803.492	8157
803.635	8126
803.777	8142
803.919	8206
804.061	8476
804.204	8191
804.346	8031
804.488	8031
804.63	8157
804.773	8054
804.915	8058
805.057	8317
805.199	8176
805.341	8305
805.483	8298
805.626	8339
805.768	8164
805.91	8164
806.052	8252
806.194	8107
806.336	8294
806.478	8145
806.62	8062
806.762	8164
806.904	8305
807.046	8473
807.188	8347
807.33	8347
807.472	8313
807.614	8256
807.756	8218
807.898	8062
808.04	7959
808.182	7792
808.324	7864
808.465	7944
808.607	8062
808.749	8130
808.891	8180
809.033	8294
809.174	8164
809.316	8065
809.458	8062
809.6	7974
809.741	8027
809.883	8134
810.025	8088
810.166	8126
810.308	8103
810.45	8031
810.591	7814
810.733	7750
810.875	7628
811.016	7567
811.158	7521
811.299	7521
811.441	7757
811.582	7693
811.724	7586
811.865	7548
812.007	7613
812.148	7632
812.29	7578
812.431	7769
812.573	7925
812.714	8012
812.855	8115
812.997	8313
813.138	8351
813.279	8187
813.421	8084
813.562	7928
813.703	7906
813.845	7727
813.986	7441
814.127	7285
814.268	7213
814.41	7247
814.551	7129
814.692	7209
814.833	7168
814.974	7149
815.115	7202
815.256	7000
815.397	6913
815.539	7042
815.68	6787
815.821	6760
815.962	6844
816.103	6833
816.244	6719
816.385	6627
816.526	6627
816.666	6547
816.807	6319
816.948	6467
817.089	6460
817.23	6437
817.371	6441
817.512	6380
817.653	6399
817.793	6369
817.934	6494
818.075	6452
818.216	6483
818.356	6445
818.497	6232
818.638	6144
818.778	6171
818.919	6152
819.06	6155
819.2	6403
819.341	6369
819.481	6410
819.622	6589
819.762	6692
819.903	6776
820.043	6574
820.184	6646
820.324	6646
820.465	6684
820.605	6696
820.746	6642
820.886	6578
821.026	6734
821.167	6749
821.307	6810
821.447	6814
821.588	6658
821.728	6593
821.868	6551
822.008	6388
822.149	6433
822.289	6380
822.429	6136
822.569	6133
822.709	6140
822.849	5946
822.99	5920
823.13	5904
823.27	5946
823.41	5790
823.55	5790
823.69	5790
823.83	5798
823.97	5703
824.11	5589
824.25	5558
824.389	5539
824.529	5615
824.669	5528
824.809	5615
824.949	5649
825.089	5604
825.228	5604
825.368	5421
825.508	5357
825.648	5395
825.787	5429
825.927	5337
826.067	5280
826.206	5250
826.346	5360
826.485	5353
826.625	5383
826.765	5524
826.904	5543
827.044	5246
827.183	5208
827.323	5136
827.462	5288
827.601	5151
827.741	5250
827.88	5197
828.02	5121
828.159	5277
828.298	5322
828.437	5357
828.577	5307
828.716	5486
828.855	5357
828.994	5159
829.134	5189
829.273	5201
829.412	5102
829.551	5166
829.69	5181
829.829	5235
829.968	5406
830.107	5258
830.246	5334
830.385	5185
830.524	5166
830.663	5079
830.802	5018
830.941	4942
831.08	4896
831.219	5003
831.357	4946
831.496	5170
831.635	4938
831.774	4900
831.913	4778
832.051	4744
832.19	4767
832.329	4877
832.467	4691
832.606	4675
832.744	4733
832.883	4740
833.022	4752
833.16	4797
833.299	4797
833.437	4831
833.576	4915
833.714	4847
833.852	4968
833.991	4877
834.129	4984
834.267	4934
834.406	4938
834.544	4965
834.682	4991
834.821	4938
834.959	5178
835.097	4999
835.235	5155
835.373	5083
835.511	5159
835.65	5037
835.788	5003
835.926	4904
836.064	4900
836.202	4919
836.34	5174
836.478	5246
836.615	5140
836.753	5189
836.891	5216
837.029	5258
837.167	5197
837.305	5181
837.443	5201
837.58	5117
837.718	5284
837.856	5178
837.993	5170
838.131	5239
838.269	5204
838.406	5239
838.544	5193
838.681	5113
838.819	4980
838.956	4877
839.094	4915
839.231	5003
839.369	5105
839.506	5360
839.643	5277
839.781	5064
839.918	5056
840.055	5098
840.193	5121
840.33	5117
840.467	5136
840.604	5223
840.742	5455
840.879	5071
841.016	5079
841.153	5136
841.29	5444
841.427	5307
841.564	5357
841.701	5383
841.838	5330
841.975	5227
842.112	5269
842.249	5166
842.385	5094
842.522	5326
842.659	5121
842.796	5102
842.933	5113
843.069	5159
843.206	5155
843.343	5345
843.479	5185
843.616	5269
843.752	5094
843.889	5037
844.025	5223
844.162	5052
844.298	5231
844.435	5090
844.571	5018
844.708	5178
844.844	5322
844.98	5292
845.117	5326
845.253	5113
845.389	5109
845.525	5193
845.661	5159
845.798	5083
845.934	5136
846.07	5083
846.206	5185
846.342	5303
846.478	5201
846.614	5006
846.75	4991
846.886	4934
847.022	5124
847.158	4995
847.294	5060
847.429	5109
847.565	5102
847.701	5341
847.837	4835
847.972	4805
848.108	5018
848.244	4892
848.379	4824
848.515	4706
848.65	4748
848.786	4759
848.921	4736
849.057	4809
849.192	4927
849.328	4870
849.463	4862
849.598	4831
849.734	4755
849.869	4733
850.004	4668
850.14	4717
850.275	4607
850.41	4538
850.545	4565
850.68	4607
850.815	4618
850.95	4675
851.085	4835
851.22	4721
851.355	4672
851.49	4584
851.625	4630
851.76	4668
851.895	4577
852.03	4592
852.165	4687
852.299	4729
852.434	4797
852.569	4771
852.703	4763
852.838	4839
852.973	4949
853.107	4908
853.242	4763
853.376	4683
853.511	4569
853.645	4637
853.78	4801
853.914	4702
854.048	4668
854.183	4649
854.317	4710
854.451	4877
854.585	4679
854.72	4660
854.854	4736
854.988	4596
855.122	4630
855.256	4558
855.39	4683
855.524	4774
855.658	4740
855.792	4672
855.926	4717
856.06	4755
856.194	4778
856.327	4679
856.461	4637
856.595	4607
856.729	4603
856.862	4755
856.996	4668
857.13	4717
857.263	4793
857.397	4805
857.53	4687
857.664	4782
857.797	4744
857.931	4835
858.064	4691
858.197	4755
858.331	4733
858.464	4603
858.597	4523
858.731	4611
858.864	4683
858.997	4588
859.13	4653
859.263	4660
859.396	4733
859.529	4561
859.662	4607
859.795	4535
859.928	4622
860.061	4717
860.194	4778
860.327	4535
860.46	4542
860.592	4752
860.725	4710
860.858	4752
860.99	4618
861.123	4523
861.256	4504
861.388	4626
861.521	5315
861.653	4497
861.786	4459
861.918	4451
862.05	4500
862.183	4512
862.315	4584
862.447	4668
862.58	4546
862.712	4371
862.844	4383
862.976	4432
863.108	4409
863.24	4740
863.372	4318
863.504	4424
863.636	4413
863.768	4481
863.9	4459
864.032	4329
864.164	4344
864.296	4478
864.428	4565
864.559	4580
864.691	4573
864.823	4565
864.954	4516
865.086	4474
865.217	4481
865.349	4409
865.48	4462
865.612	4493
865.743	4596
865.875	4489
866.006	4478
866.137	4470
866.269	4428
866.4	4390
866.531	4440
866.662	4402
866.793	4428
866.924	4398
867.055	4485
867.186	4516
867.317	4424
867.448	4348
867.579	4421
867.71	4371
867.841	4356
867.972	4519
868.103	4508
868.233	4447
868.364	4489
868.495	4474
868.625	4622
868.756	4801
868.886	4607
869.017	4611
869.147	4748
869.278	4809
869.408	4710
869.539	4649
869.669	4714
869.799	4679
869.929	4706
870.06	4725
870.19	4923
870.32	4934
870.45	4946
870.58	4980
870.71	5083
870.84	5098
870.97	4987
871.1	4892
871.23	5181
871.36	5075
871.489	5006
871.619	5067
871.749	5094
871.879	5159
872.008	5174
872.138	5079
872.267	5022
872.397	4858
872.526	4824
872.656	4763
872.785	4790
872.915	4927
873.044	5029
873.173	4957
873.303	4987
873.432	4949
873.561	4991
873.69	4911
873.819	4885
873.948	4908
874.077	4839
874.206	4729
874.335	4759
874.464	4915
874.593	5090
874.722	4995
874.851	5124
874.979	5132
875.108	5083
875.237	4911
875.365	4896
875.494	4915
875.623	4999
875.751	4831
875.88	4881
876.008	4999
876.136	5003
876.265	5212
876.393	5330
876.521	5258
876.65	5204
876.778	5143
876.906	5102
877.034	5041
877.162	5075
877.29	4991
877.418	5033
877.546	5037
877.674	5022
877.802	5029
877.93	4972
878.058	4900
878.185	4919
878.313	4957
878.441	4991
878.568	4809
878.696	4843
878.824	4949
878.951	4923
879.079	5124
879.206	5303
879.333	5083
879.461	4968
879.588	4984
879.715	5132
879.842	5231
879.97	5003
880.097	4824
880.224	4793
880.351	4847
880.478	4889
880.605	4816
880.732	4782
880.859	5090
880.986	4854
881.112	4946
881.239	4805
881.366	4706
881.493	4645
881.619	4542
881.746	4660
881.872	4630
881.999	4645
882.125	4668
882.252	4767
882.378	4797
882.505	4919
882.631	4767
882.757	4683
882.883	4755
883.01	4748
883.136	4691
883.262	4611
883.388	4611
883.514	4793
883.64	4858
883.766	4812
883.892	4691
884.018	4714
884.143	4908
884.269	5018
884.395	4725
884.52	4641
884.646	4641
884.772	4603
884.897	4542
885.023	4649
885.148	4755
885.274	4873
885.399	4771
885.524	4694
885.65	4714
885.775	4702
885.9	4733
886.025	4873
886.15	4786
886.275	4668
886.4	4626
886.525	4740
886.65	4672
886.775	4721
886.9	4892
887.025	5006
887.149	4843
887.274	4649
887.399	4580
887.523	4603
887.648	4565
887.773	4622
887.897	4740
888.021	4797
888.146	4660
888.27	4748
888.395	4881
888.519	4850
888.643	4839
888.767	4778
888.891	4660
889.015	4622
889.139	4656
889.263	4615
889.387	4797
889.511	4839
889.635	4816
889.759	4634
889.883	4656
890.006	4752
890.13	4831
890.254	4599
890.377	4691
890.501	4535
890.624	4535
890.748	4630
890.871	4500
890.995	4474
891.118	4356
891.241	4500
891.364	4550
891.488	4626
891.611	4455
891.734	4573
891.857	4596
891.98	4573
892.103	4603
892.226	4592
892.349	4512
892.471	4394
892.594	4561
892.717	4634
892.839	4577
892.962	4584
893.085	4656
893.207	4592
893.33	4432
893.452	4493
893.575	4615
893.697	4592
893.819	4763
893.941	4835
894.064	4736
894.186	4558
894.308	4615
894.43	4675
894.552	4820
894.674	4725
894.796	4535
894.918	4622
895.04	4580
895.161	4702
895.283	4660
895.405	4573
895.526	4664
895.648	4683
895.769	4698
895.891	4744
896.012	4755
896.134	4740
896.255	4687
896.376	4622
896.498	4611
896.619	4683
896.74	4645
896.861	4634
896.982	4885
897.103	5064
897.224	4831
897.345	4752
897.466	4622
897.587	4729
897.708	4847
897.828	4767
897.949	4630
898.07	4516
898.19	4660
898.311	4831
898.431	4683
898.552	4748
898.672	4850
898.792	4828
898.913	4759
899.033	4603
899.153	4542
899.273	4398
899.393	4516
899.513	4481
899.633	4538
899.753	4561
899.873	4550
899.993	4584
900.113	4485
900.232	4618
900.352	4485
900.472	4470
900.591	4375
900.711	4500
900.83	4432
900.95	4649
901.069	4634
901.189	4546
901.308	4333
901.427	4337
901.546	4379
901.665	4504
901.784	4474
901.904	4383
902.023	4318
902.141	4249
902.26	4192
902.379	4310
902.498	4230
902.617	4219
902.735	4394
902.854	4432
902.973	4348
903.091	4154
903.21	4192
903.328	4284
903.446	4299
903.565	4257
903.683	4329
903.801	4291
903.919	4375
904.038	4413
904.156	4337
904.274	4440
904.392	4405
904.51	4417
904.627	4447
904.745	4565
904.863	4668
904.981	4371
905.098	4337
905.216	4344
905.334	4478
905.451	4474
905.569	4436
905.686	4561
905.803	4584
905.921	4443
906.038	4561
906.155	4500
906.272	4428
906.389	4519
906.506	4325
906.623	4383
906.74	4428
906.857	4333
906.974	4375
907.091	4550
907.208	4664
907.324	4592
907.441	4474
907.557	4325
907.674	4322
907.79	4333
907.907	4390
908.023	4466
908.139	4470
908.256	4440
908.372	4462
908.488	4462
908.604	4360
908.72	4337
908.836	4329
908.952	4383
909.068	4394
909.184	4615
909.3	4459
909.415	4592
909.531	4596
909.647	4379
909.762	4375
909.878	4325
909.993	4432
910.108	4390
910.224	4409
910.339	4489
910.454	4421
910.57	4341
910.685	4329
910.8	4683
910.915	4554
911.03	4474
911.145	4322
911.259	4363
911.374	4367
911.489	4272
911.604	4272
911.718	4154
911.833	4211
911.947	4131
912.062	3994
912.176	4249
912.291	4223
912.405	4223
912.519	4440
912.633	4512
912.748	4383
912.862	4299
912.976	4204
913.09	4101
913.204	4196
913.318	4280
913.431	4299
913.545	4352
913.659	4398
913.772	4394
913.886	4257
914	4185
914.113	4386
914.226	4432
914.34	4363
914.453	4227
914.566	4440
914.68	4329
914.793	4344
914.906	4158
915.019	4154
915.132	4101
915.245	4162
915.358	4207
915.47	4230
915.583	4276
915.696	4246
915.809	4394
915.921	4432
916.034	4230
916.146	4227
916.259	4253
916.371	4318
916.483	4295
916.595	4253
916.708	4322
916.82	4310
916.932	4306
917.044	4348
917.156	4287
917.268	4181
917.38	4261
917.491	4261
917.603	4352
917.715	4390
917.826	4462
917.938	4379
918.049	4227
918.161	4455
918.272	4523
918.384	4523
918.495	4497
918.606	4295
918.717	4268
918.828	4329
918.939	4341
919.05	4272
919.161	4280
919.272	4147
919.383	4291
919.494	4428
919.604	4599
919.715	4413
919.826	4367
919.936	4375
920.047	4481
920.157	4512
920.267	4691
920.378	4546
920.488	4500
920.598	4717
920.708	4919
920.818	4748
920.928	4793
921.038	4961
921.148	4930
921.258	4626
921.368	4569
921.477	4451
921.587	4440
921.697	4402
921.806	4561
921.916	4470
922.025	4261
922.134	4303
922.244	4219
922.353	4322
922.462	4185
922.571	4112
922.68	4029
922.789	3975
922.898	4055
923.007	3987
923.116	4044
923.224	4051
923.333	4036
923.442	4013
923.55	4048
923.659	4036
923.767	4090
923.876	4040
923.984	4116
924.092	4013
924.201	4078
924.309	4124
924.417	4131
924.525	4067
924.633	4074
924.741	5075
924.849	3915
924.956	4112
925.064	3892
925.172	3876
925.279	3994
925.387	4059
925.494	4078
925.602	4196
925.709	4177
925.816	4055
925.924	4109
926.031	4219
926.138	4154
926.245	4234
926.352	4139
926.459	4249
926.566	4299
926.673	4150
926.779	4101
926.886	4074
926.993	3998
927.099	3949
927.206	3949
927.312	3922
927.419	4048
927.525	4036
927.631	4097
927.737	3979
927.843	3945
927.95	3842
928.056	3941
928.162	3930
928.267	4074
928.373	4687
928.479	4154
928.585	3884
928.69	4051
928.796	4013
928.901	3968
929.007	3827
929.112	4040
929.218	3987
929.323	3930
929.428	3930
929.533	4147
929.638	3892
929.743	4010
929.848	4048
929.953	3987
930.058	3975
930.163	3800
930.267	3869
930.372	4002
930.477	3800
930.581	4090
930.685	3968
930.79	3812
930.894	3896
930.998	3827
931.103	3994
931.207	3736
931.311	3755
931.415	3652
931.519	3473
931.623	3549
