Data from test_V78500241_2144.txt Node
Date: Fri Mar 25 17:03:54 CST 2022
User: usil
Spectrometer: V785-0024
Trigger mode: 0
Integration Time (sec): 4.000000E-1
Scans to average: 1
Nonlinearity correction enabled: false
Boxcar width: 0
Storing dark spectrum: false
XAxis mode: Wavelengths
Number of Pixels in Spectrum: 1024
>>>>>Begin Spectral Data<<<<<
801.071	8046
801.214	7947
801.356	7860
801.499	7852
801.641	7757
801.783	7799
801.926	7936
802.068	8024
802.211	7970
802.353	7947
802.496	7864
802.638	7799
802.78	7906
802.923	7887
803.065	7814
803.208	7864
803.35	7940
803.492	8027
803.635	8153
803.777	8031
803.919	8107
804.061	8488
804.204	8218
804.346	8058
804.488	7849
804.63	8065
804.773	8046
804.915	8096
805.057	8240
805.199	8180
805.341	8157
805.483	8256
805.626	8168
805.768	8119
805.91	8187
806.052	8271
806.194	8126
806.336	8256
806.478	8172
806.62	8035
806.762	8142
806.904	8336
807.046	8450
807.188	8343
807.33	8324
807.472	8233
807.614	8187
807.756	8149
807.898	7959
808.04	7917
808.182	7921
808.324	7906
808.465	7875
808.607	8043
808.749	8073
808.891	8271
809.033	8347
809.174	8206
809.316	8054
809.458	8103
809.6	7944
809.741	8039
809.883	8107
810.025	8016
810.166	8062
810.308	8046
810.45	8043
810.591	7818
810.733	7651
810.875	7674
811.016	7537
811.158	7472
811.299	7632
811.441	7681
811.582	7636
811.724	7578
811.865	7578
812.007	7628
812.148	7594
812.29	7636
812.431	7700
812.573	7864
812.714	8024
812.855	8077
812.997	8199
813.138	8263
813.279	8126
813.421	8065
813.562	7902
813.703	7772
813.845	7757
813.986	7384
814.127	7236
814.268	7225
814.41	7164
814.551	7149
814.692	7198
814.833	7110
814.974	7103
815.115	7107
815.256	6977
815.397	6916
815.539	6935
815.68	6814
815.821	6772
815.962	6810
816.103	6764
816.244	6738
816.385	6563
816.526	6570
816.666	6509
816.807	6262
816.948	6437
817.089	6490
817.23	6490
817.371	6403
817.512	6433
817.653	6376
817.793	6323
817.934	6418
818.075	6525
818.216	6403
818.356	6414
818.497	6247
818.638	6095
818.778	6171
818.919	6121
819.06	6163
819.2	6281
819.341	6285
819.481	6350
819.622	6563
819.762	6734
819.903	6707
820.043	6551
820.184	6593
820.324	6574
820.465	6635
820.605	6669
820.746	6608
820.886	6555
821.026	6601
821.167	6688
821.307	6852
821.447	6715
821.588	6627
821.728	6593
821.868	6509
822.008	6327
822.149	6357
822.289	6331
822.429	6133
822.569	6068
822.709	6133
822.849	5878
822.99	5863
823.13	5973
823.27	5897
823.41	5790
823.55	5790
823.69	5783
823.83	5821
823.97	5691
824.11	5467
824.25	5459
824.389	5566
824.529	5532
824.669	5486
824.809	5562
824.949	5619
825.089	5642
825.228	5547
825.368	5376
825.508	5353
825.648	5357
825.787	5360
825.927	5391
826.067	5322
826.206	5269
826.346	5357
826.485	5379
826.625	5406
826.765	5528
826.904	5482
827.044	5239
827.183	5197
827.323	5067
827.462	5223
827.601	5140
827.741	5178
827.88	5174
828.02	5090
828.159	5277
828.298	5296
828.437	5353
828.577	5284
828.716	5486
828.855	5288
828.994	5174
829.134	5090
829.273	5201
829.412	5159
829.551	5117
829.69	5117
829.829	5242
829.968	5372
830.107	5280
830.246	5246
830.385	5174
830.524	5090
830.663	5064
830.802	5018
830.941	4854
831.08	4889
831.219	4995
831.357	4938
831.496	5181
831.635	4900
831.774	4801
831.913	4786
832.051	4744
832.19	4759
832.329	4850
832.467	4717
832.606	4656
832.744	4725
832.883	4755
833.022	4694
833.16	4797
833.299	4801
833.437	4797
833.576	4866
833.714	4854
833.852	4870
833.991	4847
834.129	4927
834.267	4949
834.406	4911
834.544	4991
834.682	4965
834.821	4949
834.959	5098
835.097	4942
835.235	5113
835.373	5079
835.511	5079
835.65	5029
835.788	5037
835.926	4885
836.064	4873
836.202	4934
836.34	5189
836.478	5231
836.615	5098
836.753	5239
836.891	5318
837.029	5246
837.167	5193
837.305	5128
837.443	5143
837.58	5003
837.718	5280
837.856	5197
837.993	5143
838.131	5227
838.269	5220
838.406	5147
838.544	5155
838.681	5014
838.819	5014
838.956	4908
839.094	4908
839.231	4976
839.369	5090
839.506	5398
839.643	5261
839.781	5060
839.918	5014
840.055	5124
840.193	5113
840.33	5102
840.467	5136
840.604	5185
840.742	5467
840.879	5064
841.016	5094
841.153	5155
841.29	5326
841.427	5307
841.564	5341
841.701	5337
841.838	5288
841.975	5284
842.112	5250
842.249	5121
842.385	5098
842.522	5254
842.659	5204
842.796	5189
842.933	5197
843.069	5132
843.206	5170
843.343	5296
843.479	5261
843.616	5258
843.752	5025
843.889	4999
844.025	5242
844.162	4999
844.298	5258
844.435	5071
844.571	5018
844.708	5166
844.844	5246
844.98	5337
845.117	5296
845.253	5121
845.389	5086
845.525	5170
845.661	5121
845.798	5033
845.934	5162
846.07	5090
846.206	5201
846.342	5220
846.478	5159
846.614	5010
846.75	4927
846.886	4972
847.022	5155
847.158	5014
847.294	5071
847.429	5086
847.565	5064
847.701	5307
847.837	4866
847.972	4767
848.108	4976
848.244	4930
848.379	4809
848.515	4752
848.65	4755
848.786	4725
848.921	4740
849.057	4835
849.192	4896
849.328	4774
849.463	4885
849.598	4771
849.734	4771
849.869	4702
850.004	4634
850.14	4675
850.275	4538
850.41	4519
850.545	4542
850.68	4584
850.815	4599
850.95	4599
851.085	4790
851.22	4752
851.355	4668
851.49	4596
851.625	4706
851.76	4637
851.895	4535
852.03	4504
852.165	4649
852.299	4744
852.434	4786
852.569	4725
852.703	4797
852.838	4870
852.973	4866
853.107	4900
853.242	4710
853.376	4683
853.511	4577
853.645	4569
853.78	4755
853.914	4660
854.048	4641
854.183	4675
854.317	4675
854.451	4790
854.585	4664
854.72	4630
854.854	4771
854.988	4599
855.122	4637
855.256	4523
855.39	4630
855.524	4816
855.658	4672
855.792	4634
855.926	4717
856.06	4721
856.194	4778
856.327	4702
856.461	4596
856.595	4611
856.729	4561
856.862	4755
856.996	4694
857.13	4733
857.263	4736
857.397	4797
857.53	4634
857.664	4691
857.797	4740
857.931	4820
858.064	4675
858.197	4706
858.331	4645
858.464	4584
858.597	4516
858.731	4618
858.864	4603
858.997	4630
859.13	4672
859.263	4615
859.396	4668
859.529	4565
859.662	4561
859.795	4535
859.928	4637
860.061	4736
860.194	4740
860.327	4584
860.46	4554
860.592	4721
860.725	4717
860.858	4717
860.99	4550
861.123	4516
861.256	4538
861.388	4596
861.521	5417
861.653	4474
861.786	4428
861.918	4447
862.05	4508
862.183	4481
862.315	4660
862.447	4641
862.58	4508
862.712	4371
862.844	4344
862.976	4455
863.108	4462
863.24	4797
863.372	4333
863.504	4428
863.636	4405
863.768	4436
863.9	4440
864.032	4363
864.164	4413
864.296	4504
864.428	4516
864.559	4554
864.691	4519
864.823	4485
864.954	4489
865.086	4470
865.217	4455
865.349	4417
865.48	4478
865.612	4489
865.743	4592
865.875	4455
866.006	4390
866.137	4497
866.269	4440
866.4	4409
866.531	4405
866.662	4436
866.793	4402
866.924	4428
867.055	4500
867.186	4455
867.317	4390
867.448	4268
867.579	4386
867.71	4402
867.841	4367
867.972	4443
868.103	4421
868.233	4436
868.364	4485
868.495	4504
868.625	4618
868.756	4748
868.886	4519
869.017	4588
869.147	4824
869.278	4759
869.408	4710
869.539	4626
869.669	4675
869.799	4664
869.929	4774
870.06	4767
870.19	4991
870.32	4904
870.45	4911
870.58	5033
870.71	5064
870.84	5132
870.97	4961
871.1	4885
871.23	5121
871.36	5132
871.489	4999
871.619	5060
871.749	5045
871.879	5151
872.008	5197
872.138	5010
872.267	4957
872.397	4850
872.526	4828
872.656	4698
872.785	4786
872.915	4911
873.044	5052
873.173	4908
873.303	4934
873.432	4957
873.561	5006
873.69	4889
873.819	4847
873.948	4889
874.077	4850
874.206	4763
874.335	4767
874.464	4908
874.593	5033
874.722	4927
874.851	5094
874.979	5079
875.108	4995
875.237	4919
875.365	4866
875.494	4885
875.623	4999
875.751	4839
875.88	4858
876.008	4949
876.136	4980
876.265	5277
876.393	5353
876.521	5280
876.65	5261
876.778	5136
876.906	5105
877.034	4984
877.162	4984
877.29	4923
877.418	5060
877.546	5060
877.674	5018
877.802	5067
877.93	5014
878.058	4949
878.185	4847
878.313	4987
878.441	4949
878.568	4820
878.696	4892
878.824	4949
878.951	4957
879.079	5098
879.206	5250
879.333	5113
879.461	4976
879.588	5003
879.715	5090
879.842	5140
879.97	5064
880.097	4759
880.224	4714
880.351	4835
880.478	4831
880.605	4771
880.732	4812
880.859	5090
880.986	4908
881.112	4908
881.239	4786
881.366	4649
881.493	4615
881.619	4607
881.746	4622
881.872	4637
881.999	4649
882.125	4656
882.252	4778
882.378	4793
882.505	4908
882.631	4786
882.757	4702
882.883	4721
883.01	4740
883.136	4637
883.262	4596
883.388	4618
883.514	4778
883.64	4858
883.766	4809
883.892	4687
884.018	4740
884.143	4850
884.269	4991
884.395	4641
884.52	4679
884.646	4596
884.772	4542
884.897	4573
885.023	4672
885.148	4778
885.274	4831
885.399	4847
885.524	4691
885.65	4721
885.775	4691
885.9	4752
886.025	4778
886.15	4771
886.275	4691
886.4	4615
886.525	4752
886.65	4694
886.775	4694
886.9	4877
887.025	5029
887.149	4763
887.274	4645
887.399	4569
887.523	4580
887.648	4577
887.773	4584
887.897	4763
888.021	4771
888.146	4615
888.27	4797
888.395	4881
888.519	4805
888.643	4797
888.767	4816
888.891	4691
889.015	4592
889.139	4630
889.263	4584
889.387	4755
889.511	4828
889.635	4755
889.759	4630
889.883	4580
890.006	4683
890.13	4831
890.254	4550
890.377	4664
890.501	4538
890.624	4470
890.748	4569
890.871	4459
890.995	4398
891.118	4367
891.241	4519
891.364	4493
891.488	4615
891.611	4459
891.734	4535
891.857	4588
891.98	4531
892.103	4649
892.226	4603
892.349	4527
892.471	4398
892.594	4550
892.717	4584
892.839	4599
892.962	4565
893.085	4683
893.207	4554
893.33	4436
893.452	4538
893.575	4649
893.697	4592
893.819	4790
893.941	4866
894.064	4755
894.186	4573
894.308	4569
894.43	4714
894.552	4786
894.674	4714
894.796	4542
894.918	4618
895.04	4561
895.161	4683
895.283	4630
895.405	4603
895.526	4641
895.648	4694
895.769	4675
895.891	4694
896.012	4714
896.134	4675
896.255	4683
896.376	4683
896.498	4630
896.619	4660
896.74	4656
896.861	4675
896.982	4938
897.103	5083
897.224	4847
897.345	4763
897.466	4653
897.587	4725
897.708	4828
897.828	4812
897.949	4721
898.07	4599
898.19	4694
898.311	4892
898.431	4698
898.552	4755
898.672	4843
898.792	4820
898.913	4774
899.033	4660
899.153	4546
899.273	4523
899.393	4542
899.513	4577
899.633	4550
899.753	4558
899.873	4535
899.993	4615
900.113	4546
900.232	4603
900.352	4596
900.472	4531
900.591	4417
900.711	4527
900.83	4485
900.95	4679
901.069	4744
901.189	4584
901.308	4379
901.427	4371
901.546	4424
901.665	4535
901.784	4554
901.904	4451
902.023	4337
902.141	4261
902.26	4204
902.379	4379
902.498	4272
902.617	4253
902.735	4402
902.854	4424
902.973	4436
903.091	4287
903.21	4295
903.328	4310
903.446	4299
903.565	4299
903.683	4352
903.801	4333
903.919	4432
904.038	4432
904.156	4352
904.274	4497
904.392	4455
904.51	4421
904.627	4485
904.745	4615
904.863	4634
904.981	4402
905.098	4329
905.216	4413
905.334	4474
905.451	4470
905.569	4455
905.686	4592
905.803	4607
905.921	4455
906.038	4603
906.155	4519
906.272	4443
906.389	4451
906.506	4417
906.623	4474
906.74	4424
906.857	4348
906.974	4462
907.091	4584
907.208	4714
907.324	4645
907.441	4542
907.557	4356
907.674	4360
907.79	4371
907.907	4402
908.023	4481
908.139	4508
908.256	4478
908.372	4459
908.488	4485
908.604	4379
908.72	4341
908.836	4371
908.952	4383
909.068	4447
909.184	4588
909.3	4550
909.415	4630
909.531	4592
909.647	4371
909.762	4428
909.878	4371
909.993	4512
910.108	4459
910.224	4451
910.339	4550
910.454	4424
910.57	4379
910.685	4352
910.8	4664
910.915	4596
911.03	4504
911.145	4348
911.259	4363
911.374	4348
911.489	4333
911.604	4303
911.718	4192
911.833	4234
911.947	4131
912.062	4074
912.176	4223
912.291	4227
912.405	4242
912.519	4474
912.633	4500
912.748	4413
912.862	4356
912.976	4211
913.09	4093
913.204	4204
913.318	4268
913.431	4386
913.545	4356
913.659	4462
913.772	4398
913.886	4276
914	4238
914.113	4371
914.226	4455
914.34	4390
914.453	4207
914.566	4474
914.68	4337
914.793	4402
914.906	4177
915.019	4162
915.132	4074
915.245	4257
915.358	4284
915.47	4276
915.583	4314
915.696	4344
915.809	4466
915.921	4459
916.034	4272
916.146	4299
916.259	4276
916.371	4417
916.483	4398
916.595	4337
916.708	4352
916.82	4375
916.932	4325
917.044	4390
917.156	4295
917.268	4276
917.38	4333
917.491	4310
917.603	4398
917.715	4451
917.826	4462
917.938	4322
918.049	4249
918.161	4428
918.272	4580
918.384	4599
918.495	4443
918.606	4325
918.717	4322
918.828	4379
918.939	4383
919.05	4246
919.161	4341
919.272	4188
919.383	4242
919.494	4481
919.604	4672
919.715	4489
919.826	4383
919.936	4443
920.047	4527
920.157	4462
920.267	4782
920.378	4516
920.488	4516
920.598	4759
920.708	4919
920.818	4736
920.928	4763
921.038	4980
921.148	4957
921.258	4637
921.368	4596
921.477	4516
921.587	4481
921.697	4402
921.806	4588
921.916	4470
922.025	4318
922.134	4306
922.244	4219
922.353	4284
922.462	4196
922.571	4116
922.68	4013
922.789	3987
922.898	4082
923.007	4044
923.116	4116
923.224	4040
923.333	4090
923.442	4025
923.55	3972
923.659	4051
923.767	4128
923.876	4013
923.984	4200
924.092	3987
924.201	4120
924.309	4093
924.417	4166
924.525	4040
924.633	4124
924.741	5109
924.849	3968
924.956	4169
925.064	3979
925.172	3987
925.279	3983
925.387	4063
925.494	4074
925.602	4238
925.709	4166
925.816	4067
925.924	4162
926.031	4242
926.138	4185
926.245	4223
926.352	4090
926.459	4280
926.566	4333
926.673	4188
926.779	4101
926.886	4120
926.993	4048
927.099	4006
927.206	4013
927.312	3956
927.419	4086
927.525	4074
927.631	4135
927.737	3953
927.843	3975
927.95	3869
928.056	3991
928.162	4040
928.267	4055
928.373	4656
928.479	4158
928.585	3918
928.69	4071
928.796	4097
928.901	4048
929.007	3804
929.112	4032
929.218	4013
929.323	3964
929.428	3953
929.533	4090
929.638	3934
929.743	3975
929.848	4025
929.953	4017
930.058	3975
930.163	3812
930.267	3869
930.372	3987
930.477	3793
930.581	4101
930.685	3964
930.79	3819
930.894	3937
930.998	3903
931.103	4021
931.207	3717
931.311	3762
931.415	3679
931.519	3530
931.623	3557
