Data from test_V78500241_2532.txt Node
Date: Fri Mar 25 17:06:36 CST 2022
User: usil
Spectrometer: V785-0024
Trigger mode: 0
Integration Time (sec): 4.000000E-1
Scans to average: 1
Nonlinearity correction enabled: false
Boxcar width: 0
Storing dark spectrum: false
XAxis mode: Wavelengths
Number of Pixels in Spectrum: 1024
>>>>>Begin Spectral Data<<<<<
801.071	8012
801.214	8050
801.356	7913
801.499	7830
801.641	7765
801.783	7811
801.926	8001
802.068	7921
802.211	7997
802.353	7997
802.496	7887
802.638	7860
802.78	7909
802.923	8046
803.065	7978
803.208	7890
803.35	8031
803.492	8088
803.635	8157
803.777	8077
803.919	8180
804.061	8461
804.204	8199
804.346	8180
804.488	8031
804.63	8111
804.773	8008
804.915	8107
805.057	8324
805.199	8256
805.341	8221
805.483	8267
805.626	8221
805.768	8161
805.91	8233
806.052	8275
806.194	8069
806.336	8328
806.478	8103
806.62	8039
806.762	8119
806.904	8355
807.046	8495
807.188	8412
807.33	8370
807.472	8298
807.614	8168
807.756	8149
807.898	8035
808.04	7894
808.182	7913
808.324	7955
808.465	7925
808.607	8138
808.749	8153
808.891	8244
809.033	8320
809.174	8298
809.316	8103
809.458	8142
809.6	8077
809.741	8054
809.883	7989
810.025	8145
810.166	8149
810.308	8088
810.45	8084
810.591	7936
810.733	7750
810.875	7643
811.016	7552
811.158	7567
811.299	7662
811.441	7753
811.582	7738
811.724	7601
811.865	7499
812.007	7590
812.148	7700
812.29	7681
812.431	7765
812.573	7925
812.714	8012
812.855	8145
812.997	8225
813.138	8328
813.279	8229
813.421	8153
813.562	8008
813.703	7944
813.845	7833
813.986	7449
814.127	7324
814.268	7289
814.41	7213
814.551	7187
814.692	7282
814.833	7145
814.974	7164
815.115	7187
815.256	6996
815.397	6977
815.539	6977
815.68	6867
815.821	6764
815.962	6875
816.103	6852
816.244	6776
816.385	6646
816.526	6684
816.666	6555
816.807	6311
816.948	6532
817.089	6528
817.23	6460
817.371	6441
817.512	6369
817.653	6441
817.793	6372
817.934	6414
818.075	6464
818.216	6460
818.356	6460
818.497	6319
818.638	6144
818.778	6175
818.919	6144
819.06	6190
819.2	6376
819.341	6395
819.481	6380
819.622	6570
819.762	6806
819.903	6760
820.043	6684
820.184	6650
820.324	6566
820.465	6738
820.605	6741
820.746	6741
820.886	6604
821.026	6745
821.167	6757
821.307	6814
821.447	6741
821.588	6757
821.728	6627
821.868	6490
822.008	6380
822.149	6380
822.289	6407
822.429	6201
822.569	6159
822.709	6209
822.849	5988
822.99	5954
823.13	6038
823.27	5935
823.41	5844
823.55	5824
823.69	5760
823.83	5786
823.97	5726
824.11	5554
824.25	5577
824.389	5604
824.529	5646
824.669	5577
824.809	5661
824.949	5684
825.089	5634
825.228	5589
825.368	5429
825.508	5364
825.648	5410
825.787	5452
825.927	5410
826.067	5337
826.206	5311
826.346	5368
826.485	5376
826.625	5387
826.765	5551
826.904	5551
827.044	5296
827.183	5258
827.323	5140
827.462	5288
827.601	5185
827.741	5208
827.88	5223
828.02	5159
828.159	5273
828.298	5341
828.437	5368
828.577	5288
828.716	5509
828.855	5311
828.994	5212
829.134	5181
829.273	5201
829.412	5140
829.551	5216
829.69	5162
829.829	5223
829.968	5463
830.107	5318
830.246	5322
830.385	5162
830.524	5136
830.663	5098
830.802	5025
830.941	4904
831.08	4919
831.219	5006
831.357	4991
831.496	5170
831.635	5003
831.774	4862
831.913	4873
832.051	4759
832.19	4752
832.329	4854
832.467	4729
832.606	4649
832.744	4767
832.883	4736
833.022	4744
833.16	4847
833.299	4812
833.437	4805
833.576	4850
833.714	4900
833.852	4908
833.991	4904
834.129	4953
834.267	4919
834.406	4930
834.544	4976
834.682	5018
834.821	4991
834.959	5227
835.097	5014
835.235	5151
835.373	5094
835.511	5052
835.65	5033
835.788	5041
835.926	4957
836.064	4911
836.202	4953
836.34	5132
836.478	5239
836.615	5201
836.753	5258
836.891	5303
837.029	5258
837.167	5201
837.305	5212
837.443	5174
837.58	5090
837.718	5269
837.856	5181
837.993	5174
838.131	5212
838.269	5212
838.406	5246
838.544	5220
838.681	4984
838.819	5052
838.956	4904
839.094	4938
839.231	5018
839.369	5083
839.506	5444
839.643	5273
839.781	5052
839.918	5048
840.055	5136
840.193	5105
840.33	5147
840.467	5147
840.604	5174
840.742	5455
840.879	5083
841.016	5166
841.153	5166
841.29	5417
841.427	5364
841.564	5341
841.701	5379
841.838	5269
841.975	5273
842.112	5273
842.249	5159
842.385	5151
842.522	5372
842.659	5155
842.796	5189
842.933	5227
843.069	5174
843.206	5212
843.343	5284
843.479	5273
843.616	5311
843.752	5048
843.889	4999
844.025	5273
844.162	5033
844.298	5239
844.435	5090
844.571	5029
844.708	5223
844.844	5303
844.98	5307
845.117	5299
845.253	5147
845.389	5124
845.525	5220
845.661	5147
845.798	5060
845.934	5140
846.07	5041
846.206	5280
846.342	5311
846.478	5185
846.614	5022
846.75	5003
846.886	4980
847.022	5159
847.158	5048
847.294	5143
847.429	5124
847.565	5022
847.701	5315
847.837	4828
847.972	4839
848.108	4915
848.244	4972
848.379	4797
848.515	4767
848.65	4744
848.786	4702
848.921	4767
849.057	4942
849.192	4900
849.328	4816
849.463	4870
849.598	4881
849.734	4809
849.869	4771
850.004	4717
850.14	4687
850.275	4660
850.41	4535
850.545	4626
850.68	4653
850.815	4660
850.95	4717
851.085	4812
851.22	4740
851.355	4706
851.49	4645
851.625	4649
851.76	4694
851.895	4584
852.03	4558
852.165	4691
852.299	4675
852.434	4809
852.569	4744
852.703	4793
852.838	4877
852.973	4930
853.107	4923
853.242	4774
853.376	4687
853.511	4626
853.645	4637
853.78	4839
853.914	4740
854.048	4672
854.183	4702
854.317	4694
854.451	4881
854.585	4691
854.72	4664
854.854	4736
854.988	4603
855.122	4626
855.256	4542
855.39	4694
855.524	4790
855.658	4771
855.792	4752
855.926	4733
856.06	4752
856.194	4812
856.327	4721
856.461	4668
856.595	4664
856.729	4698
856.862	4782
856.996	4694
857.13	4774
857.263	4793
857.397	4873
857.53	4706
857.664	4721
857.797	4877
857.931	4831
858.064	4736
858.197	4774
858.331	4653
858.464	4607
858.597	4550
858.731	4607
858.864	4649
858.997	4675
859.13	4691
859.263	4672
859.396	4736
859.529	4573
859.662	4535
859.795	4554
859.928	4645
860.061	4755
860.194	4763
860.327	4660
860.46	4618
860.592	4759
860.725	4767
860.858	4729
860.99	4599
861.123	4531
861.256	4527
861.388	4615
861.521	5189
861.653	4466
861.786	4462
861.918	4519
862.05	4504
862.183	4599
862.315	4596
862.447	4679
862.58	4569
862.712	4390
862.844	4287
862.976	4485
863.108	4478
863.24	4782
863.372	4348
863.504	4402
863.636	4383
863.768	4538
863.9	4451
864.032	4428
864.164	4390
864.296	4459
864.428	4546
864.559	4580
864.691	4569
864.823	4535
864.954	4489
865.086	4504
865.217	4535
865.349	4436
865.48	4451
865.612	4478
865.743	4660
865.875	4489
866.006	4459
866.137	4485
866.269	4466
866.4	4451
866.531	4394
866.662	4371
866.793	4432
866.924	4417
867.055	4512
867.186	4478
867.317	4421
867.448	4402
867.579	4398
867.71	4443
867.841	4443
867.972	4504
868.103	4451
868.233	4459
868.364	4512
868.495	4558
868.625	4668
868.756	4755
868.886	4599
869.017	4588
869.147	4778
869.278	4778
869.408	4641
869.539	4637
869.669	4744
869.799	4653
869.929	4786
870.06	4744
870.19	5071
870.32	4942
870.45	4980
870.58	5010
870.71	5128
870.84	5155
870.97	4976
871.1	4915
871.23	5159
871.36	5166
871.489	5048
871.619	5079
871.749	5102
871.879	5162
872.008	5197
872.138	5067
872.267	4957
872.397	4892
872.526	4790
872.656	4759
872.785	4782
872.915	4957
873.044	5010
873.173	4949
873.303	4968
873.432	4942
873.561	4968
873.69	4870
873.819	4900
873.948	4862
874.077	4824
874.206	4767
874.335	4801
874.464	4923
874.593	5075
874.722	4965
874.851	5136
874.979	5098
875.108	5033
875.237	4934
875.365	4866
875.494	4908
875.623	4972
875.751	4870
875.88	4839
876.008	4984
876.136	5048
876.265	5185
876.393	5345
876.521	5296
876.65	5185
876.778	5231
876.906	5056
877.034	4987
877.162	5064
877.29	5056
877.418	5045
877.546	5056
877.674	5052
877.802	5060
877.93	5025
878.058	4934
878.185	4892
878.313	4980
878.441	4972
878.568	4790
878.696	4911
878.824	5003
878.951	5033
879.079	5102
879.206	5284
879.333	5075
879.461	4965
879.588	4995
879.715	5086
879.842	5208
879.97	4995
880.097	4809
880.224	4759
880.351	4809
880.478	4847
880.605	4801
880.732	4839
880.859	5075
880.986	4850
881.112	4923
881.239	4763
881.366	4664
881.493	4634
881.619	4569
881.746	4637
881.872	4607
881.999	4675
882.125	4702
882.252	4805
882.378	4835
882.505	4953
882.631	4812
882.757	4668
882.883	4740
883.01	4733
883.136	4664
883.262	4611
883.388	4603
883.514	4850
883.64	4870
883.766	4793
883.892	4698
884.018	4717
884.143	4881
884.269	5025
884.395	4683
884.52	4611
884.646	4664
884.772	4565
884.897	4588
885.023	4687
885.148	4805
885.274	4862
885.399	4858
885.524	4736
885.65	4691
885.775	4744
885.9	4740
886.025	4908
886.15	4767
886.275	4717
886.4	4653
886.525	4729
886.65	4736
886.775	4649
886.9	4908
887.025	5045
887.149	4797
887.274	4668
887.399	4554
887.523	4596
887.648	4554
887.773	4577
887.897	4801
888.021	4759
888.146	4698
888.27	4786
888.395	4927
888.519	4793
888.643	4839
888.767	4862
888.891	4683
889.015	4615
889.139	4641
889.263	4645
889.387	4809
889.511	4858
889.635	4812
889.759	4649
889.883	4653
890.006	4706
890.13	4824
890.254	4618
890.377	4675
890.501	4550
890.624	4508
890.748	4615
890.871	4493
890.995	4428
891.118	4409
891.241	4519
891.364	4546
891.488	4592
891.611	4481
891.734	4580
891.857	4603
891.98	4577
892.103	4607
892.226	4580
892.349	4535
892.471	4428
892.594	4550
892.717	4588
892.839	4569
892.962	4603
893.085	4668
893.207	4618
893.33	4455
893.452	4516
893.575	4679
893.697	4592
893.819	4771
893.941	4820
894.064	4805
894.186	4558
894.308	4554
894.43	4733
894.552	4831
894.674	4691
894.796	4622
894.918	4573
895.04	4558
895.161	4683
895.283	4691
895.405	4565
895.526	4664
895.648	4698
895.769	4714
895.891	4702
896.012	4691
896.134	4717
896.255	4672
896.376	4641
896.498	4607
896.619	4691
896.74	4630
896.861	4626
896.982	4877
897.103	5090
897.224	4839
897.345	4774
897.466	4706
897.587	4729
897.708	4850
897.828	4790
897.949	4694
898.07	4558
898.19	4653
898.311	4816
898.431	4679
898.552	4755
898.672	4839
898.792	4771
898.913	4721
899.033	4679
899.153	4542
899.273	4436
899.393	4470
899.513	4546
899.633	4550
899.753	4538
899.873	4512
899.993	4622
900.113	4519
900.232	4577
900.352	4516
900.472	4470
900.591	4398
900.711	4481
900.83	4459
900.95	4535
901.069	4733
901.189	4546
901.308	4409
901.427	4280
901.546	4405
901.665	4474
901.784	4466
901.904	4383
902.023	4318
902.141	4207
902.26	4207
902.379	4337
902.498	4253
902.617	4188
902.735	4348
902.854	4409
902.973	4344
903.091	4219
903.21	4246
903.328	4337
903.446	4257
903.565	4238
903.683	4348
903.801	4344
903.919	4375
904.038	4432
904.156	4352
904.274	4443
904.392	4394
904.51	4421
904.627	4432
904.745	4569
904.863	4622
904.981	4356
905.098	4291
905.216	4356
905.334	4386
905.451	4421
905.569	4459
905.686	4538
905.803	4592
905.921	4371
906.038	4542
906.155	4485
906.272	4402
906.389	4447
906.506	4344
906.623	4379
906.74	4390
906.857	4344
906.974	4424
907.091	4546
907.208	4721
907.324	4622
907.441	4474
907.557	4363
907.674	4341
907.79	4291
907.907	4348
908.023	4474
908.139	4436
908.256	4428
908.372	4440
908.488	4428
908.604	4341
908.72	4329
908.836	4352
908.952	4318
909.068	4462
909.184	4592
909.3	4481
909.415	4599
909.531	4500
909.647	4299
909.762	4371
909.878	4333
909.993	4455
910.108	4428
910.224	4390
910.339	4443
910.454	4379
910.57	4356
910.685	4299
910.8	4660
910.915	4584
911.03	4493
911.145	4295
911.259	4318
911.374	4375
911.489	4295
911.604	4261
911.718	4158
911.833	4181
911.947	4097
912.062	4055
912.176	4204
912.291	4230
912.405	4238
912.519	4489
912.633	4535
912.748	4413
912.862	4284
912.976	4169
913.09	4086
913.204	4207
913.318	4223
913.431	4356
913.545	4394
913.659	4485
913.772	4390
913.886	4246
914	4268
914.113	4436
914.226	4402
914.34	4417
914.453	4211
914.566	4455
914.68	4341
914.793	4329
914.906	4135
915.019	4101
915.132	4055
915.245	4177
915.358	4219
915.47	4158
915.583	4230
915.696	4356
915.809	4367
915.921	4428
916.034	4299
916.146	4223
916.259	4204
916.371	4379
916.483	4356
916.595	4276
916.708	4318
916.82	4333
916.932	4325
917.044	4337
917.156	4325
917.268	4299
917.38	4265
917.491	4276
917.603	4363
917.715	4436
917.826	4413
917.938	4318
918.049	4215
918.161	4421
918.272	4531
918.384	4569
918.495	4405
918.606	4295
918.717	4238
918.828	4318
918.939	4310
919.05	4215
919.161	4329
919.272	4188
919.383	4265
919.494	4440
919.604	4618
919.715	4451
919.826	4280
919.936	4375
920.047	4512
920.157	4508
920.267	4698
920.378	4512
920.488	4466
920.598	4710
920.708	4870
920.818	4752
920.928	4805
921.038	4934
921.148	4934
921.258	4584
921.368	4531
921.477	4489
921.587	4485
921.697	4394
921.806	4577
921.916	4455
922.025	4276
922.134	4249
922.244	4219
922.353	4367
922.462	4200
922.571	4143
922.68	3975
922.789	3979
922.898	4017
923.007	3994
923.116	4120
923.224	4109
923.333	4036
923.442	3983
923.55	3987
923.659	3987
923.767	4082
923.876	4036
923.984	4105
924.092	4002
924.201	4082
924.309	4101
924.417	4112
924.525	4044
924.633	4139
924.741	5056
924.849	3899
924.956	4147
925.064	3960
925.172	3888
925.279	3972
925.387	4074
925.494	4048
925.602	4185
925.709	4169
925.816	4051
925.924	4154
926.031	4192
926.138	4158
926.245	4204
926.352	4109
926.459	4249
926.566	4318
926.673	4158
926.779	4109
926.886	4082
926.993	3987
927.099	3884
927.206	3949
927.312	3968
927.419	4071
927.525	4055
927.631	4109
927.737	3994
927.843	3903
927.95	3838
928.056	3949
928.162	3987
928.267	4078
928.373	4588
928.479	4105
928.585	3865
928.69	4059
928.796	4021
928.901	3968
929.007	3838
929.112	3983
929.218	3972
929.323	3926
929.428	3926
929.533	4131
929.638	3880
929.743	3903
929.848	4010
929.953	4006
930.058	3941
930.163	3793
930.267	3838
930.372	3960
930.477	3797
930.581	4082
930.685	3953
930.79	3819
930.894	3835
930.998	3857
931.103	4067
931.207	3682
931.311	3701
931.415	3679
931.519	3549
931.623	3576
