Data from test_V78500241_1026.txt Node
Date: Fri Mar 25 16:56:08 CST 2022
User: usil
Spectrometer: V785-0024
Trigger mode: 0
Integration Time (sec): 4.000000E-1
Scans to average: 1
Nonlinearity correction enabled: false
Boxcar width: 0
Storing dark spectrum: false
XAxis mode: Wavelengths
Number of Pixels in Spectrum: 1024
>>>>>Begin Spectral Data<<<<<
801.071	8077
801.214	8062
801.356	7887
801.499	7799
801.641	7807
801.783	7769
801.926	7936
802.068	7875
802.211	7909
802.353	7925
802.496	7788
802.638	7928
802.78	7936
802.923	7963
803.065	7894
803.208	7826
803.35	7967
803.492	8024
803.635	8164
803.777	7932
803.919	8092
804.061	8412
804.204	8084
804.346	7986
804.488	7913
804.63	8073
804.773	7932
804.915	8142
805.057	8298
805.199	8107
805.341	8206
805.483	8286
805.626	8149
805.768	8096
805.91	8187
806.052	8168
806.194	8164
806.336	8229
806.478	8168
806.62	8092
806.762	8050
806.904	8271
807.046	8415
807.188	8343
807.33	8256
807.472	8317
807.614	8168
807.756	8096
807.898	7974
808.04	7947
808.182	7883
808.324	7822
808.465	7852
808.607	7982
808.749	8096
808.891	8157
809.033	8263
809.174	8183
809.316	7982
809.458	8046
809.6	7909
809.741	8073
809.883	7978
810.025	8050
810.166	7928
810.308	8020
810.45	8001
810.591	7883
810.733	7681
810.875	7689
811.016	7438
811.158	7506
811.299	7571
811.441	7575
811.582	7677
811.724	7567
811.865	7544
812.007	7540
812.148	7586
812.29	7655
812.431	7681
812.573	7841
812.714	7928
812.855	8130
812.997	8149
813.138	8263
813.279	8134
813.421	8145
813.562	8020
813.703	7830
813.845	7753
813.986	7362
814.127	7236
814.268	7213
814.41	7171
814.551	7069
814.692	7126
814.833	7027
814.974	7114
815.115	7053
815.256	6962
815.397	6890
815.539	6951
815.68	6856
815.821	6722
815.962	6905
816.103	6844
816.244	6627
816.385	6639
816.526	6570
816.666	6433
816.807	6228
816.948	6445
817.089	6456
817.23	6410
817.371	6365
817.512	6384
817.653	6429
817.793	6342
817.934	6369
818.075	6433
818.216	6384
818.356	6395
818.497	6273
818.638	6098
818.778	6129
818.919	6083
819.06	6129
819.2	6338
819.341	6254
819.481	6346
819.622	6513
819.762	6692
819.903	6684
820.043	6604
820.184	6513
820.324	6536
820.465	6703
820.605	6677
820.746	6639
820.886	6490
821.026	6646
821.167	6711
821.307	6734
821.447	6719
821.588	6658
821.728	6532
821.868	6513
822.008	6258
822.149	6388
822.289	6357
822.429	6144
822.569	6053
822.709	6064
822.849	5927
822.99	5973
823.13	5954
823.27	5901
823.41	5760
823.55	5767
823.69	5771
823.83	5817
823.97	5672
824.11	5596
824.25	5509
824.389	5509
824.529	5611
824.669	5562
824.809	5604
824.949	5691
825.089	5581
825.228	5554
825.368	5379
825.508	5372
825.648	5406
825.787	5410
825.927	5410
826.067	5353
826.206	5345
826.346	5414
826.485	5452
826.625	5425
826.765	5532
826.904	5471
827.044	5307
827.183	5212
827.323	5162
827.462	5296
827.601	5178
827.741	5284
827.88	5254
828.02	5136
828.159	5231
828.298	5292
828.437	5349
828.577	5280
828.716	5535
828.855	5383
828.994	5231
829.134	5227
829.273	5216
829.412	5128
829.551	5151
829.69	5174
829.829	5269
829.968	5406
830.107	5296
830.246	5357
830.385	5269
830.524	5185
830.663	5105
830.802	5033
830.941	4942
831.08	4904
831.219	4995
831.357	5014
831.496	5193
831.635	4972
831.774	4870
831.913	4862
832.051	4771
832.19	4805
832.329	4892
832.467	4729
832.606	4672
832.744	4733
832.883	4786
833.022	4702
833.16	4824
833.299	4877
833.437	4862
833.576	4831
833.714	4885
833.852	4885
833.991	4892
834.129	5003
834.267	5014
834.406	4968
834.544	5014
834.682	5060
834.821	4965
834.959	5181
835.097	5037
835.235	5136
835.373	5067
835.511	5136
835.65	5075
835.788	5067
835.926	4923
836.064	4908
836.202	4976
836.34	5193
836.478	5239
836.615	5151
836.753	5227
836.891	5368
837.029	5288
837.167	5178
837.305	5185
837.443	5189
837.58	5079
837.718	5269
837.856	5201
837.993	5136
838.131	5303
838.269	5288
838.406	5204
838.544	5193
838.681	5071
838.819	5090
838.956	4885
839.094	4900
839.231	4976
839.369	5147
839.506	5528
839.643	5280
839.781	5109
839.918	5029
840.055	5162
840.193	5098
840.33	5117
840.467	5151
840.604	5220
840.742	5425
840.879	5143
841.016	5067
841.153	5185
841.29	5402
841.427	5326
841.564	5330
841.701	5387
841.838	5315
841.975	5242
842.112	5288
842.249	5151
842.385	5132
842.522	5395
842.659	5162
842.796	5185
842.933	5258
843.069	5204
843.206	5174
843.343	5318
843.479	5250
843.616	5318
843.752	5018
843.889	5071
844.025	5227
844.162	5029
844.298	5212
844.435	5124
844.571	5018
844.708	5220
844.844	5341
844.98	5337
845.117	5307
845.253	5166
845.389	5105
845.525	5117
845.661	5197
845.798	5029
845.934	5140
846.07	5094
846.206	5204
846.342	5284
846.478	5166
846.614	5045
846.75	4980
846.886	4930
847.022	5174
847.158	4995
847.294	5071
847.429	5147
847.565	5098
847.701	5296
847.837	4896
847.972	4816
848.108	4991
848.244	5006
848.379	4778
848.515	4774
848.65	4744
848.786	4729
848.921	4812
849.057	4847
849.192	4908
849.328	4782
849.463	4828
849.598	4824
849.734	4839
849.869	4729
850.004	4656
850.14	4687
850.275	4618
850.41	4599
850.545	4599
850.68	4615
850.815	4672
850.95	4592
851.085	4854
851.22	4725
851.355	4672
851.49	4588
851.625	4653
851.76	4668
851.895	4546
852.03	4596
852.165	4664
852.299	4752
852.434	4763
852.569	4759
852.703	4744
852.838	4786
852.973	4961
853.107	4930
853.242	4774
853.376	4653
853.511	4584
853.645	4664
853.78	4797
853.914	4729
854.048	4714
854.183	4645
854.317	4710
854.451	4839
854.585	4664
854.72	4687
854.854	4752
854.988	4645
855.122	4691
855.256	4558
855.39	4694
855.524	4763
855.658	4694
855.792	4717
855.926	4729
856.06	4801
856.194	4793
856.327	4717
856.461	4603
856.595	4588
856.729	4584
856.862	4744
856.996	4675
857.13	4759
857.263	4782
857.397	4801
857.53	4634
857.664	4793
857.797	4778
857.931	4812
858.064	4725
858.197	4763
858.331	4660
858.464	4687
858.597	4554
858.731	4637
858.864	4668
858.997	4584
859.13	4679
859.263	4748
859.396	4717
859.529	4664
859.662	4573
859.795	4626
859.928	4603
860.061	4771
860.194	4774
860.327	4588
860.46	4592
860.592	4664
860.725	4771
860.858	4744
860.99	4584
861.123	4546
861.256	4546
861.388	4599
861.521	5311
861.653	4500
861.786	4440
861.918	4481
862.05	4519
862.183	4569
862.315	4603
862.447	4683
862.58	4561
862.712	4413
862.844	4367
862.976	4516
863.108	4474
863.24	4900
863.372	4318
863.504	4432
863.636	4428
863.768	4459
863.9	4409
864.032	4409
864.164	4447
864.296	4497
864.428	4519
864.559	4603
864.691	4535
864.823	4538
864.954	4485
865.086	4558
865.217	4512
865.349	4424
865.48	4478
865.612	4519
865.743	4656
865.875	4493
866.006	4424
866.137	4512
866.269	4478
866.4	4466
866.531	4485
866.662	4402
866.793	4451
866.924	4466
867.055	4527
867.186	4478
867.317	4428
867.448	4363
867.579	4409
867.71	4398
867.841	4432
867.972	4493
868.103	4474
868.233	4481
868.364	4470
868.495	4523
868.625	4740
868.756	4729
868.886	4565
869.017	4630
869.147	4763
869.278	4752
869.408	4706
869.539	4675
869.669	4755
869.799	4683
869.929	4710
870.06	4725
870.19	4961
870.32	4904
870.45	4915
870.58	5003
870.71	5098
870.84	5098
870.97	4953
871.1	4911
871.23	5170
871.36	5128
871.489	5033
871.619	5109
871.749	5060
871.879	5121
872.008	5159
872.138	5117
872.267	5033
872.397	4858
872.526	4812
872.656	4740
872.785	4843
872.915	4991
873.044	5037
873.173	4953
873.303	4934
873.432	4980
873.561	4999
873.69	4896
873.819	4934
873.948	4896
874.077	4873
874.206	4812
874.335	4809
874.464	4919
874.593	5090
874.722	4961
874.851	5136
874.979	5067
875.108	5067
875.237	4911
875.365	4881
875.494	4900
875.623	4953
875.751	4858
875.88	4889
876.008	4987
876.136	5033
876.265	5208
876.393	5322
876.521	5239
876.65	5254
876.778	5170
876.906	5098
877.034	5003
877.162	5045
877.29	5010
877.418	5075
877.546	5037
877.674	5045
877.802	5041
877.93	5075
878.058	4938
878.185	4831
878.313	5003
878.441	4991
878.568	4763
878.696	4866
878.824	4984
878.951	5029
879.079	5181
879.206	5322
879.333	5162
879.461	5022
879.588	4999
879.715	5155
879.842	5216
879.97	5014
880.097	4839
880.224	4778
880.351	4809
880.478	4805
880.605	4805
880.732	4763
880.859	5102
880.986	4881
881.112	4957
881.239	4793
881.366	4706
881.493	4592
881.619	4603
881.746	4584
881.872	4618
881.999	4679
882.125	4679
882.252	4816
882.378	4843
882.505	4995
882.631	4850
882.757	4637
882.883	4706
883.01	4740
883.136	4694
883.262	4603
883.388	4615
883.514	4767
883.64	4877
883.766	4820
883.892	4710
884.018	4698
884.143	4881
884.269	5048
884.395	4656
884.52	4622
884.646	4630
884.772	4577
884.897	4523
885.023	4672
885.148	4793
885.274	4812
885.399	4824
885.524	4702
885.65	4691
885.775	4706
885.9	4736
886.025	4870
886.15	4778
886.275	4714
886.4	4710
886.525	4721
886.65	4691
886.775	4626
886.9	4934
887.025	5029
887.149	4858
887.274	4672
887.399	4611
887.523	4588
887.648	4592
887.773	4592
887.897	4786
888.021	4771
888.146	4683
888.27	4782
888.395	4927
888.519	4805
888.643	4793
888.767	4854
888.891	4710
889.015	4630
889.139	4660
889.263	4618
889.387	4752
889.511	4870
889.635	4793
889.759	4653
889.883	4683
890.006	4694
890.13	4835
890.254	4577
890.377	4717
890.501	4538
890.624	4512
890.748	4672
890.871	4489
890.995	4417
891.118	4398
891.241	4573
891.364	4527
891.488	4592
891.611	4508
891.734	4489
891.857	4580
891.98	4599
892.103	4634
892.226	4592
892.349	4504
892.471	4443
892.594	4535
892.717	4634
892.839	4527
892.962	4558
893.085	4694
893.207	4615
893.33	4485
893.452	4512
893.575	4691
893.697	4569
893.819	4805
893.941	4862
894.064	4805
894.186	4580
894.308	4615
894.43	4752
894.552	4835
894.674	4786
894.796	4527
894.918	4584
895.04	4561
895.161	4668
895.283	4634
895.405	4618
895.526	4584
895.648	4664
895.769	4660
895.891	4733
896.012	4748
896.134	4698
896.255	4702
896.376	4603
896.498	4622
896.619	4653
896.74	4603
896.861	4641
896.982	4915
897.103	5071
897.224	4831
897.345	4740
897.466	4634
897.587	4740
897.708	4839
897.828	4782
897.949	4630
898.07	4561
898.19	4637
898.311	4771
898.431	4702
898.552	4782
898.672	4828
898.792	4824
898.913	4702
899.033	4664
899.153	4519
899.273	4432
899.393	4516
899.513	4531
899.633	4493
899.753	4489
899.873	4466
899.993	4569
900.113	4531
900.232	4622
900.352	4565
900.472	4455
900.591	4394
900.711	4504
900.83	4466
900.95	4599
901.069	4706
901.189	4493
901.308	4352
901.427	4337
901.546	4383
901.665	4432
901.784	4550
901.904	4363
902.023	4341
902.141	4227
902.26	4154
902.379	4310
902.498	4257
902.617	4215
902.735	4398
902.854	4409
902.973	4379
903.091	4185
903.21	4284
903.328	4325
903.446	4291
903.565	4249
903.683	4390
903.801	4280
903.919	4417
904.038	4409
904.156	4303
904.274	4462
904.392	4428
904.51	4493
904.627	4383
904.745	4588
904.863	4630
904.981	4451
905.098	4371
905.216	4386
905.334	4390
905.451	4455
905.569	4424
905.686	4584
905.803	4584
905.921	4424
906.038	4550
906.155	4485
906.272	4394
906.389	4470
906.506	4394
906.623	4371
906.74	4386
906.857	4318
906.974	4386
907.091	4561
907.208	4668
907.324	4577
907.441	4516
907.557	4367
907.674	4367
907.79	4310
907.907	4436
908.023	4485
908.139	4485
908.256	4409
908.372	4470
908.488	4504
908.604	4337
908.72	4299
908.836	4409
908.952	4344
909.068	4436
909.184	4565
909.3	4504
909.415	4569
909.531	4519
909.647	4405
909.762	4363
909.878	4325
909.993	4455
910.108	4428
910.224	4428
910.339	4481
910.454	4386
910.57	4352
910.685	4295
910.8	4641
910.915	4584
911.03	4474
911.145	4329
911.259	4318
911.374	4402
911.489	4268
911.604	4272
911.718	4150
911.833	4204
911.947	4105
912.062	3998
912.176	4200
912.291	4200
912.405	4272
912.519	4451
912.633	4470
912.748	4375
912.862	4280
912.976	4219
913.09	4067
913.204	4166
913.318	4227
913.431	4371
913.545	4375
913.659	4432
913.772	4417
913.886	4249
914	4211
914.113	4390
914.226	4424
914.34	4367
914.453	4230
914.566	4432
914.68	4337
914.793	4295
914.906	4120
915.019	4139
915.132	4101
915.245	4211
915.358	4150
915.47	4219
915.583	4306
915.696	4310
915.809	4421
915.921	4436
916.034	4246
916.146	4257
916.259	4242
916.371	4421
916.483	4409
916.595	4227
916.708	4348
916.82	4303
916.932	4333
917.044	4325
917.156	4310
917.268	4272
917.38	4287
917.491	4253
917.603	4333
917.715	4394
917.826	4409
917.938	4329
918.049	4246
918.161	4394
918.272	4577
918.384	4535
918.495	4409
918.606	4272
918.717	4219
918.828	4352
918.939	4424
919.05	4295
919.161	4303
919.272	4188
919.383	4230
919.494	4447
919.604	4611
919.715	4363
919.826	4363
919.936	4375
920.047	4550
920.157	4504
920.267	4729
920.378	4554
920.488	4508
920.598	4687
920.708	4873
920.818	4748
920.928	4729
921.038	4934
921.148	4896
921.258	4626
921.368	4558
921.477	4474
921.587	4466
921.697	4333
921.806	4565
921.916	4462
922.025	4310
922.134	4207
922.244	4200
922.353	4314
922.462	4166
922.571	4120
922.68	3968
922.789	3956
922.898	4032
923.007	4013
923.116	4097
923.224	4032
923.333	4128
923.442	3991
923.55	3953
923.659	4032
923.767	4112
923.876	4021
923.984	4150
924.092	3934
924.201	4051
924.309	4090
924.417	4120
924.525	4044
924.633	4097
924.741	5018
924.849	3934
924.956	4093
925.064	3953
925.172	3903
925.279	3941
925.387	4032
925.494	4055
925.602	4192
925.709	4169
925.816	4040
925.924	4131
926.031	4211
926.138	4192
926.245	4211
926.352	4090
926.459	4227
926.566	4284
926.673	4158
926.779	4078
926.886	4051
926.993	3960
927.099	3979
927.206	3941
927.312	3949
927.419	4074
927.525	4044
927.631	4074
927.737	3983
927.843	3983
927.95	3816
928.056	3949
928.162	4010
928.267	4032
928.373	4694
928.479	4162
928.585	3922
928.69	4017
928.796	4082
928.901	3972
929.007	3873
929.112	3998
929.218	3987
929.323	3953
929.428	3968
929.533	4093
929.638	3907
929.743	3956
929.848	3998
929.953	3949
930.058	3907
930.163	3762
930.267	3812
930.372	3934
930.477	3816
930.581	4082
930.685	3899
930.79	3816
930.894	3892
930.998	3850
931.103	4040
931.207	3713
931.311	3720
931.415	3686
931.519	3504
931.623	3545
