Data from test_V78500241_2437.txt Node
Date: Fri Mar 25 17:05:56 CST 2022
User: usil
Spectrometer: V785-0024
Trigger mode: 0
Integration Time (sec): 4.000000E-1
Scans to average: 1
Nonlinearity correction enabled: false
Boxcar width: 0
Storing dark spectrum: false
XAxis mode: Wavelengths
Number of Pixels in Spectrum: 1024
>>>>>Begin Spectral Data<<<<<
801.071	8077
801.214	7951
801.356	7792
801.499	7807
801.641	7753
801.783	7811
801.926	7932
802.068	7913
802.211	7955
802.353	7925
802.496	7875
802.638	7879
802.78	7871
802.923	7887
803.065	7818
803.208	7845
803.35	7883
803.492	8126
803.635	8252
803.777	8012
803.919	8134
804.061	8408
804.204	8180
804.346	8054
804.488	7887
804.63	8069
804.773	7967
804.915	8103
805.057	8286
805.199	8176
805.341	8233
805.483	8206
805.626	8248
805.768	8176
805.91	8202
806.052	8214
806.194	8058
806.336	8309
806.478	8172
806.62	8073
806.762	8145
806.904	8248
807.046	8469
807.188	8317
807.33	8320
807.472	8294
807.614	8168
807.756	8107
807.898	8020
808.04	7894
808.182	7932
808.324	7932
808.465	7883
808.607	8115
808.749	8092
808.891	8286
809.033	8290
809.174	8263
809.316	8035
809.458	8046
809.6	8020
809.741	8020
809.883	7944
810.025	8111
810.166	8024
810.308	8073
810.45	8050
810.591	7925
810.733	7753
810.875	7696
811.016	7460
811.158	7521
811.299	7582
811.441	7723
811.582	7700
811.724	7548
811.865	7521
812.007	7624
812.148	7632
812.29	7681
812.431	7776
812.573	7883
812.714	7875
812.855	8176
812.997	8210
813.138	8259
813.279	8206
813.421	8103
813.562	8008
813.703	7814
813.845	7719
813.986	7426
814.127	7240
814.268	7225
814.41	7187
814.551	7194
814.692	7217
814.833	7114
814.974	7046
815.115	7084
815.256	6943
815.397	6916
815.539	6913
815.68	6814
815.821	6829
815.962	6909
816.103	6875
816.244	6772
816.385	6620
816.526	6585
816.666	6513
816.807	6327
816.948	6361
817.089	6448
817.23	6429
817.371	6418
817.512	6407
817.653	6346
817.793	6331
817.934	6422
818.075	6426
818.216	6422
818.356	6448
818.497	6243
818.638	6159
818.778	6190
818.919	6148
819.06	6148
819.2	6384
819.341	6323
819.481	6372
819.622	6528
819.762	6700
819.903	6692
820.043	6608
820.184	6662
820.324	6574
820.465	6669
820.605	6662
820.746	6692
820.886	6494
821.026	6688
821.167	6688
821.307	6810
821.447	6768
821.588	6700
821.728	6551
821.868	6502
822.008	6331
822.149	6410
822.289	6388
822.429	6197
822.569	6117
822.709	6114
822.849	5923
822.99	5931
823.13	5950
823.27	5984
823.41	5790
823.55	5775
823.69	5722
823.83	5775
823.97	5630
824.11	5486
824.25	5528
824.389	5562
824.529	5627
824.669	5535
824.809	5619
824.949	5619
825.089	5649
825.228	5535
825.368	5360
825.508	5360
825.648	5311
825.787	5353
825.927	5379
826.067	5341
826.206	5292
826.346	5353
826.485	5383
826.625	5406
826.765	5600
826.904	5448
827.044	5269
827.183	5193
827.323	5140
827.462	5197
827.601	5162
827.741	5197
827.88	5216
828.02	5124
828.159	5204
828.298	5269
828.437	5341
828.577	5261
828.716	5501
828.855	5349
828.994	5143
829.134	5159
829.273	5151
829.412	5174
829.551	5117
829.69	5162
829.829	5261
829.968	5345
830.107	5246
830.246	5288
830.385	5212
830.524	5155
830.663	5079
830.802	4995
830.941	4812
831.08	4866
831.219	4995
831.357	4972
831.496	5117
831.635	4885
831.774	4870
831.913	4801
832.051	4774
832.19	4729
832.329	4866
832.467	4702
832.606	4679
832.744	4698
832.883	4752
833.022	4771
833.16	4793
833.299	4782
833.437	4801
833.576	4850
833.714	4820
833.852	4831
833.991	4904
834.129	4919
834.267	4923
834.406	4927
834.544	5029
834.682	5048
834.821	4923
834.959	5143
835.097	4980
835.235	5140
835.373	5083
835.511	5117
835.65	5075
835.788	5075
835.926	4828
836.064	4900
836.202	4927
836.34	5147
836.478	5170
836.615	5113
836.753	5197
836.891	5273
837.029	5181
837.167	5174
837.305	5170
837.443	5109
837.58	5064
837.718	5242
837.856	5258
837.993	5121
838.131	5235
838.269	5239
838.406	5250
838.544	5174
838.681	5041
838.819	4904
838.956	4900
839.094	4904
839.231	4987
839.369	5071
839.506	5444
839.643	5284
839.781	5109
839.918	5041
840.055	5140
840.193	5136
840.33	5113
840.467	5121
840.604	5216
840.742	5395
840.879	5105
841.016	5143
841.153	5147
841.29	5311
841.427	5322
841.564	5364
841.701	5330
841.838	5246
841.975	5212
842.112	5284
842.249	5102
842.385	5117
842.522	5288
842.659	5204
842.796	5197
842.933	5155
843.069	5098
843.206	5147
843.343	5261
843.479	5315
843.616	5296
843.752	5071
843.889	5014
844.025	5227
844.162	5025
844.298	5159
844.435	5071
844.571	5109
844.708	5208
844.844	5334
844.98	5334
845.117	5284
845.253	5128
845.389	5048
845.525	5189
845.661	5166
845.798	5014
845.934	5151
846.07	5056
846.206	5204
846.342	5261
846.478	5166
846.614	4991
846.75	4968
846.886	4927
847.022	5121
847.158	5041
847.294	5052
847.429	5140
847.565	5094
847.701	5292
847.837	4854
847.972	4820
848.108	4938
848.244	4972
848.379	4774
848.515	4736
848.65	4714
848.786	4744
848.921	4740
849.057	4858
849.192	4858
849.328	4835
849.463	4805
849.598	4786
849.734	4740
849.869	4714
850.004	4668
850.14	4664
850.275	4626
850.41	4519
850.545	4542
850.68	4588
850.815	4588
850.95	4675
851.085	4870
851.22	4725
851.355	4702
851.49	4653
851.625	4599
851.76	4603
851.895	4554
852.03	4523
852.165	4660
852.299	4717
852.434	4778
852.569	4725
852.703	4782
852.838	4820
852.973	4930
853.107	4938
853.242	4740
853.376	4645
853.511	4546
853.645	4641
853.78	4767
853.914	4710
854.048	4702
854.183	4630
854.317	4698
854.451	4858
854.585	4694
854.72	4607
854.854	4771
854.988	4618
855.122	4603
855.256	4489
855.39	4672
855.524	4782
855.658	4710
855.792	4698
855.926	4710
856.06	4763
856.194	4790
856.327	4691
856.461	4607
856.595	4588
856.729	4584
856.862	4839
856.996	4744
857.13	4706
857.263	4774
857.397	4763
857.53	4660
857.664	4702
857.797	4771
857.931	4774
858.064	4691
858.197	4748
858.331	4637
858.464	4592
858.597	4565
858.731	4615
858.864	4634
858.997	4603
859.13	4710
859.263	4664
859.396	4687
859.529	4584
859.662	4588
859.795	4561
859.928	4611
860.061	4812
860.194	4793
860.327	4630
860.46	4580
860.592	4698
860.725	4710
860.858	4672
860.99	4584
861.123	4573
861.256	4519
861.388	4618
861.521	5277
861.653	4470
861.786	4413
861.918	4470
862.05	4512
862.183	4569
862.315	4569
862.447	4653
862.58	4535
862.712	4432
862.844	4329
862.976	4481
863.108	4459
863.24	4771
863.372	4386
863.504	4432
863.636	4405
863.768	4470
863.9	4424
864.032	4417
864.164	4413
864.296	4497
864.428	4519
864.559	4611
864.691	4519
864.823	4558
864.954	4508
865.086	4489
865.217	4432
865.349	4451
865.48	4451
865.612	4459
865.743	4622
865.875	4459
866.006	4405
866.137	4481
866.269	4489
866.4	4421
866.531	4424
866.662	4409
866.793	4413
866.924	4417
867.055	4489
867.186	4478
867.317	4409
867.448	4344
867.579	4363
867.71	4386
867.841	4356
867.972	4432
868.103	4451
868.233	4440
868.364	4481
868.495	4497
868.625	4675
868.756	4767
868.886	4554
869.017	4607
869.147	4786
869.278	4733
869.408	4649
869.539	4649
869.669	4736
869.799	4683
869.929	4763
870.06	4736
870.19	4987
870.32	4961
870.45	4934
870.58	5048
870.71	5075
870.84	5083
870.97	4873
871.1	4896
871.23	5151
871.36	5166
871.489	5041
871.619	5056
871.749	5136
871.879	5121
872.008	5201
872.138	5071
872.267	5025
872.397	4862
872.526	4809
872.656	4763
872.785	4835
872.915	4999
873.044	5010
873.173	4942
873.303	4961
873.432	4889
873.561	4972
873.69	4915
873.819	4873
873.948	4946
874.077	4847
874.206	4790
874.335	4801
874.464	4972
874.593	5029
874.722	4949
874.851	5121
874.979	5067
875.108	5045
875.237	4896
875.365	4889
875.494	4908
875.623	4984
875.751	4812
875.88	4911
876.008	4995
876.136	4991
876.265	5159
876.393	5318
876.521	5227
876.65	5254
876.778	5151
876.906	5109
877.034	4999
877.162	5048
877.29	4987
877.418	5071
877.546	5045
877.674	5052
877.802	5022
877.93	5048
878.058	4938
878.185	4866
878.313	4927
878.441	4923
878.568	4790
878.696	4862
878.824	4972
878.951	4999
879.079	5117
879.206	5292
879.333	5124
879.461	4976
879.588	5018
879.715	5117
879.842	5258
879.97	4961
880.097	4831
880.224	4702
880.351	4812
880.478	4797
880.605	4767
880.732	4771
880.859	5121
880.986	4881
881.112	4911
881.239	4801
881.366	4641
881.493	4649
881.619	4592
881.746	4653
881.872	4656
881.999	4618
882.125	4706
882.252	4725
882.378	4790
882.505	4972
882.631	4831
882.757	4698
882.883	4679
883.01	4717
883.136	4603
883.262	4615
883.388	4615
883.514	4812
883.64	4835
883.766	4820
883.892	4683
884.018	4752
884.143	4892
884.269	4980
884.395	4668
884.52	4580
884.646	4679
884.772	4554
884.897	4519
885.023	4664
885.148	4816
885.274	4877
885.399	4831
885.524	4729
885.65	4717
885.775	4717
885.9	4656
886.025	4809
886.15	4729
886.275	4702
886.4	4626
886.525	4740
886.65	4675
886.775	4679
886.9	4896
887.025	5003
887.149	4839
887.274	4672
887.399	4565
887.523	4565
887.648	4588
887.773	4519
887.897	4790
888.021	4786
888.146	4733
888.27	4828
888.395	4927
888.519	4759
888.643	4767
888.767	4858
888.891	4702
889.015	4645
889.139	4565
889.263	4596
889.387	4721
889.511	4862
889.635	4793
889.759	4660
889.883	4645
890.006	4729
890.13	4801
890.254	4675
890.377	4679
890.501	4516
890.624	4481
890.748	4607
890.871	4504
890.995	4432
891.118	4386
891.241	4546
891.364	4569
891.488	4626
891.611	4523
891.734	4508
891.857	4603
891.98	4558
892.103	4630
892.226	4550
892.349	4554
892.471	4428
892.594	4538
892.717	4527
892.839	4577
892.962	4615
893.085	4675
893.207	4580
893.33	4413
893.452	4516
893.575	4664
893.697	4569
893.819	4805
893.941	4812
894.064	4748
894.186	4554
894.308	4550
894.43	4744
894.552	4858
894.674	4793
894.796	4599
894.918	4573
895.04	4580
895.161	4691
895.283	4679
895.405	4577
895.526	4660
895.648	4698
895.769	4672
895.891	4687
896.012	4782
896.134	4714
896.255	4691
896.376	4607
896.498	4588
896.619	4691
896.74	4546
896.861	4649
896.982	4892
897.103	5094
897.224	4835
897.345	4759
897.466	4683
897.587	4717
897.708	4812
897.828	4809
897.949	4656
898.07	4542
898.19	4622
898.311	4793
898.431	4744
898.552	4752
898.672	4831
898.792	4790
898.913	4774
899.033	4622
899.153	4470
899.273	4455
899.393	4508
899.513	4519
899.633	4527
899.753	4538
899.873	4527
899.993	4603
900.113	4489
900.232	4603
900.352	4527
900.472	4481
900.591	4409
900.711	4481
900.83	4466
900.95	4634
901.069	4725
901.189	4516
901.308	4363
901.427	4291
901.546	4383
901.665	4474
901.784	4443
901.904	4383
902.023	4325
902.141	4173
902.26	4135
902.379	4325
902.498	4215
902.617	4223
902.735	4390
902.854	4363
902.973	4325
903.091	4200
903.21	4227
903.328	4352
903.446	4295
903.565	4310
903.683	4367
903.801	4265
903.919	4383
904.038	4424
904.156	4333
904.274	4440
904.392	4390
904.51	4462
904.627	4417
904.745	4618
904.863	4626
904.981	4466
905.098	4299
905.216	4341
905.334	4356
905.451	4421
905.569	4421
905.686	4523
905.803	4565
905.921	4348
906.038	4516
906.155	4497
906.272	4394
906.389	4500
906.506	4371
906.623	4360
906.74	4379
906.857	4325
906.974	4348
907.091	4554
907.208	4675
907.324	4637
907.441	4466
907.557	4363
907.674	4291
907.79	4344
907.907	4371
908.023	4474
908.139	4516
908.256	4474
908.372	4493
908.488	4409
908.604	4356
908.72	4318
908.836	4386
908.952	4367
909.068	4413
909.184	4558
909.3	4466
909.415	4565
909.531	4584
909.647	4318
909.762	4386
909.878	4344
909.993	4455
910.108	4386
910.224	4432
910.339	4504
910.454	4413
910.57	4371
910.685	4329
910.8	4615
910.915	4561
911.03	4474
911.145	4299
911.259	4322
911.374	4356
911.489	4303
911.604	4314
911.718	4173
911.833	4181
911.947	4078
912.062	4029
912.176	4188
912.291	4265
912.405	4272
912.519	4478
912.633	4519
912.748	4375
912.862	4356
912.976	4215
913.09	4097
913.204	4227
913.318	4253
913.431	4405
913.545	4356
913.659	4443
913.772	4375
913.886	4303
914	4276
914.113	4375
914.226	4394
914.34	4371
914.453	4249
914.566	4447
914.68	4299
914.793	4341
914.906	4177
915.019	4131
915.132	4093
915.245	4207
915.358	4181
915.47	4215
915.583	4268
915.696	4310
915.809	4405
915.921	4402
916.034	4227
916.146	4234
916.259	4200
916.371	4398
916.483	4383
916.595	4242
916.708	4291
916.82	4325
916.932	4306
917.044	4337
917.156	4390
917.268	4219
917.38	4265
917.491	4299
917.603	4371
917.715	4432
917.826	4436
917.938	4352
918.049	4219
918.161	4428
918.272	4531
918.384	4512
918.495	4451
918.606	4280
918.717	4211
918.828	4310
918.939	4390
919.05	4272
919.161	4371
919.272	4124
919.383	4181
919.494	4417
919.604	4649
919.715	4409
919.826	4287
919.936	4367
920.047	4542
920.157	4512
920.267	4706
920.378	4542
920.488	4500
920.598	4675
920.708	4892
920.818	4740
920.928	4752
921.038	4892
921.148	4938
921.258	4580
921.368	4573
921.477	4474
921.587	4470
921.697	4371
921.806	4573
921.916	4394
922.025	4272
922.134	4268
922.244	4185
922.353	4303
922.462	4158
922.571	4116
922.68	4002
922.789	4013
922.898	4025
923.007	3964
923.116	4071
923.224	4090
923.333	4071
923.442	3998
923.55	4017
923.659	4059
923.767	4135
923.876	4002
923.984	4101
924.092	3979
924.201	4086
924.309	4112
924.417	4082
924.525	4010
924.633	4071
924.741	5067
924.849	3907
924.956	4135
925.064	3941
925.172	3907
925.279	3930
925.387	4029
925.494	4074
925.602	4192
925.709	4177
925.816	3998
925.924	4143
926.031	4192
926.138	4200
926.245	4177
926.352	4055
926.459	4227
926.566	4306
926.673	4173
926.779	4048
926.886	4116
926.993	3949
927.099	3994
927.206	3926
927.312	3941
927.419	4059
927.525	4067
927.631	4090
927.737	3968
927.843	3941
927.95	3869
928.056	3975
928.162	3983
928.267	4055
928.373	4725
928.479	4116
928.585	3880
928.69	3994
928.796	4071
928.901	3949
929.007	3854
929.112	3972
929.218	3975
929.323	3964
929.428	3930
929.533	4101
929.638	3903
929.743	3960
929.848	4029
929.953	3994
930.058	3884
930.163	3785
930.267	3873
930.372	3956
930.477	3857
930.581	4078
930.685	3968
930.79	3842
930.894	3876
930.998	3831
931.103	4032
931.207	3709
931.311	3682
931.415	3648
931.519	3534
931.623	3542
