Data from test_V78500241_2678.txt Node
Date: Fri Mar 25 17:07:37 CST 2022
User: usil
Spectrometer: V785-0024
Trigger mode: 0
Integration Time (sec): 4.000000E-1
Scans to average: 1
Nonlinearity correction enabled: false
Boxcar width: 0
Storing dark spectrum: false
XAxis mode: Wavelengths
Number of Pixels in Spectrum: 1024
>>>>>Begin Spectral Data<<<<<
801.071	7978
801.214	7997
801.356	7879
801.499	7845
801.641	7841
801.783	7864
801.926	7963
802.068	8001
802.211	8050
802.353	7997
802.496	7860
802.638	7963
802.78	7909
802.923	7951
803.065	7909
803.208	7921
803.35	8020
803.492	8092
803.635	8202
803.777	8054
803.919	8126
804.061	8419
804.204	8153
804.346	8077
804.488	8001
804.63	8157
804.773	8046
804.915	8092
805.057	8320
805.199	8172
805.341	8225
805.483	8309
805.626	8206
805.768	8183
805.91	8214
806.052	8309
806.194	8084
806.336	8309
806.478	8096
806.62	8100
806.762	8126
806.904	8279
807.046	8408
807.188	8389
807.33	8305
807.472	8389
807.614	8134
807.756	8218
807.898	7967
808.04	7868
808.182	7932
808.324	7860
808.465	7944
808.607	8115
808.749	8084
808.891	8240
809.033	8313
809.174	8183
809.316	8115
809.458	8084
809.6	8058
809.741	8081
809.883	8043
810.025	8111
810.166	8084
810.308	8050
810.45	8005
810.591	7947
810.733	7761
810.875	7712
811.016	7510
811.158	7514
811.299	7609
811.441	7852
811.582	7719
811.724	7632
811.865	7601
812.007	7586
812.148	7575
812.29	7700
812.431	7685
812.573	7871
812.714	8001
812.855	8115
812.997	8199
813.138	8324
813.279	8176
813.421	8073
813.562	7986
813.703	7902
813.845	7807
813.986	7453
814.127	7297
814.268	7247
814.41	7194
814.551	7164
814.692	7255
814.833	7149
814.974	7133
815.115	7057
815.256	6981
815.397	6928
815.539	6890
815.68	6787
815.821	6764
815.962	6928
816.103	6791
816.244	6684
816.385	6650
816.526	6608
816.666	6502
816.807	6319
816.948	6418
817.089	6498
817.23	6471
817.371	6399
817.512	6327
817.653	6391
817.793	6365
817.934	6494
818.075	6483
818.216	6452
818.356	6369
818.497	6254
818.638	6091
818.778	6190
818.919	6163
819.06	6136
819.2	6353
819.341	6365
819.481	6384
819.622	6540
819.762	6711
819.903	6745
820.043	6650
820.184	6635
820.324	6639
820.465	6726
820.605	6665
820.746	6711
820.886	6544
821.026	6707
821.167	6753
821.307	6814
821.447	6814
821.588	6745
821.728	6555
821.868	6506
822.008	6365
822.149	6311
822.289	6403
822.429	6129
822.569	6079
822.709	6171
822.849	5939
822.99	5893
823.13	5931
823.27	5889
823.41	5809
823.55	5752
823.69	5786
823.83	5794
823.97	5657
824.11	5539
824.25	5524
824.389	5554
824.529	5627
824.669	5486
824.809	5649
824.949	5680
825.089	5600
825.228	5554
825.368	5429
825.508	5357
825.648	5326
825.787	5383
825.927	5391
826.067	5242
826.206	5318
826.346	5326
826.485	5349
826.625	5402
826.765	5581
826.904	5501
827.044	5242
827.183	5246
827.323	5105
827.462	5292
827.601	5189
827.741	5178
827.88	5193
828.02	5121
828.159	5341
828.298	5337
828.437	5341
828.577	5227
828.716	5471
828.855	5277
828.994	5178
829.134	5170
829.273	5159
829.412	5174
829.551	5185
829.69	5170
829.829	5242
829.968	5372
830.107	5265
830.246	5292
830.385	5220
830.524	5159
830.663	5094
830.802	4984
830.941	4881
831.08	4828
831.219	4968
831.357	4961
831.496	5220
831.635	4976
831.774	4862
831.913	4900
832.051	4755
832.19	4752
832.329	4843
832.467	4687
832.606	4649
832.744	4736
832.883	4771
833.022	4702
833.16	4790
833.299	4839
833.437	4831
833.576	4828
833.714	4843
833.852	4854
833.991	4885
834.129	4949
834.267	4965
834.406	4896
834.544	4957
834.682	4957
834.821	4968
834.959	5162
835.097	5003
835.235	5178
835.373	5090
835.511	5124
835.65	5029
835.788	5056
835.926	4870
836.064	4866
836.202	4946
836.34	5162
836.478	5174
836.615	5102
836.753	5223
836.891	5353
837.029	5261
837.167	5204
837.305	5204
837.443	5124
837.58	5086
837.718	5231
837.856	5216
837.993	5166
838.131	5235
838.269	5181
838.406	5227
838.544	5162
838.681	5056
838.819	4999
838.956	4862
839.094	4870
839.231	5003
839.369	5048
839.506	5391
839.643	5288
839.781	5075
839.918	5045
840.055	5117
840.193	5128
840.33	5140
840.467	5159
840.604	5155
840.742	5452
840.879	5086
841.016	5045
841.153	5143
841.29	5379
841.427	5341
841.564	5318
841.701	5360
841.838	5303
841.975	5231
842.112	5284
842.249	5170
842.385	5094
842.522	5360
842.659	5159
842.796	5128
842.933	5239
843.069	5102
843.206	5136
843.343	5311
843.479	5208
843.616	5315
843.752	5052
843.889	4995
844.025	5250
844.162	5029
844.298	5231
844.435	5113
844.571	5075
844.708	5204
844.844	5318
844.98	5368
845.117	5250
845.253	5132
845.389	5105
845.525	5159
845.661	5098
845.798	5022
845.934	5132
846.07	5052
846.206	5212
846.342	5296
846.478	5201
846.614	5014
846.75	5041
846.886	4927
847.022	5098
847.158	5041
847.294	5045
847.429	5083
847.565	5090
847.701	5341
847.837	4873
847.972	4805
848.108	4949
848.244	4919
848.379	4797
848.515	4752
848.65	4706
848.786	4786
848.921	4759
849.057	4843
849.192	4911
849.328	4843
849.463	4831
849.598	4782
849.734	4736
849.869	4733
850.004	4622
850.14	4634
850.275	4607
850.41	4538
850.545	4546
850.68	4630
850.815	4611
850.95	4626
851.085	4805
851.22	4733
851.355	4672
851.49	4622
851.625	4683
851.76	4664
851.895	4523
852.03	4531
852.165	4649
852.299	4763
852.434	4771
852.569	4790
852.703	4824
852.838	4889
852.973	4900
853.107	4900
853.242	4805
853.376	4679
853.511	4550
853.645	4618
853.78	4831
853.914	4698
854.048	4660
854.183	4634
854.317	4691
854.451	4790
854.585	4641
854.72	4656
854.854	4797
854.988	4573
855.122	4649
855.256	4512
855.39	4637
855.524	4824
855.658	4721
855.792	4752
855.926	4729
856.06	4752
856.194	4847
856.327	4687
856.461	4641
856.595	4630
856.729	4618
856.862	4759
856.996	4729
857.13	4721
857.263	4729
857.397	4812
857.53	4698
857.664	4759
857.797	4778
857.931	4805
858.064	4698
858.197	4793
858.331	4687
858.464	4596
858.597	4599
858.731	4630
858.864	4645
858.997	4622
859.13	4660
859.263	4660
859.396	4733
859.529	4626
859.662	4527
859.795	4542
859.928	4637
860.061	4767
860.194	4786
860.327	4660
860.46	4558
860.592	4714
860.725	4748
860.858	4675
860.99	4554
861.123	4527
861.256	4550
861.388	4649
861.521	5417
861.653	4440
861.786	4466
861.918	4504
862.05	4550
862.183	4584
862.315	4607
862.447	4664
862.58	4565
862.712	4341
862.844	4306
862.976	4478
863.108	4451
863.24	4771
863.372	4344
863.504	4440
863.636	4383
863.768	4489
863.9	4371
864.032	4344
864.164	4451
864.296	4462
864.428	4565
864.559	4546
864.691	4546
864.823	4527
864.954	4516
865.086	4500
865.217	4466
865.349	4436
865.48	4481
865.612	4493
865.743	4618
865.875	4489
866.006	4451
866.137	4451
866.269	4421
866.4	4440
866.531	4413
866.662	4390
866.793	4371
866.924	4436
867.055	4474
867.186	4428
867.317	4398
867.448	4367
867.579	4424
867.71	4371
867.841	4375
867.972	4421
868.103	4432
868.233	4443
868.364	4470
868.495	4478
868.625	4683
868.756	4767
868.886	4584
869.017	4603
869.147	4733
869.278	4774
869.408	4710
869.539	4634
869.669	4721
869.799	4672
869.929	4812
870.06	4714
870.19	4927
870.32	4908
870.45	4999
870.58	4946
870.71	5113
870.84	5102
870.97	4991
871.1	4904
871.23	5155
871.36	5102
871.489	5052
871.619	5041
871.749	5136
871.879	5151
872.008	5174
872.138	5102
872.267	4968
872.397	4847
872.526	4744
872.656	4805
872.785	4812
872.915	4930
873.044	4995
873.173	4930
873.303	4991
873.432	4984
873.561	4987
873.69	4873
873.819	4831
873.948	4972
874.077	4824
874.206	4820
874.335	4801
874.464	4908
874.593	5033
874.722	4930
874.851	5098
874.979	5033
875.108	5067
875.237	4934
875.365	4885
875.494	4885
875.623	5029
875.751	4820
875.88	4843
876.008	5018
876.136	5064
876.265	5227
876.393	5364
876.521	5261
876.65	5265
876.778	5170
876.906	5060
877.034	5025
877.162	5041
877.29	5014
877.418	5041
877.546	4976
877.674	5018
877.802	5041
877.93	5006
878.058	4908
878.185	4908
878.313	4968
878.441	4934
878.568	4809
878.696	4873
878.824	4984
878.951	4995
879.079	5075
879.206	5284
879.333	5071
879.461	4987
879.588	5006
879.715	5109
879.842	5216
879.97	4972
880.097	4778
880.224	4706
880.351	4812
880.478	4816
880.605	4801
880.732	4824
880.859	5105
880.986	4877
881.112	4934
881.239	4816
881.366	4664
881.493	4554
881.619	4603
881.746	4672
881.872	4626
881.999	4660
882.125	4771
882.252	4778
882.378	4805
882.505	5003
882.631	4740
882.757	4691
882.883	4721
883.01	4733
883.136	4691
883.262	4615
883.388	4603
883.514	4759
883.64	4850
883.766	4771
883.892	4618
884.018	4733
884.143	4919
884.269	4980
884.395	4664
884.52	4637
884.646	4672
884.772	4615
884.897	4538
885.023	4672
885.148	4797
885.274	4839
885.399	4828
885.524	4717
885.65	4653
885.775	4729
885.9	4702
886.025	4885
886.15	4790
886.275	4675
886.4	4615
886.525	4698
886.65	4694
886.775	4691
886.9	4927
887.025	5071
887.149	4812
887.274	4698
887.399	4580
887.523	4592
887.648	4577
887.773	4592
887.897	4790
888.021	4778
888.146	4725
888.27	4797
888.395	4953
888.519	4824
888.643	4835
888.767	4782
888.891	4653
889.015	4577
889.139	4683
889.263	4618
889.387	4748
889.511	4889
889.635	4801
889.759	4649
889.883	4637
890.006	4698
890.13	4782
890.254	4596
890.377	4660
890.501	4580
890.624	4508
890.748	4618
890.871	4531
890.995	4371
891.118	4371
891.241	4550
891.364	4546
891.488	4645
891.611	4489
891.734	4542
891.857	4588
891.98	4580
892.103	4626
892.226	4592
892.349	4535
892.471	4398
892.594	4561
892.717	4611
892.839	4569
892.962	4584
893.085	4637
893.207	4607
893.33	4485
893.452	4546
893.575	4611
893.697	4538
893.819	4790
893.941	4824
894.064	4740
894.186	4607
894.308	4558
894.43	4744
894.552	4847
894.674	4752
894.796	4516
894.918	4596
895.04	4599
895.161	4706
895.283	4622
895.405	4592
895.526	4607
895.648	4668
895.769	4717
895.891	4698
896.012	4744
896.134	4721
896.255	4672
896.376	4641
896.498	4634
896.619	4668
896.74	4588
896.861	4653
896.982	4873
897.103	5109
897.224	4850
897.345	4710
897.466	4668
897.587	4679
897.708	4889
897.828	4786
897.949	4645
898.07	4577
898.19	4596
898.311	4824
898.431	4672
898.552	4744
898.672	4812
898.792	4824
898.913	4733
899.033	4607
899.153	4535
899.273	4447
899.393	4493
899.513	4481
899.633	4516
899.753	4519
899.873	4561
899.993	4592
900.113	4531
900.232	4584
900.352	4554
900.472	4497
900.591	4409
900.711	4504
900.83	4447
900.95	4603
901.069	4691
901.189	4580
901.308	4379
901.427	4322
901.546	4333
901.665	4481
901.784	4531
901.904	4428
902.023	4329
902.141	4234
902.26	4188
902.379	4318
902.498	4287
902.617	4223
902.735	4375
902.854	4405
902.973	4348
903.091	4230
903.21	4207
903.328	4257
903.446	4257
903.565	4306
903.683	4398
903.801	4280
903.919	4363
904.038	4459
904.156	4310
904.274	4459
904.392	4398
904.51	4440
904.627	4470
904.745	4565
904.863	4618
904.981	4432
905.098	4329
905.216	4352
905.334	4470
905.451	4421
905.569	4455
905.686	4596
905.803	4584
905.921	4409
906.038	4538
906.155	4485
906.272	4394
906.389	4489
906.506	4322
906.623	4398
906.74	4363
906.857	4299
906.974	4329
907.091	4531
907.208	4653
907.324	4554
907.441	4466
907.557	4306
907.674	4318
907.79	4322
907.907	4405
908.023	4462
908.139	4508
908.256	4421
908.372	4474
908.488	4478
908.604	4344
908.72	4318
908.836	4333
908.952	4341
909.068	4390
909.184	4550
909.3	4470
909.415	4584
909.531	4550
909.647	4337
909.762	4398
909.878	4322
909.993	4383
910.108	4424
910.224	4428
910.339	4508
910.454	4371
910.57	4394
910.685	4265
910.8	4675
910.915	4588
911.03	4489
911.145	4356
911.259	4375
911.374	4367
911.489	4268
911.604	4310
911.718	4215
911.833	4185
911.947	4071
912.062	4002
912.176	4227
912.291	4257
912.405	4211
912.519	4481
912.633	4481
912.748	4394
912.862	4329
912.976	4204
913.09	4116
913.204	4177
913.318	4287
913.431	4356
913.545	4413
913.659	4379
913.772	4383
913.886	4249
914	4246
914.113	4390
914.226	4432
914.34	4440
914.453	4211
914.566	4443
914.68	4325
914.793	4291
914.906	4185
915.019	4082
915.132	4074
915.245	4215
915.358	4188
915.47	4257
915.583	4291
915.696	4299
915.809	4413
915.921	4360
916.034	4291
916.146	4253
916.259	4234
916.371	4363
916.483	4352
916.595	4291
916.708	4299
916.82	4329
916.932	4333
917.044	4348
917.156	4299
917.268	4219
917.38	4223
917.491	4280
917.603	4360
917.715	4402
917.826	4447
917.938	4333
918.049	4246
918.161	4390
918.272	4500
918.384	4546
918.495	4447
918.606	4291
918.717	4249
918.828	4344
918.939	4363
919.05	4249
919.161	4314
919.272	4120
919.383	4261
919.494	4436
919.604	4634
919.715	4432
919.826	4367
919.936	4363
920.047	4508
920.157	4516
920.267	4733
920.378	4519
920.488	4527
920.598	4733
920.708	4881
920.818	4740
920.928	4744
921.038	4911
921.148	4908
921.258	4637
921.368	4527
921.477	4424
921.587	4459
921.697	4394
921.806	4577
921.916	4417
922.025	4253
922.134	4291
922.244	4265
922.353	4325
922.462	4181
922.571	4112
922.68	3975
922.789	3979
922.898	4021
923.007	3953
923.116	4131
923.224	4124
923.333	4067
923.442	4040
923.55	3994
923.659	3994
923.767	4063
923.876	4002
923.984	4120
924.092	3979
924.201	4071
924.309	4067
924.417	4109
924.525	4074
924.633	4063
924.741	5079
924.849	3907
924.956	4135
925.064	3972
925.172	3915
925.279	3987
925.387	4029
925.494	4074
925.602	4219
925.709	4188
925.816	4029
925.924	4112
926.031	4234
926.138	4169
926.245	4200
926.352	4097
926.459	4280
926.566	4295
926.673	4158
926.779	4090
926.886	4090
926.993	3991
927.099	3949
927.206	3964
927.312	3956
927.419	4078
927.525	4055
927.631	4074
927.737	3953
927.843	3972
927.95	3850
928.056	3960
928.162	3998
928.267	4078
928.373	4588
928.479	4120
928.585	3846
928.69	4036
928.796	4051
928.901	3983
929.007	3819
929.112	3991
929.218	3998
929.323	3915
929.428	3968
929.533	4101
929.638	3979
929.743	3964
929.848	4029
929.953	4002
930.058	3975
930.163	3797
930.267	3819
930.372	4013
930.477	3797
930.581	4078
930.685	3937
930.79	3842
930.894	3888
930.998	3797
931.103	4044
931.207	3671
931.311	3732
931.415	3656
931.519	3553
931.623	3534
