Data from test_V78500241_1802.txt Node
Date: Fri Mar 25 17:01:31 CST 2022
User: usil
Spectrometer: V785-0024
Trigger mode: 0
Integration Time (sec): 4.000000E-1
Scans to average: 1
Nonlinearity correction enabled: false
Boxcar width: 0
Storing dark spectrum: false
XAxis mode: Wavelengths
Number of Pixels in Spectrum: 1024
>>>>>Begin Spectral Data<<<<<
801.071	7932
801.214	8027
801.356	7906
801.499	7864
801.641	7788
801.783	7833
801.926	7978
802.068	7940
802.211	7947
802.353	7970
802.496	7902
802.638	7795
802.78	7879
802.923	7906
803.065	7849
803.208	7807
803.35	7925
803.492	8039
803.635	8111
803.777	8020
803.919	8115
804.061	8370
804.204	8107
804.346	8031
804.488	7906
804.63	8073
804.773	7993
804.915	8069
805.057	8271
805.199	8161
805.341	8199
805.483	8183
805.626	8199
805.768	8084
805.91	8180
806.052	8187
806.194	8107
806.336	8317
806.478	8069
806.62	7993
806.762	8195
806.904	8294
807.046	8465
807.188	8400
807.33	8313
807.472	8385
807.614	8168
807.756	8065
807.898	7982
808.04	7871
808.182	7913
808.324	7906
808.465	7970
808.607	8031
808.749	8123
808.891	8176
809.033	8275
809.174	8218
809.316	8054
809.458	8020
809.6	7982
809.741	8027
809.883	7986
810.025	8164
810.166	8027
810.308	7989
810.45	7959
810.591	7814
810.733	7700
810.875	7651
811.016	7514
811.158	7460
811.299	7491
811.441	7677
811.582	7632
811.724	7552
811.865	7540
812.007	7605
812.148	7609
812.29	7666
812.431	7776
812.573	7940
812.714	7955
812.855	8183
812.997	8202
813.138	8336
813.279	8172
813.421	8134
813.562	7913
813.703	7826
813.845	7693
813.986	7407
814.127	7206
814.268	7236
814.41	7187
814.551	7133
814.692	7259
814.833	7088
814.974	7103
815.115	7118
815.256	6958
815.397	6924
815.539	6920
815.68	6791
815.821	6783
815.962	6878
816.103	6738
816.244	6681
816.385	6582
816.526	6597
816.666	6490
816.807	6311
816.948	6429
817.089	6509
817.23	6407
817.371	6365
817.512	6399
817.653	6369
817.793	6353
817.934	6441
818.075	6483
818.216	6414
818.356	6418
818.497	6258
818.638	6110
818.778	6171
818.919	6121
819.06	6129
819.2	6361
819.341	6266
819.481	6289
819.622	6532
819.762	6760
819.903	6623
820.043	6601
820.184	6578
820.324	6528
820.465	6726
820.605	6677
820.746	6616
820.886	6509
821.026	6658
821.167	6684
821.307	6837
821.447	6802
821.588	6684
821.728	6589
821.868	6532
822.008	6289
822.149	6357
822.289	6308
822.429	6159
822.569	6038
822.709	6106
822.849	5939
822.99	5870
823.13	5927
823.27	5916
823.41	5756
823.55	5779
823.69	5779
823.83	5764
823.97	5638
824.11	5524
824.25	5532
824.389	5512
824.529	5547
824.669	5490
824.809	5558
824.949	5699
825.089	5604
825.228	5459
825.368	5379
825.508	5326
825.648	5322
825.787	5360
825.927	5349
826.067	5292
826.206	5334
826.346	5357
826.485	5402
826.625	5360
826.765	5505
826.904	5512
827.044	5197
827.183	5231
827.323	5086
827.462	5185
827.601	5189
827.741	5231
827.88	5201
828.02	5071
828.159	5246
828.298	5341
828.437	5402
828.577	5258
828.716	5482
828.855	5280
828.994	5185
829.134	5147
829.273	5102
829.412	5124
829.551	5132
829.69	5166
829.829	5239
829.968	5433
830.107	5280
830.246	5155
830.385	5147
830.524	5136
830.663	5064
830.802	4999
830.941	4919
831.08	4873
831.219	4968
831.357	4942
831.496	5174
831.635	4934
831.774	4847
831.913	4812
832.051	4740
832.19	4687
832.329	4824
832.467	4656
832.606	4607
832.744	4740
832.883	4710
833.022	4687
833.16	4778
833.299	4831
833.437	4786
833.576	4824
833.714	4889
833.852	4862
833.991	4881
834.129	4949
834.267	4957
834.406	4904
834.544	4999
834.682	4953
834.821	4919
834.959	5140
835.097	4961
835.235	5105
835.373	5052
835.511	5075
835.65	5033
835.788	5029
835.926	4858
836.064	4873
836.202	4919
836.34	5128
836.478	5235
836.615	5105
836.753	5151
836.891	5273
837.029	5239
837.167	5223
837.305	5136
837.443	5147
837.58	5098
837.718	5296
837.856	5174
837.993	5170
838.131	5223
838.269	5193
838.406	5178
838.544	5193
838.681	5025
838.819	4995
838.956	4904
839.094	4885
839.231	4957
839.369	5094
839.506	5391
839.643	5235
839.781	5041
839.918	5006
840.055	5075
840.193	5113
840.33	5113
840.467	5185
840.604	5140
840.742	5436
840.879	5071
841.016	5025
841.153	5140
841.29	5372
841.427	5273
841.564	5277
841.701	5398
841.838	5246
841.975	5212
842.112	5258
842.249	5105
842.385	5071
842.522	5311
842.659	5197
842.796	5090
842.933	5220
843.069	5155
843.206	5113
843.343	5299
843.479	5239
843.616	5246
843.752	4987
843.889	5018
844.025	5147
844.162	5018
844.298	5189
844.435	5083
844.571	5067
844.708	5193
844.844	5246
844.98	5322
845.117	5315
845.253	5128
845.389	5121
845.525	5094
845.661	5174
845.798	5052
845.934	5121
846.07	5060
846.206	5201
846.342	5254
846.478	5166
846.614	4991
846.75	4942
846.886	4900
847.022	5128
847.158	4968
847.294	5041
847.429	5105
847.565	5064
847.701	5277
847.837	4866
847.972	4774
848.108	4927
848.244	4942
848.379	4767
848.515	4710
848.65	4736
848.786	4710
848.921	4805
849.057	4847
849.192	4900
849.328	4854
849.463	4835
849.598	4778
849.734	4755
849.869	4679
850.004	4653
850.14	4615
850.275	4596
850.41	4523
850.545	4542
850.68	4611
850.815	4599
850.95	4626
851.085	4809
851.22	4767
851.355	4615
851.49	4653
851.625	4634
851.76	4668
851.895	4550
852.03	4519
852.165	4645
852.299	4721
852.434	4782
852.569	4725
852.703	4790
852.838	4858
852.973	4870
853.107	4919
853.242	4717
853.376	4672
853.511	4531
853.645	4580
853.78	4816
853.914	4687
854.048	4645
854.183	4634
854.317	4679
854.451	4828
854.585	4653
854.72	4634
854.854	4714
854.988	4573
855.122	4668
855.256	4554
855.39	4637
855.524	4778
855.658	4740
855.792	4729
855.926	4733
856.06	4767
856.194	4767
856.327	4698
856.461	4653
856.595	4607
856.729	4592
856.862	4736
856.996	4649
857.13	4771
857.263	4759
857.397	4824
857.53	4641
857.664	4706
857.797	4778
857.931	4778
858.064	4656
858.197	4710
858.331	4679
858.464	4592
858.597	4508
858.731	4603
858.864	4592
858.997	4580
859.13	4626
859.263	4694
859.396	4702
859.529	4618
859.662	4558
859.795	4542
859.928	4569
860.061	4771
860.194	4767
860.327	4599
860.46	4550
860.592	4694
860.725	4698
860.858	4706
860.99	4531
861.123	4489
861.256	4519
861.388	4577
861.521	5296
861.653	4504
861.786	4443
861.918	4432
862.05	4478
862.183	4535
862.315	4573
862.447	4626
862.58	4519
862.712	4394
862.844	4333
862.976	4451
863.108	4451
863.24	4885
863.372	4325
863.504	4405
863.636	4394
863.768	4436
863.9	4455
864.032	4405
864.164	4436
864.296	4470
864.428	4565
864.559	4527
864.691	4481
864.823	4493
864.954	4519
865.086	4527
865.217	4466
865.349	4470
865.48	4447
865.612	4466
865.743	4611
865.875	4474
866.006	4436
866.137	4481
866.269	4443
866.4	4405
866.531	4417
866.662	4348
866.793	4398
866.924	4413
867.055	4474
867.186	4428
867.317	4379
867.448	4383
867.579	4417
867.71	4405
867.841	4356
867.972	4466
868.103	4478
868.233	4451
868.364	4436
868.495	4497
868.625	4653
868.756	4809
868.886	4558
869.017	4607
869.147	4843
869.278	4748
869.408	4641
869.539	4645
869.669	4653
869.799	4691
869.929	4744
870.06	4702
870.19	4946
870.32	4904
870.45	4900
870.58	5022
870.71	5071
870.84	5102
870.97	4965
871.1	4915
871.23	5132
871.36	5132
871.489	4999
871.619	5048
871.749	5060
871.879	5105
872.008	5174
872.138	5067
872.267	4961
872.397	4850
872.526	4797
872.656	4717
872.785	4744
872.915	4923
873.044	5048
873.173	4904
873.303	4957
873.432	4965
873.561	4900
873.69	4877
873.819	4908
873.948	4953
874.077	4873
874.206	4786
874.335	4793
874.464	4972
874.593	5067
874.722	4908
874.851	5041
874.979	5109
875.108	5052
875.237	4942
875.365	4866
875.494	4889
875.623	4953
875.751	4820
875.88	4870
876.008	4923
876.136	4987
876.265	5166
876.393	5318
876.521	5265
876.65	5227
876.778	5147
876.906	5124
877.034	5010
877.162	5041
877.29	4919
877.418	5014
877.546	4991
877.674	5048
877.802	5014
877.93	5029
878.058	4904
878.185	4881
878.313	4984
878.441	4911
878.568	4820
878.696	4900
878.824	4953
878.951	4972
879.079	5151
879.206	5235
879.333	5102
879.461	5022
879.588	4965
879.715	5151
879.842	5212
879.97	5006
880.097	4831
880.224	4725
880.351	4767
880.478	4828
880.605	4752
880.732	4786
880.859	5060
880.986	4877
881.112	4900
881.239	4790
881.366	4649
881.493	4618
881.619	4554
881.746	4618
881.872	4596
881.999	4615
882.125	4656
882.252	4782
882.378	4801
882.505	4911
882.631	4843
882.757	4721
882.883	4691
883.01	4687
883.136	4672
883.262	4573
883.388	4634
883.514	4820
883.64	4847
883.766	4801
883.892	4668
884.018	4698
884.143	4915
884.269	4980
884.395	4622
884.52	4668
884.646	4626
884.772	4607
884.897	4561
885.023	4710
885.148	4740
885.274	4866
885.399	4748
885.524	4675
885.65	4664
885.775	4717
885.9	4664
886.025	4858
886.15	4801
886.275	4733
886.4	4664
886.525	4752
886.65	4702
886.775	4637
886.9	4854
887.025	5010
887.149	4805
887.274	4672
887.399	4599
887.523	4554
887.648	4554
887.773	4573
887.897	4771
888.021	4752
888.146	4660
888.27	4763
888.395	4949
888.519	4797
888.643	4774
888.767	4824
888.891	4634
889.015	4558
889.139	4691
889.263	4634
889.387	4710
889.511	4892
889.635	4755
889.759	4607
889.883	4607
890.006	4706
890.13	4858
890.254	4626
890.377	4656
890.501	4516
890.624	4546
890.748	4649
890.871	4531
890.995	4405
891.118	4383
891.241	4523
891.364	4565
891.488	4649
891.611	4455
891.734	4542
891.857	4649
891.98	4538
892.103	4630
892.226	4588
892.349	4531
892.471	4405
892.594	4573
892.717	4584
892.839	4580
892.962	4565
893.085	4634
893.207	4573
893.33	4459
893.452	4516
893.575	4679
893.697	4580
893.819	4790
893.941	4801
894.064	4740
894.186	4599
894.308	4599
894.43	4714
894.552	4854
894.674	4721
894.796	4573
894.918	4634
895.04	4538
895.161	4725
895.283	4645
895.405	4626
895.526	4649
895.648	4687
895.769	4683
895.891	4740
896.012	4729
896.134	4721
896.255	4687
896.376	4634
896.498	4592
896.619	4698
896.74	4615
896.861	4630
896.982	4850
897.103	5041
897.224	4824
897.345	4717
897.466	4664
897.587	4668
897.708	4862
897.828	4801
897.949	4694
898.07	4531
898.19	4599
898.311	4873
898.431	4653
898.552	4717
898.672	4812
898.792	4786
898.913	4714
899.033	4596
899.153	4508
899.273	4409
899.393	4489
899.513	4500
899.633	4512
899.753	4542
899.873	4466
899.993	4580
900.113	4527
900.232	4603
900.352	4508
900.472	4516
900.591	4390
900.711	4504
900.83	4390
900.95	4607
901.069	4683
901.189	4542
901.308	4367
901.427	4337
901.546	4356
901.665	4470
901.784	4504
901.904	4424
902.023	4322
902.141	4207
902.26	4147
902.379	4268
902.498	4223
902.617	4200
902.735	4348
902.854	4436
902.973	4360
903.091	4234
903.21	4238
903.328	4276
903.446	4276
903.565	4211
903.683	4314
903.801	4291
903.919	4394
904.038	4436
904.156	4329
904.274	4424
904.392	4383
904.51	4428
904.627	4436
904.745	4573
904.863	4664
904.981	4360
905.098	4284
905.216	4363
905.334	4409
905.451	4440
905.569	4428
905.686	4599
905.803	4558
905.921	4424
906.038	4558
906.155	4421
906.272	4394
906.389	4459
906.506	4333
906.623	4379
906.74	4398
906.857	4333
906.974	4367
907.091	4500
907.208	4714
907.324	4573
907.441	4455
907.557	4352
907.674	4367
907.79	4371
907.907	4371
908.023	4451
908.139	4421
908.256	4440
908.372	4440
908.488	4451
908.604	4352
908.72	4322
908.836	4367
908.952	4367
909.068	4421
909.184	4523
909.3	4455
909.415	4554
909.531	4519
909.647	4371
909.762	4402
909.878	4333
909.993	4432
910.108	4436
910.224	4421
910.339	4493
910.454	4447
910.57	4356
910.685	4230
910.8	4637
910.915	4550
911.03	4443
911.145	4344
911.259	4291
911.374	4409
911.489	4325
911.604	4265
911.718	4139
911.833	4169
911.947	4090
912.062	4006
912.176	4181
912.291	4192
912.405	4223
912.519	4440
912.633	4523
912.748	4352
912.862	4299
912.976	4215
913.09	4105
913.204	4196
913.318	4230
913.431	4386
913.545	4356
913.659	4436
913.772	4333
913.886	4249
914	4200
914.113	4375
914.226	4432
914.34	4352
914.453	4257
914.566	4424
914.68	4265
914.793	4360
914.906	4185
915.019	4124
915.132	4040
915.245	4177
915.358	4227
915.47	4253
915.583	4310
915.696	4246
915.809	4424
915.921	4409
916.034	4261
916.146	4276
916.259	4227
916.371	4344
916.483	4344
916.595	4246
916.708	4341
916.82	4329
916.932	4310
917.044	4337
917.156	4344
917.268	4234
917.38	4249
917.491	4227
917.603	4360
917.715	4424
917.826	4413
917.938	4341
918.049	4230
918.161	4390
918.272	4512
918.384	4504
918.495	4428
918.606	4265
918.717	4280
918.828	4344
918.939	4356
919.05	4268
919.161	4318
919.272	4150
919.383	4219
919.494	4474
919.604	4630
919.715	4409
919.826	4356
919.936	4390
920.047	4561
920.157	4523
920.267	4653
920.378	4516
920.488	4508
920.598	4714
920.708	4900
920.818	4774
920.928	4755
921.038	4923
921.148	4885
921.258	4656
921.368	4599
921.477	4527
921.587	4470
921.697	4436
921.806	4554
921.916	4428
922.025	4291
922.134	4280
922.244	4211
922.353	4303
922.462	4158
922.571	4112
922.68	4017
922.789	3956
922.898	4071
923.007	3983
923.116	4093
923.224	4051
923.333	4067
923.442	3975
923.55	3964
923.659	4036
923.767	4116
923.876	3998
923.984	4128
924.092	4025
924.201	4071
924.309	4067
924.417	4154
924.525	4006
924.633	4105
924.741	5048
924.849	3899
924.956	4120
925.064	3964
925.172	3918
925.279	3975
925.387	4059
925.494	4082
925.602	4211
925.709	4177
925.816	4036
925.924	4124
926.031	4253
926.138	4173
926.245	4192
926.352	4082
926.459	4272
926.566	4276
926.673	4177
926.779	4090
926.886	4093
926.993	3930
927.099	3956
927.206	3941
927.312	3953
927.419	4082
927.525	4010
927.631	4093
927.737	3945
927.843	3960
927.95	3842
928.056	3953
928.162	3968
928.267	4036
928.373	4611
928.479	4093
928.585	3850
928.69	4059
928.796	4090
928.901	3972
929.007	3873
929.112	4025
929.218	3949
929.323	3941
929.428	3915
929.533	4128
929.638	3888
929.743	3941
929.848	4059
929.953	4006
930.058	3926
930.163	3755
930.267	3800
930.372	3979
930.477	3816
930.581	4090
930.685	3907
930.79	3827
930.894	3903
930.998	3857
931.103	4032
931.207	3705
931.311	3667
931.415	3652
931.519	3488
931.623	3568
