Data from test_V78500241_2802.txt Node
Date: Fri Mar 25 17:08:29 CST 2022
User: usil
Spectrometer: V785-0024
Trigger mode: 0
Integration Time (sec): 4.000000E-1
Scans to average: 1
Nonlinearity correction enabled: false
Boxcar width: 0
Storing dark spectrum: false
XAxis mode: Wavelengths
Number of Pixels in Spectrum: 1024
>>>>>Begin Spectral Data<<<<<
801.071	8012
801.214	8024
801.356	7936
801.499	7921
801.641	7879
801.783	7890
801.926	7921
802.068	7963
802.211	8058
802.353	8043
802.496	7845
802.638	7967
802.78	7940
802.923	7932
803.065	7887
803.208	7868
803.35	8035
803.492	8176
803.635	8176
803.777	8077
803.919	8145
804.061	8480
804.204	8149
804.346	8008
804.488	7986
804.63	8081
804.773	8092
804.915	8199
805.057	8332
805.199	8149
805.341	8294
805.483	8332
805.626	8294
805.768	8199
805.91	8187
806.052	8294
806.194	8176
806.336	8320
806.478	8149
806.62	8084
806.762	8157
806.904	8233
807.046	8511
807.188	8450
807.33	8351
807.472	8404
807.614	8221
807.756	8206
807.898	8077
808.04	7997
808.182	7894
808.324	7913
808.465	7959
808.607	8130
808.749	8153
808.891	8282
809.033	8298
809.174	8187
809.316	8142
809.458	8073
809.6	8005
809.741	8103
809.883	8077
810.025	8161
810.166	8058
810.308	8027
810.45	8119
810.591	7906
810.733	7761
810.875	7727
811.016	7575
811.158	7571
811.299	7620
811.441	7807
811.582	7723
811.724	7605
811.865	7575
812.007	7628
812.148	7605
812.29	7693
812.431	7769
812.573	7909
812.714	8005
812.855	8187
812.997	8256
813.138	8366
813.279	8210
813.421	8153
813.562	8073
813.703	7928
813.845	7841
813.986	7464
814.127	7339
814.268	7247
814.41	7278
814.551	7217
814.692	7217
814.833	7084
814.974	7118
815.115	7091
815.256	7031
815.397	6958
815.539	7038
815.68	6852
815.821	6829
815.962	6916
816.103	6848
816.244	6787
816.385	6654
816.526	6700
816.666	6532
816.807	6311
816.948	6460
817.089	6517
817.23	6460
817.371	6403
817.512	6369
817.653	6361
817.793	6342
817.934	6414
818.075	6441
818.216	6456
818.356	6410
818.497	6228
818.638	6159
818.778	6190
818.919	6175
819.06	6171
819.2	6361
819.341	6353
819.481	6338
819.622	6601
819.762	6798
819.903	6738
820.043	6612
820.184	6646
820.324	6597
820.465	6749
820.605	6700
820.746	6627
820.886	6528
821.026	6700
821.167	6795
821.307	6859
821.447	6757
821.588	6700
821.728	6623
821.868	6555
822.008	6308
822.149	6460
822.289	6418
822.429	6171
822.569	6087
822.709	6155
822.849	5977
822.99	5935
823.13	5984
823.27	5939
823.41	5805
823.55	5813
823.69	5764
823.83	5786
823.97	5703
824.11	5596
824.25	5566
824.389	5592
824.529	5638
824.669	5577
824.809	5619
824.949	5672
825.089	5615
825.228	5585
825.368	5414
825.508	5345
825.648	5334
825.787	5440
825.927	5433
826.067	5376
826.206	5337
826.346	5440
826.485	5357
826.625	5452
826.765	5558
826.904	5478
827.044	5273
827.183	5216
827.323	5098
827.462	5277
827.601	5197
827.741	5216
827.88	5231
828.02	5174
828.159	5246
828.298	5284
828.437	5376
828.577	5284
828.716	5459
828.855	5326
828.994	5155
829.134	5212
829.273	5208
829.412	5193
829.551	5155
829.69	5174
829.829	5258
829.968	5436
830.107	5239
830.246	5299
830.385	5178
830.524	5147
830.663	5083
830.802	4961
830.941	4908
831.08	4877
831.219	4976
831.357	5003
831.496	5185
831.635	4953
831.774	4877
831.913	4854
832.051	4740
832.19	4740
832.329	4873
832.467	4725
832.606	4634
832.744	4831
832.883	4729
833.022	4706
833.16	4793
833.299	4812
833.437	4782
833.576	4847
833.714	4877
833.852	4866
833.991	4904
834.129	4946
834.267	4942
834.406	4934
834.544	4972
834.682	4942
834.821	5006
834.959	5189
835.097	5037
835.235	5162
835.373	5079
835.511	5181
835.65	5037
835.788	5056
835.926	4911
836.064	4885
836.202	4946
836.34	5178
836.478	5220
836.615	5117
836.753	5181
836.891	5284
837.029	5250
837.167	5155
837.305	5189
837.443	5189
837.58	5098
837.718	5284
837.856	5216
837.993	5143
838.131	5204
838.269	5174
838.406	5208
838.544	5208
838.681	5018
838.819	4999
838.956	4957
839.094	4889
839.231	4976
839.369	5098
839.506	5467
839.643	5269
839.781	5094
839.918	5048
840.055	5136
840.193	5113
840.33	5094
840.467	5128
840.604	5201
840.742	5402
840.879	5045
841.016	5105
841.153	5132
841.29	5330
841.427	5349
841.564	5311
841.701	5383
841.838	5280
841.975	5280
842.112	5296
842.249	5220
842.385	5121
842.522	5315
842.659	5197
842.796	5189
842.933	5166
843.069	5181
843.206	5151
843.343	5303
843.479	5254
843.616	5269
843.752	5006
843.889	5018
844.025	5223
844.162	5071
844.298	5208
844.435	5071
844.571	5090
844.708	5231
844.844	5303
844.98	5322
845.117	5345
845.253	5147
845.389	5109
845.525	5162
845.661	5162
845.798	5041
845.934	5140
846.07	5022
846.206	5178
846.342	5280
846.478	5231
846.614	5014
846.75	4995
846.886	4911
847.022	5124
847.158	5025
847.294	5018
847.429	5140
847.565	5048
847.701	5299
847.837	4824
847.972	4866
848.108	4987
848.244	4946
848.379	4763
848.515	4706
848.65	4729
848.786	4752
848.921	4809
849.057	4858
849.192	4877
849.328	4858
849.463	4892
849.598	4805
849.734	4793
849.869	4755
850.004	4714
850.14	4660
850.275	4641
850.41	4519
850.545	4546
850.68	4626
850.815	4618
850.95	4687
851.085	4847
851.22	4755
851.355	4660
851.49	4622
851.625	4622
851.76	4607
851.895	4527
852.03	4558
852.165	4618
852.299	4744
852.434	4828
852.569	4786
852.703	4797
852.838	4831
852.973	4900
853.107	4953
853.242	4725
853.376	4679
853.511	4527
853.645	4554
853.78	4771
853.914	4748
854.048	4691
854.183	4679
854.317	4752
854.451	4839
854.585	4656
854.72	4634
854.854	4729
854.988	4546
855.122	4634
855.256	4554
855.39	4637
855.524	4763
855.658	4725
855.792	4755
855.926	4744
856.06	4717
856.194	4850
856.327	4607
856.461	4641
856.595	4618
856.729	4615
856.862	4740
856.996	4691
857.13	4733
857.263	4805
857.397	4793
857.53	4599
857.664	4694
857.797	4744
857.931	4812
858.064	4687
858.197	4759
858.331	4683
858.464	4599
858.597	4519
858.731	4637
858.864	4656
858.997	4634
859.13	4691
859.263	4698
859.396	4725
859.529	4592
859.662	4535
859.795	4508
859.928	4649
860.061	4812
860.194	4752
860.327	4630
860.46	4546
860.592	4729
860.725	4725
860.858	4729
860.99	4561
861.123	4558
861.256	4485
861.388	4596
861.521	5292
861.653	4493
861.786	4451
861.918	4470
862.05	4516
862.183	4554
862.315	4573
862.447	4653
862.58	4558
862.712	4417
862.844	4306
862.976	4478
863.108	4462
863.24	4759
863.372	4333
863.504	4417
863.636	4424
863.768	4500
863.9	4440
864.032	4390
864.164	4402
864.296	4455
864.428	4573
864.559	4615
864.691	4558
864.823	4546
864.954	4500
865.086	4538
865.217	4516
865.349	4447
865.48	4485
865.612	4504
865.743	4645
865.875	4451
866.006	4485
866.137	4466
866.269	4466
866.4	4409
866.531	4386
866.662	4413
866.793	4394
866.924	4443
867.055	4538
867.186	4440
867.317	4421
867.448	4375
867.579	4398
867.71	4383
867.841	4371
867.972	4390
868.103	4478
868.233	4424
868.364	4421
868.495	4470
868.625	4679
868.756	4748
868.886	4596
869.017	4592
869.147	4797
869.278	4767
869.408	4645
869.539	4596
869.669	4763
869.799	4653
869.929	4790
870.06	4744
870.19	4938
870.32	4904
870.45	4984
870.58	5014
870.71	5121
870.84	5079
870.97	4968
871.1	4850
871.23	5136
871.36	5132
871.489	5022
871.619	5136
871.749	5071
871.879	5155
872.008	5212
872.138	5014
872.267	4957
872.397	4850
872.526	4809
872.656	4752
872.785	4771
872.915	4946
873.044	5033
873.173	4892
873.303	4938
873.432	4957
873.561	4942
873.69	4923
873.819	4835
873.948	4870
874.077	4809
874.206	4778
874.335	4805
874.464	4934
874.593	5052
874.722	4946
874.851	5048
874.979	5086
875.108	5041
875.237	4957
875.365	4866
875.494	4847
875.623	4995
875.751	4843
875.88	4862
876.008	4995
876.136	4995
876.265	5136
876.393	5318
876.521	5277
876.65	5231
876.778	5223
876.906	5067
877.034	5018
877.162	5010
877.29	5025
877.418	5045
877.546	5102
877.674	5052
877.802	5018
877.93	5056
878.058	4919
878.185	4870
878.313	4999
878.441	5006
878.568	4793
878.696	4885
878.824	4957
878.951	4949
879.079	5124
879.206	5269
879.333	5037
879.461	4953
879.588	5003
879.715	5128
879.842	5178
879.97	5029
880.097	4812
880.224	4763
880.351	4816
880.478	4858
880.605	4771
880.732	4816
880.859	5098
880.986	4870
881.112	4892
881.239	4774
881.366	4653
881.493	4592
881.619	4584
881.746	4615
881.872	4664
881.999	4626
882.125	4729
882.252	4736
882.378	4767
882.505	4938
882.631	4820
882.757	4698
882.883	4706
883.01	4767
883.136	4660
883.262	4634
883.388	4618
883.514	4801
883.64	4873
883.766	4801
883.892	4694
884.018	4755
884.143	4961
884.269	4999
884.395	4714
884.52	4626
884.646	4607
884.772	4603
884.897	4569
885.023	4656
885.148	4771
885.274	4847
885.399	4805
885.524	4729
885.65	4706
885.775	4736
885.9	4717
886.025	4866
886.15	4824
886.275	4702
886.4	4634
886.525	4752
886.65	4710
886.775	4668
886.9	4923
887.025	5041
887.149	4790
887.274	4645
887.399	4626
887.523	4615
887.648	4592
887.773	4565
887.897	4733
888.021	4820
888.146	4683
888.27	4816
888.395	4892
888.519	4793
888.643	4839
888.767	4870
888.891	4679
889.015	4580
889.139	4645
889.263	4630
889.387	4816
889.511	4923
889.635	4839
889.759	4637
889.883	4683
890.006	4733
890.13	4866
890.254	4618
890.377	4748
890.501	4577
890.624	4546
890.748	4645
890.871	4485
890.995	4413
891.118	4383
891.241	4535
891.364	4538
891.488	4660
891.611	4504
891.734	4603
891.857	4584
891.98	4577
892.103	4626
892.226	4584
892.349	4535
892.471	4459
892.594	4546
892.717	4588
892.839	4561
892.962	4611
893.085	4645
893.207	4596
893.33	4394
893.452	4504
893.575	4653
893.697	4565
893.819	4744
893.941	4763
894.064	4744
894.186	4588
894.308	4527
894.43	4710
894.552	4835
894.674	4767
894.796	4527
894.918	4588
895.04	4546
895.161	4744
895.283	4672
895.405	4607
895.526	4641
895.648	4714
895.769	4706
895.891	4736
896.012	4767
896.134	4702
896.255	4641
896.376	4615
896.498	4592
896.619	4687
896.74	4626
896.861	4660
896.982	4908
897.103	5056
897.224	4843
897.345	4763
897.466	4694
897.587	4710
897.708	4858
897.828	4801
897.949	4675
898.07	4554
898.19	4626
898.311	4858
898.431	4672
898.552	4725
898.672	4809
898.792	4786
898.913	4759
899.033	4660
899.153	4500
899.273	4459
899.393	4535
899.513	4508
899.633	4554
899.753	4558
899.873	4504
899.993	4565
900.113	4565
900.232	4584
900.352	4565
900.472	4489
900.591	4424
900.711	4489
900.83	4432
900.95	4630
901.069	4679
901.189	4531
901.308	4383
901.427	4306
901.546	4394
901.665	4489
901.784	4500
901.904	4424
902.023	4337
902.141	4185
902.26	4120
902.379	4299
902.498	4227
902.617	4238
902.735	4375
902.854	4402
902.973	4367
903.091	4181
903.21	4211
903.328	4314
903.446	4249
903.565	4265
903.683	4356
903.801	4291
903.919	4409
904.038	4409
904.156	4348
904.274	4485
904.392	4371
904.51	4440
904.627	4478
904.745	4554
904.863	4607
904.981	4424
905.098	4329
905.216	4386
905.334	4390
905.451	4459
905.569	4459
905.686	4519
905.803	4558
905.921	4440
906.038	4611
906.155	4485
906.272	4383
906.389	4436
906.506	4363
906.623	4398
906.74	4417
906.857	4272
906.974	4421
907.091	4588
907.208	4668
907.324	4580
907.441	4504
907.557	4325
907.674	4310
907.79	4329
907.907	4402
908.023	4508
908.139	4497
908.256	4462
908.372	4493
908.488	4470
908.604	4337
908.72	4295
908.836	4360
908.952	4363
909.068	4424
909.184	4592
909.3	4485
909.415	4599
909.531	4538
909.647	4379
909.762	4413
909.878	4318
909.993	4443
910.108	4424
910.224	4363
910.339	4478
910.454	4386
910.57	4375
910.685	4337
910.8	4626
910.915	4618
911.03	4512
911.145	4333
911.259	4356
911.374	4371
911.489	4360
911.604	4299
911.718	4150
911.833	4196
911.947	4101
912.062	4063
912.176	4204
912.291	4253
912.405	4246
912.519	4451
912.633	4481
912.748	4379
912.862	4268
912.976	4200
913.09	4112
913.204	4181
913.318	4227
913.431	4360
913.545	4344
913.659	4405
913.772	4402
913.886	4246
914	4242
914.113	4341
914.226	4413
914.34	4390
914.453	4234
914.566	4455
914.68	4276
914.793	4375
914.906	4188
915.019	4162
915.132	4040
915.245	4166
915.358	4238
915.47	4230
915.583	4314
915.696	4314
915.809	4367
915.921	4440
916.034	4230
916.146	4265
916.259	4249
916.371	4386
916.483	4337
916.595	4280
916.708	4333
916.82	4291
916.932	4356
917.044	4325
917.156	4356
917.268	4265
917.38	4261
917.491	4299
917.603	4352
917.715	4451
917.826	4459
917.938	4344
918.049	4230
918.161	4360
918.272	4550
918.384	4546
918.495	4489
918.606	4276
918.717	4230
918.828	4291
918.939	4375
919.05	4287
919.161	4299
919.272	4150
919.383	4276
919.494	4459
919.604	4626
919.715	4417
919.826	4367
919.936	4428
920.047	4542
920.157	4516
920.267	4664
920.378	4558
920.488	4470
920.598	4717
920.708	4908
920.818	4744
920.928	4755
921.038	4942
921.148	4930
921.258	4656
921.368	4580
921.477	4459
921.587	4478
921.697	4360
921.806	4550
921.916	4440
922.025	4291
922.134	4261
922.244	4253
922.353	4402
922.462	4109
922.571	4139
922.68	3968
922.789	3975
922.898	4082
923.007	4006
923.116	4101
923.224	4017
923.333	4067
923.442	3968
923.55	3953
923.659	4013
923.767	4101
923.876	4029
923.984	4181
924.092	3983
924.201	4040
924.309	4112
924.417	4101
924.525	4090
924.633	4055
924.741	4889
924.849	3956
924.956	4143
925.064	3941
925.172	3899
925.279	3956
925.387	4071
925.494	4071
925.602	4185
925.709	4192
925.816	4025
925.924	4143
926.031	4234
926.138	4154
926.245	4192
926.352	4093
926.459	4242
926.566	4329
926.673	4154
926.779	4124
926.886	4063
926.993	3975
927.099	3922
927.206	3953
927.312	3918
927.419	4017
927.525	4059
927.631	4090
927.737	3987
927.843	3922
927.95	3835
928.056	3994
928.162	4006
928.267	4059
928.373	4679
928.479	4105
928.585	3884
928.69	4013
928.796	4097
928.901	3987
929.007	3812
929.112	3960
929.218	3972
929.323	3953
929.428	3911
929.533	4128
929.638	3907
929.743	3972
929.848	4017
929.953	3987
930.058	3953
930.163	3736
930.267	3838
930.372	3953
930.477	3800
930.581	4055
930.685	3930
930.79	3819
930.894	3899
930.998	3888
931.103	4051
931.207	3720
931.311	3675
931.415	3663
931.519	3511
931.623	3564
