Data from test_V78500241_562.txt Node
Date: Fri Mar 25 16:52:54 CST 2022
User: usil
Spectrometer: V785-0024
Trigger mode: 0
Integration Time (sec): 4.000000E-1
Scans to average: 1
Nonlinearity correction enabled: false
Boxcar width: 0
Storing dark spectrum: false
XAxis mode: Wavelengths
Number of Pixels in Spectrum: 1024
>>>>>Begin Spectral Data<<<<<
801.071	8046
801.214	8020
801.356	7906
801.499	7921
801.641	7769
801.783	7925
801.926	8005
802.068	7982
802.211	8039
802.353	7993
802.496	7974
802.638	7940
802.78	7898
802.923	7879
803.065	7830
803.208	7841
803.35	8043
803.492	8065
803.635	8153
803.777	8065
803.919	8119
804.061	8396
804.204	8164
804.346	8050
804.488	7970
804.63	8130
804.773	7986
804.915	8035
805.057	8347
805.199	8180
805.341	8240
805.483	8267
805.626	8187
805.768	8191
805.91	8180
806.052	8180
806.194	8081
806.336	8290
806.478	8081
806.62	8081
806.762	8168
806.904	8275
807.046	8488
807.188	8415
807.33	8252
807.472	8351
807.614	8180
807.756	8123
807.898	8039
808.04	7898
808.182	7932
808.324	7887
808.465	7932
808.607	8081
808.749	8164
808.891	8218
809.033	8332
809.174	8130
809.316	8035
809.458	8050
809.6	8077
809.741	7982
809.883	7982
810.025	8058
810.166	8027
810.308	8020
810.45	7978
810.591	7879
810.733	7700
810.875	7696
811.016	7457
811.158	7491
811.299	7601
811.441	7689
811.582	7708
811.724	7502
811.865	7514
812.007	7609
812.148	7594
812.29	7578
812.431	7731
812.573	7887
812.714	8027
812.855	8172
812.997	8187
813.138	8389
813.279	8195
813.421	8077
813.562	8054
813.703	7883
813.845	7898
813.986	7480
814.127	7411
814.268	7266
814.41	7213
814.551	7202
814.692	7171
814.833	7053
814.974	7095
815.115	7171
815.256	7008
815.397	6935
815.539	6878
815.68	6844
815.821	6764
815.962	6844
816.103	6852
816.244	6795
816.385	6623
816.526	6631
816.666	6494
816.807	6327
816.948	6452
817.089	6448
817.23	6456
817.371	6407
817.512	6441
817.653	6384
817.793	6399
817.934	6441
818.075	6380
818.216	6429
818.356	6433
818.497	6220
818.638	6136
818.778	6117
818.919	6152
819.06	6148
819.2	6285
819.341	6304
819.481	6399
819.622	6502
819.762	6741
819.903	6688
820.043	6578
820.184	6490
820.324	6589
820.465	6677
820.605	6681
820.746	6589
820.886	6486
821.026	6658
821.167	6696
821.307	6764
821.447	6753
821.588	6681
821.728	6540
821.868	6521
822.008	6289
822.149	6403
822.289	6372
822.429	6133
822.569	6106
822.709	6083
822.849	5927
822.99	5904
823.13	5893
823.27	5920
823.41	5802
823.55	5767
823.69	5729
823.83	5790
823.97	5672
824.11	5573
824.25	5524
824.389	5570
824.529	5634
824.669	5539
824.809	5619
824.949	5726
825.089	5623
825.228	5558
825.368	5387
825.508	5345
825.648	5322
825.787	5383
825.927	5402
826.067	5296
826.206	5334
826.346	5395
826.485	5414
826.625	5467
826.765	5520
826.904	5440
827.044	5220
827.183	5250
827.323	5117
827.462	5261
827.601	5197
827.741	5212
827.88	5189
828.02	5105
828.159	5197
828.298	5315
828.437	5337
828.577	5292
828.716	5482
828.855	5334
828.994	5162
829.134	5117
829.273	5239
829.412	5201
829.551	5083
829.69	5166
829.829	5220
829.968	5391
830.107	5242
830.246	5231
830.385	5181
830.524	5159
830.663	5060
830.802	4957
830.941	4858
831.08	4908
831.219	5071
831.357	5033
831.496	5155
831.635	4949
831.774	4854
831.913	4835
832.051	4763
832.19	4725
832.329	4828
832.467	4714
832.606	4634
832.744	4736
832.883	4717
833.022	4698
833.16	4782
833.299	4816
833.437	4885
833.576	4809
833.714	4858
833.852	4850
833.991	4877
834.129	4942
834.267	4976
834.406	4904
834.544	4961
834.682	4942
834.821	4934
834.959	5155
835.097	5010
835.235	5132
835.373	5117
835.511	5136
835.65	5052
835.788	5006
835.926	4892
836.064	4919
836.202	4961
836.34	5136
836.478	5189
836.615	5147
836.753	5201
836.891	5315
837.029	5231
837.167	5197
837.305	5178
837.443	5151
837.58	5113
837.718	5296
837.856	5223
837.993	5162
838.131	5204
838.269	5174
838.406	5216
838.544	5193
838.681	5014
838.819	5041
838.956	4862
839.094	4908
839.231	4987
839.369	5136
839.506	5429
839.643	5250
839.781	5056
839.918	5018
840.055	5105
840.193	5075
840.33	5071
840.467	5193
840.604	5174
840.742	5467
840.879	5075
841.016	5075
841.153	5189
841.29	5303
841.427	5326
841.564	5326
841.701	5334
841.838	5284
841.975	5220
842.112	5315
842.249	5136
842.385	5128
842.522	5364
842.659	5170
842.796	5113
842.933	5220
843.069	5105
843.206	5181
843.343	5311
843.479	5261
843.616	5284
843.752	5056
843.889	5010
844.025	5208
844.162	5037
844.298	5204
844.435	5128
844.571	5090
844.708	5178
844.844	5292
844.98	5318
845.117	5296
845.253	5075
845.389	5109
845.525	5136
845.661	5124
845.798	5060
845.934	5136
846.07	5041
846.206	5201
846.342	5296
846.478	5140
846.614	5018
846.75	5022
846.886	4968
847.022	5136
847.158	5033
847.294	5048
847.429	5079
847.565	5079
847.701	5326
847.837	4877
847.972	4816
848.108	4915
848.244	4908
848.379	4831
848.515	4744
848.65	4714
848.786	4736
848.921	4767
849.057	4881
849.192	4896
849.328	4831
849.463	4843
849.598	4824
849.734	4778
849.869	4721
850.004	4664
850.14	4656
850.275	4580
850.41	4523
850.545	4577
850.68	4542
850.815	4618
850.95	4607
851.085	4805
851.22	4736
851.355	4656
851.49	4611
851.625	4592
851.76	4622
851.895	4588
852.03	4493
852.165	4660
852.299	4763
852.434	4759
852.569	4725
852.703	4786
852.838	4820
852.973	4957
853.107	4892
853.242	4717
853.376	4653
853.511	4550
853.645	4592
853.78	4771
853.914	4675
854.048	4649
854.183	4714
854.317	4691
854.451	4816
854.585	4687
854.72	4641
854.854	4755
854.988	4641
855.122	4622
855.256	4481
855.39	4645
855.524	4782
855.658	4660
855.792	4702
855.926	4755
856.06	4763
856.194	4801
856.327	4702
856.461	4569
856.595	4607
856.729	4584
856.862	4767
856.996	4702
857.13	4729
857.263	4736
857.397	4763
857.53	4611
857.664	4744
857.797	4740
857.931	4774
858.064	4672
858.197	4729
858.331	4637
858.464	4565
858.597	4527
858.731	4622
858.864	4672
858.997	4596
859.13	4634
859.263	4653
859.396	4683
859.529	4618
859.662	4584
859.795	4550
859.928	4596
860.061	4771
860.194	4729
860.327	4603
860.46	4542
860.592	4706
860.725	4721
860.858	4710
860.99	4535
861.123	4512
861.256	4519
861.388	4599
861.521	5414
861.653	4432
861.786	4462
861.918	4462
862.05	4554
862.183	4538
862.315	4618
862.447	4687
862.58	4558
862.712	4402
862.844	4329
862.976	4493
863.108	4440
863.24	4877
863.372	4268
863.504	4413
863.636	4394
863.768	4440
863.9	4447
864.032	4348
864.164	4413
864.296	4504
864.428	4504
864.559	4569
864.691	4500
864.823	4546
864.954	4497
865.086	4451
865.217	4417
865.349	4402
865.48	4413
865.612	4459
865.743	4607
865.875	4481
866.006	4428
866.137	4451
866.269	4489
866.4	4428
866.531	4421
866.662	4371
866.793	4402
866.924	4402
867.055	4474
867.186	4424
867.317	4409
867.448	4390
867.579	4367
867.71	4409
867.841	4383
867.972	4500
868.103	4440
868.233	4421
868.364	4466
868.495	4485
868.625	4672
868.756	4774
868.886	4615
869.017	4596
869.147	4782
869.278	4782
869.408	4679
869.539	4664
869.669	4702
869.799	4668
869.929	4740
870.06	4725
870.19	4972
870.32	4946
870.45	4946
870.58	5033
870.71	5098
870.84	5090
870.97	4980
871.1	4904
871.23	5086
871.36	5098
871.489	5022
871.619	5060
871.749	5086
871.879	5140
872.008	5151
872.138	5075
872.267	5010
872.397	4862
872.526	4771
872.656	4710
872.785	4793
872.915	4957
873.044	4995
873.173	4927
873.303	4938
873.432	4934
873.561	4991
873.69	4839
873.819	4858
873.948	4965
874.077	4771
874.206	4729
874.335	4793
874.464	4946
874.593	5003
874.722	4946
874.851	5105
874.979	5037
875.108	5067
875.237	4927
875.365	4919
875.494	4889
875.623	4949
875.751	4824
875.88	4862
876.008	4942
876.136	5067
876.265	5204
876.393	5307
876.521	5201
876.65	5231
876.778	5174
876.906	5067
877.034	5041
877.162	5067
877.29	4980
877.418	5060
877.546	5045
877.674	5086
877.802	5018
877.93	5037
878.058	4949
878.185	4889
878.313	4961
878.441	4934
878.568	4835
878.696	4892
878.824	4984
878.951	5006
879.079	5109
879.206	5280
879.333	5128
879.461	5022
879.588	5006
879.715	5132
879.842	5193
879.97	5018
880.097	4790
880.224	4748
880.351	4790
880.478	4797
880.605	4812
880.732	4801
880.859	5086
880.986	4919
881.112	4885
881.239	4812
881.366	4634
881.493	4596
881.619	4546
881.746	4588
881.872	4653
881.999	4694
882.125	4672
882.252	4782
882.378	4847
882.505	4972
882.631	4809
882.757	4656
882.883	4733
883.01	4679
883.136	4675
883.262	4535
883.388	4634
883.514	4820
883.64	4847
883.766	4774
883.892	4641
884.018	4733
884.143	4911
884.269	4995
884.395	4656
884.52	4630
884.646	4588
884.772	4565
884.897	4550
885.023	4626
885.148	4843
885.274	4793
885.399	4805
885.524	4725
885.65	4687
885.775	4767
885.9	4702
886.025	4828
886.15	4809
886.275	4725
886.4	4649
886.525	4683
886.65	4656
886.775	4691
886.9	4843
887.025	5010
887.149	4778
887.274	4649
887.399	4607
887.523	4588
887.648	4546
887.773	4592
887.897	4759
888.021	4839
888.146	4691
888.27	4801
888.395	4873
888.519	4801
888.643	4847
888.767	4816
888.891	4664
889.015	4615
889.139	4637
889.263	4630
889.387	4759
889.511	4858
889.635	4774
889.759	4596
889.883	4683
890.006	4774
890.13	4843
890.254	4653
890.377	4752
890.501	4546
890.624	4519
890.748	4668
890.871	4500
890.995	4424
891.118	4341
891.241	4489
891.364	4554
891.488	4596
891.611	4535
891.734	4523
891.857	4649
891.98	4580
892.103	4641
892.226	4565
892.349	4573
892.471	4428
892.594	4523
892.717	4599
892.839	4577
892.962	4599
893.085	4653
893.207	4596
893.33	4481
893.452	4550
893.575	4706
893.697	4611
893.819	4820
893.941	4858
894.064	4752
894.186	4599
894.308	4611
894.43	4702
894.552	4786
894.674	4733
894.796	4558
894.918	4596
895.04	4558
895.161	4664
895.283	4664
895.405	4584
895.526	4679
895.648	4687
895.769	4664
895.891	4710
896.012	4702
896.134	4725
896.255	4687
896.376	4622
896.498	4630
896.619	4641
896.74	4607
896.861	4683
896.982	4949
897.103	5083
897.224	4835
897.345	4820
897.466	4630
897.587	4793
897.708	4866
897.828	4828
897.949	4656
898.07	4569
898.19	4637
898.311	4809
898.431	4645
898.552	4710
898.672	4816
898.792	4816
898.913	4755
899.033	4626
899.153	4485
899.273	4451
899.393	4459
899.513	4565
899.633	4573
899.753	4588
899.873	4573
899.993	4607
900.113	4546
900.232	4554
900.352	4546
900.472	4497
900.591	4413
900.711	4478
900.83	4443
900.95	4607
901.069	4691
901.189	4500
901.308	4329
901.427	4348
901.546	4394
901.665	4459
901.784	4462
901.904	4417
902.023	4299
902.141	4185
902.26	4090
902.379	4287
902.498	4238
902.617	4215
902.735	4371
902.854	4402
902.973	4371
903.091	4196
903.21	4238
903.328	4272
903.446	4268
903.565	4261
903.683	4360
903.801	4272
903.919	4383
904.038	4447
904.156	4379
904.274	4398
904.392	4386
904.51	4447
904.627	4462
904.745	4561
904.863	4580
904.981	4390
905.098	4314
905.216	4322
905.334	4451
905.451	4436
905.569	4428
905.686	4550
905.803	4615
905.921	4432
906.038	4588
906.155	4455
906.272	4447
906.389	4455
906.506	4352
906.623	4341
906.74	4421
906.857	4306
906.974	4352
907.091	4603
907.208	4668
907.324	4596
907.441	4489
907.557	4337
907.674	4352
907.79	4352
907.907	4322
908.023	4485
908.139	4481
908.256	4424
908.372	4451
908.488	4432
908.604	4310
908.72	4318
908.836	4379
908.952	4367
909.068	4413
909.184	4527
909.3	4459
909.415	4599
909.531	4561
909.647	4291
909.762	4398
909.878	4333
909.993	4421
910.108	4421
910.224	4375
910.339	4455
910.454	4394
910.57	4337
910.685	4306
910.8	4679
910.915	4535
911.03	4512
911.145	4310
911.259	4344
911.374	4341
911.489	4306
911.604	4299
911.718	4192
911.833	4185
911.947	4074
912.062	4025
912.176	4207
912.291	4207
912.405	4223
912.519	4497
912.633	4470
912.748	4383
912.862	4284
912.976	4215
913.09	4086
913.204	4200
913.318	4249
913.431	4360
913.545	4394
913.659	4413
913.772	4413
913.886	4272
914	4181
914.113	4356
914.226	4436
914.34	4375
914.453	4272
914.566	4428
914.68	4280
914.793	4310
914.906	4135
915.019	4124
915.132	4101
915.245	4200
915.358	4204
915.47	4192
915.583	4261
915.696	4299
915.809	4398
915.921	4432
916.034	4242
916.146	4261
916.259	4230
916.371	4417
916.483	4356
916.595	4246
916.708	4375
916.82	4329
916.932	4325
917.044	4322
917.156	4348
917.268	4242
917.38	4303
917.491	4223
917.603	4337
917.715	4409
917.826	4447
917.938	4371
918.049	4188
918.161	4383
918.272	4527
918.384	4538
918.495	4451
918.606	4303
918.717	4223
918.828	4287
918.939	4363
919.05	4249
919.161	4322
919.272	4158
919.383	4223
919.494	4424
919.604	4615
919.715	4462
919.826	4318
919.936	4375
920.047	4508
920.157	4459
920.267	4725
920.378	4523
920.488	4462
920.598	4721
920.708	4934
920.818	4721
920.928	4729
921.038	4976
921.148	4934
921.258	4622
921.368	4550
921.477	4531
921.587	4470
921.697	4337
921.806	4561
921.916	4432
922.025	4253
922.134	4257
922.244	4230
922.353	4325
922.462	4177
922.571	4112
922.68	3987
922.789	3972
922.898	4029
923.007	4021
923.116	4078
923.224	4078
923.333	4112
923.442	3968
923.55	3960
923.659	4040
923.767	4124
923.876	3994
923.984	4116
924.092	3956
924.201	4025
924.309	4078
924.417	4105
924.525	4036
924.633	4116
924.741	5094
924.849	3934
924.956	4131
925.064	3975
925.172	3892
925.279	3907
925.387	4082
925.494	4044
925.602	4188
925.709	4192
925.816	4036
925.924	4135
926.031	4177
926.138	4177
926.245	4169
926.352	4143
926.459	4249
926.566	4318
926.673	4162
926.779	4055
926.886	4086
926.993	3987
927.099	3956
927.206	3941
927.312	3964
927.419	4067
927.525	4044
927.631	4097
927.737	3972
927.843	3934
927.95	3857
928.056	3968
928.162	3998
928.267	4021
928.373	4675
928.479	4150
928.585	3922
928.69	4048
928.796	4063
928.901	3956
929.007	3835
929.112	4036
929.218	3930
929.323	3937
929.428	3949
929.533	4074
929.638	3907
929.743	3964
929.848	4048
929.953	3998
930.058	3899
930.163	3819
930.267	3842
930.372	3987
930.477	3823
930.581	4071
930.685	3960
930.79	3804
930.894	3915
930.998	3842
931.103	4059
931.207	3686
931.311	3709
931.415	3671
931.519	3515
931.623	3526
