Data from test_V78500241_506.txt Node
Date: Fri Mar 25 16:52:31 CST 2022
User: usil
Spectrometer: V785-0024
Trigger mode: 0
Integration Time (sec): 4.000000E-1
Scans to average: 1
Nonlinearity correction enabled: false
Boxcar width: 0
Storing dark spectrum: false
XAxis mode: Wavelengths
Number of Pixels in Spectrum: 1024
>>>>>Begin Spectral Data<<<<<
801.071	8058
801.214	7989
801.356	7894
801.499	7898
801.641	7792
801.783	7856
801.926	8024
802.068	7986
802.211	8065
802.353	8008
802.496	7913
802.638	7959
802.78	7986
802.923	7951
803.065	7947
803.208	7875
803.35	7947
803.492	8073
803.635	8092
803.777	7967
803.919	8058
804.061	8442
804.204	8138
804.346	7997
804.488	7951
804.63	8092
804.773	7951
804.915	8096
805.057	8343
805.199	8180
805.341	8210
805.483	8267
805.626	8153
805.768	8092
805.91	8115
806.052	8210
806.194	8092
806.336	8256
806.478	8134
806.62	8073
806.762	8138
806.904	8259
807.046	8473
807.188	8377
807.33	8240
807.472	8301
807.614	8100
807.756	8065
807.898	7986
808.04	7902
808.182	7852
808.324	7890
808.465	7902
808.607	8020
808.749	8103
808.891	8225
809.033	8267
809.174	8134
809.316	8088
809.458	8054
809.6	7978
809.741	7978
809.883	8016
810.025	8073
810.166	8043
810.308	8012
810.45	7982
810.591	7826
810.733	7727
810.875	7666
811.016	7525
811.158	7502
811.299	7632
811.441	7803
811.582	7734
811.724	7586
811.865	7556
812.007	7597
812.148	7601
812.29	7563
812.431	7795
812.573	7925
812.714	8046
812.855	8138
812.997	8187
813.138	8389
813.279	8275
813.421	8210
813.562	8088
813.703	7928
813.845	7788
813.986	7518
814.127	7407
814.268	7312
814.41	7217
814.551	7187
814.692	7244
814.833	7061
814.974	7084
815.115	7183
815.256	6970
815.397	6863
815.539	6958
815.68	6852
815.821	6783
815.962	6905
816.103	6844
816.244	6749
816.385	6665
816.526	6623
816.666	6547
816.807	6304
816.948	6464
817.089	6532
817.23	6384
817.371	6376
817.512	6384
817.653	6376
817.793	6372
817.934	6395
818.075	6471
818.216	6369
818.356	6460
818.497	6239
818.638	6091
818.778	6133
818.919	6117
819.06	6190
819.2	6292
819.341	6319
819.481	6388
819.622	6536
819.762	6726
819.903	6658
820.043	6585
820.184	6593
820.324	6616
820.465	6623
820.605	6574
820.746	6623
820.886	6475
821.026	6669
821.167	6688
821.307	6791
821.447	6783
821.588	6631
821.728	6532
821.868	6460
822.008	6239
822.149	6380
822.289	6342
822.429	6171
822.569	6060
822.709	6057
822.849	5916
822.99	5897
823.13	5897
823.27	5916
823.41	5786
823.55	5771
823.69	5798
823.83	5828
823.97	5726
824.11	5570
824.25	5566
824.389	5562
824.529	5547
824.669	5551
824.809	5661
824.949	5653
825.089	5661
825.228	5551
825.368	5440
825.508	5334
825.648	5360
825.787	5398
825.927	5376
826.067	5273
826.206	5299
826.346	5414
826.485	5421
826.625	5417
826.765	5543
826.904	5512
827.044	5280
827.183	5261
827.323	5128
827.462	5227
827.601	5181
827.741	5193
827.88	5277
828.02	5098
828.159	5261
828.298	5239
828.437	5379
828.577	5315
828.716	5509
828.855	5311
828.994	5174
829.134	5185
829.273	5208
829.412	5151
829.551	5162
829.69	5239
829.829	5235
829.968	5391
830.107	5273
830.246	5296
830.385	5159
830.524	5147
830.663	5064
830.802	4976
830.941	4949
831.08	4847
831.219	4995
831.357	4976
831.496	5181
831.635	4885
831.774	4873
831.913	4847
832.051	4706
832.19	4748
832.329	4831
832.467	4721
832.606	4641
832.744	4694
832.883	4721
833.022	4752
833.16	4771
833.299	4816
833.437	4835
833.576	4843
833.714	4858
833.852	4877
833.991	4881
834.129	4953
834.267	4965
834.406	4934
834.544	4965
834.682	4946
834.821	4915
834.959	5075
835.097	5006
835.235	5162
835.373	5037
835.511	5128
835.65	5067
835.788	4991
835.926	4881
836.064	4927
836.202	4877
836.34	5231
836.478	5235
836.615	5117
836.753	5201
836.891	5311
837.029	5258
837.167	5189
837.305	5185
837.443	5170
837.58	5128
837.718	5242
837.856	5155
837.993	5117
838.131	5208
838.269	5201
838.406	5212
838.544	5189
838.681	5029
838.819	5022
838.956	4923
839.094	4923
839.231	4949
839.369	5086
839.506	5414
839.643	5296
839.781	5128
839.918	5060
840.055	5102
840.193	5064
840.33	5136
840.467	5155
840.604	5143
840.742	5410
840.879	5075
841.016	5117
841.153	5181
841.29	5337
841.427	5330
841.564	5299
841.701	5364
841.838	5315
841.975	5258
842.112	5292
842.249	5201
842.385	5140
842.522	5326
842.659	5170
842.796	5132
842.933	5239
843.069	5109
843.206	5170
843.343	5330
843.479	5273
843.616	5242
843.752	5029
843.889	4965
844.025	5208
844.162	5037
844.298	5204
844.435	5109
844.571	5060
844.708	5204
844.844	5303
844.98	5341
845.117	5292
845.253	5170
845.389	5117
845.525	5223
845.661	5132
845.798	5075
845.934	5124
846.07	5090
846.206	5193
846.342	5288
846.478	5204
846.614	5029
846.75	4953
846.886	4946
847.022	5132
847.158	5029
847.294	5064
847.429	5162
847.565	5090
847.701	5334
847.837	4881
847.972	4831
848.108	4942
848.244	4995
848.379	4812
848.515	4725
848.65	4721
848.786	4706
848.921	4812
849.057	4908
849.192	4919
849.328	4862
849.463	4866
849.598	4790
849.734	4778
849.869	4679
850.004	4679
850.14	4683
850.275	4615
850.41	4538
850.545	4546
850.68	4584
850.815	4630
850.95	4622
851.085	4850
851.22	4755
851.355	4675
851.49	4668
851.625	4573
851.76	4637
851.895	4565
852.03	4535
852.165	4626
852.299	4706
852.434	4790
852.569	4698
852.703	4767
852.838	4797
852.973	4938
853.107	4873
853.242	4706
853.376	4641
853.511	4542
853.645	4656
853.78	4812
853.914	4740
854.048	4675
854.183	4653
854.317	4706
854.451	4919
854.585	4675
854.72	4668
854.854	4774
854.988	4558
855.122	4664
855.256	4550
855.39	4691
855.524	4778
855.658	4706
855.792	4691
855.926	4759
856.06	4763
856.194	4805
856.327	4694
856.461	4611
856.595	4656
856.729	4630
856.862	4740
856.996	4672
857.13	4721
857.263	4763
857.397	4824
857.53	4687
857.664	4763
857.797	4790
857.931	4763
858.064	4710
858.197	4759
858.331	4649
858.464	4622
858.597	4500
858.731	4607
858.864	4618
858.997	4603
859.13	4656
859.263	4702
859.396	4683
859.529	4580
859.662	4558
859.795	4523
859.928	4634
860.061	4759
860.194	4729
860.327	4596
860.46	4599
860.592	4714
860.725	4736
860.858	4748
860.99	4607
861.123	4538
861.256	4519
861.388	4592
861.521	5334
861.653	4489
861.786	4436
861.918	4470
862.05	4558
862.183	4535
862.315	4615
862.447	4710
862.58	4588
862.712	4432
862.844	4318
862.976	4493
863.108	4447
863.24	4881
863.372	4337
863.504	4428
863.636	4402
863.768	4508
863.9	4462
864.032	4367
864.164	4417
864.296	4508
864.428	4554
864.559	4611
864.691	4523
864.823	4497
864.954	4519
865.086	4478
865.217	4466
865.349	4398
865.48	4436
865.612	4443
865.743	4653
865.875	4447
866.006	4421
866.137	4459
866.269	4459
866.4	4493
866.531	4470
866.662	4459
866.793	4405
866.924	4440
867.055	4538
867.186	4466
867.317	4417
867.448	4352
867.579	4432
867.71	4356
867.841	4409
867.972	4466
868.103	4402
868.233	4451
868.364	4402
868.495	4497
868.625	4653
868.756	4820
868.886	4577
869.017	4588
869.147	4767
869.278	4740
869.408	4687
869.539	4645
869.669	4736
869.799	4660
869.929	4721
870.06	4744
870.19	4965
870.32	4930
870.45	4953
870.58	4953
870.71	5010
870.84	5113
870.97	4923
871.1	4908
871.23	5090
871.36	5098
871.489	5060
871.619	5056
871.749	5075
871.879	5079
872.008	5193
872.138	5075
872.267	4972
872.397	4843
872.526	4790
872.656	4710
872.785	4767
872.915	5014
873.044	4995
873.173	4911
873.303	4968
873.432	4984
873.561	4968
873.69	4850
873.819	4881
873.948	4892
874.077	4850
874.206	4797
874.335	4790
874.464	4938
874.593	5083
874.722	4968
874.851	5136
874.979	5064
875.108	5060
875.237	4908
875.365	4919
875.494	4866
875.623	5025
875.751	4816
875.88	4919
876.008	4915
876.136	5037
876.265	5185
876.393	5296
876.521	5227
876.65	5254
876.778	5121
876.906	5056
877.034	5010
877.162	5022
877.29	4999
877.418	5117
877.546	5048
877.674	5075
877.802	5067
877.93	5060
878.058	4946
878.185	4862
878.313	4930
878.441	4957
878.568	4790
878.696	4915
878.824	4968
878.951	4976
879.079	5151
879.206	5326
879.333	5102
879.461	5014
879.588	4968
879.715	5071
879.842	5223
879.97	5048
880.097	4801
880.224	4774
880.351	4793
880.478	4858
880.605	4763
880.732	4805
880.859	5083
880.986	4908
881.112	4911
881.239	4748
881.366	4664
881.493	4603
881.619	4584
881.746	4630
881.872	4664
881.999	4656
882.125	4714
882.252	4774
882.378	4816
882.505	4957
882.631	4774
882.757	4664
882.883	4725
883.01	4736
883.136	4706
883.262	4675
883.388	4649
883.514	4828
883.64	4820
883.766	4812
883.892	4660
884.018	4763
884.143	4896
884.269	5018
884.395	4683
884.52	4653
884.646	4649
884.772	4599
884.897	4584
885.023	4649
885.148	4850
885.274	4816
885.399	4854
885.524	4733
885.65	4698
885.775	4763
885.9	4687
886.025	4839
886.15	4786
886.275	4702
886.4	4622
886.525	4755
886.65	4714
886.775	4649
886.9	4942
887.025	5075
887.149	4858
887.274	4626
887.399	4615
887.523	4603
887.648	4584
887.773	4584
887.897	4786
888.021	4812
888.146	4634
888.27	4839
888.395	4938
888.519	4805
888.643	4862
888.767	4809
888.891	4710
889.015	4569
889.139	4653
889.263	4626
889.387	4801
889.511	4873
889.635	4870
889.759	4634
889.883	4641
890.006	4721
890.13	4877
890.254	4611
890.377	4717
890.501	4565
890.624	4527
890.748	4630
890.871	4523
890.995	4489
891.118	4405
891.241	4527
891.364	4512
891.488	4611
891.611	4527
891.734	4584
891.857	4603
891.98	4588
892.103	4668
892.226	4603
892.349	4546
892.471	4394
892.594	4569
892.717	4569
892.839	4588
892.962	4618
893.085	4710
893.207	4622
893.33	4489
893.452	4580
893.575	4618
893.697	4573
893.819	4767
893.941	4820
894.064	4755
894.186	4565
894.308	4546
894.43	4725
894.552	4812
894.674	4767
894.796	4569
894.918	4618
895.04	4592
895.161	4729
895.283	4668
895.405	4561
895.526	4679
895.648	4710
895.769	4729
895.891	4714
896.012	4721
896.134	4717
896.255	4702
896.376	4615
896.498	4607
896.619	4675
896.74	4622
896.861	4672
896.982	4949
897.103	5075
897.224	4801
897.345	4736
897.466	4691
897.587	4744
897.708	4839
897.828	4797
897.949	4698
898.07	4546
898.19	4672
898.311	4854
898.431	4683
898.552	4702
898.672	4835
898.792	4793
898.913	4790
899.033	4634
899.153	4516
899.273	4451
899.393	4546
899.513	4516
899.633	4580
899.753	4584
899.873	4455
899.993	4592
900.113	4538
900.232	4569
900.352	4516
900.472	4497
900.591	4451
900.711	4485
900.83	4447
900.95	4626
901.069	4675
901.189	4546
901.308	4413
901.427	4325
901.546	4333
901.665	4497
901.784	4542
901.904	4356
902.023	4329
902.141	4177
902.26	4150
902.379	4325
902.498	4215
902.617	4253
902.735	4379
902.854	4432
902.973	4394
903.091	4188
903.21	4238
903.328	4295
903.446	4261
903.565	4280
903.683	4386
903.801	4261
903.919	4383
904.038	4451
904.156	4337
904.274	4474
904.392	4417
904.51	4424
904.627	4459
904.745	4596
904.863	4645
904.981	4432
905.098	4295
905.216	4333
905.334	4432
905.451	4421
905.569	4462
905.686	4527
905.803	4508
905.921	4405
906.038	4546
906.155	4478
906.272	4417
906.389	4485
906.506	4363
906.623	4383
906.74	4428
906.857	4310
906.974	4398
907.091	4577
907.208	4706
907.324	4584
907.441	4459
907.557	4371
907.674	4383
907.79	4306
907.907	4356
908.023	4504
908.139	4497
908.256	4413
908.372	4481
908.488	4470
908.604	4352
908.72	4371
908.836	4371
908.952	4417
909.068	4424
909.184	4558
909.3	4493
909.415	4561
909.531	4535
909.647	4352
909.762	4398
909.878	4383
909.993	4470
910.108	4367
910.224	4432
910.339	4478
910.454	4428
910.57	4337
910.685	4303
910.8	4634
910.915	4618
911.03	4485
911.145	4352
911.259	4360
911.374	4337
911.489	4253
911.604	4314
911.718	4166
911.833	4181
911.947	4059
912.062	4013
912.176	4246
912.291	4246
912.405	4276
912.519	4451
912.633	4504
912.748	4371
912.862	4280
912.976	4230
913.09	4105
913.204	4204
913.318	4295
913.431	4386
913.545	4371
913.659	4424
913.772	4299
913.886	4207
914	4207
914.113	4398
914.226	4402
914.34	4421
914.453	4230
914.566	4485
914.68	4280
914.793	4287
914.906	4131
915.019	4143
915.132	4105
915.245	4185
915.358	4192
915.47	4185
915.583	4253
915.696	4310
915.809	4390
915.921	4409
916.034	4276
916.146	4246
916.259	4227
916.371	4375
916.483	4402
916.595	4227
916.708	4341
916.82	4333
916.932	4299
917.044	4367
917.156	4367
917.268	4234
917.38	4337
917.491	4257
917.603	4371
917.715	4432
917.826	4470
917.938	4329
918.049	4227
918.161	4409
918.272	4565
918.384	4493
918.495	4455
918.606	4261
918.717	4253
918.828	4287
918.939	4363
919.05	4227
919.161	4318
919.272	4112
919.383	4223
919.494	4413
919.604	4653
919.715	4390
919.826	4398
919.936	4405
920.047	4516
920.157	4500
920.267	4694
920.378	4588
920.488	4558
920.598	4687
920.708	4900
920.818	4812
920.928	4774
921.038	4911
921.148	4938
921.258	4584
921.368	4561
921.477	4489
921.587	4459
921.697	4371
921.806	4542
921.916	4440
922.025	4295
922.134	4299
922.244	4265
922.353	4303
922.462	4215
922.571	4101
922.68	3975
922.789	4017
922.898	4021
923.007	4010
923.116	4101
923.224	4063
923.333	4074
923.442	4029
923.55	3972
923.659	4032
923.767	4105
923.876	3975
923.984	4124
924.092	4010
924.201	4086
924.309	4109
924.417	4097
924.525	4048
924.633	4135
924.741	5056
924.849	3915
924.956	4139
925.064	3972
925.172	3876
925.279	3987
925.387	4059
925.494	4040
925.602	4192
925.709	4177
925.816	4032
925.924	4154
926.031	4246
926.138	4169
926.245	4227
926.352	4078
926.459	4257
926.566	4310
926.673	4150
926.779	4067
926.886	4120
926.993	4010
927.099	3926
927.206	3949
927.312	3972
927.419	4082
927.525	4048
927.631	4086
927.737	3979
927.843	3972
927.95	3838
928.056	3987
928.162	3945
928.267	4040
928.373	4672
928.479	4116
928.585	3892
928.69	4036
928.796	4051
928.901	3960
929.007	3857
929.112	4017
929.218	3968
929.323	3960
929.428	3960
929.533	4097
929.638	3873
929.743	3960
929.848	4051
929.953	4021
930.058	3911
930.163	3789
930.267	3804
930.372	3983
930.477	3827
930.581	4124
930.685	3926
930.79	3835
930.894	3922
930.998	3861
931.103	4017
931.207	3724
931.311	3705
931.415	3671
931.519	3523
931.623	3538
