Data from test_V78500241_1612.txt Node
Date: Fri Mar 25 17:00:12 CST 2022
User: usil
Spectrometer: V785-0024
Trigger mode: 0
Integration Time (sec): 4.000000E-1
Scans to average: 1
Nonlinearity correction enabled: false
Boxcar width: 0
Storing dark spectrum: false
XAxis mode: Wavelengths
Number of Pixels in Spectrum: 1024
>>>>>Begin Spectral Data<<<<<
801.071	8012
801.214	7944
801.356	7871
801.499	7864
801.641	7746
801.783	7814
801.926	8031
802.068	7944
802.211	7925
802.353	7997
802.496	7803
802.638	7807
802.78	7860
802.923	7898
803.065	7879
803.208	7917
803.35	7936
803.492	8123
803.635	8199
803.777	7906
803.919	8088
804.061	8431
804.204	8149
804.346	7974
804.488	7936
804.63	8100
804.773	7974
804.915	8050
805.057	8275
805.199	8225
805.341	8199
805.483	8279
805.626	8229
805.768	8138
805.91	8271
806.052	8172
806.194	8096
806.336	8271
806.478	8039
806.62	8046
806.762	8248
806.904	8271
807.046	8469
807.188	8381
807.33	8301
807.472	8271
807.614	8142
807.756	8195
807.898	7947
808.04	7868
808.182	7913
808.324	7925
808.465	7928
808.607	8077
808.749	8119
808.891	8168
809.033	8309
809.174	8176
809.316	8077
809.458	8054
809.6	8016
809.741	8024
809.883	8039
810.025	8107
810.166	8065
810.308	7993
810.45	7963
810.591	7841
810.733	7731
810.875	7628
811.016	7460
811.158	7487
811.299	7559
811.441	7734
811.582	7670
811.724	7552
811.865	7533
812.007	7571
812.148	7544
812.29	7632
812.431	7757
812.573	7852
812.714	7974
812.855	8180
812.997	8191
813.138	8237
813.279	8168
813.421	8035
813.562	7909
813.703	7776
813.845	7700
813.986	7430
814.127	7236
814.268	7118
814.41	7190
814.551	7183
814.692	7217
814.833	7034
814.974	7034
815.115	7114
815.256	7038
815.397	6962
815.539	6909
815.68	6856
815.821	6711
815.962	6798
816.103	6738
816.244	6719
816.385	6578
816.526	6612
816.666	6502
816.807	6338
816.948	6429
817.089	6467
817.23	6437
817.371	6384
817.512	6357
817.653	6376
817.793	6346
817.934	6357
818.075	6384
818.216	6448
818.356	6441
818.497	6243
818.638	6125
818.778	6102
818.919	6133
819.06	6121
819.2	6289
819.341	6262
819.481	6342
819.622	6467
819.762	6719
819.903	6650
820.043	6555
820.184	6582
820.324	6593
820.465	6719
820.605	6654
820.746	6646
820.886	6494
821.026	6650
821.167	6688
821.307	6738
821.447	6738
821.588	6650
821.728	6616
821.868	6525
822.008	6304
822.149	6357
822.289	6353
822.429	6152
822.569	6091
822.709	6041
822.849	5912
822.99	5836
823.13	5847
823.27	5885
823.41	5783
823.55	5786
823.69	5729
823.83	5722
823.97	5611
824.11	5512
824.25	5524
824.389	5524
824.529	5558
824.669	5501
824.809	5653
824.949	5627
825.089	5570
825.228	5512
825.368	5433
825.508	5349
825.648	5318
825.787	5383
825.927	5376
826.067	5277
826.206	5223
826.346	5353
826.485	5368
826.625	5368
826.765	5566
826.904	5459
827.044	5258
827.183	5162
827.323	5090
827.462	5212
827.601	5124
827.741	5121
827.88	5223
828.02	5094
828.159	5181
828.298	5250
828.437	5379
828.577	5242
828.716	5467
828.855	5258
828.994	5143
829.134	5140
829.273	5197
829.412	5166
829.551	5128
829.69	5170
829.829	5265
829.968	5364
830.107	5277
830.246	5311
830.385	5181
830.524	5151
830.663	5083
830.802	4957
830.941	4892
831.08	4824
831.219	4991
831.357	4934
831.496	5124
831.635	4908
831.774	4835
831.913	4805
832.051	4710
832.19	4733
832.329	4786
832.467	4675
832.606	4558
832.744	4706
832.883	4710
833.022	4717
833.16	4744
833.299	4786
833.437	4778
833.576	4824
833.714	4824
833.852	4831
833.991	4892
834.129	4889
834.267	4938
834.406	4850
834.544	4942
834.682	5022
834.821	4946
834.959	5147
835.097	4915
835.235	5140
835.373	5132
835.511	5094
835.65	5018
835.788	4999
835.926	4866
836.064	4885
836.202	4934
836.34	5181
836.478	5136
836.615	5143
836.753	5162
836.891	5299
837.029	5223
837.167	5193
837.305	5166
837.443	5162
837.58	5090
837.718	5239
837.856	5189
837.993	5151
838.131	5212
838.269	5178
838.406	5216
838.544	5185
838.681	5022
838.819	4995
838.956	4885
839.094	4881
839.231	4965
839.369	5109
839.506	5421
839.643	5258
839.781	5083
839.918	4961
840.055	5033
840.193	5098
840.33	5105
840.467	5098
840.604	5136
840.742	5410
840.879	5094
841.016	5029
841.153	5105
841.29	5334
841.427	5273
841.564	5315
841.701	5376
841.838	5284
841.975	5189
842.112	5231
842.249	5136
842.385	5086
842.522	5280
842.659	5166
842.796	5132
842.933	5159
843.069	5136
843.206	5159
843.343	5322
843.479	5223
843.616	5261
843.752	5003
843.889	5067
844.025	5220
844.162	5018
844.298	5185
844.435	5025
844.571	5075
844.708	5181
844.844	5242
844.98	5311
845.117	5315
845.253	5086
845.389	5064
845.525	5185
845.661	5117
845.798	5075
845.934	5113
846.07	4991
846.206	5189
846.342	5280
846.478	5204
846.614	5064
846.75	4946
846.886	4949
847.022	5098
847.158	5052
847.294	5037
847.429	5086
847.565	5022
847.701	5269
847.837	4843
847.972	4801
848.108	4972
848.244	4908
848.379	4805
848.515	4710
848.65	4740
848.786	4729
848.921	4790
849.057	4889
849.192	4854
849.328	4786
849.463	4854
849.598	4797
849.734	4778
849.869	4691
850.004	4645
850.14	4607
850.275	4664
850.41	4485
850.545	4580
850.68	4592
850.815	4618
850.95	4626
851.085	4812
851.22	4755
851.355	4683
851.49	4592
851.625	4611
851.76	4653
851.895	4569
852.03	4538
852.165	4668
852.299	4736
852.434	4782
852.569	4793
852.703	4793
852.838	4790
852.973	4900
853.107	4900
853.242	4714
853.376	4664
853.511	4542
853.645	4645
853.78	4786
853.914	4744
854.048	4653
854.183	4592
854.317	4664
854.451	4847
854.585	4702
854.72	4649
854.854	4774
854.988	4603
855.122	4645
855.256	4542
855.39	4702
855.524	4759
855.658	4714
855.792	4672
855.926	4733
856.06	4683
856.194	4748
856.327	4721
856.461	4603
856.595	4630
856.729	4630
856.862	4748
856.996	4641
857.13	4679
857.263	4755
857.397	4839
857.53	4656
857.664	4702
857.797	4748
857.931	4771
858.064	4675
858.197	4748
858.331	4615
858.464	4645
858.597	4474
858.731	4599
858.864	4561
858.997	4561
859.13	4649
859.263	4702
859.396	4656
859.529	4561
859.662	4550
859.795	4535
859.928	4611
860.061	4729
860.194	4759
860.327	4603
860.46	4558
860.592	4683
860.725	4668
860.858	4668
860.99	4607
861.123	4516
861.256	4489
861.388	4565
861.521	5113
861.653	4455
861.786	4443
861.918	4428
862.05	4459
862.183	4531
862.315	4588
862.447	4637
862.58	4527
862.712	4436
862.844	4341
862.976	4455
863.108	4417
863.24	4767
863.372	4333
863.504	4440
863.636	4405
863.768	4531
863.9	4432
864.032	4348
864.164	4398
864.296	4489
864.428	4508
864.559	4546
864.691	4527
864.823	4512
864.954	4436
865.086	4466
865.217	4455
865.349	4440
865.48	4440
865.612	4497
865.743	4626
865.875	4504
866.006	4424
866.137	4474
866.269	4462
866.4	4470
866.531	4417
866.662	4383
866.793	4383
866.924	4398
867.055	4451
867.186	4424
867.317	4398
867.448	4344
867.579	4424
867.71	4424
867.841	4337
867.972	4443
868.103	4470
868.233	4432
868.364	4455
868.495	4504
868.625	4672
868.756	4740
868.886	4550
869.017	4675
869.147	4763
869.278	4771
869.408	4637
869.539	4656
869.669	4687
869.799	4660
869.929	4721
870.06	4717
870.19	4938
870.32	4892
870.45	4915
870.58	5014
870.71	5136
870.84	5105
870.97	4957
871.1	4908
871.23	5128
871.36	5045
871.489	5045
871.619	5086
871.749	5083
871.879	5105
872.008	5105
872.138	5067
872.267	4946
872.397	4896
872.526	4809
872.656	4691
872.785	4790
872.915	4904
873.044	5037
873.173	4942
873.303	4972
873.432	4965
873.561	4968
873.69	4873
873.819	4858
873.948	4946
874.077	4820
874.206	4771
874.335	4774
874.464	4927
874.593	5083
874.722	4987
874.851	5071
874.979	5105
875.108	5056
875.237	4934
875.365	4812
875.494	4877
875.623	4999
875.751	4812
875.88	4839
876.008	4953
876.136	5022
876.265	5197
876.393	5311
876.521	5254
876.65	5250
876.778	5201
876.906	5025
877.034	4976
877.162	5075
877.29	4991
877.418	5018
877.546	4961
877.674	5048
877.802	5018
877.93	4972
878.058	4911
878.185	4862
878.313	4961
878.441	4957
878.568	4771
878.696	4847
878.824	4938
878.951	4984
879.079	5136
879.206	5269
879.333	5094
879.461	4987
879.588	4942
879.715	5105
879.842	5227
879.97	4991
880.097	4790
880.224	4752
880.351	4820
880.478	4835
880.605	4778
880.732	4786
880.859	5060
880.986	4892
881.112	4915
881.239	4752
881.366	4664
881.493	4592
881.619	4607
881.746	4603
881.872	4615
881.999	4588
882.125	4672
882.252	4733
882.378	4824
882.505	4900
882.631	4683
882.757	4656
882.883	4755
883.01	4740
883.136	4721
883.262	4573
883.388	4626
883.514	4782
883.64	4858
883.766	4774
883.892	4645
884.018	4694
884.143	4923
884.269	5098
884.395	4672
884.52	4664
884.646	4656
884.772	4618
884.897	4546
885.023	4599
885.148	4797
885.274	4839
885.399	4854
885.524	4683
885.65	4717
885.775	4725
885.9	4675
886.025	4839
886.15	4778
886.275	4767
886.4	4645
886.525	4729
886.65	4683
886.775	4656
886.9	4900
887.025	4980
887.149	4805
887.274	4626
887.399	4599
887.523	4607
887.648	4577
887.773	4565
887.897	4721
888.021	4736
888.146	4672
888.27	4755
888.395	4896
888.519	4767
888.643	4839
888.767	4816
888.891	4672
889.015	4577
889.139	4698
889.263	4618
889.387	4706
889.511	4877
889.635	4793
889.759	4565
889.883	4584
890.006	4748
890.13	4824
890.254	4637
890.377	4603
890.501	4508
890.624	4531
890.748	4664
890.871	4504
890.995	4409
891.118	4428
891.241	4535
891.364	4481
891.488	4630
891.611	4489
891.734	4554
891.857	4599
891.98	4569
892.103	4653
892.226	4550
892.349	4516
892.471	4432
892.594	4523
892.717	4607
892.839	4596
892.962	4649
893.085	4653
893.207	4588
893.33	4462
893.452	4516
893.575	4634
893.697	4550
893.819	4805
893.941	4812
894.064	4782
894.186	4573
894.308	4592
894.43	4714
894.552	4782
894.674	4710
894.796	4558
894.918	4577
895.04	4599
895.161	4733
895.283	4649
895.405	4569
895.526	4596
895.648	4687
895.769	4717
895.891	4729
896.012	4706
896.134	4729
896.255	4653
896.376	4611
896.498	4622
896.619	4675
896.74	4603
896.861	4622
896.982	4923
897.103	5052
897.224	4801
897.345	4740
897.466	4683
897.587	4717
897.708	4847
897.828	4786
897.949	4641
898.07	4538
898.19	4645
898.311	4862
898.431	4668
898.552	4752
898.672	4782
898.792	4831
898.913	4740
899.033	4637
899.153	4489
899.273	4436
899.393	4497
899.513	4504
899.633	4516
899.753	4535
899.873	4493
899.993	4565
900.113	4554
900.232	4584
900.352	4531
900.472	4504
900.591	4352
900.711	4459
900.83	4413
900.95	4618
901.069	4637
901.189	4542
901.308	4375
901.427	4299
901.546	4287
901.665	4451
901.784	4523
901.904	4379
902.023	4295
902.141	4150
902.26	4177
902.379	4291
902.498	4261
902.617	4188
902.735	4322
902.854	4352
902.973	4352
903.091	4188
903.21	4188
903.328	4333
903.446	4261
903.565	4238
903.683	4348
903.801	4265
903.919	4398
904.038	4459
904.156	4272
904.274	4424
904.392	4386
904.51	4405
904.627	4428
904.745	4569
904.863	4656
904.981	4405
905.098	4337
905.216	4379
905.334	4413
905.451	4428
905.569	4440
905.686	4573
905.803	4565
905.921	4466
906.038	4550
906.155	4481
906.272	4390
906.389	4466
906.506	4310
906.623	4363
906.74	4375
906.857	4303
906.974	4352
907.091	4542
907.208	4683
907.324	4588
907.441	4466
907.557	4360
907.674	4352
907.79	4352
907.907	4352
908.023	4470
908.139	4481
908.256	4436
908.372	4474
908.488	4478
908.604	4341
908.72	4341
908.836	4367
908.952	4363
909.068	4424
909.184	4546
909.3	4466
909.415	4558
909.531	4550
909.647	4360
909.762	4348
909.878	4348
909.993	4428
910.108	4409
910.224	4421
910.339	4474
910.454	4398
910.57	4375
910.685	4310
910.8	4596
910.915	4596
911.03	4497
911.145	4318
911.259	4318
911.374	4375
911.489	4276
911.604	4303
911.718	4204
911.833	4207
911.947	4105
912.062	4013
912.176	4177
912.291	4227
912.405	4265
912.519	4459
912.633	4516
912.748	4314
912.862	4322
912.976	4185
913.09	4105
913.204	4143
913.318	4249
913.431	4363
913.545	4360
913.659	4440
913.772	4310
913.886	4261
914	4188
914.113	4383
914.226	4379
914.34	4413
914.453	4238
914.566	4409
914.68	4257
914.793	4310
914.906	4154
915.019	4139
915.132	4059
915.245	4173
915.358	4181
915.47	4242
915.583	4246
915.696	4268
915.809	4405
915.921	4424
916.034	4268
916.146	4246
916.259	4227
916.371	4348
916.483	4329
916.595	4299
916.708	4348
916.82	4306
916.932	4318
917.044	4371
917.156	4325
917.268	4261
917.38	4268
917.491	4246
917.603	4322
917.715	4409
917.826	4405
917.938	4360
918.049	4211
918.161	4375
918.272	4561
918.384	4523
918.495	4424
918.606	4268
918.717	4253
918.828	4318
918.939	4394
919.05	4196
919.161	4295
919.272	4097
919.383	4181
919.494	4470
919.604	4656
919.715	4459
919.826	4348
919.936	4379
920.047	4523
920.157	4485
920.267	4691
920.378	4554
920.488	4500
920.598	4710
920.708	4854
920.818	4694
920.928	4755
921.038	4927
921.148	4949
921.258	4645
921.368	4519
921.477	4481
921.587	4451
921.697	4341
921.806	4561
921.916	4428
922.025	4303
922.134	4291
922.244	4219
922.353	4276
922.462	4177
922.571	4120
922.68	3991
922.789	3991
922.898	4036
923.007	3968
923.116	4120
923.224	4055
923.333	4048
923.442	3956
923.55	3949
923.659	4021
923.767	4139
923.876	3964
923.984	4105
924.092	3960
924.201	4063
924.309	4093
924.417	4143
924.525	4036
924.633	4093
924.741	4858
924.849	3930
924.956	4067
925.064	3949
925.172	3888
925.279	3964
925.387	4048
925.494	4032
925.602	4215
925.709	4154
925.816	4017
925.924	4128
926.031	4234
926.138	4150
926.245	4238
926.352	4082
926.459	4272
926.566	4230
926.673	4139
926.779	4063
926.886	4017
926.993	3975
927.099	3926
927.206	3937
927.312	3937
927.419	4067
927.525	4017
927.631	4116
927.737	3934
927.843	3937
927.95	3827
928.056	3918
928.162	3991
928.267	4055
928.373	4584
928.479	4109
928.585	3899
928.69	4025
928.796	4074
928.901	3945
929.007	3846
929.112	3979
929.218	3964
929.323	3884
929.428	3930
929.533	4093
929.638	3869
929.743	3926
929.848	4010
929.953	3968
930.058	3949
930.163	3781
930.267	3835
930.372	4021
930.477	3770
930.581	4093
930.685	3960
930.79	3846
930.894	3896
930.998	3869
931.103	4051
931.207	3724
931.311	3740
931.415	3667
931.519	3538
931.623	3545
