Data from test_V78500241_233.txt Node
Date: Fri Mar 25 16:50:37 CST 2022
User: usil
Spectrometer: V785-0024
Trigger mode: 0
Integration Time (sec): 4.000000E-1
Scans to average: 1
Nonlinearity correction enabled: false
Boxcar width: 0
Storing dark spectrum: false
XAxis mode: Wavelengths
Number of Pixels in Spectrum: 1024
>>>>>Begin Spectral Data<<<<<
801.071	8024
801.214	7997
801.356	7856
801.499	7841
801.641	7860
801.783	7852
801.926	8020
802.068	8058
802.211	7978
802.353	7986
802.496	7913
802.638	7917
802.78	7902
802.923	7913
803.065	7814
803.208	7879
803.35	7989
803.492	8077
803.635	8157
803.777	8065
803.919	8062
804.061	8415
804.204	8008
804.346	8062
804.488	7974
804.63	8103
804.773	8046
804.915	8058
805.057	8263
805.199	8157
805.341	8180
805.483	8248
805.626	8168
805.768	8065
805.91	8134
806.052	8180
806.194	8077
806.336	8324
806.478	8134
806.62	8073
806.762	8100
806.904	8282
807.046	8431
807.188	8362
807.33	8237
807.472	8320
807.614	8134
807.756	8100
807.898	7997
808.04	7868
808.182	7909
808.324	7890
808.465	7928
808.607	8081
808.749	8073
808.891	8199
809.033	8339
809.174	8259
809.316	8107
809.458	8084
809.6	7963
809.741	8081
809.883	8008
810.025	8096
810.166	8046
810.308	8073
810.45	8043
810.591	7875
810.733	7753
810.875	7731
811.016	7480
811.158	7400
811.299	7594
811.441	7647
811.582	7681
811.724	7544
811.865	7491
812.007	7594
812.148	7620
812.29	7681
812.431	7769
812.573	7894
812.714	7989
812.855	8058
812.997	8229
813.138	8347
813.279	8214
813.421	8115
813.562	7974
813.703	7944
813.845	7742
813.986	7438
814.127	7293
814.268	7190
814.41	7255
814.551	7141
814.692	7126
814.833	7152
814.974	7091
815.115	7072
815.256	7000
815.397	6939
815.539	6924
815.68	6890
815.821	6745
815.962	6837
816.103	6768
816.244	6700
816.385	6627
816.526	6673
816.666	6486
816.807	6338
816.948	6483
817.089	6429
817.23	6452
817.371	6410
817.512	6395
817.653	6361
817.793	6357
817.934	6391
818.075	6399
818.216	6490
818.356	6452
818.497	6224
818.638	6091
818.778	6148
818.919	6114
819.06	6136
819.2	6285
819.341	6353
819.481	6311
819.622	6544
819.762	6715
819.903	6684
820.043	6559
820.184	6627
820.324	6578
820.465	6662
820.605	6631
820.746	6669
820.886	6502
821.026	6620
821.167	6642
821.307	6837
821.447	6700
821.588	6642
821.728	6589
821.868	6540
822.008	6270
822.149	6350
822.289	6395
822.429	6125
822.569	6095
822.709	6144
822.849	5878
822.99	5863
823.13	5901
823.27	5927
823.41	5786
823.55	5737
823.69	5802
823.83	5851
823.97	5672
824.11	5566
824.25	5493
824.389	5577
824.529	5554
824.669	5532
824.809	5642
824.949	5604
825.089	5600
825.228	5566
825.368	5417
825.508	5337
825.648	5353
825.787	5360
825.927	5406
826.067	5299
826.206	5307
826.346	5383
826.485	5436
826.625	5372
826.765	5535
826.904	5452
827.044	5223
827.183	5231
827.323	5162
827.462	5273
827.601	5136
827.741	5178
827.88	5208
828.02	5220
828.159	5261
828.298	5284
828.437	5330
828.577	5258
828.716	5474
828.855	5387
828.994	5178
829.134	5162
829.273	5212
829.412	5159
829.551	5109
829.69	5193
829.829	5227
829.968	5364
830.107	5299
830.246	5296
830.385	5189
830.524	5140
830.663	5102
830.802	4965
830.941	4850
831.08	4870
831.219	4972
831.357	4976
831.496	5117
831.635	4870
831.774	4854
831.913	4915
832.051	4759
832.19	4790
832.329	4881
832.467	4725
832.606	4634
832.744	4702
832.883	4748
833.022	4740
833.16	4816
833.299	4805
833.437	4873
833.576	4786
833.714	4824
833.852	4866
833.991	4858
834.129	4976
834.267	4953
834.406	4927
834.544	5037
834.682	4999
834.821	4972
834.959	5117
835.097	4972
835.235	5098
835.373	5094
835.511	5151
835.65	5056
835.788	4957
835.926	4923
836.064	4900
836.202	4968
836.34	5159
836.478	5227
836.615	5155
836.753	5204
836.891	5303
837.029	5246
837.167	5239
837.305	5162
837.443	5124
837.58	5067
837.718	5235
837.856	5166
837.993	5155
838.131	5239
838.269	5292
838.406	5242
838.544	5174
838.681	5067
838.819	5079
838.956	4934
839.094	4896
839.231	4984
839.369	5071
839.506	5448
839.643	5280
839.781	5056
839.918	4972
840.055	5132
840.193	5113
840.33	5121
840.467	5102
840.604	5140
840.742	5425
840.879	5067
841.016	5086
841.153	5166
841.29	5398
841.427	5307
841.564	5341
841.701	5364
841.838	5337
841.975	5223
842.112	5242
842.249	5147
842.385	5083
842.522	5311
842.659	5166
842.796	5136
842.933	5265
843.069	5128
843.206	5174
843.343	5345
843.479	5220
843.616	5303
843.752	4984
843.889	5071
844.025	5208
844.162	5006
844.298	5239
844.435	5105
844.571	5045
844.708	5159
844.844	5334
844.98	5360
845.117	5330
845.253	5113
845.389	5136
845.525	5147
845.661	5170
845.798	5029
845.934	5162
846.07	5041
846.206	5189
846.342	5288
846.478	5174
846.614	5033
846.75	4972
846.886	4923
847.022	5174
847.158	4968
847.294	5075
847.429	5128
847.565	5048
847.701	5307
847.837	4885
847.972	4820
848.108	4946
848.244	4946
848.379	4755
848.515	4736
848.65	4706
848.786	4721
848.921	4759
849.057	4854
849.192	4870
849.328	4854
849.463	4850
849.598	4790
849.734	4786
849.869	4710
850.004	4645
850.14	4691
850.275	4580
850.41	4550
850.545	4542
850.68	4592
850.815	4630
850.95	4626
851.085	4793
851.22	4733
851.355	4668
851.49	4656
851.625	4664
851.76	4694
851.895	4550
852.03	4554
852.165	4683
852.299	4694
852.434	4809
852.569	4793
852.703	4755
852.838	4839
852.973	4927
853.107	4946
853.242	4729
853.376	4660
853.511	4516
853.645	4592
853.78	4824
853.914	4649
854.048	4672
854.183	4637
854.317	4691
854.451	4847
854.585	4653
854.72	4645
854.854	4752
854.988	4641
855.122	4649
855.256	4531
855.39	4668
855.524	4740
855.658	4694
855.792	4679
855.926	4740
856.06	4733
856.194	4809
856.327	4687
856.461	4626
856.595	4573
856.729	4599
856.862	4767
856.996	4687
857.13	4752
857.263	4725
857.397	4816
857.53	4668
857.664	4691
857.797	4812
857.931	4786
858.064	4679
858.197	4752
858.331	4645
858.464	4592
858.597	4493
858.731	4634
858.864	4637
858.997	4561
859.13	4615
859.263	4729
859.396	4679
859.529	4546
859.662	4561
859.795	4523
859.928	4653
860.061	4729
860.194	4774
860.327	4611
860.46	4577
860.592	4721
860.725	4710
860.858	4698
860.99	4561
861.123	4527
861.256	4470
861.388	4656
861.521	5383
861.653	4512
861.786	4451
861.918	4440
862.05	4493
862.183	4573
862.315	4630
862.447	4664
862.58	4554
862.712	4371
862.844	4310
862.976	4470
863.108	4409
863.24	4919
863.372	4299
863.504	4421
863.636	4421
863.768	4474
863.9	4493
864.032	4356
864.164	4421
864.296	4440
864.428	4542
864.559	4489
864.691	4535
864.823	4519
864.954	4489
865.086	4554
865.217	4516
865.349	4409
865.48	4440
865.612	4512
865.743	4637
865.875	4489
866.006	4409
866.137	4493
866.269	4428
866.4	4424
866.531	4428
866.662	4428
866.793	4405
866.924	4402
867.055	4474
867.186	4459
867.317	4428
867.448	4386
867.579	4405
867.71	4371
867.841	4398
867.972	4440
868.103	4447
868.233	4428
868.364	4478
868.495	4508
868.625	4675
868.756	4782
868.886	4531
869.017	4611
869.147	4744
869.278	4744
869.408	4664
869.539	4626
869.669	4736
869.799	4637
869.929	4759
870.06	4752
870.19	4927
870.32	4896
870.45	4987
870.58	5025
870.71	5105
870.84	5105
870.97	4908
871.1	4885
871.23	5162
871.36	5117
871.489	5003
871.619	5064
871.749	5098
871.879	5121
872.008	5109
872.138	5037
872.267	5003
872.397	4862
872.526	4843
872.656	4702
872.785	4812
872.915	4923
873.044	5014
873.173	4911
873.303	4968
873.432	4961
873.561	4930
873.69	4870
873.819	4850
873.948	4915
874.077	4809
874.206	4812
874.335	4744
874.464	4889
874.593	5056
874.722	4915
874.851	5079
874.979	5022
875.108	5025
875.237	4927
875.365	4824
875.494	4877
875.623	4961
875.751	4824
875.88	4870
876.008	4972
876.136	5025
876.265	5265
876.393	5292
876.521	5277
876.65	5204
876.778	5147
876.906	5029
877.034	5029
877.162	5052
877.29	5010
877.418	5079
877.546	5060
877.674	5048
877.802	4987
877.93	5025
878.058	4904
878.185	4904
878.313	4930
878.441	4919
878.568	4824
878.696	4873
878.824	4965
878.951	4987
879.079	5090
879.206	5284
879.333	5086
879.461	5003
879.588	4961
879.715	5136
879.842	5239
879.97	4961
880.097	4771
880.224	4733
880.351	4839
880.478	4831
880.605	4828
880.732	4714
880.859	5060
880.986	4892
881.112	4900
881.239	4820
881.366	4660
881.493	4668
881.619	4558
881.746	4626
881.872	4607
881.999	4694
882.125	4630
882.252	4782
882.378	4843
882.505	4972
882.631	4820
882.757	4664
882.883	4664
883.01	4763
883.136	4714
883.262	4580
883.388	4558
883.514	4843
883.64	4858
883.766	4828
883.892	4637
884.018	4740
884.143	4900
884.269	5075
884.395	4725
884.52	4596
884.646	4645
884.772	4615
884.897	4592
885.023	4672
885.148	4809
885.274	4927
885.399	4820
885.524	4733
885.65	4641
885.775	4740
885.9	4721
886.025	4904
886.15	4831
886.275	4736
886.4	4641
886.525	4725
886.65	4740
886.775	4683
886.9	4915
887.025	5052
887.149	4809
887.274	4664
887.399	4596
887.523	4607
887.648	4634
887.773	4622
887.897	4820
888.021	4843
888.146	4679
888.27	4881
888.395	4965
888.519	4816
888.643	4854
888.767	4839
888.891	4725
889.015	4626
889.139	4736
889.263	4622
889.387	4782
889.511	4911
889.635	4812
889.759	4679
889.883	4675
890.006	4797
890.13	4870
890.254	4691
890.377	4797
890.501	4611
890.624	4592
890.748	4672
890.871	4630
890.995	4478
891.118	4447
891.241	4588
891.364	4584
891.488	4653
891.611	4489
891.734	4554
891.857	4710
891.98	4592
892.103	4759
892.226	4615
892.349	4584
892.471	4481
892.594	4656
892.717	4702
892.839	4653
892.962	4656
893.085	4687
893.207	4675
893.33	4508
893.452	4596
893.575	4767
893.697	4596
893.819	4809
893.941	4843
894.064	4820
894.186	4656
894.308	4565
894.43	4759
894.552	4889
894.674	4831
894.796	4611
894.918	4672
895.04	4637
895.161	4717
895.283	4687
895.405	4630
895.526	4664
895.648	4748
895.769	4687
895.891	4729
896.012	4767
896.134	4740
896.255	4733
896.376	4698
896.498	4683
896.619	4748
896.74	4672
896.861	4698
896.982	4995
897.103	5151
897.224	4885
897.345	4793
897.466	4675
897.587	4782
897.708	4858
897.828	4801
897.949	4729
898.07	4675
898.19	4656
898.311	4919
898.431	4702
898.552	4748
898.672	4881
898.792	4854
898.913	4831
899.033	4679
899.153	4519
899.273	4470
899.393	4554
899.513	4573
899.633	4599
899.753	4546
899.873	4519
899.993	4668
900.113	4573
900.232	4584
900.352	4577
900.472	4550
900.591	4474
900.711	4542
900.83	4481
900.95	4622
901.069	4725
901.189	4538
901.308	4390
901.427	4367
901.546	4375
901.665	4542
901.784	4535
901.904	4432
902.023	4356
902.141	4230
902.26	4246
902.379	4371
902.498	4295
902.617	4299
902.735	4405
902.854	4409
902.973	4371
903.091	4261
903.21	4280
903.328	4356
903.446	4325
903.565	4303
903.683	4398
903.801	4352
903.919	4424
904.038	4447
904.156	4371
904.274	4504
904.392	4428
904.51	4466
904.627	4500
904.745	4637
904.863	4653
904.981	4455
905.098	4371
905.216	4394
905.334	4478
905.451	4470
905.569	4546
905.686	4622
905.803	4584
905.921	4443
906.038	4603
906.155	4535
906.272	4405
906.389	4508
906.506	4371
906.623	4409
906.74	4459
906.857	4371
906.974	4451
907.091	4500
907.208	4694
907.324	4706
907.441	4546
907.557	4383
907.674	4360
907.79	4383
907.907	4413
908.023	4535
908.139	4550
908.256	4455
908.372	4478
908.488	4493
908.604	4394
908.72	4383
908.836	4428
908.952	4417
909.068	4466
909.184	4596
909.3	4519
909.415	4592
909.531	4596
909.647	4394
909.762	4417
909.878	4409
909.993	4436
910.108	4436
910.224	4519
910.339	4550
910.454	4462
910.57	4428
910.685	4333
910.8	4698
910.915	4672
911.03	4523
911.145	4379
911.259	4421
911.374	4409
911.489	4344
911.604	4276
911.718	4223
911.833	4242
911.947	4166
912.062	4093
912.176	4268
912.291	4246
912.405	4261
912.519	4504
912.633	4615
912.748	4386
912.862	4367
912.976	4291
913.09	4135
913.204	4227
913.318	4337
913.431	4367
913.545	4383
913.659	4462
913.772	4363
913.886	4314
914	4299
914.113	4417
914.226	4470
914.34	4436
914.453	4234
914.566	4508
914.68	4363
914.793	4421
914.906	4173
915.019	4177
915.132	4105
915.245	4181
915.358	4299
915.47	4295
915.583	4291
915.696	4318
915.809	4478
915.921	4443
916.034	4303
916.146	4291
916.259	4295
916.371	4440
916.483	4352
916.595	4280
916.708	4363
916.82	4363
916.932	4386
917.044	4386
917.156	4341
917.268	4291
917.38	4318
917.491	4325
917.603	4417
917.715	4470
917.826	4443
917.938	4455
918.049	4230
918.161	4462
918.272	4588
918.384	4618
918.495	4474
918.606	4310
918.717	4265
918.828	4421
918.939	4402
919.05	4344
919.161	4333
919.272	4215
919.383	4299
919.494	4485
919.604	4672
919.715	4459
919.826	4405
919.936	4470
920.047	4561
920.157	4546
920.267	4740
920.378	4584
920.488	4558
920.598	4733
920.708	4976
920.818	4721
920.928	4786
921.038	4995
921.148	4999
921.258	4645
921.368	4550
921.477	4531
921.587	4470
921.697	4421
921.806	4577
921.916	4481
922.025	4314
922.134	4356
922.244	4299
922.353	4360
922.462	4227
922.571	4188
922.68	4044
922.789	3987
922.898	4090
923.007	4032
923.116	4150
923.224	4105
923.333	4139
923.442	4032
923.55	4048
923.659	3994
923.767	4135
923.876	4067
923.984	4131
924.092	4021
924.201	4097
924.309	4116
924.417	4181
924.525	4059
924.633	4135
924.741	5117
924.849	3953
924.956	4158
925.064	4017
925.172	3956
925.279	3991
925.387	4097
925.494	4086
925.602	4253
925.709	4188
925.816	4112
925.924	4131
926.031	4261
926.138	4207
926.245	4234
926.352	4112
926.459	4276
926.566	4314
926.673	4211
926.779	4086
926.886	4097
926.993	3972
927.099	3934
927.206	3975
927.312	3930
927.419	4063
927.525	4025
927.631	4124
927.737	4002
927.843	4006
927.95	3903
928.056	3964
928.162	3991
928.267	4112
928.373	4634
928.479	4158
928.585	3930
928.69	4090
928.796	4097
928.901	3991
929.007	3846
929.112	4006
929.218	4021
929.323	3960
929.428	3987
929.533	4162
929.638	3907
929.743	4013
929.848	4067
929.953	4013
930.058	3991
930.163	3835
930.267	3835
930.372	3983
930.477	3857
930.581	4124
930.685	3983
930.79	3823
930.894	3861
930.998	3861
931.103	4074
931.207	3766
931.311	3694
931.415	3686
931.519	3557
931.623	3580
