Data from test_V78500241_665.txt Node
Date: Fri Mar 25 16:53:37 CST 2022
User: usil
Spectrometer: V785-0024
Trigger mode: 0
Integration Time (sec): 4.000000E-1
Scans to average: 1
Nonlinearity correction enabled: false
Boxcar width: 0
Storing dark spectrum: false
XAxis mode: Wavelengths
Number of Pixels in Spectrum: 1024
>>>>>Begin Spectral Data<<<<<
801.071	8027
801.214	7967
801.356	7868
801.499	7814
801.641	7818
801.783	7811
801.926	7936
802.068	8058
802.211	7936
802.353	8043
802.496	7932
802.638	7906
802.78	8024
802.923	7887
803.065	7803
803.208	7833
803.35	7967
803.492	8084
803.635	8092
803.777	8008
803.919	8123
804.061	8442
804.204	8073
804.346	8046
804.488	7913
804.63	8100
804.773	7951
804.915	8043
805.057	8279
805.199	8187
805.341	8221
805.483	8225
805.626	8214
805.768	8062
805.91	8149
806.052	8111
806.194	8050
806.336	8267
806.478	8100
806.62	7947
806.762	8191
806.904	8214
807.046	8457
807.188	8370
807.33	8229
807.472	8370
807.614	8187
807.756	8111
807.898	7951
808.04	7822
808.182	7883
808.324	7928
808.465	7875
808.607	8031
808.749	8001
808.891	8130
809.033	8275
809.174	8210
809.316	8058
809.458	8103
809.6	7974
809.741	8027
809.883	7997
810.025	8084
810.166	8084
810.308	8016
810.45	8012
810.591	7921
810.733	7643
810.875	7670
811.016	7544
811.158	7514
811.299	7540
811.441	7696
811.582	7685
811.724	7514
811.865	7540
812.007	7556
812.148	7597
812.29	7632
812.431	7670
812.573	7837
812.714	7963
812.855	8035
812.997	8149
813.138	8362
813.279	8199
813.421	8092
813.562	7959
813.703	7871
813.845	7750
813.986	7434
814.127	7259
814.268	7305
814.41	7156
814.551	7168
814.692	7145
814.833	7019
814.974	7103
815.115	7069
815.256	6962
815.397	6954
815.539	6890
815.68	6825
815.821	6753
815.962	6852
816.103	6818
816.244	6662
816.385	6589
816.526	6578
816.666	6494
816.807	6273
816.948	6391
817.089	6384
817.23	6429
817.371	6338
817.512	6395
817.653	6380
817.793	6395
817.934	6422
818.075	6509
818.216	6410
818.356	6327
818.497	6239
818.638	6095
818.778	6144
818.919	6148
819.06	6144
819.2	6258
819.341	6319
819.481	6365
819.622	6502
819.762	6707
819.903	6669
820.043	6536
820.184	6517
820.324	6521
820.465	6654
820.605	6601
820.746	6601
820.886	6452
821.026	6593
821.167	6726
821.307	6772
821.447	6726
821.588	6635
821.728	6536
821.868	6422
822.008	6338
822.149	6296
822.289	6350
822.429	6167
822.569	6079
822.709	6068
822.849	5889
822.99	5882
823.13	5874
823.27	5847
823.41	5756
823.55	5771
823.69	5821
823.83	5786
823.97	5707
824.11	5532
824.25	5490
824.389	5535
824.529	5585
824.669	5551
824.809	5638
824.949	5634
825.089	5600
825.228	5520
825.368	5383
825.508	5376
825.648	5353
825.787	5368
825.927	5391
826.067	5284
826.206	5288
826.346	5368
826.485	5376
826.625	5425
826.765	5608
826.904	5512
827.044	5269
827.183	5250
827.323	5166
827.462	5307
827.601	5166
827.741	5174
827.88	5288
828.02	5079
828.159	5246
828.298	5273
828.437	5391
828.577	5334
828.716	5501
828.855	5391
828.994	5227
829.134	5155
829.273	5208
829.412	5170
829.551	5155
829.69	5174
829.829	5254
829.968	5414
830.107	5261
830.246	5307
830.385	5216
830.524	5178
830.663	5083
830.802	5025
830.941	4934
831.08	4919
831.219	4999
831.357	4968
831.496	5189
831.635	4915
831.774	4915
831.913	4873
832.051	4752
832.19	4801
832.329	4873
832.467	4725
832.606	4656
832.744	4721
832.883	4733
833.022	4767
833.16	4793
833.299	4866
833.437	4870
833.576	4892
833.714	4919
833.852	4942
833.991	4949
834.129	5003
834.267	5018
834.406	4961
834.544	5025
834.682	5037
834.821	5010
834.959	5185
835.097	5041
835.235	5235
835.373	5113
835.511	5143
835.65	5056
835.788	5090
835.926	4923
836.064	4927
836.202	4961
836.34	5223
836.478	5258
836.615	5113
836.753	5174
836.891	5311
837.029	5296
837.167	5197
837.305	5235
837.443	5212
837.58	5105
837.718	5277
837.856	5223
837.993	5250
838.131	5242
838.269	5235
838.406	5258
838.544	5216
838.681	5083
838.819	5052
838.956	4942
839.094	4938
839.231	4991
839.369	5064
839.506	5467
839.643	5311
839.781	5109
839.918	5018
840.055	5151
840.193	5094
840.33	5162
840.467	5166
840.604	5212
840.742	5410
840.879	5083
841.016	5109
841.153	5178
841.29	5417
841.427	5368
841.564	5326
841.701	5353
841.838	5345
841.975	5246
842.112	5296
842.249	5181
842.385	5140
842.522	5315
842.659	5216
842.796	5151
842.933	5178
843.069	5136
843.206	5178
843.343	5311
843.479	5265
843.616	5292
843.752	5006
843.889	4995
844.025	5269
844.162	5014
844.298	5239
844.435	5166
844.571	5075
844.708	5197
844.844	5349
844.98	5391
845.117	5292
845.253	5143
845.389	5105
845.525	5174
845.661	5174
845.798	5090
845.934	5143
846.07	5079
846.206	5242
846.342	5303
846.478	5208
846.614	5041
846.75	5018
846.886	4942
847.022	5166
847.158	5041
847.294	5143
847.429	5067
847.565	5075
847.701	5303
847.837	4854
847.972	4839
848.108	4957
848.244	4930
848.379	4809
848.515	4736
848.65	4736
848.786	4774
848.921	4809
849.057	4877
849.192	4938
849.328	4870
849.463	4866
849.598	4820
849.734	4816
849.869	4759
850.004	4641
850.14	4725
850.275	4615
850.41	4580
850.545	4615
850.68	4634
850.815	4660
850.95	4660
851.085	4870
851.22	4752
851.355	4687
851.49	4649
851.625	4660
851.76	4637
851.895	4569
852.03	4565
852.165	4668
852.299	4729
852.434	4782
852.569	4782
852.703	4782
852.838	4862
852.973	4991
853.107	4938
853.242	4771
853.376	4710
853.511	4569
853.645	4668
853.78	4843
853.914	4725
854.048	4664
854.183	4710
854.317	4721
854.451	4900
854.585	4694
854.72	4698
854.854	4771
854.988	4645
855.122	4706
855.256	4565
855.39	4721
855.524	4850
855.658	4755
855.792	4717
855.926	4721
856.06	4786
856.194	4790
856.327	4717
856.461	4622
856.595	4634
856.729	4645
856.862	4831
856.996	4733
857.13	4702
857.263	4752
857.397	4790
857.53	4660
857.664	4729
857.797	4782
857.931	4786
858.064	4744
858.197	4748
858.331	4664
858.464	4599
858.597	4569
858.731	4649
858.864	4706
858.997	4641
859.13	4672
859.263	4694
859.396	4736
859.529	4622
859.662	4565
859.795	4546
859.928	4675
860.061	4744
860.194	4755
860.327	4645
860.46	4596
860.592	4702
860.725	4744
860.858	4736
860.99	4592
861.123	4523
861.256	4535
861.388	4637
861.521	5311
861.653	4523
861.786	4500
861.918	4478
862.05	4527
862.183	4573
862.315	4675
862.447	4675
862.58	4596
862.712	4443
862.844	4379
862.976	4478
863.108	4470
863.24	4915
863.372	4360
863.504	4417
863.636	4417
863.768	4542
863.9	4516
864.032	4409
864.164	4432
864.296	4489
864.428	4561
864.559	4550
864.691	4573
864.823	4580
864.954	4500
865.086	4538
865.217	4497
865.349	4455
865.48	4470
865.612	4504
865.743	4664
865.875	4485
866.006	4493
866.137	4497
866.269	4428
866.4	4470
866.531	4440
866.662	4413
866.793	4417
866.924	4470
867.055	4531
867.186	4485
867.317	4428
867.448	4383
867.579	4383
867.71	4417
867.841	4402
867.972	4466
868.103	4470
868.233	4489
868.364	4478
868.495	4546
868.625	4660
868.756	4778
868.886	4634
869.017	4656
869.147	4797
869.278	4793
869.408	4740
869.539	4679
869.669	4740
869.799	4691
869.929	4778
870.06	4710
870.19	4961
870.32	4930
870.45	4980
870.58	4987
870.71	5052
870.84	5128
870.97	4934
871.1	4961
871.23	5143
871.36	5185
871.489	5045
871.619	5083
871.749	5121
871.879	5105
872.008	5204
872.138	5041
872.267	4999
872.397	4870
872.526	4816
872.656	4763
872.785	4786
872.915	4980
873.044	5083
873.173	4999
873.303	4999
873.432	4968
873.561	4923
873.69	4915
873.819	4915
873.948	4942
874.077	4816
874.206	4771
874.335	4835
874.464	4934
874.593	5056
874.722	5006
874.851	5159
874.979	5124
875.108	5033
875.237	4862
875.365	4904
875.494	4915
875.623	4953
875.751	4835
875.88	4930
876.008	4987
876.136	5079
876.265	5212
876.393	5296
876.521	5265
876.65	5269
876.778	5204
876.906	5121
877.034	5014
877.162	5060
877.29	5018
877.418	5041
877.546	5071
877.674	5064
877.802	5052
877.93	5033
878.058	4908
878.185	4896
878.313	5003
878.441	5022
878.568	4862
878.696	4854
878.824	4942
878.951	4972
879.079	5174
879.206	5318
879.333	5090
879.461	5010
879.588	5029
879.715	5189
879.842	5208
879.97	5037
880.097	4801
880.224	4733
880.351	4835
880.478	4866
880.605	4797
880.732	4816
880.859	5083
880.986	4889
881.112	4881
881.239	4793
881.366	4733
881.493	4649
881.619	4573
881.746	4588
881.872	4645
881.999	4660
882.125	4668
882.252	4786
882.378	4847
882.505	4968
882.631	4778
882.757	4710
882.883	4809
883.01	4733
883.136	4717
883.262	4630
883.388	4641
883.514	4774
883.64	4908
883.766	4778
883.892	4702
884.018	4706
884.143	4953
884.269	5071
884.395	4691
884.52	4611
884.646	4656
884.772	4569
884.897	4561
885.023	4694
885.148	4831
885.274	4835
885.399	4805
885.524	4740
885.65	4714
885.775	4759
885.9	4782
886.025	4873
886.15	4782
886.275	4786
886.4	4626
886.525	4744
886.65	4645
886.775	4714
886.9	4892
887.025	5067
887.149	4809
887.274	4645
887.399	4603
887.523	4634
887.648	4599
887.773	4615
887.897	4771
888.021	4793
888.146	4634
888.27	4812
888.395	4942
888.519	4797
888.643	4831
888.767	4850
888.891	4641
889.015	4580
889.139	4645
889.263	4592
889.387	4797
889.511	4839
889.635	4824
889.759	4645
889.883	4668
890.006	4740
890.13	4854
890.254	4683
890.377	4706
890.501	4569
890.624	4535
890.748	4664
890.871	4493
890.995	4451
891.118	4432
891.241	4535
891.364	4599
891.488	4596
891.611	4531
891.734	4558
891.857	4641
891.98	4599
892.103	4611
892.226	4584
892.349	4565
892.471	4493
892.594	4573
892.717	4622
892.839	4565
892.962	4599
893.085	4714
893.207	4626
893.33	4436
893.452	4527
893.575	4706
893.697	4569
893.819	4828
893.941	4835
894.064	4778
894.186	4607
894.308	4565
894.43	4744
894.552	4854
894.674	4793
894.796	4588
894.918	4588
895.04	4554
895.161	4729
895.283	4691
895.405	4584
895.526	4683
895.648	4694
895.769	4649
895.891	4706
896.012	4744
896.134	4759
896.255	4706
896.376	4679
896.498	4618
896.619	4691
896.74	4611
896.861	4668
896.982	4980
897.103	5105
897.224	4809
897.345	4786
897.466	4691
897.587	4710
897.708	4870
897.828	4714
897.949	4702
898.07	4554
898.19	4664
898.311	4824
898.431	4668
898.552	4740
898.672	4835
898.792	4733
898.913	4736
899.033	4618
899.153	4470
899.273	4421
899.393	4466
899.513	4527
899.633	4508
899.753	4542
899.873	4516
899.993	4588
900.113	4550
900.232	4538
900.352	4535
900.472	4527
900.591	4409
900.711	4500
900.83	4447
900.95	4653
901.069	4698
901.189	4573
901.308	4379
901.427	4341
901.546	4436
901.665	4485
901.784	4523
901.904	4375
902.023	4337
902.141	4173
902.26	4204
902.379	4295
902.498	4295
902.617	4185
902.735	4409
902.854	4447
902.973	4348
903.091	4223
903.21	4284
903.328	4314
903.446	4287
903.565	4280
903.683	4379
903.801	4280
903.919	4405
904.038	4481
904.156	4322
904.274	4443
904.392	4436
904.51	4519
904.627	4459
904.745	4641
904.863	4691
904.981	4466
905.098	4363
905.216	4375
905.334	4443
905.451	4497
905.569	4508
905.686	4599
905.803	4573
905.921	4512
906.038	4634
906.155	4481
906.272	4436
906.389	4489
906.506	4390
906.623	4421
906.74	4432
906.857	4344
906.974	4447
907.091	4637
907.208	4744
907.324	4660
907.441	4550
907.557	4394
907.674	4360
907.79	4375
907.907	4428
908.023	4485
908.139	4542
908.256	4500
908.372	4500
908.488	4481
908.604	4398
908.72	4333
908.836	4424
908.952	4421
909.068	4451
909.184	4615
909.3	4550
909.415	4626
909.531	4561
909.647	4398
909.762	4428
909.878	4352
909.993	4512
910.108	4459
910.224	4443
910.339	4542
910.454	4497
910.57	4394
910.685	4379
910.8	4660
910.915	4637
911.03	4527
911.145	4402
911.259	4386
911.374	4432
911.489	4352
911.604	4310
911.718	4246
911.833	4219
911.947	4147
912.062	4074
912.176	4276
912.291	4265
912.405	4325
912.519	4512
912.633	4546
912.748	4417
912.862	4318
912.976	4265
913.09	4177
913.204	4219
913.318	4310
913.431	4440
913.545	4474
913.659	4478
913.772	4386
913.886	4257
914	4265
914.113	4405
914.226	4481
914.34	4455
914.453	4246
914.566	4455
914.68	4341
914.793	4436
914.906	4185
915.019	4173
915.132	4116
915.245	4223
915.358	4238
915.47	4265
915.583	4280
915.696	4322
915.809	4447
915.921	4489
916.034	4291
916.146	4261
916.259	4249
916.371	4421
916.483	4413
916.595	4306
916.708	4371
916.82	4333
916.932	4394
917.044	4341
917.156	4390
917.268	4276
917.38	4367
917.491	4314
917.603	4386
917.715	4390
917.826	4470
917.938	4363
918.049	4280
918.161	4474
918.272	4558
918.384	4573
918.495	4500
918.606	4383
918.717	4276
918.828	4390
918.939	4409
919.05	4295
919.161	4371
919.272	4154
919.383	4295
919.494	4497
919.604	4698
919.715	4455
919.826	4402
919.936	4436
920.047	4542
920.157	4554
920.267	4717
920.378	4531
920.488	4546
920.598	4736
920.708	4919
920.818	4778
920.928	4793
921.038	5029
921.148	4961
921.258	4664
921.368	4599
921.477	4504
921.587	4516
921.697	4459
921.806	4592
921.916	4485
922.025	4299
922.134	4268
922.244	4310
922.353	4409
922.462	4169
922.571	4173
922.68	4002
922.789	4010
922.898	4082
923.007	4025
923.116	4097
923.224	4082
923.333	4093
923.442	4002
923.55	4002
923.659	4071
923.767	4101
923.876	4025
923.984	4188
924.092	4006
924.201	4124
924.309	4166
924.417	4173
924.525	4112
924.633	4128
924.741	5033
924.849	4006
924.956	4135
925.064	3972
925.172	3907
925.279	3998
925.387	4074
925.494	4059
925.602	4242
925.709	4192
925.816	4063
925.924	4169
926.031	4246
926.138	4173
926.245	4284
926.352	4162
926.459	4314
926.566	4303
926.673	4185
926.779	4135
926.886	4116
926.993	4036
927.099	3998
927.206	3987
927.312	4010
927.419	4147
927.525	4097
927.631	4131
927.737	3991
927.843	3968
927.95	3861
928.056	3998
928.162	4013
928.267	4082
928.373	4691
928.479	4150
928.585	3960
928.69	4063
928.796	4109
928.901	3994
929.007	3911
929.112	4032
929.218	4002
929.323	3975
929.428	4006
929.533	4166
929.638	3960
929.743	3987
929.848	4048
929.953	4017
930.058	3983
930.163	3785
930.267	3842
930.372	4010
930.477	3876
930.581	4101
930.685	3956
930.79	3869
930.894	3884
930.998	3869
931.103	4055
931.207	3781
931.311	3705
931.415	3686
931.519	3549
931.623	3618
