Data from test_V78500241_2677.txt Node
Date: Fri Mar 25 17:07:36 CST 2022
User: usil
Spectrometer: V785-0024
Trigger mode: 0
Integration Time (sec): 4.000000E-1
Scans to average: 1
Nonlinearity correction enabled: false
Boxcar width: 0
Storing dark spectrum: false
XAxis mode: Wavelengths
Number of Pixels in Spectrum: 1024
>>>>>Begin Spectral Data<<<<<
801.071	7982
801.214	8039
801.356	7940
801.499	7913
801.641	7792
801.783	7868
801.926	7978
802.068	8008
802.211	8020
802.353	8001
802.496	7921
802.638	7898
802.78	7978
802.923	7963
803.065	7940
803.208	7833
803.35	7932
803.492	8130
803.635	8206
803.777	8050
803.919	8187
804.061	8427
804.204	8168
804.346	8050
804.488	7974
804.63	8130
804.773	8058
804.915	8092
805.057	8271
805.199	8191
805.341	8172
805.483	8343
805.626	8248
805.768	8142
805.91	8225
806.052	8244
806.194	8111
806.336	8309
806.478	8115
806.62	8062
806.762	8107
806.904	8191
807.046	8488
807.188	8328
807.33	8324
807.472	8377
807.614	8138
807.756	8161
807.898	8054
808.04	7917
808.182	7913
808.324	7845
808.465	7940
808.607	8115
808.749	8130
808.891	8210
809.033	8309
809.174	8221
809.316	8107
809.458	8020
809.6	8027
809.741	7997
809.883	8039
810.025	8176
810.166	8149
810.308	8027
810.45	8001
810.591	7932
810.733	7670
810.875	7643
811.016	7487
811.158	7537
811.299	7578
811.441	7696
811.582	7727
811.724	7544
811.865	7624
812.007	7693
812.148	7597
812.29	7666
812.431	7712
812.573	7856
812.714	8027
812.855	8119
812.997	8195
813.138	8298
813.279	8233
813.421	8149
813.562	7974
813.703	7913
813.845	7727
813.986	7369
814.127	7320
814.268	7225
814.41	7183
814.551	7202
814.692	7133
814.833	7126
814.974	7061
815.115	7080
815.256	6966
815.397	6920
815.539	6981
815.68	6844
815.821	6856
815.962	6856
816.103	6818
816.244	6700
816.385	6593
816.526	6585
816.666	6540
816.807	6346
816.948	6460
817.089	6471
817.23	6506
817.371	6376
817.512	6350
817.653	6346
817.793	6369
817.934	6353
818.075	6506
818.216	6414
818.356	6414
818.497	6254
818.638	6102
818.778	6178
818.919	6182
819.06	6133
819.2	6315
819.341	6292
819.481	6334
819.622	6585
819.762	6760
819.903	6711
820.043	6639
820.184	6608
820.324	6608
820.465	6749
820.605	6707
820.746	6665
820.886	6525
821.026	6658
821.167	6776
821.307	6848
821.447	6768
821.588	6730
821.728	6574
821.868	6513
822.008	6292
822.149	6418
822.289	6407
822.429	6205
822.569	6148
822.709	6095
822.849	5984
822.99	5920
823.13	5939
823.27	5996
823.41	5844
823.55	5832
823.69	5779
823.83	5805
823.97	5703
824.11	5573
824.25	5570
824.389	5623
824.529	5611
824.669	5562
824.809	5672
824.949	5646
825.089	5657
825.228	5585
825.368	5440
825.508	5414
825.648	5406
825.787	5391
825.927	5364
826.067	5345
826.206	5364
826.346	5417
826.485	5444
826.625	5433
826.765	5581
826.904	5501
827.044	5349
827.183	5216
827.323	5155
827.462	5311
827.601	5239
827.741	5208
827.88	5239
828.02	5155
828.159	5299
828.298	5330
828.437	5425
828.577	5337
828.716	5509
828.855	5360
828.994	5155
829.134	5212
829.273	5235
829.412	5223
829.551	5151
829.69	5231
829.829	5292
829.968	5406
830.107	5357
830.246	5334
830.385	5269
830.524	5201
830.663	5140
830.802	4976
830.941	4938
831.08	4938
831.219	4999
831.357	5006
831.496	5216
831.635	4949
831.774	4881
831.913	4881
832.051	4816
832.19	4752
832.329	4881
832.467	4721
832.606	4698
832.744	4778
832.883	4786
833.022	4752
833.16	4786
833.299	4885
833.437	4858
833.576	4870
833.714	4908
833.852	4892
833.991	4892
834.129	4946
834.267	4972
834.406	4946
834.544	4968
834.682	5018
834.821	5064
834.959	5227
835.097	5048
835.235	5159
835.373	5124
835.511	5151
835.65	5113
835.788	5018
835.926	4923
836.064	4889
836.202	4961
836.34	5197
836.478	5273
836.615	5181
836.753	5258
836.891	5341
837.029	5318
837.167	5242
837.305	5140
837.443	5204
837.58	5159
837.718	5280
837.856	5185
837.993	5140
838.131	5250
838.269	5231
838.406	5250
838.544	5250
838.681	5075
838.819	5041
838.956	4866
839.094	4949
839.231	4980
839.369	5162
839.506	5452
839.643	5280
839.781	5094
839.918	5056
840.055	5128
840.193	5166
840.33	5136
840.467	5162
840.604	5246
840.742	5478
840.879	5113
841.016	5174
841.153	5197
841.29	5448
841.427	5360
841.564	5360
841.701	5391
841.838	5315
841.975	5250
842.112	5303
842.249	5174
842.385	5197
842.522	5315
842.659	5159
842.796	5140
842.933	5216
843.069	5216
843.206	5223
843.343	5318
843.479	5280
843.616	5288
843.752	4984
843.889	5048
844.025	5197
844.162	5048
844.298	5220
844.435	5075
844.571	5094
844.708	5223
844.844	5322
844.98	5349
845.117	5357
845.253	5113
845.389	5140
845.525	5185
845.661	5155
845.798	5083
845.934	5181
846.07	5071
846.206	5170
846.342	5292
846.478	5204
846.614	5048
846.75	4999
846.886	4972
847.022	5181
847.158	5052
847.294	5060
847.429	5151
847.565	5102
847.701	5391
847.837	4858
847.972	4850
848.108	5025
848.244	5010
848.379	4786
848.515	4778
848.65	4759
848.786	4793
848.921	4831
849.057	4892
849.192	4923
849.328	4820
849.463	4881
849.598	4816
849.734	4820
849.869	4729
850.004	4649
850.14	4740
850.275	4634
850.41	4558
850.545	4580
850.68	4675
850.815	4698
850.95	4683
851.085	4835
851.22	4793
851.355	4672
851.49	4683
851.625	4626
851.76	4645
851.895	4596
852.03	4580
852.165	4668
852.299	4790
852.434	4812
852.569	4778
852.703	4820
852.838	4923
852.973	4972
853.107	4946
853.242	4717
853.376	4752
853.511	4584
853.645	4599
853.78	4774
853.914	4717
854.048	4767
854.183	4660
854.317	4782
854.451	4892
854.585	4687
854.72	4675
854.854	4740
854.988	4615
855.122	4664
855.256	4565
855.39	4656
855.524	4801
855.658	4809
855.792	4702
855.926	4755
856.06	4790
856.194	4847
856.327	4759
856.461	4618
856.595	4649
856.729	4656
856.862	4793
856.996	4710
857.13	4774
857.263	4755
857.397	4809
857.53	4710
857.664	4725
857.797	4790
857.931	4759
858.064	4714
858.197	4763
858.331	4691
858.464	4634
858.597	4596
858.731	4672
858.864	4653
858.997	4664
859.13	4656
859.263	4683
859.396	4755
859.529	4645
859.662	4592
859.795	4584
859.928	4660
860.061	4828
860.194	4809
860.327	4596
860.46	4580
860.592	4763
860.725	4740
860.858	4717
860.99	4592
861.123	4523
861.256	4512
861.388	4596
861.521	5398
861.653	4478
861.786	4504
861.918	4493
862.05	4546
862.183	4577
862.315	4603
862.447	4694
862.58	4569
862.712	4409
862.844	4394
862.976	4535
863.108	4497
863.24	4797
863.372	4337
863.504	4428
863.636	4455
863.768	4485
863.9	4474
864.032	4390
864.164	4424
864.296	4497
864.428	4584
864.559	4569
864.691	4493
864.823	4584
864.954	4531
865.086	4527
865.217	4485
865.349	4402
865.48	4459
865.612	4535
865.743	4645
865.875	4455
866.006	4462
866.137	4481
866.269	4504
866.4	4455
866.531	4474
866.662	4409
866.793	4451
866.924	4481
867.055	4497
867.186	4485
867.317	4485
867.448	4352
867.579	4398
867.71	4390
867.841	4390
867.972	4516
868.103	4542
868.233	4497
868.364	4447
868.495	4519
868.625	4710
868.756	4778
868.886	4603
869.017	4706
869.147	4786
869.278	4797
869.408	4706
869.539	4626
869.669	4725
869.799	4649
869.929	4816
870.06	4763
870.19	4934
870.32	4923
870.45	5003
870.58	5048
870.71	5113
870.84	5079
870.97	4949
871.1	4915
871.23	5124
871.36	5132
871.489	5022
871.619	5102
871.749	5124
871.879	5102
872.008	5136
872.138	5056
872.267	5006
872.397	4915
872.526	4824
872.656	4721
872.785	4862
872.915	4949
873.044	5064
873.173	4908
873.303	4984
873.432	4957
873.561	4987
873.69	4889
873.819	4873
873.948	4946
874.077	4763
874.206	4771
874.335	4820
874.464	5018
874.593	5025
874.722	4965
874.851	5121
874.979	5105
875.108	5045
875.237	4904
875.365	4877
875.494	4854
875.623	5006
875.751	4847
875.88	4889
876.008	5014
876.136	4999
876.265	5216
876.393	5368
876.521	5284
876.65	5189
876.778	5201
876.906	5041
877.034	5075
877.162	5102
877.29	5003
877.418	5071
877.546	5071
877.674	5064
877.802	5056
877.93	5067
878.058	4991
878.185	4930
878.313	4984
878.441	4980
878.568	4824
878.696	4915
878.824	5003
878.951	5022
879.079	5128
879.206	5345
879.333	5109
879.461	5018
879.588	5071
879.715	5166
879.842	5189
879.97	4976
880.097	4740
880.224	4786
880.351	4831
880.478	4870
880.605	4793
880.732	4816
880.859	5117
880.986	4900
881.112	4900
881.239	4778
881.366	4717
881.493	4626
881.619	4580
881.746	4641
881.872	4687
881.999	4664
882.125	4733
882.252	4820
882.378	4816
882.505	4984
882.631	4831
882.757	4675
882.883	4694
883.01	4748
883.136	4698
883.262	4622
883.388	4618
883.514	4850
883.64	4889
883.766	4812
883.892	4691
884.018	4710
884.143	4866
884.269	5025
884.395	4759
884.52	4630
884.646	4641
884.772	4588
884.897	4573
885.023	4683
885.148	4801
885.274	4870
885.399	4820
885.524	4740
885.65	4702
885.775	4725
885.9	4710
886.025	4885
886.15	4812
886.275	4729
886.4	4694
886.525	4748
886.65	4755
886.775	4725
886.9	4927
887.025	5083
887.149	4778
887.274	4656
887.399	4618
887.523	4592
887.648	4607
887.773	4634
887.897	4729
888.021	4797
888.146	4687
888.27	4854
888.395	4953
888.519	4831
888.643	4778
888.767	4847
888.891	4683
889.015	4615
889.139	4645
889.263	4611
889.387	4752
889.511	4824
889.635	4801
889.759	4698
889.883	4694
890.006	4736
890.13	4812
890.254	4626
890.377	4679
890.501	4523
890.624	4512
890.748	4653
890.871	4508
890.995	4443
891.118	4424
891.241	4493
891.364	4565
891.488	4653
891.611	4508
891.734	4523
891.857	4565
891.98	4588
892.103	4668
892.226	4634
892.349	4516
892.471	4478
892.594	4577
892.717	4611
892.839	4580
892.962	4588
893.085	4675
893.207	4599
893.33	4516
893.452	4535
893.575	4729
893.697	4599
893.819	4820
893.941	4790
894.064	4839
894.186	4577
894.308	4592
894.43	4710
894.552	4824
894.674	4702
894.796	4554
894.918	4626
895.04	4580
895.161	4721
895.283	4649
895.405	4577
895.526	4645
895.648	4721
895.769	4710
895.891	4706
896.012	4752
896.134	4694
896.255	4706
896.376	4664
896.498	4653
896.619	4664
896.74	4645
896.861	4668
896.982	4915
897.103	5090
897.224	4835
897.345	4691
897.466	4664
897.587	4725
897.708	4843
897.828	4786
897.949	4630
898.07	4588
898.19	4630
898.311	4843
898.431	4698
898.552	4725
898.672	4797
898.792	4790
898.913	4698
899.033	4592
899.153	4523
899.273	4447
899.393	4489
899.513	4584
899.633	4561
899.753	4577
899.873	4485
899.993	4588
900.113	4546
900.232	4599
900.352	4538
900.472	4504
900.591	4424
900.711	4478
900.83	4470
900.95	4645
901.069	4717
901.189	4508
901.308	4386
901.427	4360
901.546	4348
901.665	4455
901.784	4569
901.904	4356
902.023	4325
902.141	4227
902.26	4185
902.379	4341
902.498	4219
902.617	4196
902.735	4379
902.854	4432
902.973	4363
903.091	4169
903.21	4207
903.328	4299
903.446	4291
903.565	4299
903.683	4344
903.801	4280
903.919	4432
904.038	4489
904.156	4314
904.274	4500
904.392	4428
904.51	4440
904.627	4508
904.745	4626
904.863	4729
904.981	4394
905.098	4322
905.216	4363
905.334	4421
905.451	4443
905.569	4451
905.686	4489
905.803	4607
905.921	4443
906.038	4569
906.155	4428
906.272	4440
906.389	4440
906.506	4367
906.623	4367
906.74	4383
906.857	4303
906.974	4375
907.091	4588
907.208	4714
907.324	4645
907.441	4550
907.557	4363
907.674	4363
907.79	4303
907.907	4413
908.023	4489
908.139	4516
908.256	4462
908.372	4489
908.488	4485
908.604	4318
908.72	4348
908.836	4371
908.952	4367
909.068	4432
909.184	4565
909.3	4497
909.415	4588
909.531	4554
909.647	4386
909.762	4367
909.878	4333
909.993	4443
910.108	4424
910.224	4443
910.339	4478
910.454	4428
910.57	4375
910.685	4333
910.8	4577
910.915	4573
911.03	4527
911.145	4325
911.259	4322
911.374	4383
911.489	4348
911.604	4265
911.718	4234
911.833	4207
911.947	4044
912.062	4010
912.176	4207
912.291	4230
912.405	4272
912.519	4512
912.633	4497
912.748	4390
912.862	4356
912.976	4200
913.09	4143
913.204	4207
913.318	4227
913.431	4371
913.545	4386
913.659	4447
913.772	4367
913.886	4314
914	4204
914.113	4405
914.226	4462
914.34	4402
914.453	4322
914.566	4398
914.68	4284
914.793	4310
914.906	4196
915.019	4143
915.132	4074
915.245	4166
915.358	4207
915.47	4276
915.583	4230
915.696	4310
915.809	4432
915.921	4451
916.034	4276
916.146	4242
916.259	4230
916.371	4394
916.483	4314
916.595	4280
916.708	4303
916.82	4303
916.932	4341
917.044	4352
917.156	4299
917.268	4219
917.38	4299
917.491	4287
917.603	4337
917.715	4356
917.826	4443
917.938	4352
918.049	4261
918.161	4383
918.272	4565
918.384	4531
918.495	4462
918.606	4230
918.717	4310
918.828	4314
918.939	4367
919.05	4265
919.161	4318
919.272	4139
919.383	4284
919.494	4413
919.604	4554
919.715	4413
919.826	4352
919.936	4405
920.047	4588
920.157	4523
920.267	4694
920.378	4550
920.488	4497
920.598	4706
920.708	4889
920.818	4710
920.928	4831
921.038	4927
921.148	4923
921.258	4622
921.368	4573
921.477	4493
921.587	4485
921.697	4386
921.806	4546
921.916	4462
922.025	4268
922.134	4257
922.244	4257
922.353	4348
922.462	4215
922.571	4120
922.68	3991
922.789	3964
922.898	4036
923.007	4021
923.116	4093
923.224	4029
923.333	4067
923.442	3968
923.55	3975
923.659	4025
923.767	4124
923.876	3994
923.984	4169
924.092	3987
924.201	4082
924.309	4067
924.417	4120
924.525	4048
924.633	4109
924.741	5090
924.849	3941
924.956	4150
925.064	3926
925.172	3903
925.279	3956
925.387	4051
925.494	4063
925.602	4200
925.709	4154
925.816	4017
925.924	4124
926.031	4253
926.138	4162
926.245	4238
926.352	4097
926.459	4268
926.566	4287
926.673	4177
926.779	4078
926.886	4071
926.993	3964
927.099	3956
927.206	3987
927.312	3964
927.419	4055
927.525	4006
927.631	4082
927.737	3987
927.843	3934
927.95	3899
928.056	3975
928.162	3972
928.267	4025
928.373	4596
928.479	4124
928.585	3880
928.69	4021
928.796	4120
928.901	3983
929.007	3888
929.112	3987
929.218	3956
929.323	3968
929.428	3937
929.533	4105
929.638	3880
929.743	3979
929.848	4032
929.953	3979
930.058	3945
930.163	3800
930.267	3869
930.372	3964
930.477	3846
930.581	4120
930.685	3953
930.79	3827
930.894	3888
930.998	3838
931.103	4025
931.207	3709
931.311	3663
931.415	3667
931.519	3511
931.623	3545
