Data from test_V78500241_691.txt Node
Date: Fri Mar 25 16:53:48 CST 2022
User: usil
Spectrometer: V785-0024
Trigger mode: 0
Integration Time (sec): 4.000000E-1
Scans to average: 1
Nonlinearity correction enabled: false
Boxcar width: 0
Storing dark spectrum: false
XAxis mode: Wavelengths
Number of Pixels in Spectrum: 1024
>>>>>Begin Spectral Data<<<<<
801.071	8031
801.214	7986
801.356	7864
801.499	7890
801.641	7807
801.783	7753
801.926	7989
802.068	7936
802.211	7963
802.353	7974
802.496	7879
802.638	7917
802.78	7913
802.923	7978
803.065	7822
803.208	7875
803.35	8001
803.492	8103
803.635	8172
803.777	8035
803.919	8153
804.061	8389
804.204	8092
804.346	8065
804.488	7997
804.63	8138
804.773	7959
804.915	8081
805.057	8301
805.199	8069
805.341	8263
805.483	8271
805.626	8221
805.768	8084
805.91	8218
806.052	8191
806.194	8062
806.336	8339
806.478	8096
806.62	8092
806.762	8111
806.904	8275
807.046	8560
807.188	8396
807.33	8313
807.472	8393
807.614	8157
807.756	8054
807.898	7970
808.04	7807
808.182	7898
808.324	7917
808.465	7921
808.607	8069
808.749	8088
808.891	8199
809.033	8279
809.174	8142
809.316	7974
809.458	8065
809.6	7978
809.741	8001
809.883	7955
810.025	8138
810.166	8142
810.308	7989
810.45	7997
810.591	7986
810.733	7753
810.875	7681
811.016	7537
811.158	7483
811.299	7510
811.441	7708
811.582	7712
811.724	7521
811.865	7533
812.007	7605
812.148	7582
812.29	7613
812.431	7769
812.573	7807
812.714	7986
812.855	8123
812.997	8252
813.138	8282
813.279	8161
813.421	8130
813.562	8020
813.703	7833
813.845	7750
813.986	7400
814.127	7331
814.268	7221
814.41	7198
814.551	7118
814.692	7133
814.833	7088
814.974	7031
815.115	7110
815.256	6928
815.397	6897
815.539	6916
815.68	6783
815.821	6856
815.962	6852
816.103	6806
816.244	6772
816.385	6616
816.526	6612
816.666	6452
816.807	6311
816.948	6410
817.089	6502
817.23	6460
817.371	6342
817.512	6384
817.653	6376
817.793	6384
817.934	6407
818.075	6388
818.216	6369
818.356	6407
818.497	6266
818.638	6175
818.778	6155
818.919	6171
819.06	6121
819.2	6365
819.341	6311
819.481	6388
819.622	6525
819.762	6700
819.903	6627
820.043	6570
820.184	6540
820.324	6589
820.465	6715
820.605	6627
820.746	6593
820.886	6582
821.026	6662
821.167	6692
821.307	6802
821.447	6783
821.588	6639
821.728	6555
821.868	6452
822.008	6327
822.149	6376
822.289	6300
822.429	6140
822.569	6053
822.709	6091
822.849	5859
822.99	5882
823.13	5958
823.27	5878
823.41	5779
823.55	5771
823.69	5718
823.83	5756
823.97	5653
824.11	5512
824.25	5505
824.389	5539
824.529	5596
824.669	5524
824.809	5668
824.949	5665
825.089	5581
825.228	5512
825.368	5364
825.508	5379
825.648	5315
825.787	5387
825.927	5364
826.067	5273
826.206	5311
826.346	5364
826.485	5406
826.625	5421
826.765	5547
826.904	5444
827.044	5265
827.183	5174
827.323	5094
827.462	5273
827.601	5159
827.741	5117
827.88	5227
828.02	5037
828.159	5181
828.298	5292
828.437	5417
828.577	5258
828.716	5448
828.855	5322
828.994	5174
829.134	5102
829.273	5181
829.412	5128
829.551	5143
829.69	5155
829.829	5269
829.968	5379
830.107	5231
830.246	5273
830.385	5136
830.524	5132
830.663	5048
830.802	4957
830.941	4858
831.08	4873
831.219	4965
831.357	4938
831.496	5140
831.635	4885
831.774	4870
831.913	4900
832.051	4717
832.19	4755
832.329	4843
832.467	4649
832.606	4649
832.744	4660
832.883	4664
833.022	4714
833.16	4774
833.299	4801
833.437	4774
833.576	4828
833.714	4801
833.852	4850
833.991	4866
834.129	4934
834.267	4976
834.406	4889
834.544	4968
834.682	4968
834.821	4961
834.959	5090
835.097	5018
835.235	5136
835.373	5048
835.511	5090
835.65	5060
835.788	5025
835.926	4877
836.064	4915
836.202	4911
836.34	5159
836.478	5223
836.615	5090
836.753	5136
836.891	5280
837.029	5311
837.167	5185
837.305	5178
837.443	5132
837.58	5045
837.718	5216
837.856	5174
837.993	5132
838.131	5204
838.269	5178
838.406	5185
838.544	5227
838.681	5006
838.819	4965
838.956	4889
839.094	4957
839.231	5045
839.369	5086
839.506	5478
839.643	5216
839.781	5060
839.918	5029
840.055	5083
840.193	5109
840.33	5098
840.467	5132
840.604	5151
840.742	5410
840.879	4999
841.016	5105
841.153	5098
841.29	5376
841.427	5299
841.564	5277
841.701	5360
841.838	5265
841.975	5235
842.112	5288
842.249	5174
842.385	5109
842.522	5280
842.659	5166
842.796	5166
842.933	5189
843.069	5151
843.206	5174
843.343	5273
843.479	5242
843.616	5239
843.752	5006
843.889	4991
844.025	5242
844.162	5010
844.298	5174
844.435	5090
844.571	5037
844.708	5178
844.844	5296
844.98	5337
845.117	5239
845.253	5128
845.389	5075
845.525	5113
845.661	5102
845.798	5025
845.934	5178
846.07	5052
846.206	5151
846.342	5277
846.478	5166
846.614	5029
846.75	4991
846.886	4923
847.022	5197
847.158	4991
847.294	5025
847.429	5140
847.565	5018
847.701	5315
847.837	4873
847.972	4755
848.108	4957
848.244	4961
848.379	4790
848.515	4721
848.65	4717
848.786	4725
848.921	4778
849.057	4858
849.192	4850
849.328	4831
849.463	4828
849.598	4755
849.734	4725
849.869	4668
850.004	4668
850.14	4679
850.275	4618
850.41	4523
850.545	4565
850.68	4588
850.815	4596
850.95	4641
851.085	4885
851.22	4706
851.355	4675
851.49	4615
851.625	4637
851.76	4668
851.895	4584
852.03	4485
852.165	4630
852.299	4710
852.434	4805
852.569	4721
852.703	4740
852.838	4828
852.973	4908
853.107	4927
853.242	4767
853.376	4653
853.511	4497
853.645	4626
853.78	4767
853.914	4698
854.048	4694
854.183	4656
854.317	4672
854.451	4812
854.585	4691
854.72	4603
854.854	4771
854.988	4561
855.122	4668
855.256	4504
855.39	4664
855.524	4759
855.658	4672
855.792	4725
855.926	4725
856.06	4752
856.194	4759
856.327	4691
856.461	4561
856.595	4618
856.729	4611
856.862	4729
856.996	4675
857.13	4694
857.263	4771
857.397	4816
857.53	4637
857.664	4710
857.797	4771
857.931	4812
858.064	4679
858.197	4710
858.331	4634
858.464	4603
858.597	4512
858.731	4626
858.864	4592
858.997	4607
859.13	4672
859.263	4645
859.396	4687
859.529	4542
859.662	4577
859.795	4550
859.928	4615
860.061	4744
860.194	4744
860.327	4599
860.46	4584
860.592	4679
860.725	4679
860.858	4778
860.99	4584
861.123	4493
861.256	4550
861.388	4569
861.521	5280
861.653	4485
861.786	4470
861.918	4497
862.05	4512
862.183	4527
862.315	4626
862.447	4649
862.58	4569
862.712	4428
862.844	4318
862.976	4459
863.108	4459
863.24	4866
863.372	4299
863.504	4390
863.636	4375
863.768	4519
863.9	4447
864.032	4360
864.164	4421
864.296	4405
864.428	4554
864.559	4538
864.691	4481
864.823	4531
864.954	4523
865.086	4535
865.217	4462
865.349	4459
865.48	4432
865.612	4497
865.743	4630
865.875	4470
866.006	4424
866.137	4436
866.269	4443
866.4	4436
866.531	4398
866.662	4356
866.793	4409
866.924	4417
867.055	4481
867.186	4447
867.317	4371
867.448	4440
867.579	4371
867.71	4394
867.841	4405
867.972	4474
868.103	4451
868.233	4474
868.364	4443
868.495	4481
868.625	4656
868.756	4740
868.886	4561
869.017	4622
869.147	4793
869.278	4744
869.408	4660
869.539	4656
869.669	4721
869.799	4645
869.929	4740
870.06	4736
870.19	4911
870.32	4862
870.45	4930
870.58	5029
870.71	5067
870.84	5056
870.97	4938
871.1	4927
871.23	5102
871.36	5143
871.489	4991
871.619	5064
871.749	5102
871.879	5094
872.008	5174
872.138	5064
872.267	4987
872.397	4870
872.526	4812
872.656	4675
872.785	4793
872.915	5014
873.044	4984
873.173	4930
873.303	4942
873.432	4942
873.561	4980
873.69	4904
873.819	4820
873.948	4908
874.077	4812
874.206	4774
874.335	4809
874.464	4949
874.593	5010
874.722	4904
874.851	5056
874.979	5075
875.108	5025
875.237	4877
875.365	4835
875.494	4862
875.623	4934
875.751	4843
875.88	4923
876.008	4984
876.136	5041
876.265	5239
876.393	5376
876.521	5212
876.65	5231
876.778	5174
876.906	5113
877.034	5003
877.162	5075
877.29	5003
877.418	4984
877.546	5064
877.674	5029
877.802	5071
877.93	5064
878.058	4934
878.185	4858
878.313	4972
878.441	4984
878.568	4873
878.696	4835
878.824	4934
878.951	5010
879.079	5159
879.206	5265
879.333	5086
879.461	4949
879.588	4991
879.715	5132
879.842	5235
879.97	4953
880.097	4782
880.224	4733
880.351	4812
880.478	4839
880.605	4771
880.732	4778
880.859	5094
880.986	4870
881.112	4892
881.239	4801
881.366	4683
881.493	4615
881.619	4592
881.746	4630
881.872	4626
881.999	4675
882.125	4698
882.252	4763
882.378	4854
882.505	4946
882.631	4805
882.757	4691
882.883	4763
883.01	4767
883.136	4679
883.262	4618
883.388	4588
883.514	4782
883.64	4820
883.766	4774
883.892	4664
884.018	4721
884.143	4900
884.269	5037
884.395	4736
884.52	4649
884.646	4675
884.772	4584
884.897	4558
885.023	4637
885.148	4763
885.274	4831
885.399	4820
885.524	4736
885.65	4702
885.775	4733
885.9	4664
886.025	4862
886.15	4767
886.275	4721
886.4	4634
886.525	4771
886.65	4672
886.775	4691
886.9	4847
887.025	4995
887.149	4786
887.274	4645
887.399	4588
887.523	4596
887.648	4561
887.773	4622
887.897	4721
888.021	4805
888.146	4649
888.27	4801
888.395	4911
888.519	4778
888.643	4801
888.767	4812
888.891	4694
889.015	4645
889.139	4618
889.263	4577
889.387	4733
889.511	4858
889.635	4778
889.759	4618
889.883	4649
890.006	4736
890.13	4831
890.254	4653
890.377	4679
890.501	4535
890.624	4497
890.748	4645
890.871	4512
890.995	4436
891.118	4383
891.241	4462
891.364	4542
891.488	4603
891.611	4459
891.734	4561
891.857	4603
891.98	4546
892.103	4683
892.226	4573
892.349	4516
892.471	4432
892.594	4554
892.717	4577
892.839	4607
892.962	4596
893.085	4637
893.207	4596
893.33	4478
893.452	4527
893.575	4698
893.697	4599
893.819	4793
893.941	4831
894.064	4774
894.186	4535
894.308	4550
894.43	4748
894.552	4828
894.674	4759
894.796	4554
894.918	4630
895.04	4596
895.161	4755
895.283	4706
895.405	4603
895.526	4626
895.648	4717
895.769	4679
895.891	4702
896.012	4729
896.134	4683
896.255	4645
896.376	4618
896.498	4580
896.619	4706
896.74	4561
896.861	4641
896.982	4919
897.103	5086
897.224	4824
897.345	4691
897.466	4630
897.587	4725
897.708	4854
897.828	4812
897.949	4615
898.07	4588
898.19	4592
898.311	4824
898.431	4637
898.552	4725
898.672	4774
898.792	4831
898.913	4736
899.033	4584
899.153	4493
899.273	4421
899.393	4493
899.513	4558
899.633	4481
899.753	4554
899.873	4474
899.993	4596
900.113	4516
900.232	4554
900.352	4558
900.472	4466
900.591	4386
900.711	4508
900.83	4440
900.95	4592
901.069	4698
901.189	4554
901.308	4356
901.427	4303
901.546	4341
901.665	4459
901.784	4546
901.904	4383
902.023	4303
902.141	4188
902.26	4162
902.379	4287
902.498	4246
902.617	4253
902.735	4337
902.854	4421
902.973	4333
903.091	4215
903.21	4276
903.328	4276
903.446	4265
903.565	4230
903.683	4333
903.801	4287
903.919	4421
904.038	4447
904.156	4322
904.274	4447
904.392	4405
904.51	4417
904.627	4447
904.745	4550
904.863	4596
904.981	4333
905.098	4284
905.216	4363
905.334	4455
905.451	4443
905.569	4462
905.686	4603
905.803	4641
905.921	4428
906.038	4565
906.155	4489
906.272	4394
906.389	4470
906.506	4333
906.623	4386
906.74	4379
906.857	4337
906.974	4383
907.091	4538
907.208	4687
907.324	4573
907.441	4546
907.557	4306
907.674	4325
907.79	4325
907.907	4424
908.023	4504
908.139	4455
908.256	4421
908.372	4512
908.488	4409
908.604	4356
908.72	4310
908.836	4383
908.952	4402
909.068	4409
909.184	4573
909.3	4455
909.415	4588
909.531	4523
909.647	4371
909.762	4367
909.878	4383
909.993	4443
910.108	4379
910.224	4451
910.339	4531
910.454	4413
910.57	4356
910.685	4337
910.8	4603
910.915	4569
911.03	4493
911.145	4318
911.259	4322
911.374	4322
911.489	4287
911.604	4265
911.718	4173
911.833	4242
911.947	4086
912.062	4048
912.176	4227
912.291	4230
912.405	4268
912.519	4436
912.633	4516
912.748	4424
912.862	4325
912.976	4192
913.09	4090
913.204	4150
913.318	4234
913.431	4394
913.545	4379
913.659	4424
913.772	4348
913.886	4234
914	4246
914.113	4421
914.226	4443
914.34	4367
914.453	4230
914.566	4432
914.68	4333
914.793	4318
914.906	4150
915.019	4135
915.132	4120
915.245	4162
915.358	4234
915.47	4246
915.583	4333
915.696	4325
915.809	4390
915.921	4398
916.034	4253
916.146	4272
916.259	4223
916.371	4386
916.483	4322
916.595	4291
916.708	4318
916.82	4333
916.932	4314
917.044	4314
917.156	4344
917.268	4257
917.38	4238
917.491	4287
917.603	4371
917.715	4447
917.826	4447
917.938	4322
918.049	4223
918.161	4402
918.272	4542
918.384	4527
918.495	4443
918.606	4284
918.717	4223
918.828	4329
918.939	4394
919.05	4234
919.161	4325
919.272	4093
919.383	4223
919.494	4489
919.604	4630
919.715	4447
919.826	4314
919.936	4386
920.047	4478
920.157	4440
920.267	4729
920.378	4500
920.488	4474
920.598	4698
920.708	4919
920.818	4740
920.928	4778
921.038	4938
921.148	4908
921.258	4653
921.368	4516
921.477	4474
921.587	4470
921.697	4367
921.806	4558
921.916	4470
922.025	4272
922.134	4261
922.244	4322
922.353	4352
922.462	4139
922.571	4158
922.68	3994
922.789	4006
922.898	4013
923.007	3972
923.116	4105
923.224	4071
923.333	4109
923.442	3987
923.55	3983
923.659	4029
923.767	4105
923.876	4017
923.984	4162
924.092	4013
924.201	4063
924.309	4109
924.417	4143
924.525	4071
924.633	4097
924.741	5071
924.849	3926
924.956	4124
925.064	3960
925.172	3918
925.279	3918
925.387	4051
925.494	4078
925.602	4177
925.709	4196
925.816	4044
925.924	4112
926.031	4211
926.138	4150
926.245	4219
926.352	4112
926.459	4306
926.566	4268
926.673	4128
926.779	4105
926.886	4071
926.993	3968
927.099	3953
927.206	3941
927.312	3892
927.419	4059
927.525	4044
927.631	4086
927.737	3941
927.843	3934
927.95	3850
928.056	3934
928.162	3941
928.267	4059
928.373	4672
928.479	4116
928.585	3880
928.69	3994
928.796	4097
928.901	4010
929.007	3842
929.112	3968
929.218	3956
929.323	3934
929.428	3956
929.533	4086
929.638	3911
929.743	3983
929.848	4071
929.953	3979
930.058	3922
930.163	3778
930.267	3869
930.372	3972
930.477	3793
930.581	4105
930.685	3949
930.79	3842
930.894	3911
930.998	3842
931.103	4044
931.207	3709
931.311	3686
931.415	3705
931.519	3534
931.623	3576
