Data from test_V78500241_431.txt Node
Date: Fri Mar 25 16:51:59 CST 2022
User: usil
Spectrometer: V785-0024
Trigger mode: 0
Integration Time (sec): 4.000000E-1
Scans to average: 1
Nonlinearity correction enabled: false
Boxcar width: 0
Storing dark spectrum: false
XAxis mode: Wavelengths
Number of Pixels in Spectrum: 1024
>>>>>Begin Spectral Data<<<<<
801.071	8020
801.214	8005
801.356	7906
801.499	7906
801.641	7814
801.783	7860
801.926	8024
802.068	8024
802.211	8054
802.353	7974
802.496	7814
802.638	7913
802.78	7940
802.923	7913
803.065	7864
803.208	7822
803.35	7925
803.492	8020
803.635	8050
803.777	8005
803.919	8123
804.061	8377
804.204	8168
804.346	8001
804.488	7906
804.63	8073
804.773	7997
804.915	8123
805.057	8305
805.199	8221
805.341	8202
805.483	8214
805.626	8202
805.768	8069
805.91	8119
806.052	8195
806.194	8142
806.336	8320
806.478	8164
806.62	8119
806.762	8164
806.904	8332
807.046	8431
807.188	8320
807.33	8256
807.472	8214
807.614	8130
807.756	8100
807.898	8100
808.04	7944
808.182	7993
808.324	7947
808.465	7913
808.607	8050
808.749	8111
808.891	8134
809.033	8244
809.174	8256
809.316	8065
809.458	8077
809.6	8005
809.741	8100
809.883	8016
810.025	8172
810.166	8084
810.308	8058
810.45	7963
810.591	7875
810.733	7750
810.875	7685
811.016	7556
811.158	7510
811.299	7700
811.441	7753
811.582	7693
811.724	7655
811.865	7575
812.007	7624
812.148	7632
812.29	7666
812.431	7746
812.573	7963
812.714	8043
812.855	8123
812.997	8225
813.138	8298
813.279	8199
813.421	8214
813.562	8062
813.703	7932
813.845	7852
813.986	7502
814.127	7365
814.268	7266
814.41	7221
814.551	7213
814.692	7206
814.833	7103
814.974	7152
815.115	7129
815.256	6958
815.397	6905
815.539	6951
815.68	6852
815.821	6878
815.962	6871
816.103	6901
816.244	6745
816.385	6696
816.526	6635
816.666	6525
816.807	6319
816.948	6448
817.089	6475
817.23	6532
817.371	6350
817.512	6445
817.653	6380
817.793	6429
817.934	6460
818.075	6448
818.216	6452
818.356	6433
818.497	6239
818.638	6117
818.778	6102
818.919	6148
819.06	6159
819.2	6296
819.341	6346
819.481	6346
819.622	6555
819.762	6749
819.903	6734
820.043	6608
820.184	6589
820.324	6574
820.465	6726
820.605	6688
820.746	6635
820.886	6521
821.026	6722
821.167	6741
821.307	6856
821.447	6760
821.588	6616
821.728	6616
821.868	6452
822.008	6308
822.149	6365
822.289	6311
822.429	6216
822.569	6091
822.709	6125
822.849	5916
822.99	5904
823.13	5954
823.27	5988
823.41	5786
823.55	5786
823.69	5779
823.83	5813
823.97	5714
824.11	5532
824.25	5497
824.389	5577
824.529	5634
824.669	5577
824.809	5611
824.949	5642
825.089	5604
825.228	5482
825.368	5349
825.508	5387
825.648	5345
825.787	5334
825.927	5383
826.067	5326
826.206	5265
826.346	5391
826.485	5379
826.625	5429
826.765	5532
826.904	5467
827.044	5239
827.183	5212
827.323	5181
827.462	5265
827.601	5178
827.741	5113
827.88	5178
828.02	5098
828.159	5239
828.298	5337
828.437	5334
828.577	5299
828.716	5501
828.855	5311
828.994	5185
829.134	5162
829.273	5174
829.412	5132
829.551	5128
829.69	5143
829.829	5250
829.968	5364
830.107	5269
830.246	5242
830.385	5143
830.524	5166
830.663	5090
830.802	4946
830.941	4911
831.08	4870
831.219	4968
831.357	4953
831.496	5140
831.635	4942
831.774	4847
831.913	4858
832.051	4721
832.19	4755
832.329	4831
832.467	4694
832.606	4660
832.744	4729
832.883	4694
833.022	4717
833.16	4790
833.299	4831
833.437	4816
833.576	4900
833.714	4870
833.852	4881
833.991	4850
834.129	4987
834.267	5010
834.406	4949
834.544	4949
834.682	5003
834.821	4965
834.959	5197
835.097	5041
835.235	5170
835.373	5060
835.511	5166
835.65	5048
835.788	5086
835.926	4923
836.064	4900
836.202	4885
836.34	5159
836.478	5216
836.615	5132
836.753	5159
836.891	5337
837.029	5273
837.167	5185
837.305	5121
837.443	5185
837.58	5033
837.718	5296
837.856	5216
837.993	5159
838.131	5246
838.269	5204
838.406	5223
838.544	5185
838.681	5022
838.819	5033
838.956	4927
839.094	4934
839.231	5006
839.369	5098
839.506	5410
839.643	5292
839.781	5025
839.918	5018
840.055	5105
840.193	5075
840.33	5098
840.467	5159
840.604	5185
840.742	5444
840.879	5121
841.016	5090
841.153	5178
841.29	5406
841.427	5353
841.564	5345
841.701	5326
841.838	5261
841.975	5193
842.112	5261
842.249	5185
842.385	5132
842.522	5311
842.659	5151
842.796	5155
842.933	5201
843.069	5121
843.206	5121
843.343	5277
843.479	5212
843.616	5250
843.752	5029
843.889	4999
844.025	5223
844.162	5064
844.298	5193
844.435	5136
844.571	5045
844.708	5216
844.844	5326
844.98	5368
845.117	5269
845.253	5147
845.389	5090
845.525	5147
845.661	5124
845.798	5003
845.934	5124
846.07	5102
846.206	5155
846.342	5269
846.478	5166
846.614	4976
846.75	4972
846.886	4915
847.022	5162
847.158	4980
847.294	5121
847.429	5121
847.565	5075
847.701	5322
847.837	4911
847.972	4866
848.108	4892
848.244	4957
848.379	4778
848.515	4714
848.65	4752
848.786	4778
848.921	4774
849.057	4862
849.192	4847
849.328	4828
849.463	4854
849.598	4828
849.734	4763
849.869	4774
850.004	4672
850.14	4679
850.275	4603
850.41	4504
850.545	4596
850.68	4653
850.815	4660
850.95	4649
851.085	4862
851.22	4767
851.355	4649
851.49	4645
851.625	4683
851.76	4656
851.895	4531
852.03	4535
852.165	4660
852.299	4687
852.434	4782
852.569	4778
852.703	4778
852.838	4843
852.973	4972
853.107	4927
853.242	4702
853.376	4637
853.511	4588
853.645	4618
853.78	4797
853.914	4694
854.048	4691
854.183	4672
854.317	4687
854.451	4828
854.585	4691
854.72	4637
854.854	4771
854.988	4660
855.122	4637
855.256	4596
855.39	4698
855.524	4782
855.658	4748
855.792	4744
855.926	4774
856.06	4790
856.194	4771
856.327	4668
856.461	4637
856.595	4626
856.729	4630
856.862	4797
856.996	4675
857.13	4721
857.263	4725
857.397	4782
857.53	4649
857.664	4706
857.797	4736
857.931	4824
858.064	4683
858.197	4763
858.331	4672
858.464	4603
858.597	4542
858.731	4630
858.864	4626
858.997	4611
859.13	4664
859.263	4740
859.396	4725
859.529	4569
859.662	4550
859.795	4531
859.928	4630
860.061	4752
860.194	4786
860.327	4611
860.46	4580
860.592	4694
860.725	4717
860.858	4729
860.99	4531
861.123	4523
861.256	4558
861.388	4634
861.521	5417
861.653	4485
861.786	4436
861.918	4451
862.05	4497
862.183	4561
862.315	4664
862.447	4649
862.58	4573
862.712	4379
862.844	4352
862.976	4508
863.108	4451
863.24	4744
863.372	4344
863.504	4443
863.636	4413
863.768	4519
863.9	4432
864.032	4383
864.164	4443
864.296	4436
864.428	4592
864.559	4565
864.691	4523
864.823	4546
864.954	4481
865.086	4538
865.217	4459
865.349	4402
865.48	4478
865.612	4497
865.743	4630
865.875	4470
866.006	4447
866.137	4478
866.269	4466
866.4	4447
866.531	4402
866.662	4447
866.793	4436
866.924	4451
867.055	4478
867.186	4413
867.317	4402
867.448	4424
867.579	4371
867.71	4424
867.841	4379
867.972	4421
868.103	4550
868.233	4440
868.364	4462
868.495	4523
868.625	4683
868.756	4740
868.886	4554
869.017	4668
869.147	4767
869.278	4767
869.408	4683
869.539	4729
869.669	4702
869.799	4634
869.929	4736
870.06	4736
870.19	4965
870.32	4923
870.45	4968
870.58	5014
870.71	5083
870.84	5090
870.97	4908
871.1	4877
871.23	5166
871.36	5113
871.489	5037
871.619	5113
871.749	5071
871.879	5121
872.008	5128
872.138	5094
872.267	4923
872.397	4820
872.526	4873
872.656	4721
872.785	4816
872.915	4949
873.044	5045
873.173	4938
873.303	4946
873.432	4938
873.561	4949
873.69	4862
873.819	4877
873.948	4900
874.077	4843
874.206	4759
874.335	4828
874.464	4938
874.593	5083
874.722	4934
874.851	5071
874.979	5086
875.108	5048
875.237	4961
875.365	4927
875.494	4892
875.623	5006
875.751	4828
875.88	4946
876.008	5022
876.136	5056
876.265	5201
876.393	5360
876.521	5223
876.65	5258
876.778	5159
876.906	5052
877.034	5029
877.162	5037
877.29	5029
877.418	5052
877.546	5075
877.674	5079
877.802	5098
877.93	5048
878.058	4866
878.185	4881
878.313	4946
878.441	4934
878.568	4831
878.696	4873
878.824	4968
878.951	4984
879.079	5223
879.206	5357
879.333	5128
879.461	5037
879.588	5029
879.715	5098
879.842	5269
879.97	5010
880.097	4786
880.224	4782
880.351	4809
880.478	4831
880.605	4843
880.732	4839
880.859	5048
880.986	4930
881.112	4892
881.239	4809
881.366	4675
881.493	4626
881.619	4558
881.746	4615
881.872	4683
881.999	4660
882.125	4714
882.252	4820
882.378	4828
882.505	4915
882.631	4782
882.757	4725
882.883	4763
883.01	4763
883.136	4668
883.262	4577
883.388	4653
883.514	4824
883.64	4934
883.766	4805
883.892	4656
884.018	4786
884.143	4866
884.269	5045
884.395	4641
884.52	4694
884.646	4653
884.772	4584
884.897	4645
885.023	4656
885.148	4767
885.274	4870
885.399	4801
885.524	4702
885.65	4729
885.775	4714
885.9	4710
886.025	4866
886.15	4820
886.275	4771
886.4	4668
886.525	4698
886.65	4702
886.775	4702
886.9	4927
887.025	5041
887.149	4839
887.274	4702
887.399	4603
887.523	4630
887.648	4527
887.773	4599
887.897	4740
888.021	4774
888.146	4698
888.27	4809
888.395	4847
888.519	4748
888.643	4824
888.767	4835
888.891	4660
889.015	4649
889.139	4645
889.263	4656
889.387	4763
889.511	4862
889.635	4797
889.759	4656
889.883	4664
890.006	4721
890.13	4797
890.254	4687
890.377	4653
890.501	4588
890.624	4508
890.748	4672
890.871	4550
890.995	4481
891.118	4402
891.241	4512
891.364	4519
891.488	4588
891.611	4531
891.734	4569
891.857	4611
891.98	4603
892.103	4675
892.226	4626
892.349	4542
892.471	4474
892.594	4592
892.717	4550
892.839	4561
892.962	4573
893.085	4729
893.207	4580
893.33	4455
893.452	4500
893.575	4668
893.697	4592
893.819	4805
893.941	4824
894.064	4771
894.186	4569
894.308	4554
894.43	4721
894.552	4850
894.674	4740
894.796	4558
894.918	4592
895.04	4542
895.161	4721
895.283	4672
895.405	4550
895.526	4615
895.648	4653
895.769	4691
895.891	4721
896.012	4767
896.134	4736
896.255	4653
896.376	4607
896.498	4630
896.619	4679
896.74	4588
896.861	4691
896.982	4934
897.103	5003
897.224	4858
897.345	4710
897.466	4653
897.587	4729
897.708	4831
897.828	4812
897.949	4679
898.07	4573
898.19	4653
898.311	4809
898.431	4687
898.552	4759
898.672	4835
898.792	4797
898.913	4710
899.033	4607
899.153	4558
899.273	4470
899.393	4497
899.513	4504
899.633	4512
899.753	4565
899.873	4546
899.993	4611
900.113	4573
900.232	4596
900.352	4538
900.472	4470
900.591	4436
900.711	4527
900.83	4421
900.95	4622
901.069	4717
901.189	4519
901.308	4360
901.427	4310
901.546	4356
901.665	4432
901.784	4504
901.904	4413
902.023	4352
902.141	4154
902.26	4169
902.379	4253
902.498	4223
902.617	4207
902.735	4405
902.854	4398
902.973	4379
903.091	4211
903.21	4204
903.328	4352
903.446	4287
903.565	4257
903.683	4413
903.801	4344
903.919	4375
904.038	4500
904.156	4337
904.274	4432
904.392	4390
904.51	4447
904.627	4474
904.745	4565
904.863	4596
904.981	4424
905.098	4325
905.216	4371
905.334	4432
905.451	4527
905.569	4443
905.686	4558
905.803	4603
905.921	4421
906.038	4531
906.155	4489
906.272	4375
906.389	4500
906.506	4314
906.623	4367
906.74	4383
906.857	4295
906.974	4356
907.091	4592
907.208	4664
907.324	4565
907.441	4459
907.557	4375
907.674	4360
907.79	4371
907.907	4375
908.023	4481
908.139	4523
908.256	4390
908.372	4485
908.488	4432
908.604	4390
908.72	4367
908.836	4348
908.952	4371
909.068	4443
909.184	4504
909.3	4462
909.415	4588
909.531	4588
909.647	4417
909.762	4405
909.878	4344
909.993	4462
910.108	4421
910.224	4436
910.339	4474
910.454	4371
910.57	4371
910.685	4318
910.8	4668
910.915	4611
911.03	4462
911.145	4367
911.259	4329
911.374	4390
911.489	4287
911.604	4261
911.718	4128
911.833	4200
911.947	4078
912.062	3994
912.176	4227
912.291	4268
912.405	4265
912.519	4421
912.633	4489
912.748	4405
912.862	4333
912.976	4215
913.09	4128
913.204	4173
913.318	4249
913.431	4348
913.545	4363
913.659	4443
913.772	4341
913.886	4249
914	4238
914.113	4367
914.226	4394
914.34	4405
914.453	4287
914.566	4462
914.68	4314
914.793	4360
914.906	4162
915.019	4154
915.132	4131
915.245	4173
915.358	4177
915.47	4215
915.583	4295
915.696	4337
915.809	4371
915.921	4417
916.034	4253
916.146	4234
916.259	4211
916.371	4421
916.483	4375
916.595	4272
916.708	4322
916.82	4356
916.932	4329
917.044	4333
917.156	4306
917.268	4246
917.38	4299
917.491	4272
917.603	4363
917.715	4451
917.826	4474
917.938	4379
918.049	4268
918.161	4421
918.272	4508
918.384	4558
918.495	4424
918.606	4325
918.717	4249
918.828	4344
918.939	4333
919.05	4276
919.161	4291
919.272	4109
919.383	4284
919.494	4402
919.604	4664
919.715	4459
919.826	4341
919.936	4428
920.047	4485
920.157	4527
920.267	4668
920.378	4550
920.488	4474
920.598	4767
920.708	4870
920.818	4721
920.928	4767
921.038	4938
921.148	4904
921.258	4607
921.368	4497
921.477	4459
921.587	4451
921.697	4383
921.806	4531
921.916	4455
922.025	4295
922.134	4299
922.244	4230
922.353	4367
922.462	4181
922.571	4131
922.68	4025
922.789	3991
922.898	4067
923.007	4036
923.116	4048
923.224	4055
923.333	4116
923.442	4025
923.55	3941
923.659	4025
923.767	4105
923.876	4010
923.984	4131
924.092	4040
924.201	4090
924.309	4105
924.417	4105
924.525	4090
924.633	4112
924.741	5033
924.849	3876
924.956	4143
925.064	3972
925.172	3915
925.279	3956
925.387	4055
925.494	4032
925.602	4268
925.709	4200
925.816	4078
925.924	4143
926.031	4234
926.138	4158
926.245	4204
926.352	4071
926.459	4234
926.566	4291
926.673	4147
926.779	4063
926.886	4025
926.993	3987
927.099	3975
927.206	3941
927.312	3960
927.419	4051
927.525	4063
927.631	4097
927.737	3994
927.843	3930
927.95	3850
928.056	3934
928.162	3991
928.267	4082
928.373	4687
928.479	4154
928.585	3861
928.69	4051
928.796	4097
928.901	3960
929.007	3896
929.112	4032
929.218	3975
929.323	3953
929.428	3918
929.533	4086
929.638	3873
929.743	3972
929.848	4032
929.953	3956
930.058	3956
930.163	3808
930.267	3831
930.372	3949
930.477	3804
930.581	4086
930.685	3915
930.79	3846
930.894	3869
930.998	3831
931.103	4044
931.207	3701
931.311	3671
931.415	3679
931.519	3530
931.623	3542
