Data from test_V78500241_1530.txt Node
Date: Fri Mar 25 16:59:38 CST 2022
User: usil
Spectrometer: V785-0024
Trigger mode: 0
Integration Time (sec): 4.000000E-1
Scans to average: 1
Nonlinearity correction enabled: false
Boxcar width: 0
Storing dark spectrum: false
XAxis mode: Wavelengths
Number of Pixels in Spectrum: 1024
>>>>>Begin Spectral Data<<<<<
801.071	7970
801.214	7993
801.356	7849
801.499	7795
801.641	7757
801.783	7784
801.926	7932
802.068	7849
802.211	7974
802.353	7913
802.496	7811
802.638	7879
802.78	7887
802.923	7913
803.065	7875
803.208	7830
803.35	7970
803.492	8081
803.635	8145
803.777	7993
803.919	8123
804.061	8442
804.204	8103
804.346	8016
804.488	7989
804.63	8103
804.773	7989
804.915	8065
805.057	8221
805.199	8084
805.341	8252
805.483	8313
805.626	8103
805.768	8134
805.91	8119
806.052	8180
806.194	8039
806.336	8267
806.478	8054
806.62	8050
806.762	8065
806.904	8229
807.046	8457
807.188	8343
807.33	8237
807.472	8339
807.614	8164
807.756	8126
807.898	7947
808.04	7902
808.182	7894
808.324	7856
808.465	7959
808.607	8046
808.749	8100
808.891	8210
809.033	8267
809.174	8271
809.316	8050
809.458	8008
809.6	7993
809.741	7955
809.883	7944
810.025	8081
810.166	8031
810.308	7963
810.45	8005
810.591	7795
810.733	7681
810.875	7677
811.016	7525
811.158	7483
811.299	7601
811.441	7685
811.582	7700
811.724	7666
811.865	7540
812.007	7563
812.148	7556
812.29	7578
812.431	7700
812.573	7871
812.714	7967
812.855	8103
812.997	8176
813.138	8320
813.279	8123
813.421	8153
813.562	7932
813.703	7864
813.845	7715
813.986	7438
814.127	7240
814.268	7171
814.41	7206
814.551	7137
814.692	7152
814.833	7080
814.974	7129
815.115	7084
815.256	6954
815.397	6913
815.539	6928
815.68	6772
815.821	6696
815.962	6833
816.103	6787
816.244	6673
816.385	6585
816.526	6578
816.666	6486
816.807	6300
816.948	6369
817.089	6418
817.23	6429
817.371	6369
817.512	6365
817.653	6380
817.793	6376
817.934	6448
818.075	6479
818.216	6445
818.356	6391
818.497	6178
818.638	6098
818.778	6133
818.919	6171
819.06	6133
819.2	6311
819.341	6311
819.481	6361
819.622	6517
819.762	6665
819.903	6631
820.043	6589
820.184	6566
820.324	6563
820.465	6715
820.605	6711
820.746	6635
820.886	6471
821.026	6620
821.167	6658
821.307	6840
821.447	6760
821.588	6719
821.728	6604
821.868	6471
822.008	6300
822.149	6342
822.289	6323
822.429	6102
822.569	6110
822.709	6072
822.849	5897
822.99	5851
823.13	5882
823.27	5931
823.41	5783
823.55	5737
823.69	5771
823.83	5764
823.97	5653
824.11	5497
824.25	5455
824.389	5516
824.529	5547
824.669	5490
824.809	5573
824.949	5600
825.089	5554
825.228	5535
825.368	5383
825.508	5303
825.648	5299
825.787	5364
825.927	5315
826.067	5280
826.206	5265
826.346	5379
826.485	5357
826.625	5417
826.765	5547
826.904	5421
827.044	5231
827.183	5162
827.323	5117
827.462	5223
827.601	5124
827.741	5140
827.88	5235
828.02	5086
828.159	5208
828.298	5280
828.437	5318
828.577	5288
828.716	5414
828.855	5315
828.994	5113
829.134	5090
829.273	5197
829.412	5151
829.551	5132
829.69	5121
829.829	5223
829.968	5307
830.107	5258
830.246	5223
830.385	5178
830.524	5102
830.663	5064
830.802	4930
830.941	4877
831.08	4881
831.219	5025
831.357	4934
831.496	5170
831.635	4850
831.774	4809
831.913	4793
832.051	4691
832.19	4744
832.329	4820
832.467	4675
832.606	4618
832.744	4729
832.883	4698
833.022	4710
833.16	4706
833.299	4797
833.437	4771
833.576	4816
833.714	4816
833.852	4835
833.991	4858
834.129	4900
834.267	4965
834.406	4889
834.544	4892
834.682	4938
834.821	4991
834.959	5124
835.097	4965
835.235	5117
835.373	5071
835.511	5090
835.65	4942
835.788	5025
835.926	4881
836.064	4911
836.202	4915
836.34	5159
836.478	5216
836.615	5071
836.753	5193
836.891	5322
837.029	5242
837.167	5208
837.305	5128
837.443	5136
837.58	5018
837.718	5254
837.856	5189
837.993	5124
838.131	5220
838.269	5204
838.406	5189
838.544	5128
838.681	5003
838.819	5010
838.956	4866
839.094	4889
839.231	4961
839.369	5045
839.506	5391
839.643	5208
839.781	5052
839.918	4957
840.055	5083
840.193	5075
840.33	5121
840.467	5094
840.604	5105
840.742	5459
840.879	5056
841.016	5098
841.153	5155
841.29	5345
841.427	5284
841.564	5292
841.701	5299
841.838	5258
841.975	5246
842.112	5223
842.249	5128
842.385	5075
842.522	5318
842.659	5155
842.796	5147
842.933	5178
843.069	5045
843.206	5086
843.343	5296
843.479	5220
843.616	5216
843.752	5029
843.889	4999
844.025	5235
844.162	4976
844.298	5178
844.435	5018
844.571	4995
844.708	5181
844.844	5284
844.98	5299
845.117	5258
845.253	5086
845.389	5102
845.525	5159
845.661	5140
845.798	4999
845.934	5071
846.07	5067
846.206	5140
846.342	5242
846.478	5178
846.614	5018
846.75	4976
846.886	4946
847.022	5079
847.158	5010
847.294	5037
847.429	5105
847.565	5041
847.701	5303
847.837	4870
847.972	4816
848.108	4946
848.244	4942
848.379	4778
848.515	4698
848.65	4694
848.786	4748
848.921	4729
849.057	4839
849.192	4919
849.328	4793
849.463	4831
849.598	4805
849.734	4759
849.869	4694
850.004	4649
850.14	4687
850.275	4615
850.41	4558
850.545	4592
850.68	4607
850.815	4626
850.95	4679
851.085	4862
851.22	4755
851.355	4679
851.49	4599
851.625	4630
851.76	4660
851.895	4565
852.03	4577
852.165	4668
852.299	4702
852.434	4812
852.569	4774
852.703	4786
852.838	4862
852.973	4927
853.107	4923
853.242	4790
853.376	4691
853.511	4523
853.645	4672
853.78	4812
853.914	4755
854.048	4725
854.183	4691
854.317	4706
854.451	4915
854.585	4679
854.72	4683
854.854	4809
854.988	4668
855.122	4668
855.256	4550
855.39	4710
855.524	4835
855.658	4812
855.792	4714
855.926	4778
856.06	4805
856.194	4812
856.327	4725
856.461	4607
856.595	4630
856.729	4656
856.862	4755
856.996	4698
857.13	4733
857.263	4767
857.397	4858
857.53	4649
857.664	4782
857.797	4767
857.931	4797
858.064	4736
858.197	4748
858.331	4637
858.464	4683
858.597	4512
858.731	4649
858.864	4664
858.997	4634
859.13	4683
859.263	4721
859.396	4698
859.529	4618
859.662	4622
859.795	4569
859.928	4618
860.061	4767
860.194	4812
860.327	4618
860.46	4649
860.592	4774
860.725	4767
860.858	4771
860.99	4618
861.123	4508
861.256	4546
861.388	4637
861.521	5318
861.653	4512
861.786	4462
861.918	4432
862.05	4531
862.183	4565
862.315	4622
862.447	4660
862.58	4561
862.712	4383
862.844	4379
862.976	4466
863.108	4478
863.24	4744
863.372	4352
863.504	4417
863.636	4379
863.768	4493
863.9	4474
864.032	4402
864.164	4409
864.296	4470
864.428	4584
864.559	4538
864.691	4565
864.823	4550
864.954	4519
865.086	4538
865.217	4474
865.349	4451
865.48	4504
865.612	4516
865.743	4637
865.875	4455
866.006	4459
866.137	4497
866.269	4519
866.4	4493
866.531	4451
866.662	4447
866.793	4455
866.924	4383
867.055	4550
867.186	4497
867.317	4459
867.448	4363
867.579	4409
867.71	4443
867.841	4417
867.972	4462
868.103	4478
868.233	4462
868.364	4455
868.495	4512
868.625	4683
868.756	4778
868.886	4580
869.017	4611
869.147	4820
869.278	4782
869.408	4637
869.539	4675
869.669	4748
869.799	4706
869.929	4778
870.06	4736
870.19	4953
870.32	4949
870.45	5022
870.58	4999
870.71	5136
870.84	5140
870.97	4965
871.1	4942
871.23	5117
871.36	5166
871.489	5045
871.619	5105
871.749	5090
871.879	5143
872.008	5212
872.138	5094
872.267	4976
872.397	4862
872.526	4786
872.656	4740
872.785	4782
872.915	4976
873.044	5067
873.173	4949
873.303	4968
873.432	4892
873.561	5041
873.69	4915
873.819	4873
873.948	4953
874.077	4854
874.206	4755
874.335	4816
874.464	4976
874.593	5086
874.722	4980
874.851	5132
874.979	5090
875.108	5052
875.237	4927
875.365	4911
875.494	4915
875.623	4999
875.751	4831
875.88	4873
876.008	5006
876.136	5075
876.265	5254
876.393	5368
876.521	5277
876.65	5284
876.778	5189
876.906	5045
877.034	5075
877.162	5045
877.29	5029
877.418	5090
877.546	5041
877.674	5102
877.802	5037
877.93	5014
878.058	5022
878.185	4862
878.313	4968
878.441	4999
878.568	4816
878.696	4908
878.824	4953
878.951	4972
879.079	5147
879.206	5330
879.333	5117
879.461	4984
879.588	4976
879.715	5159
879.842	5273
879.97	5037
880.097	4782
880.224	4797
880.351	4812
880.478	4850
880.605	4854
880.732	4816
880.859	5151
880.986	4862
881.112	4919
881.239	4824
881.366	4698
881.493	4634
881.619	4599
881.746	4626
881.872	4668
881.999	4691
882.125	4687
882.252	4771
882.378	4843
882.505	5041
882.631	4786
882.757	4660
882.883	4759
883.01	4774
883.136	4656
883.262	4630
883.388	4679
883.514	4835
883.64	4889
883.766	4801
883.892	4675
884.018	4736
884.143	4889
884.269	5037
884.395	4744
884.52	4694
884.646	4660
884.772	4546
884.897	4584
885.023	4660
885.148	4771
885.274	4866
885.399	4858
885.524	4710
885.65	4721
885.775	4805
885.9	4759
886.025	4839
886.15	4831
886.275	4710
886.4	4656
886.525	4774
886.65	4683
886.775	4755
886.9	4911
887.025	5025
887.149	4812
887.274	4656
887.399	4599
887.523	4634
887.648	4554
887.773	4577
887.897	4763
888.021	4786
888.146	4740
888.27	4828
888.395	4919
888.519	4831
888.643	4847
888.767	4839
888.891	4698
889.015	4603
889.139	4653
889.263	4675
889.387	4744
889.511	4896
889.635	4733
889.759	4649
889.883	4637
890.006	4725
890.13	4839
890.254	4615
890.377	4710
890.501	4558
890.624	4523
890.748	4622
890.871	4580
890.995	4455
891.118	4405
891.241	4535
891.364	4599
891.488	4668
891.611	4508
891.734	4558
891.857	4679
891.98	4577
892.103	4656
892.226	4611
892.349	4512
892.471	4436
892.594	4538
892.717	4603
892.839	4588
892.962	4618
893.085	4714
893.207	4577
893.33	4478
893.452	4573
893.575	4645
893.697	4596
893.819	4797
893.941	4820
894.064	4790
894.186	4546
894.308	4580
894.43	4721
894.552	4790
894.674	4809
894.796	4512
894.918	4645
895.04	4596
895.161	4733
895.283	4702
895.405	4618
895.526	4660
895.648	4706
895.769	4664
895.891	4748
896.012	4748
896.134	4733
896.255	4679
896.376	4664
896.498	4599
896.619	4675
896.74	4660
896.861	4641
896.982	4938
897.103	5086
897.224	4820
897.345	4790
897.466	4691
897.587	4744
897.708	4896
897.828	4820
897.949	4664
898.07	4596
898.19	4622
898.311	4805
898.431	4672
898.552	4744
898.672	4858
898.792	4835
898.913	4755
899.033	4615
899.153	4512
899.273	4497
899.393	4542
899.513	4493
899.633	4481
899.753	4531
899.873	4519
899.993	4580
900.113	4550
900.232	4584
900.352	4596
900.472	4493
900.591	4402
900.711	4493
900.83	4436
900.95	4630
901.069	4687
901.189	4519
901.308	4402
901.427	4333
901.546	4383
901.665	4527
901.784	4527
901.904	4417
902.023	4333
902.141	4230
902.26	4177
902.379	4314
902.498	4242
902.617	4234
902.735	4371
902.854	4379
902.973	4367
903.091	4257
903.21	4253
903.328	4329
903.446	4284
903.565	4299
903.683	4379
903.801	4287
903.919	4394
904.038	4493
904.156	4341
904.274	4417
904.392	4386
904.51	4443
904.627	4447
904.745	4584
904.863	4577
904.981	4390
905.098	4299
905.216	4417
905.334	4462
905.451	4432
905.569	4466
905.686	4546
905.803	4561
905.921	4421
906.038	4538
906.155	4497
906.272	4394
906.389	4455
906.506	4379
906.623	4390
906.74	4379
906.857	4371
906.974	4360
907.091	4565
907.208	4710
907.324	4615
907.441	4485
907.557	4371
907.674	4398
907.79	4337
907.907	4413
908.023	4512
908.139	4481
908.256	4447
908.372	4470
908.488	4451
908.604	4333
908.72	4360
908.836	4402
908.952	4386
909.068	4386
909.184	4531
909.3	4474
909.415	4580
909.531	4531
909.647	4318
909.762	4375
909.878	4375
909.993	4436
910.108	4417
910.224	4428
910.339	4474
910.454	4390
910.57	4402
910.685	4295
910.8	4626
910.915	4626
911.03	4478
911.145	4325
911.259	4344
911.374	4394
911.489	4291
911.604	4280
911.718	4211
911.833	4257
911.947	4116
912.062	4059
912.176	4223
912.291	4295
912.405	4238
912.519	4451
912.633	4527
912.748	4371
912.862	4329
912.976	4211
913.09	4093
913.204	4150
913.318	4246
913.431	4352
913.545	4409
913.659	4409
913.772	4352
913.886	4265
914	4268
914.113	4402
914.226	4459
914.34	4394
914.453	4276
914.566	4451
914.68	4360
914.793	4325
914.906	4150
915.019	4147
915.132	4109
915.245	4181
915.358	4207
915.47	4246
915.583	4246
915.696	4325
915.809	4386
915.921	4436
916.034	4261
916.146	4249
916.259	4207
916.371	4386
916.483	4371
916.595	4318
916.708	4383
916.82	4333
916.932	4386
917.044	4325
917.156	4360
917.268	4306
917.38	4306
917.491	4287
917.603	4348
917.715	4459
917.826	4451
917.938	4360
918.049	4200
918.161	4447
918.272	4603
918.384	4561
918.495	4470
918.606	4314
918.717	4299
918.828	4386
918.939	4440
919.05	4284
919.161	4371
919.272	4204
919.383	4276
919.494	4485
919.604	4653
919.715	4459
919.826	4390
919.936	4451
920.047	4531
920.157	4550
920.267	4725
920.378	4599
920.488	4558
920.598	4748
920.708	4987
920.818	4828
920.928	4828
921.038	4987
921.148	4987
921.258	4656
921.368	4588
921.477	4516
921.587	4497
921.697	4386
921.806	4611
921.916	4470
922.025	4310
922.134	4322
922.244	4284
922.353	4421
922.462	4211
922.571	4150
922.68	4036
922.789	4017
922.898	4071
923.007	4021
923.116	4150
923.224	4078
923.333	4093
923.442	4051
923.55	4032
923.659	4067
923.767	4135
923.876	4067
923.984	4150
924.092	4017
924.201	4109
924.309	4120
924.417	4150
924.525	4105
924.633	4143
924.741	4938
924.849	3975
924.956	4158
925.064	4029
925.172	3960
925.279	3983
925.387	4090
925.494	4074
925.602	4265
925.709	4242
925.816	4044
925.924	4169
926.031	4257
926.138	4227
926.245	4261
926.352	4128
926.459	4268
926.566	4318
926.673	4196
926.779	4086
926.886	4097
926.993	3994
927.099	3994
927.206	4017
927.312	3956
927.419	4120
927.525	4101
927.631	4162
927.737	3983
927.843	3987
927.95	3865
928.056	4036
928.162	4032
928.267	4048
928.373	4653
928.479	4188
928.585	3884
928.69	4093
928.796	4116
928.901	4021
929.007	3861
929.112	4029
929.218	4010
929.323	3953
929.428	3941
929.533	4139
929.638	3956
929.743	4017
929.848	4032
929.953	4063
930.058	3945
930.163	3804
930.267	3892
930.372	3998
930.477	3850
930.581	4112
930.685	3979
930.79	3831
930.894	3945
930.998	3915
931.103	4093
931.207	3728
931.311	3724
931.415	3717
931.519	3534
931.623	3633
