Data from test_V78500241_738.txt Node
Date: Fri Mar 25 16:54:08 CST 2022
User: usil
Spectrometer: V785-0024
Trigger mode: 0
Integration Time (sec): 4.000000E-1
Scans to average: 1
Nonlinearity correction enabled: false
Boxcar width: 0
Storing dark spectrum: false
XAxis mode: Wavelengths
Number of Pixels in Spectrum: 1024
>>>>>Begin Spectral Data<<<<<
801.071	7997
801.214	7955
801.356	7879
801.499	7887
801.641	7727
801.783	7852
801.926	7993
802.068	7967
802.211	7936
802.353	7978
802.496	7879
802.638	7883
802.78	7928
802.923	7894
803.065	7864
803.208	7830
803.35	8016
803.492	8107
803.635	8176
803.777	8031
803.919	8035
804.061	8438
804.204	8130
804.346	8024
804.488	8027
804.63	8138
804.773	8073
804.915	8145
805.057	8244
805.199	8157
805.341	8221
805.483	8294
805.626	8221
805.768	8092
805.91	8145
806.052	8225
806.194	8119
806.336	8324
806.478	8043
806.62	8103
806.762	8096
806.904	8248
807.046	8393
807.188	8396
807.33	8320
807.472	8259
807.614	8134
807.756	8088
807.898	7986
808.04	7852
808.182	7898
808.324	7830
808.465	7902
808.607	8008
808.749	8062
808.891	8149
809.033	8290
809.174	8145
809.316	8084
809.458	8043
809.6	7963
809.741	8035
809.883	8001
810.025	8065
810.166	8088
810.308	8088
810.45	8046
810.591	7894
810.733	7734
810.875	7670
811.016	7518
811.158	7480
811.299	7582
811.441	7780
811.582	7647
811.724	7578
811.865	7544
812.007	7582
812.148	7590
812.29	7620
812.431	7750
812.573	7879
812.714	7951
812.855	8115
812.997	8145
813.138	8324
813.279	8145
813.421	8035
813.562	7982
813.703	7826
813.845	7833
813.986	7540
814.127	7278
814.268	7217
814.41	7175
814.551	7084
814.692	7179
814.833	7095
814.974	7069
815.115	7072
815.256	6932
815.397	6920
815.539	7023
815.68	6856
815.821	6772
815.962	6909
816.103	6776
816.244	6768
816.385	6616
816.526	6669
816.666	6433
816.807	6277
816.948	6479
817.089	6460
817.23	6418
817.371	6418
817.512	6380
817.653	6342
817.793	6334
817.934	6422
818.075	6429
818.216	6407
818.356	6376
818.497	6224
818.638	6125
818.778	6182
818.919	6114
819.06	6129
819.2	6292
819.341	6247
819.481	6346
819.622	6528
819.762	6715
819.903	6696
820.043	6601
820.184	6547
820.324	6559
820.465	6707
820.605	6696
820.746	6639
820.886	6399
821.026	6650
821.167	6734
821.307	6795
821.447	6783
821.588	6639
821.728	6509
821.868	6525
822.008	6311
822.149	6350
822.289	6407
822.429	6110
822.569	6049
822.709	6019
822.849	5923
822.99	5973
823.13	5942
823.27	5927
823.41	5733
823.55	5813
823.69	5786
823.83	5764
823.97	5649
824.11	5474
824.25	5482
824.389	5577
824.529	5501
824.669	5543
824.809	5627
824.949	5623
825.089	5638
825.228	5520
825.368	5337
825.508	5364
825.648	5311
825.787	5383
825.927	5357
826.067	5318
826.206	5273
826.346	5406
826.485	5455
826.625	5414
826.765	5573
826.904	5520
827.044	5254
827.183	5227
827.323	5155
827.462	5265
827.601	5178
827.741	5223
827.88	5235
828.02	5128
828.159	5261
828.298	5296
828.437	5357
828.577	5326
828.716	5474
828.855	5357
828.994	5174
829.134	5216
829.273	5235
829.412	5136
829.551	5162
829.69	5170
829.829	5299
829.968	5444
830.107	5315
830.246	5307
830.385	5193
830.524	5113
830.663	5132
830.802	5025
830.941	4949
831.08	4904
831.219	5003
831.357	5029
831.496	5212
831.635	4949
831.774	4843
831.913	4850
832.051	4755
832.19	4782
832.329	4850
832.467	4706
832.606	4649
832.744	4782
832.883	4786
833.022	4729
833.16	4839
833.299	4866
833.437	4854
833.576	4820
833.714	4877
833.852	4892
833.991	4908
834.129	4968
834.267	4965
834.406	4934
834.544	4991
834.682	5022
834.821	4965
834.959	5166
835.097	5037
835.235	5155
835.373	5136
835.511	5124
835.65	5071
835.788	5029
835.926	4889
836.064	4870
836.202	4965
836.34	5189
836.478	5292
836.615	5143
836.753	5250
836.891	5284
837.029	5315
837.167	5231
837.305	5208
837.443	5178
837.58	5143
837.718	5277
837.856	5185
837.993	5174
838.131	5231
838.269	5239
838.406	5269
838.544	5250
838.681	5033
838.819	5071
838.956	4911
839.094	4915
839.231	5033
839.369	5094
839.506	5474
839.643	5303
839.781	5166
839.918	4984
840.055	5071
840.193	5128
840.33	5147
840.467	5181
840.604	5231
840.742	5474
840.879	5140
841.016	5136
841.153	5261
841.29	5417
841.427	5330
841.564	5311
841.701	5345
841.838	5315
841.975	5258
842.112	5315
842.249	5250
842.385	5162
842.522	5364
842.659	5208
842.796	5162
842.933	5223
843.069	5208
843.206	5189
843.343	5353
843.479	5284
843.616	5288
843.752	5064
843.889	5067
844.025	5178
844.162	5018
844.298	5254
844.435	5121
844.571	5052
844.708	5204
844.844	5315
844.98	5318
845.117	5341
845.253	5166
845.389	5079
845.525	5162
845.661	5143
845.798	5037
845.934	5109
846.07	5075
846.206	5204
846.342	5311
846.478	5216
846.614	5071
846.75	4968
846.886	4957
847.022	5128
847.158	5086
847.294	5060
847.429	5117
847.565	5109
847.701	5341
847.837	4904
847.972	4816
848.108	4961
848.244	5029
848.379	4801
848.515	4725
848.65	4740
848.786	4740
848.921	4774
849.057	4889
849.192	4934
849.328	4843
849.463	4862
849.598	4797
849.734	4771
849.869	4679
850.004	4622
850.14	4656
850.275	4660
850.41	4531
850.545	4580
850.68	4611
850.815	4637
850.95	4664
851.085	4889
851.22	4793
851.355	4687
851.49	4649
851.625	4634
851.76	4626
851.895	4580
852.03	4516
852.165	4683
852.299	4763
852.434	4812
852.569	4721
852.703	4816
852.838	4843
852.973	4942
853.107	4972
853.242	4763
853.376	4736
853.511	4577
853.645	4675
853.78	4843
853.914	4694
854.048	4675
854.183	4725
854.317	4710
854.451	4862
854.585	4717
854.72	4645
854.854	4816
854.988	4622
855.122	4687
855.256	4561
855.39	4653
855.524	4793
855.658	4729
855.792	4698
855.926	4755
856.06	4767
856.194	4786
856.327	4717
856.461	4656
856.595	4656
856.729	4672
856.862	4801
856.996	4683
857.13	4717
857.263	4755
857.397	4824
857.53	4668
857.664	4759
857.797	4771
857.931	4809
858.064	4774
858.197	4736
858.331	4706
858.464	4615
858.597	4542
858.731	4622
858.864	4645
858.997	4645
859.13	4645
859.263	4702
859.396	4721
859.529	4538
859.662	4561
859.795	4561
859.928	4694
860.061	4771
860.194	4771
860.327	4607
860.46	4607
860.592	4733
860.725	4736
860.858	4763
860.99	4615
861.123	4577
861.256	4596
861.388	4645
861.521	5425
861.653	4577
861.786	4421
861.918	4436
862.05	4550
862.183	4615
862.315	4573
862.447	4637
862.58	4561
862.712	4424
862.844	4325
862.976	4478
863.108	4497
863.24	4866
863.372	4375
863.504	4405
863.636	4375
863.768	4565
863.9	4440
864.032	4383
864.164	4421
864.296	4504
864.428	4546
864.559	4588
864.691	4588
864.823	4516
864.954	4485
865.086	4497
865.217	4500
865.349	4394
865.48	4436
865.612	4558
865.743	4691
865.875	4527
866.006	4424
866.137	4504
866.269	4413
866.4	4459
866.531	4432
866.662	4402
866.793	4424
866.924	4421
867.055	4508
867.186	4504
867.317	4398
867.448	4379
867.579	4383
867.71	4383
867.841	4421
867.972	4440
868.103	4470
868.233	4470
868.364	4500
868.495	4478
868.625	4634
868.756	4767
868.886	4615
869.017	4664
869.147	4793
869.278	4805
869.408	4660
869.539	4721
869.669	4755
869.799	4698
869.929	4782
870.06	4740
870.19	5022
870.32	4923
870.45	5006
870.58	5006
870.71	5132
870.84	5098
870.97	4934
871.1	4930
871.23	5166
871.36	5185
871.489	5048
871.619	5090
871.749	5113
871.879	5159
872.008	5204
872.138	5083
872.267	4991
872.397	4854
872.526	4843
872.656	4774
872.785	4839
872.915	4987
873.044	5075
873.173	4961
873.303	4957
873.432	5018
873.561	4995
873.69	4927
873.819	4854
873.948	4904
874.077	4908
874.206	4774
874.335	4809
874.464	4915
874.593	5105
874.722	4961
874.851	5071
874.979	5056
875.108	5109
875.237	4942
875.365	4892
875.494	4904
875.623	5025
875.751	4828
875.88	4930
876.008	5029
876.136	5056
876.265	5181
876.393	5337
876.521	5277
876.65	5250
876.778	5147
876.906	5083
877.034	5041
877.162	5045
877.29	5018
877.418	5086
877.546	5041
877.674	5029
877.802	5064
877.93	5052
878.058	4938
878.185	4927
878.313	4995
878.441	4968
878.568	4866
878.696	4934
878.824	5003
878.951	4984
879.079	5174
879.206	5326
879.333	5124
879.461	4972
879.588	4987
879.715	5124
879.842	5227
879.97	5006
880.097	4847
880.224	4744
880.351	4774
880.478	4839
880.605	4824
880.732	4812
880.859	5113
880.986	4881
881.112	4946
881.239	4778
881.366	4744
881.493	4637
881.619	4626
881.746	4698
881.872	4710
881.999	4664
882.125	4702
882.252	4824
882.378	4801
882.505	4991
882.631	4778
882.757	4649
882.883	4809
883.01	4786
883.136	4721
883.262	4592
883.388	4645
883.514	4824
883.64	4877
883.766	4797
883.892	4710
884.018	4752
884.143	4930
884.269	5075
884.395	4710
884.52	4672
884.646	4668
884.772	4607
884.897	4599
885.023	4694
885.148	4847
885.274	4854
885.399	4839
885.524	4740
885.65	4649
885.775	4736
885.9	4744
886.025	4862
886.15	4793
886.275	4694
886.4	4637
886.525	4706
886.65	4691
886.775	4698
886.9	4904
887.025	5064
887.149	4847
887.274	4691
887.399	4607
887.523	4683
887.648	4599
887.773	4577
887.897	4744
888.021	4820
888.146	4702
888.27	4824
888.395	4946
888.519	4843
888.643	4828
888.767	4809
888.891	4729
889.015	4679
889.139	4683
889.263	4630
889.387	4820
889.511	4873
889.635	4797
889.759	4668
889.883	4653
890.006	4679
890.13	4839
890.254	4611
890.377	4622
890.501	4542
890.624	4542
890.748	4660
890.871	4478
890.995	4417
891.118	4413
891.241	4516
891.364	4580
891.488	4641
891.611	4516
891.734	4573
891.857	4626
891.98	4519
892.103	4679
892.226	4622
892.349	4516
892.471	4421
892.594	4554
892.717	4607
892.839	4577
892.962	4592
893.085	4660
893.207	4618
893.33	4459
893.452	4558
893.575	4691
893.697	4542
893.819	4793
893.941	4866
894.064	4831
894.186	4592
894.308	4584
894.43	4740
894.552	4820
894.674	4755
894.796	4607
894.918	4630
895.04	4599
895.161	4664
895.283	4702
895.405	4672
895.526	4618
895.648	4679
895.769	4679
895.891	4725
896.012	4687
896.134	4755
896.255	4694
896.376	4698
896.498	4630
896.619	4729
896.74	4580
896.861	4649
896.982	4965
897.103	5170
897.224	4873
897.345	4733
897.466	4653
897.587	4710
897.708	4885
897.828	4812
897.949	4641
898.07	4558
898.19	4637
898.311	4828
898.431	4694
898.552	4752
898.672	4824
898.792	4790
898.913	4755
899.033	4637
899.153	4508
899.273	4455
899.393	4592
899.513	4535
899.633	4527
899.753	4542
899.873	4519
899.993	4596
900.113	4538
900.232	4588
900.352	4527
900.472	4485
900.591	4478
900.711	4497
900.83	4466
900.95	4611
901.069	4714
901.189	4573
901.308	4390
901.427	4337
901.546	4440
901.665	4466
901.784	4504
901.904	4348
902.023	4337
902.141	4188
902.26	4192
902.379	4261
902.498	4268
902.617	4215
902.735	4367
902.854	4383
902.973	4383
903.091	4169
903.21	4242
903.328	4299
903.446	4303
903.565	4303
903.683	4371
903.801	4257
903.919	4428
904.038	4447
904.156	4348
904.274	4447
904.392	4386
904.51	4455
904.627	4478
904.745	4565
904.863	4660
904.981	4379
905.098	4291
905.216	4341
905.334	4447
905.451	4478
905.569	4432
905.686	4580
905.803	4561
905.921	4474
906.038	4565
906.155	4519
906.272	4462
906.389	4493
906.506	4337
906.623	4375
906.74	4417
906.857	4352
906.974	4405
907.091	4565
907.208	4744
907.324	4580
907.441	4466
907.557	4352
907.674	4318
907.79	4337
907.907	4436
908.023	4527
908.139	4542
908.256	4440
908.372	4497
908.488	4459
908.604	4360
908.72	4318
908.836	4375
908.952	4356
909.068	4474
909.184	4542
909.3	4459
909.415	4561
909.531	4546
909.647	4367
909.762	4379
909.878	4356
909.993	4443
910.108	4413
910.224	4440
910.339	4493
910.454	4405
910.57	4371
910.685	4287
910.8	4630
910.915	4611
911.03	4485
911.145	4314
911.259	4325
911.374	4409
911.489	4287
911.604	4303
911.718	4173
911.833	4234
911.947	4090
912.062	3994
912.176	4181
912.291	4272
912.405	4265
912.519	4470
912.633	4497
912.748	4413
912.862	4310
912.976	4238
913.09	4086
913.204	4173
913.318	4246
913.431	4398
913.545	4375
913.659	4424
913.772	4348
913.886	4268
914	4268
914.113	4379
914.226	4459
914.34	4428
914.453	4242
914.566	4440
914.68	4352
914.793	4352
914.906	4207
915.019	4154
915.132	4063
915.245	4196
915.358	4204
915.47	4257
915.583	4253
915.696	4318
915.809	4421
915.921	4417
916.034	4253
916.146	4265
916.259	4162
916.371	4398
916.483	4386
916.595	4253
916.708	4348
916.82	4318
916.932	4291
917.044	4352
917.156	4318
917.268	4242
917.38	4261
917.491	4291
917.603	4375
917.715	4440
917.826	4478
917.938	4371
918.049	4249
918.161	4428
918.272	4561
918.384	4535
918.495	4459
918.606	4295
918.717	4265
918.828	4341
918.939	4383
919.05	4253
919.161	4379
919.272	4147
919.383	4261
919.494	4489
919.604	4645
919.715	4405
919.826	4344
919.936	4367
920.047	4531
920.157	4493
920.267	4721
920.378	4569
920.488	4493
920.598	4691
920.708	4889
920.818	4740
920.928	4774
921.038	4957
921.148	4923
921.258	4584
921.368	4558
921.477	4485
921.587	4489
921.697	4379
921.806	4512
921.916	4383
922.025	4265
922.134	4276
922.244	4234
922.353	4356
922.462	4169
922.571	4166
922.68	3987
922.789	3956
922.898	4048
923.007	4040
923.116	4135
923.224	4082
923.333	4124
923.442	4017
923.55	3953
923.659	4021
923.767	4090
923.876	3983
923.984	4147
924.092	4010
924.201	4128
924.309	4124
924.417	4143
924.525	4082
924.633	4101
924.741	4908
924.849	3949
924.956	4150
925.064	3972
925.172	3884
925.279	3960
925.387	4090
925.494	4055
925.602	4211
925.709	4166
925.816	4044
925.924	4154
926.031	4177
926.138	4169
926.245	4238
926.352	4082
926.459	4306
926.566	4341
926.673	4116
926.779	4078
926.886	4048
926.993	3953
927.099	3941
927.206	3930
927.312	3922
927.419	4063
927.525	4055
927.631	4086
927.737	3979
927.843	3941
927.95	3854
928.056	3937
928.162	4029
928.267	4082
928.373	4752
928.479	4120
928.585	3884
928.69	4010
928.796	4044
928.901	3998
929.007	3850
929.112	4029
929.218	4032
929.323	3934
929.428	3964
929.533	4131
929.638	3941
929.743	4006
929.848	4067
929.953	4036
930.058	3892
930.163	3800
930.267	3842
930.372	3964
930.477	3781
930.581	4078
930.685	3930
930.79	3785
930.894	3899
930.998	3835
931.103	4059
931.207	3698
931.311	3728
931.415	3686
931.519	3515
931.623	3553
