Data from test_V78500241_270.txt Node
Date: Fri Mar 25 16:50:52 CST 2022
User: usil
Spectrometer: V785-0024
Trigger mode: 0
Integration Time (sec): 4.000000E-1
Scans to average: 1
Nonlinearity correction enabled: false
Boxcar width: 0
Storing dark spectrum: false
XAxis mode: Wavelengths
Number of Pixels in Spectrum: 1024
>>>>>Begin Spectral Data<<<<<
801.071	8001
801.214	8012
801.356	7871
801.499	7852
801.641	7799
801.783	7868
801.926	7974
802.068	7978
802.211	7967
802.353	7978
802.496	7887
802.638	7936
802.78	7959
802.923	7928
803.065	7818
803.208	7803
803.35	7974
803.492	8073
803.635	8180
803.777	7989
803.919	8180
804.061	8377
804.204	8172
804.346	8016
804.488	7921
804.63	8103
804.773	8046
804.915	8069
805.057	8233
805.199	8092
805.341	8126
805.483	8259
805.626	8202
805.768	8088
805.91	8172
806.052	8161
806.194	8088
806.336	8324
806.478	8142
806.62	8092
806.762	8092
806.904	8187
807.046	8427
807.188	8324
807.33	8305
807.472	8294
807.614	8126
807.756	8069
807.898	7997
808.04	7818
808.182	7898
808.324	7913
808.465	8001
808.607	8062
808.749	8119
808.891	8195
809.033	8332
809.174	8123
809.316	8050
809.458	7989
809.6	7932
809.741	8035
809.883	7967
810.025	8046
810.166	8031
810.308	8073
810.45	8012
810.591	7860
810.733	7693
810.875	7639
811.016	7529
811.158	7499
811.299	7594
811.441	7719
811.582	7655
811.724	7552
811.865	7491
812.007	7655
812.148	7506
812.29	7624
812.431	7761
812.573	7894
812.714	7970
812.855	8123
812.997	8149
813.138	8294
813.279	8233
813.421	8111
813.562	7989
813.703	7772
813.845	7822
813.986	7441
814.127	7251
814.268	7213
814.41	7213
814.551	7156
814.692	7171
814.833	7046
814.974	7091
815.115	7076
815.256	6920
815.397	6924
815.539	6970
815.68	6818
815.821	6859
815.962	6859
816.103	6856
816.244	6673
816.385	6650
816.526	6627
816.666	6536
816.807	6350
816.948	6429
817.089	6456
817.23	6418
817.371	6384
817.512	6410
817.653	6426
817.793	6357
817.934	6407
818.075	6422
818.216	6452
818.356	6388
818.497	6220
818.638	6106
818.778	6182
818.919	6079
819.06	6098
819.2	6334
819.341	6285
819.481	6334
819.622	6467
819.762	6741
819.903	6654
820.043	6593
820.184	6559
820.324	6521
820.465	6681
820.605	6593
820.746	6703
820.886	6525
821.026	6646
821.167	6768
821.307	6776
821.447	6760
821.588	6612
821.728	6559
821.868	6464
822.008	6342
822.149	6376
822.289	6422
822.429	6152
822.569	6079
822.709	6155
822.849	5908
822.99	5908
823.13	5882
823.27	5878
823.41	5840
823.55	5779
823.69	5722
823.83	5802
823.97	5684
824.11	5509
824.25	5581
824.389	5543
824.529	5581
824.669	5497
824.809	5608
824.949	5646
825.089	5600
825.228	5581
825.368	5360
825.508	5368
825.648	5326
825.787	5398
825.927	5387
826.067	5353
826.206	5296
826.346	5452
826.485	5398
826.625	5364
826.765	5547
826.904	5532
827.044	5261
827.183	5189
827.323	5174
827.462	5258
827.601	5166
827.741	5181
827.88	5231
828.02	5109
828.159	5235
828.298	5307
828.437	5349
828.577	5292
828.716	5501
828.855	5349
828.994	5166
829.134	5170
829.273	5208
829.412	5136
829.551	5121
829.69	5185
829.829	5208
829.968	5322
830.107	5239
830.246	5265
830.385	5178
830.524	5128
830.663	5041
830.802	4957
830.941	4870
831.08	4900
831.219	4968
831.357	4961
831.496	5155
831.635	4961
831.774	4843
831.913	4870
832.051	4748
832.19	4694
832.329	4843
832.467	4691
832.606	4656
832.744	4714
832.883	4729
833.022	4740
833.16	4809
833.299	4801
833.437	4790
833.576	4812
833.714	4843
833.852	4862
833.991	4911
834.129	4946
834.267	4942
834.406	4957
834.544	4927
834.682	4968
834.821	4949
834.959	5151
835.097	4957
835.235	5201
835.373	5102
835.511	5102
835.65	5014
835.788	5010
835.926	4889
836.064	4889
836.202	4911
836.34	5204
836.478	5242
836.615	5098
836.753	5231
836.891	5269
837.029	5250
837.167	5181
837.305	5140
837.443	5124
837.58	5132
837.718	5220
837.856	5159
837.993	5189
838.131	5277
838.269	5223
838.406	5208
838.544	5132
838.681	5056
838.819	5056
838.956	4866
839.094	4885
839.231	5014
839.369	5071
839.506	5402
839.643	5220
839.781	5064
839.918	5022
840.055	5117
840.193	5079
840.33	5090
840.467	5159
840.604	5197
840.742	5467
840.879	5147
841.016	5022
841.153	5189
841.29	5372
841.427	5322
841.564	5341
841.701	5322
841.838	5277
841.975	5231
842.112	5280
842.249	5098
842.385	5060
842.522	5337
842.659	5143
842.796	5090
842.933	5178
843.069	5128
843.206	5132
843.343	5326
843.479	5212
843.616	5258
843.752	5006
843.889	5041
844.025	5231
844.162	5045
844.298	5235
844.435	5056
844.571	5136
844.708	5220
844.844	5261
844.98	5345
845.117	5277
845.253	5159
845.389	5079
845.525	5147
845.661	5166
845.798	5094
845.934	5128
846.07	5014
846.206	5181
846.342	5299
846.478	5166
846.614	5052
846.75	4980
846.886	4946
847.022	5151
847.158	4965
847.294	5064
847.429	5132
847.565	5052
847.701	5334
847.837	4850
847.972	4805
848.108	4976
848.244	4991
848.379	4828
848.515	4710
848.65	4725
848.786	4759
848.921	4790
849.057	4900
849.192	4873
849.328	4793
849.463	4816
849.598	4786
849.734	4790
849.869	4706
850.004	4637
850.14	4702
850.275	4573
850.41	4451
850.545	4569
850.68	4611
850.815	4603
850.95	4626
851.085	4839
851.22	4706
851.355	4683
851.49	4641
851.625	4580
851.76	4630
851.895	4573
852.03	4531
852.165	4675
852.299	4759
852.434	4771
852.569	4733
852.703	4778
852.838	4854
852.973	4911
853.107	4889
853.242	4767
853.376	4675
853.511	4512
853.645	4622
853.78	4839
853.914	4653
854.048	4664
854.183	4626
854.317	4748
854.451	4862
854.585	4675
854.72	4626
854.854	4755
854.988	4580
855.122	4698
855.256	4493
855.39	4664
855.524	4767
855.658	4721
855.792	4694
855.926	4805
856.06	4717
856.194	4786
856.327	4687
856.461	4527
856.595	4634
856.729	4626
856.862	4774
856.996	4668
857.13	4710
857.263	4774
857.397	4805
857.53	4664
857.664	4679
857.797	4786
857.931	4767
858.064	4622
858.197	4714
858.331	4656
858.464	4580
858.597	4497
858.731	4630
858.864	4683
858.997	4599
859.13	4672
859.263	4683
859.396	4698
859.529	4538
859.662	4573
859.795	4538
859.928	4588
860.061	4733
860.194	4748
860.327	4656
860.46	4580
860.592	4729
860.725	4702
860.858	4653
860.99	4550
861.123	4516
861.256	4493
861.388	4596
861.521	5395
861.653	4493
861.786	4485
861.918	4512
862.05	4527
862.183	4565
862.315	4577
862.447	4672
862.58	4550
862.712	4432
862.844	4314
862.976	4440
863.108	4523
863.24	4850
863.372	4367
863.504	4405
863.636	4413
863.768	4459
863.9	4424
864.032	4371
864.164	4432
864.296	4432
864.428	4558
864.559	4527
864.691	4546
864.823	4508
864.954	4535
865.086	4489
865.217	4478
865.349	4398
865.48	4424
865.612	4485
865.743	4634
865.875	4474
866.006	4417
866.137	4455
866.269	4459
866.4	4462
866.531	4413
866.662	4383
866.793	4375
866.924	4417
867.055	4504
867.186	4497
867.317	4474
867.448	4341
867.579	4386
867.71	4363
867.841	4383
867.972	4459
868.103	4432
868.233	4409
868.364	4455
868.495	4466
868.625	4656
868.756	4786
868.886	4554
869.017	4592
869.147	4778
869.278	4793
869.408	4599
869.539	4656
869.669	4721
869.799	4683
869.929	4744
870.06	4729
870.19	4946
870.32	4927
870.45	4942
870.58	5018
870.71	5117
870.84	5045
870.97	4866
871.1	4881
871.23	5140
871.36	5113
871.489	5003
871.619	5064
871.749	5105
871.879	5090
872.008	5201
872.138	5083
872.267	4976
872.397	4854
872.526	4847
872.656	4767
872.785	4809
872.915	4934
873.044	5075
873.173	4934
873.303	4961
873.432	4904
873.561	4980
873.69	4877
873.819	4858
873.948	4942
874.077	4839
874.206	4763
874.335	4752
874.464	4927
874.593	5075
874.722	4919
874.851	5094
874.979	5083
875.108	5010
875.237	4881
875.365	4885
875.494	4953
875.623	4930
875.751	4812
875.88	4847
876.008	5010
876.136	5025
876.265	5197
876.393	5364
876.521	5280
876.65	5220
876.778	5094
876.906	5025
877.034	4999
877.162	5060
877.29	5010
877.418	4980
877.546	4995
877.674	5041
877.802	4938
877.93	5067
878.058	4892
878.185	4873
878.313	4995
878.441	4965
878.568	4793
878.696	4877
878.824	4919
878.951	5003
879.079	5143
879.206	5254
879.333	5067
879.461	4995
879.588	4987
879.715	5113
879.842	5166
879.97	5029
880.097	4752
880.224	4721
880.351	4816
880.478	4805
880.605	4771
880.732	4824
880.859	5060
880.986	4892
881.112	4915
881.239	4797
881.366	4615
881.493	4630
881.619	4592
881.746	4622
881.872	4672
881.999	4675
882.125	4687
882.252	4790
882.378	4835
882.505	4915
882.631	4748
882.757	4645
882.883	4706
883.01	4759
883.136	4706
883.262	4596
883.388	4618
883.514	4866
883.64	4843
883.766	4763
883.892	4622
884.018	4748
884.143	4881
884.269	5029
884.395	4687
884.52	4615
884.646	4649
884.772	4584
884.897	4546
885.023	4679
885.148	4797
885.274	4877
885.399	4877
885.524	4729
885.65	4698
885.775	4744
885.9	4729
886.025	4843
886.15	4835
886.275	4759
886.4	4679
886.525	4748
886.65	4668
886.775	4721
886.9	4915
887.025	5117
887.149	4797
887.274	4725
887.399	4569
887.523	4660
887.648	4634
887.773	4580
887.897	4809
888.021	4835
888.146	4748
888.27	4831
888.395	4927
888.519	4774
888.643	4812
888.767	4850
888.891	4755
889.015	4599
889.139	4691
889.263	4653
889.387	4805
889.511	4915
889.635	4839
889.759	4702
889.883	4710
890.006	4774
890.13	4908
890.254	4656
890.377	4752
890.501	4577
890.624	4573
890.748	4637
890.871	4561
890.995	4481
891.118	4451
891.241	4519
891.364	4596
891.488	4710
891.611	4569
891.734	4599
891.857	4698
891.98	4668
892.103	4725
892.226	4618
892.349	4592
892.471	4478
892.594	4569
892.717	4603
892.839	4611
892.962	4626
893.085	4683
893.207	4660
893.33	4527
893.452	4569
893.575	4698
893.697	4626
893.819	4854
893.941	4850
894.064	4835
894.186	4626
894.308	4656
894.43	4763
894.552	4870
894.674	4793
894.796	4599
894.918	4641
895.04	4580
895.161	4786
895.283	4675
895.405	4588
895.526	4641
895.648	4736
895.769	4752
895.891	4740
896.012	4839
896.134	4778
896.255	4679
896.376	4645
896.498	4675
896.619	4710
896.74	4679
896.861	4706
896.982	4942
897.103	5124
897.224	4839
897.345	4824
897.466	4729
897.587	4763
897.708	4942
897.828	4801
897.949	4721
898.07	4637
898.19	4672
898.311	4881
898.431	4679
898.552	4782
898.672	4889
898.792	4790
898.913	4717
899.033	4706
899.153	4531
899.273	4470
899.393	4531
899.513	4577
899.633	4580
899.753	4626
899.873	4588
899.993	4607
900.113	4588
900.232	4622
900.352	4535
900.472	4508
900.591	4436
900.711	4535
900.83	4542
900.95	4592
901.069	4641
901.189	4649
901.308	4405
901.427	4398
901.546	4455
901.665	4535
901.784	4569
901.904	4424
902.023	4337
902.141	4215
902.26	4204
902.379	4310
902.498	4261
902.617	4242
902.735	4428
902.854	4432
902.973	4409
903.091	4265
903.21	4227
903.328	4344
903.446	4337
903.565	4325
903.683	4379
903.801	4295
903.919	4413
904.038	4485
904.156	4348
904.274	4417
904.392	4466
904.51	4470
904.627	4558
904.745	4596
904.863	4656
904.981	4432
905.098	4280
905.216	4440
905.334	4451
905.451	4424
905.569	4485
905.686	4622
905.803	4622
905.921	4424
906.038	4580
906.155	4500
906.272	4424
906.389	4481
906.506	4421
906.623	4466
906.74	4398
906.857	4344
906.974	4432
907.091	4596
907.208	4755
907.324	4634
907.441	4558
907.557	4383
907.674	4409
907.79	4383
907.907	4462
908.023	4508
908.139	4478
908.256	4478
908.372	4519
908.488	4485
908.604	4386
908.72	4356
908.836	4436
908.952	4451
909.068	4440
909.184	4580
909.3	4481
909.415	4615
909.531	4577
909.647	4367
909.762	4405
909.878	4341
909.993	4481
910.108	4447
910.224	4470
910.339	4542
910.454	4447
910.57	4417
910.685	4310
910.8	4702
910.915	4630
911.03	4538
911.145	4375
911.259	4329
911.374	4455
911.489	4310
911.604	4360
911.718	4227
911.833	4204
911.947	4135
912.062	4090
912.176	4276
912.291	4261
912.405	4291
912.519	4459
912.633	4592
912.748	4394
912.862	4348
912.976	4215
913.09	4112
913.204	4238
913.318	4287
913.431	4402
913.545	4379
913.659	4512
913.772	4367
913.886	4303
914	4314
914.113	4424
914.226	4474
914.34	4417
914.453	4265
914.566	4432
914.68	4322
914.793	4360
914.906	4219
915.019	4196
915.132	4116
915.245	4196
915.358	4261
915.47	4306
915.583	4303
915.696	4371
915.809	4436
915.921	4455
916.034	4299
916.146	4280
916.259	4234
916.371	4367
916.483	4417
916.595	4284
916.708	4329
916.82	4348
916.932	4337
917.044	4371
917.156	4367
917.268	4276
917.38	4318
917.491	4303
917.603	4409
917.715	4455
917.826	4466
917.938	4405
918.049	4287
918.161	4440
918.272	4596
918.384	4611
918.495	4474
918.606	4325
918.717	4314
918.828	4352
918.939	4405
919.05	4268
919.161	4390
919.272	4181
919.383	4261
919.494	4516
919.604	4694
919.715	4474
919.826	4413
919.936	4432
920.047	4550
920.157	4554
920.267	4736
920.378	4577
920.488	4546
920.598	4710
920.708	4980
920.818	4824
920.928	4824
921.038	4965
921.148	4946
921.258	4672
921.368	4611
921.477	4542
921.587	4519
921.697	4440
921.806	4618
921.916	4451
922.025	4287
922.134	4310
922.244	4261
922.353	4333
922.462	4196
922.571	4173
922.68	4082
922.789	3987
922.898	4074
923.007	3975
923.116	4120
923.224	4074
923.333	4120
923.442	4036
923.55	3983
923.659	4093
923.767	4112
923.876	4021
923.984	4158
924.092	4029
924.201	4112
924.309	4105
924.417	4120
924.525	4090
924.633	4120
924.741	5060
924.849	3964
924.956	4166
925.064	4006
925.172	3956
925.279	4017
925.387	4090
925.494	4090
925.602	4303
925.709	4204
925.816	4071
925.924	4188
926.031	4265
926.138	4219
926.245	4192
926.352	4120
926.459	4268
926.566	4367
926.673	4192
926.779	4166
926.886	4116
926.993	4006
927.099	3964
927.206	3979
927.312	3975
927.419	4109
927.525	4124
927.631	4147
927.737	3991
927.843	3968
927.95	3869
928.056	3983
928.162	4029
928.267	4097
928.373	4702
928.479	4154
928.585	3937
928.69	4093
928.796	4067
928.901	3998
929.007	3922
929.112	4059
929.218	3949
929.323	3937
929.428	3949
929.533	4124
929.638	3926
929.743	4017
929.848	4063
929.953	4051
930.058	3956
930.163	3861
930.267	3835
930.372	4010
930.477	3865
930.581	4067
930.685	3975
930.79	3835
930.894	3892
930.998	3857
931.103	4055
931.207	3759
931.311	3713
931.415	3686
931.519	3526
931.623	3564
