Data from test_V78500241_2319.txt Node
Date: Fri Mar 25 17:05:07 CST 2022
User: usil
Spectrometer: V785-0024
Trigger mode: 0
Integration Time (sec): 4.000000E-1
Scans to average: 1
Nonlinearity correction enabled: false
Boxcar width: 0
Storing dark spectrum: false
XAxis mode: Wavelengths
Number of Pixels in Spectrum: 1024
>>>>>Begin Spectral Data<<<<<
801.071	7978
801.214	7997
801.356	7906
801.499	7864
801.641	7765
801.783	7833
801.926	7970
802.068	7974
802.211	7978
802.353	7936
802.496	7852
802.638	7898
802.78	7921
802.923	7925
803.065	7928
803.208	7879
803.35	7932
803.492	8084
803.635	8195
803.777	7944
803.919	8157
804.061	8484
804.204	8172
804.346	8027
804.488	7955
804.63	8134
804.773	8119
804.915	8073
805.057	8336
805.199	8145
805.341	8252
805.483	8263
805.626	8233
805.768	8123
805.91	8221
806.052	8214
806.194	8176
806.336	8377
806.478	8081
806.62	8084
806.762	8134
806.904	8320
807.046	8488
807.188	8328
807.33	8305
807.472	8324
807.614	8100
807.756	8172
807.898	7940
808.04	7921
808.182	7917
808.324	7860
808.465	7940
808.607	8031
808.749	8142
808.891	8210
809.033	8336
809.174	8187
809.316	8081
809.458	8046
809.6	8027
809.741	8069
809.883	7993
810.025	8138
810.166	8039
810.308	8039
810.45	7974
810.591	7864
810.733	7753
810.875	7651
811.016	7502
811.158	7476
811.299	7525
811.441	7700
811.582	7700
811.724	7563
811.865	7537
812.007	7556
812.148	7594
812.29	7662
812.431	7715
812.573	7849
812.714	7875
812.855	8134
812.997	8164
813.138	8324
813.279	8149
813.421	8130
813.562	7989
813.703	7822
813.845	7814
813.986	7331
814.127	7244
814.268	7194
814.41	7236
814.551	7145
814.692	7232
814.833	7069
814.974	7076
815.115	7118
815.256	6966
815.397	6901
815.539	6935
815.68	6833
815.821	6798
815.962	6810
816.103	6783
816.244	6722
816.385	6631
816.526	6646
816.666	6456
816.807	6273
816.948	6445
817.089	6490
817.23	6460
817.371	6441
817.512	6407
817.653	6445
817.793	6369
817.934	6452
818.075	6479
818.216	6456
818.356	6399
818.497	6247
818.638	6140
818.778	6129
818.919	6152
819.06	6209
819.2	6365
819.341	6369
819.481	6365
819.622	6483
819.762	6776
819.903	6703
820.043	6623
820.184	6593
820.324	6566
820.465	6711
820.605	6669
820.746	6662
820.886	6536
821.026	6635
821.167	6677
821.307	6783
821.447	6692
821.588	6635
821.728	6547
821.868	6521
822.008	6346
822.149	6334
822.289	6376
822.429	6201
822.569	6106
822.709	6186
822.849	5901
822.99	5939
823.13	5916
823.27	5984
823.41	5737
823.55	5817
823.69	5805
823.83	5798
823.97	5619
824.11	5490
824.25	5486
824.389	5570
824.529	5570
824.669	5532
824.809	5623
824.949	5699
825.089	5676
825.228	5573
825.368	5372
825.508	5360
825.648	5330
825.787	5360
825.927	5417
826.067	5296
826.206	5280
826.346	5383
826.485	5406
826.625	5398
826.765	5543
826.904	5471
827.044	5235
827.183	5216
827.323	5143
827.462	5227
827.601	5166
827.741	5170
827.88	5265
828.02	5117
828.159	5273
828.298	5307
828.437	5357
828.577	5239
828.716	5528
828.855	5322
828.994	5269
829.134	5159
829.273	5162
829.412	5140
829.551	5117
829.69	5159
829.829	5242
829.968	5376
830.107	5254
830.246	5273
830.385	5189
830.524	5174
830.663	5041
830.802	4949
830.941	4908
831.08	4953
831.219	4991
831.357	4953
831.496	5189
831.635	4896
831.774	4850
831.913	4866
832.051	4725
832.19	4717
832.329	4824
832.467	4710
832.606	4588
832.744	4717
832.883	4710
833.022	4774
833.16	4771
833.299	4820
833.437	4809
833.576	4809
833.714	4915
833.852	4881
833.991	4915
834.129	4953
834.267	4911
834.406	4858
834.544	5006
834.682	4972
834.821	4938
834.959	5159
835.097	5022
835.235	5140
835.373	5083
835.511	5128
835.65	5033
835.788	5014
835.926	4866
836.064	4862
836.202	4934
836.34	5151
836.478	5204
836.615	5117
836.753	5223
836.891	5254
837.029	5250
837.167	5185
837.305	5223
837.443	5166
837.58	5045
837.718	5280
837.856	5201
837.993	5143
838.131	5220
838.269	5159
838.406	5193
838.544	5254
838.681	5022
838.819	5033
838.956	4873
839.094	4889
839.231	4961
839.369	5079
839.506	5429
839.643	5231
839.781	5041
839.918	4999
840.055	5109
840.193	5079
840.33	5086
840.467	5181
840.604	5174
840.742	5406
840.879	5071
841.016	5090
841.153	5166
841.29	5417
841.427	5303
841.564	5299
841.701	5398
841.838	5250
841.975	5231
842.112	5201
842.249	5143
842.385	5128
842.522	5326
842.659	5174
842.796	5140
842.933	5162
843.069	5132
843.206	5117
843.343	5311
843.479	5212
843.616	5246
843.752	5003
843.889	5006
844.025	5223
844.162	5025
844.298	5178
844.435	5045
844.571	5048
844.708	5193
844.844	5288
844.98	5372
845.117	5242
845.253	5140
845.389	5048
845.525	5162
845.661	5166
845.798	5041
845.934	5147
846.07	5033
846.206	5166
846.342	5307
846.478	5159
846.614	5010
846.75	4953
846.886	4968
847.022	5143
847.158	5060
847.294	5029
847.429	5094
847.565	5003
847.701	5269
847.837	4812
847.972	4805
848.108	4927
848.244	4915
848.379	4736
848.515	4744
848.65	4714
848.786	4714
848.921	4763
849.057	4915
849.192	4885
849.328	4831
849.463	4835
849.598	4774
849.734	4771
849.869	4717
850.004	4611
850.14	4664
850.275	4634
850.41	4485
850.545	4561
850.68	4603
850.815	4580
850.95	4588
851.085	4850
851.22	4721
851.355	4675
851.49	4611
851.625	4607
851.76	4611
851.895	4584
852.03	4504
852.165	4615
852.299	4691
852.434	4801
852.569	4691
852.703	4717
852.838	4862
852.973	4873
853.107	4972
853.242	4752
853.376	4672
853.511	4561
853.645	4599
853.78	4774
853.914	4653
854.048	4626
854.183	4611
854.317	4694
854.451	4870
854.585	4714
854.72	4702
854.854	4744
854.988	4577
855.122	4615
855.256	4508
855.39	4649
855.524	4748
855.658	4759
855.792	4702
855.926	4721
856.06	4759
856.194	4820
856.327	4717
856.461	4611
856.595	4634
856.729	4580
856.862	4721
856.996	4702
857.13	4721
857.263	4816
857.397	4839
857.53	4618
857.664	4714
857.797	4763
857.931	4797
858.064	4649
858.197	4729
858.331	4611
858.464	4641
858.597	4531
858.731	4634
858.864	4630
858.997	4596
859.13	4611
859.263	4675
859.396	4691
859.529	4558
859.662	4561
859.795	4500
859.928	4596
860.061	4744
860.194	4805
860.327	4569
860.46	4546
860.592	4736
860.725	4691
860.858	4702
860.99	4596
861.123	4504
861.256	4516
861.388	4580
861.521	5284
861.653	4485
861.786	4424
861.918	4421
862.05	4500
862.183	4569
862.315	4592
862.447	4660
862.58	4592
862.712	4447
862.844	4348
862.976	4459
863.108	4462
863.24	4900
863.372	4310
863.504	4405
863.636	4367
863.768	4504
863.9	4394
864.032	4371
864.164	4481
864.296	4443
864.428	4538
864.559	4554
864.691	4550
864.823	4489
864.954	4478
865.086	4489
865.217	4421
865.349	4424
865.48	4451
865.612	4489
865.743	4649
865.875	4493
866.006	4424
866.137	4470
866.269	4398
866.4	4409
866.531	4443
866.662	4421
866.793	4383
866.924	4424
867.055	4455
867.186	4508
867.317	4436
867.448	4367
867.579	4421
867.71	4390
867.841	4360
867.972	4493
868.103	4405
868.233	4424
868.364	4424
868.495	4497
868.625	4675
868.756	4702
868.886	4580
869.017	4599
869.147	4763
869.278	4759
869.408	4641
869.539	4653
869.669	4763
869.799	4637
869.929	4771
870.06	4748
870.19	4957
870.32	4870
870.45	4938
870.58	5056
870.71	5090
870.84	5052
870.97	4923
871.1	4911
871.23	5140
871.36	5151
871.489	4972
871.619	5033
871.749	5071
871.879	5102
872.008	5143
872.138	5075
872.267	5022
872.397	4831
872.526	4786
872.656	4733
872.785	4843
872.915	4980
873.044	5033
873.173	4995
873.303	4991
873.432	4965
873.561	4938
873.69	4900
873.819	4835
873.948	4915
874.077	4828
874.206	4736
874.335	4725
874.464	4965
874.593	5098
874.722	4938
874.851	5105
874.979	5014
875.108	5014
875.237	4942
875.365	4911
875.494	4889
875.623	4991
875.751	4862
875.88	4858
876.008	4953
876.136	5060
876.265	5231
876.393	5330
876.521	5273
876.65	5242
876.778	5170
876.906	5090
877.034	5006
877.162	5075
877.29	5018
877.418	5052
877.546	5079
877.674	5041
877.802	4987
877.93	5056
878.058	4927
878.185	4862
878.313	4927
878.441	5010
878.568	4805
878.696	4900
878.824	4938
878.951	5056
879.079	5071
879.206	5269
879.333	5128
879.461	4980
879.588	5025
879.715	5128
879.842	5212
879.97	5014
880.097	4771
880.224	4729
880.351	4778
880.478	4866
880.605	4763
880.732	4759
880.859	5121
880.986	4847
881.112	4896
881.239	4786
881.366	4637
881.493	4637
881.619	4596
881.746	4660
881.872	4645
881.999	4649
882.125	4668
882.252	4793
882.378	4809
882.505	4949
882.631	4778
882.757	4675
882.883	4698
883.01	4698
883.136	4687
883.262	4626
883.388	4607
883.514	4782
883.64	4839
883.766	4736
883.892	4717
884.018	4706
884.143	4942
884.269	4976
884.395	4672
884.52	4645
884.646	4626
884.772	4596
884.897	4580
885.023	4618
885.148	4729
885.274	4904
885.399	4873
885.524	4687
885.65	4691
885.775	4717
885.9	4660
886.025	4801
886.15	4812
886.275	4752
886.4	4615
886.525	4725
886.65	4675
886.775	4710
886.9	4919
887.025	5029
887.149	4816
887.274	4668
887.399	4588
887.523	4641
887.648	4580
887.773	4611
887.897	4790
888.021	4793
888.146	4675
888.27	4767
888.395	4927
888.519	4767
888.643	4767
888.767	4824
888.891	4645
889.015	4649
889.139	4649
889.263	4618
889.387	4729
889.511	4911
889.635	4797
889.759	4573
889.883	4630
890.006	4752
890.13	4816
890.254	4607
890.377	4660
890.501	4550
890.624	4531
890.748	4626
890.871	4500
890.995	4352
891.118	4348
891.241	4500
891.364	4512
891.488	4626
891.611	4512
891.734	4516
891.857	4550
891.98	4531
892.103	4679
892.226	4573
892.349	4519
892.471	4424
892.594	4554
892.717	4596
892.839	4630
892.962	4607
893.085	4672
893.207	4580
893.33	4436
893.452	4493
893.575	4626
893.697	4626
893.819	4797
893.941	4850
894.064	4714
894.186	4577
894.308	4550
894.43	4725
894.552	4805
894.674	4759
894.796	4542
894.918	4615
895.04	4546
895.161	4740
895.283	4618
895.405	4580
895.526	4596
895.648	4725
895.769	4687
895.891	4736
896.012	4748
896.134	4736
896.255	4630
896.376	4618
896.498	4584
896.619	4645
896.74	4622
896.861	4664
896.982	4949
897.103	5094
897.224	4812
897.345	4710
897.466	4660
897.587	4706
897.708	4835
897.828	4790
897.949	4672
898.07	4531
898.19	4668
898.311	4801
898.431	4656
898.552	4694
898.672	4786
898.792	4839
898.913	4706
899.033	4641
899.153	4481
899.273	4462
899.393	4459
899.513	4504
899.633	4565
899.753	4550
899.873	4542
899.993	4569
900.113	4493
900.232	4569
900.352	4516
900.472	4497
900.591	4379
900.711	4466
900.83	4443
900.95	4603
901.069	4683
901.189	4508
901.308	4367
901.427	4291
901.546	4390
901.665	4497
901.784	4481
901.904	4417
902.023	4284
902.141	4200
902.26	4147
902.379	4295
902.498	4268
902.617	4265
902.735	4409
902.854	4379
902.973	4356
903.091	4211
903.21	4276
903.328	4257
903.446	4246
903.565	4238
903.683	4329
903.801	4284
903.919	4394
904.038	4424
904.156	4299
904.274	4470
904.392	4386
904.51	4421
904.627	4485
904.745	4573
904.863	4653
904.981	4367
905.098	4272
905.216	4337
905.334	4447
905.451	4470
905.569	4424
905.686	4554
905.803	4622
905.921	4394
906.038	4565
906.155	4432
906.272	4405
906.389	4470
906.506	4303
906.623	4383
906.74	4398
906.857	4299
906.974	4352
907.091	4550
907.208	4649
907.324	4611
907.441	4535
907.557	4322
907.674	4325
907.79	4318
907.907	4394
908.023	4481
908.139	4466
908.256	4421
908.372	4470
908.488	4386
908.604	4363
908.72	4344
908.836	4333
908.952	4386
909.068	4424
909.184	4573
909.3	4462
909.415	4554
909.531	4527
909.647	4390
909.762	4360
909.878	4284
909.993	4481
910.108	4440
910.224	4402
910.339	4489
910.454	4409
910.57	4360
910.685	4310
910.8	4683
910.915	4596
911.03	4523
911.145	4333
911.259	4356
911.374	4371
911.489	4291
911.604	4230
911.718	4135
911.833	4192
911.947	4105
912.062	4017
912.176	4204
912.291	4261
912.405	4215
912.519	4451
912.633	4478
912.748	4379
912.862	4287
912.976	4196
913.09	4078
913.204	4200
913.318	4215
913.431	4356
913.545	4356
913.659	4466
913.772	4383
913.886	4196
914	4200
914.113	4363
914.226	4455
914.34	4402
914.453	4211
914.566	4440
914.68	4272
914.793	4322
914.906	4192
915.019	4105
915.132	4112
915.245	4227
915.358	4185
915.47	4272
915.583	4291
915.696	4272
915.809	4417
915.921	4470
916.034	4257
916.146	4219
916.259	4227
916.371	4402
916.483	4318
916.595	4268
916.708	4314
916.82	4287
916.932	4356
917.044	4337
917.156	4318
917.268	4234
917.38	4265
917.491	4234
917.603	4303
917.715	4375
917.826	4371
917.938	4322
918.049	4211
918.161	4356
918.272	4523
918.384	4512
918.495	4443
918.606	4337
918.717	4280
918.828	4371
918.939	4318
919.05	4265
919.161	4344
919.272	4105
919.383	4223
919.494	4470
919.604	4656
919.715	4478
919.826	4325
919.936	4379
920.047	4546
920.157	4462
920.267	4694
920.378	4535
920.488	4504
920.598	4664
920.708	4850
920.818	4744
920.928	4736
921.038	4999
921.148	4923
921.258	4645
921.368	4546
921.477	4485
921.587	4417
921.697	4363
921.806	4531
921.916	4436
922.025	4227
922.134	4265
922.244	4219
922.353	4322
922.462	4139
922.571	4093
922.68	4010
922.789	3960
922.898	4021
923.007	3979
923.116	4116
923.224	4078
923.333	4051
923.442	3994
923.55	3994
923.659	4006
923.767	4090
923.876	3994
923.984	4124
924.092	3979
924.201	4036
924.309	4143
924.417	4093
924.525	4051
924.633	4097
924.741	5075
924.849	3865
924.956	4135
925.064	3960
925.172	3884
925.279	3941
925.387	4010
925.494	4059
925.602	4196
925.709	4158
925.816	3994
925.924	4093
926.031	4246
926.138	4166
926.245	4192
926.352	4128
926.459	4227
926.566	4268
926.673	4082
926.779	4059
926.886	4036
926.993	3945
927.099	3979
927.206	3915
927.312	3949
927.419	4067
927.525	4010
927.631	4101
927.737	3953
927.843	3911
927.95	3865
928.056	3953
928.162	3975
928.267	4055
928.373	4691
928.479	4131
928.585	3873
928.69	4002
928.796	4029
928.901	3968
929.007	3816
929.112	4029
929.218	3983
929.323	3930
929.428	3937
929.533	4051
929.638	3884
929.743	3979
929.848	4044
929.953	3972
930.058	3949
930.163	3724
930.267	3869
930.372	3949
930.477	3816
930.581	4074
930.685	3945
930.79	3797
930.894	3903
930.998	3846
931.103	4002
931.207	3717
931.311	3660
931.415	3625
931.519	3504
931.623	3500
