Data from test_V78500241_295.txt Node
Date: Fri Mar 25 16:51:03 CST 2022
User: usil
Spectrometer: V785-0024
Trigger mode: 0
Integration Time (sec): 4.000000E-1
Scans to average: 1
Nonlinearity correction enabled: false
Boxcar width: 0
Storing dark spectrum: false
XAxis mode: Wavelengths
Number of Pixels in Spectrum: 1024
>>>>>Begin Spectral Data<<<<<
801.071	8081
801.214	8119
801.356	7967
801.499	7993
801.641	7837
801.783	7830
801.926	7963
802.068	7993
802.211	8024
802.353	8050
802.496	7940
802.638	8008
802.78	8005
802.923	7993
803.065	7826
803.208	7894
803.35	7963
803.492	8142
803.635	8161
803.777	7997
803.919	8138
804.061	8514
804.204	8206
804.346	8142
804.488	7997
804.63	8130
804.773	8035
804.915	8043
805.057	8271
805.199	8191
805.341	8309
805.483	8275
805.626	8267
805.768	8065
805.91	8202
806.052	8256
806.194	8088
806.336	8271
806.478	8210
806.62	8168
806.762	8142
806.904	8298
807.046	8457
807.188	8381
807.33	8294
807.472	8320
807.614	8138
807.756	8054
807.898	8016
808.04	7898
808.182	7967
808.324	7894
808.465	7936
808.607	8054
808.749	8191
808.891	8256
809.033	8294
809.174	8237
809.316	8054
809.458	8138
809.6	8024
809.741	7986
809.883	8001
810.025	8088
810.166	8138
810.308	8058
810.45	7982
810.591	7887
810.733	7769
810.875	7655
811.016	7491
811.158	7483
811.299	7662
811.441	7788
811.582	7719
811.724	7590
811.865	7582
812.007	7643
812.148	7613
812.29	7582
812.431	7837
812.573	7932
812.714	7967
812.855	8111
812.997	8142
813.138	8343
813.279	8168
813.421	8088
813.562	8031
813.703	7868
813.845	7738
813.986	7453
814.127	7289
814.268	7255
814.41	7244
814.551	7122
814.692	7217
814.833	7137
814.974	7050
815.115	7099
815.256	6973
815.397	6882
815.539	6970
815.68	6840
815.821	6753
815.962	6894
816.103	6837
816.244	6757
816.385	6700
816.526	6612
816.666	6509
816.807	6323
816.948	6475
817.089	6486
817.23	6483
817.371	6403
817.512	6357
817.653	6441
817.793	6323
817.934	6437
818.075	6467
818.216	6433
818.356	6391
818.497	6289
818.638	6163
818.778	6167
818.919	6114
819.06	6125
819.2	6338
819.341	6289
819.481	6327
819.622	6464
819.762	6722
819.903	6711
820.043	6597
820.184	6631
820.324	6555
820.465	6669
820.605	6612
820.746	6658
820.886	6517
821.026	6681
821.167	6692
821.307	6814
821.447	6711
821.588	6722
821.728	6646
821.868	6509
822.008	6296
822.149	6403
822.289	6331
822.429	6159
822.569	6133
822.709	6110
822.849	5999
822.99	6003
823.13	5996
823.27	5912
823.41	5844
823.55	5817
823.69	5786
823.83	5779
823.97	5665
824.11	5524
824.25	5524
824.389	5562
824.529	5581
824.669	5547
824.809	5649
824.949	5707
825.089	5638
825.228	5577
825.368	5448
825.508	5357
825.648	5353
825.787	5429
825.927	5376
826.067	5307
826.206	5261
826.346	5433
826.485	5417
826.625	5459
826.765	5577
826.904	5440
827.044	5288
827.183	5197
827.323	5102
827.462	5277
827.601	5181
827.741	5258
827.88	5220
828.02	5109
828.159	5227
828.298	5303
828.437	5349
828.577	5288
828.716	5486
828.855	5368
828.994	5178
829.134	5143
829.273	5204
829.412	5155
829.551	5166
829.69	5181
829.829	5261
829.968	5387
830.107	5223
830.246	5250
830.385	5166
830.524	5140
830.663	5086
830.802	4991
830.941	4953
831.08	4915
831.219	5022
831.357	5014
831.496	5208
831.635	4961
831.774	4858
831.913	4870
832.051	4710
832.19	4801
832.329	4858
832.467	4698
832.606	4664
832.744	4725
832.883	4748
833.022	4755
833.16	4820
833.299	4835
833.437	4797
833.576	4873
833.714	4816
833.852	4892
833.991	4885
834.129	4984
834.267	4965
834.406	4919
834.544	5041
834.682	4980
834.821	5029
834.959	5208
835.097	4961
835.235	5140
835.373	5121
835.511	5155
835.65	5029
835.788	5022
835.926	4911
836.064	4904
836.202	4900
836.34	5155
836.478	5204
836.615	5132
836.753	5265
836.891	5296
837.029	5261
837.167	5212
837.305	5208
837.443	5185
837.58	5143
837.718	5231
837.856	5197
837.993	5208
838.131	5231
838.269	5261
838.406	5223
838.544	5284
838.681	5048
838.819	5033
838.956	4961
839.094	4938
839.231	4999
839.369	5056
839.506	5406
839.643	5280
839.781	5140
839.918	5029
840.055	5140
840.193	5121
840.33	5147
840.467	5189
840.604	5227
840.742	5398
840.879	5079
841.016	5105
841.153	5132
841.29	5353
841.427	5357
841.564	5322
841.701	5379
841.838	5277
841.975	5265
842.112	5299
842.249	5155
842.385	5185
842.522	5349
842.659	5185
842.796	5155
842.933	5201
843.069	5185
843.206	5227
843.343	5277
843.479	5235
843.616	5277
843.752	5025
843.889	5048
844.025	5250
844.162	5014
844.298	5265
844.435	5083
844.571	5075
844.708	5170
844.844	5261
844.98	5349
845.117	5322
845.253	5109
845.389	5079
845.525	5162
845.661	5185
845.798	5056
845.934	5136
846.07	5067
846.206	5162
846.342	5277
846.478	5181
846.614	5071
846.75	4972
846.886	4953
847.022	5147
847.158	5033
847.294	5094
847.429	5090
847.565	5109
847.701	5280
847.837	4862
847.972	4816
848.108	5003
848.244	4927
848.379	4812
848.515	4778
848.65	4721
848.786	4717
848.921	4767
849.057	4911
849.192	4927
849.328	4828
849.463	4835
849.598	4793
849.734	4786
849.869	4706
850.004	4626
850.14	4679
850.275	4645
850.41	4565
850.545	4565
850.68	4653
850.815	4577
850.95	4618
851.085	4835
851.22	4763
851.355	4653
851.49	4626
851.625	4634
851.76	4641
851.895	4527
852.03	4550
852.165	4679
852.299	4725
852.434	4805
852.569	4771
852.703	4786
852.838	4828
852.973	4900
853.107	4980
853.242	4721
853.376	4672
853.511	4565
853.645	4645
853.78	4812
853.914	4687
854.048	4668
854.183	4694
854.317	4725
854.451	4820
854.585	4706
854.72	4622
854.854	4774
854.988	4607
855.122	4656
855.256	4569
855.39	4649
855.524	4820
855.658	4748
855.792	4725
855.926	4790
856.06	4759
856.194	4782
856.327	4656
856.461	4615
856.595	4618
856.729	4596
856.862	4740
856.996	4714
857.13	4721
857.263	4721
857.397	4805
857.53	4664
857.664	4725
857.797	4744
857.931	4782
858.064	4721
858.197	4755
858.331	4691
858.464	4618
858.597	4512
858.731	4611
858.864	4599
858.997	4618
859.13	4717
859.263	4668
859.396	4778
859.529	4626
859.662	4565
859.795	4531
859.928	4649
860.061	4778
860.194	4778
860.327	4634
860.46	4580
860.592	4710
860.725	4740
860.858	4717
860.99	4611
861.123	4565
861.256	4527
861.388	4603
861.521	5337
861.653	4474
861.786	4478
861.918	4478
862.05	4489
862.183	4485
862.315	4565
862.447	4630
862.58	4588
862.712	4383
862.844	4375
862.976	4470
863.108	4485
863.24	4839
863.372	4367
863.504	4470
863.636	4409
863.768	4497
863.9	4424
864.032	4394
864.164	4379
864.296	4481
864.428	4554
864.559	4538
864.691	4535
864.823	4584
864.954	4500
865.086	4474
865.217	4455
865.349	4398
865.48	4421
865.612	4550
865.743	4660
865.875	4489
866.006	4443
866.137	4455
866.269	4474
866.4	4451
866.531	4413
866.662	4428
866.793	4474
866.924	4413
867.055	4470
867.186	4500
867.317	4436
867.448	4398
867.579	4405
867.71	4379
867.841	4394
867.972	4428
868.103	4497
868.233	4462
868.364	4440
868.495	4481
868.625	4694
868.756	4790
868.886	4580
869.017	4615
869.147	4771
869.278	4778
869.408	4664
869.539	4668
869.669	4759
869.799	4683
869.929	4778
870.06	4767
870.19	4965
870.32	4915
870.45	4919
870.58	5003
870.71	5075
870.84	5083
870.97	4949
871.1	4896
871.23	5162
871.36	5147
871.489	5025
871.619	5140
871.749	5136
871.879	5178
872.008	5181
872.138	5075
872.267	5029
872.397	4900
872.526	4835
872.656	4740
872.785	4824
872.915	5003
873.044	5014
873.173	4900
873.303	4999
873.432	4968
873.561	4946
873.69	4847
873.819	4877
873.948	4942
874.077	4816
874.206	4801
874.335	4774
874.464	4938
874.593	5086
874.722	4991
874.851	5109
874.979	5079
875.108	5045
875.237	4900
875.365	4873
875.494	4866
875.623	5006
875.751	4809
875.88	4839
876.008	5010
876.136	5079
876.265	5178
876.393	5372
876.521	5254
876.65	5193
876.778	5117
876.906	5067
877.034	4991
877.162	4999
877.29	5003
877.418	5056
877.546	5045
877.674	5029
877.802	5098
877.93	5041
878.058	4915
878.185	4877
878.313	4927
878.441	4968
878.568	4797
878.696	4870
878.824	4904
878.951	4999
879.079	5151
879.206	5303
879.333	5083
879.461	4980
879.588	4980
879.715	5166
879.842	5197
879.97	5003
880.097	4805
880.224	4771
880.351	4820
880.478	4873
880.605	4828
880.732	4812
880.859	5090
880.986	4904
881.112	4892
881.239	4820
881.366	4694
881.493	4641
881.619	4603
881.746	4634
881.872	4656
881.999	4649
882.125	4717
882.252	4812
882.378	4835
882.505	4984
882.631	4797
882.757	4675
882.883	4706
883.01	4755
883.136	4672
883.262	4588
883.388	4618
883.514	4850
883.64	4889
883.766	4801
883.892	4637
884.018	4736
884.143	4934
884.269	5029
884.395	4702
884.52	4611
884.646	4645
884.772	4618
884.897	4546
885.023	4645
885.148	4820
885.274	4885
885.399	4797
885.524	4698
885.65	4725
885.775	4778
885.9	4721
886.025	4892
886.15	4790
886.275	4698
886.4	4675
886.525	4752
886.65	4702
886.775	4725
886.9	4965
887.025	5064
887.149	4835
887.274	4672
887.399	4592
887.523	4637
887.648	4523
887.773	4634
887.897	4717
888.021	4755
888.146	4721
888.27	4805
888.395	4938
888.519	4839
888.643	4839
888.767	4828
888.891	4687
889.015	4584
889.139	4656
889.263	4550
889.387	4763
889.511	4889
889.635	4816
889.759	4668
889.883	4649
890.006	4793
890.13	4831
890.254	4660
890.377	4679
890.501	4565
890.624	4573
890.748	4668
890.871	4516
890.995	4409
891.118	4367
891.241	4538
891.364	4592
891.488	4626
891.611	4519
891.734	4546
891.857	4630
891.98	4527
892.103	4664
892.226	4607
892.349	4550
892.471	4474
892.594	4516
892.717	4649
892.839	4588
892.962	4573
893.085	4675
893.207	4603
893.33	4459
893.452	4512
893.575	4615
893.697	4584
893.819	4778
893.941	4858
894.064	4763
894.186	4584
894.308	4546
894.43	4725
894.552	4782
894.674	4759
894.796	4565
894.918	4618
895.04	4565
895.161	4736
895.283	4649
895.405	4626
895.526	4691
895.648	4702
895.769	4698
895.891	4725
896.012	4729
896.134	4725
896.255	4645
896.376	4630
896.498	4664
896.619	4668
896.74	4580
896.861	4694
896.982	4885
897.103	5113
897.224	4820
897.345	4748
897.466	4714
897.587	4729
897.708	4843
897.828	4782
897.949	4664
898.07	4527
898.19	4580
898.311	4831
898.431	4687
898.552	4702
898.672	4809
898.792	4809
898.913	4740
899.033	4634
899.153	4493
899.273	4440
899.393	4554
899.513	4519
899.633	4535
899.753	4577
899.873	4546
899.993	4596
900.113	4519
900.232	4573
900.352	4531
900.472	4462
900.591	4421
900.711	4508
900.83	4394
900.95	4637
901.069	4668
901.189	4516
901.308	4390
901.427	4299
901.546	4367
901.665	4466
901.784	4550
901.904	4344
902.023	4344
902.141	4150
902.26	4169
902.379	4291
902.498	4207
902.617	4238
902.735	4394
902.854	4417
902.973	4344
903.091	4223
903.21	4192
903.328	4295
903.446	4234
903.565	4284
903.683	4337
903.801	4303
903.919	4390
904.038	4436
904.156	4341
904.274	4421
904.392	4390
904.51	4428
904.627	4451
904.745	4573
904.863	4664
904.981	4428
905.098	4348
905.216	4344
905.334	4443
905.451	4436
905.569	4455
905.686	4584
905.803	4573
905.921	4405
906.038	4542
906.155	4497
906.272	4417
906.389	4455
906.506	4303
906.623	4417
906.74	4386
906.857	4303
906.974	4402
907.091	4580
907.208	4725
907.324	4569
907.441	4512
907.557	4409
907.674	4337
907.79	4318
907.907	4386
908.023	4474
908.139	4481
908.256	4481
908.372	4535
908.488	4409
908.604	4363
908.72	4314
908.836	4333
908.952	4356
909.068	4428
909.184	4573
909.3	4466
909.415	4603
909.531	4565
909.647	4379
909.762	4360
909.878	4352
909.993	4398
910.108	4394
910.224	4398
910.339	4455
910.454	4402
910.57	4379
910.685	4303
910.8	4641
910.915	4615
911.03	4432
911.145	4287
911.259	4325
911.374	4341
911.489	4268
911.604	4322
911.718	4154
911.833	4158
911.947	4090
912.062	4036
912.176	4219
912.291	4303
912.405	4249
912.519	4478
912.633	4542
912.748	4417
912.862	4276
912.976	4227
913.09	4120
913.204	4181
913.318	4268
913.431	4379
913.545	4390
913.659	4436
913.772	4375
913.886	4314
914	4238
914.113	4363
914.226	4436
914.34	4371
914.453	4287
914.566	4470
914.68	4322
914.793	4337
914.906	4200
915.019	4181
915.132	4078
915.245	4196
915.358	4227
915.47	4257
915.583	4322
915.696	4291
915.809	4398
915.921	4436
916.034	4265
916.146	4272
916.259	4227
916.371	4363
916.483	4383
916.595	4284
916.708	4333
916.82	4318
916.932	4306
917.044	4333
917.156	4329
917.268	4215
917.38	4280
917.491	4314
917.603	4329
917.715	4443
917.826	4428
917.938	4386
918.049	4238
918.161	4375
918.272	4584
918.384	4531
918.495	4417
918.606	4318
918.717	4249
918.828	4356
918.939	4375
919.05	4246
919.161	4325
919.272	4112
919.383	4265
919.494	4459
919.604	4603
919.715	4470
919.826	4375
919.936	4409
920.047	4546
920.157	4523
920.267	4714
920.378	4577
920.488	4523
920.598	4736
920.708	4892
920.818	4736
920.928	4733
921.038	4976
921.148	4930
921.258	4641
921.368	4535
921.477	4497
921.587	4424
921.697	4356
921.806	4561
921.916	4481
922.025	4265
922.134	4238
922.244	4246
922.353	4322
922.462	4150
922.571	4131
922.68	4048
922.789	3975
922.898	4051
923.007	3998
923.116	4082
923.224	4044
923.333	4029
923.442	4013
923.55	4002
923.659	4059
923.767	4124
923.876	4002
923.984	4074
924.092	4006
924.201	4074
924.309	4090
924.417	4131
924.525	4101
924.633	4074
924.741	5075
924.849	3911
924.956	4147
925.064	3994
925.172	3930
925.279	3991
925.387	4032
925.494	4067
925.602	4253
925.709	4116
925.816	4044
925.924	4124
926.031	4211
926.138	4215
926.245	4230
926.352	4147
926.459	4265
926.566	4337
926.673	4128
926.779	4063
926.886	4074
926.993	3972
927.099	3968
927.206	3941
927.312	3953
927.419	4078
927.525	4082
927.631	4109
927.737	3991
927.843	3945
927.95	3861
928.056	3968
928.162	3987
928.267	4051
928.373	4710
928.479	4093
928.585	3884
928.69	4021
928.796	4135
928.901	4025
929.007	3869
929.112	4032
929.218	3994
929.323	3945
929.428	3926
929.533	4128
929.638	3922
929.743	3991
929.848	4029
929.953	3998
930.058	3937
930.163	3747
930.267	3804
930.372	3960
930.477	3827
930.581	4093
930.685	3941
930.79	3831
930.894	3930
930.998	3869
931.103	4029
931.207	3694
931.311	3660
931.415	3667
931.519	3534
931.623	3576
