Data from test_V78500241_136.txt Node
Date: Fri Mar 25 16:49:56 CST 2022
User: usil
Spectrometer: V785-0024
Trigger mode: 0
Integration Time (sec): 4.000000E-1
Scans to average: 1
Nonlinearity correction enabled: false
Boxcar width: 0
Storing dark spectrum: false
XAxis mode: Wavelengths
Number of Pixels in Spectrum: 1024
>>>>>Begin Spectral Data<<<<<
801.071	8092
801.214	8024
801.356	7947
801.499	7875
801.641	7830
801.783	7856
801.926	7997
802.068	7928
802.211	8027
802.353	7997
802.496	7921
802.638	7944
802.78	7936
802.923	7928
803.065	7856
803.208	7887
803.35	8016
803.492	8088
803.635	8161
803.777	7993
803.919	8065
804.061	8461
804.204	8138
804.346	7982
804.488	7879
804.63	8069
804.773	7993
804.915	8103
805.057	8202
805.199	8107
805.341	8221
805.483	8240
805.626	8221
805.768	8088
805.91	8248
806.052	8263
806.194	8111
806.336	8267
806.478	8119
806.62	8054
806.762	8164
806.904	8229
807.046	8469
807.188	8343
807.33	8290
807.472	8301
807.614	8145
807.756	8126
807.898	8031
808.04	7955
808.182	7852
808.324	7940
808.465	7936
808.607	8016
808.749	8161
808.891	8199
809.033	8320
809.174	8237
809.316	8088
809.458	8069
809.6	8046
809.741	8043
809.883	8088
810.025	8123
810.166	8123
810.308	8077
810.45	8046
810.591	7940
810.733	7795
810.875	7636
811.016	7472
811.158	7556
811.299	7620
811.441	7784
811.582	7776
811.724	7639
811.865	7544
812.007	7674
812.148	7616
812.29	7708
812.431	7894
812.573	7986
812.714	8012
812.855	8225
812.997	8286
813.138	8423
813.279	8237
813.421	8149
813.562	8005
813.703	7974
813.845	7795
813.986	7502
814.127	7305
814.268	7335
814.41	7270
814.551	7236
814.692	7209
814.833	7103
814.974	7160
815.115	7194
815.256	7114
815.397	6970
815.539	7027
815.68	6852
815.821	6814
815.962	6993
816.103	6844
816.244	6749
816.385	6627
816.526	6673
816.666	6566
816.807	6300
816.948	6494
817.089	6464
817.23	6422
817.371	6407
817.512	6426
817.653	6448
817.793	6361
817.934	6467
818.075	6452
818.216	6422
818.356	6426
818.497	6311
818.638	6136
818.778	6175
818.919	6098
819.06	6129
819.2	6353
819.341	6289
819.481	6433
819.622	6551
819.762	6795
819.903	6711
820.043	6597
820.184	6555
820.324	6620
820.465	6757
820.605	6760
820.746	6627
820.886	6566
821.026	6703
821.167	6715
821.307	6821
821.447	6749
821.588	6715
821.728	6597
821.868	6578
822.008	6315
822.149	6391
822.289	6433
822.429	6213
822.569	6117
822.709	6125
822.849	5908
822.99	5954
823.13	5916
823.27	5920
823.41	5790
823.55	5836
823.69	5775
823.83	5802
823.97	5707
824.11	5630
824.25	5554
824.389	5528
824.529	5619
824.669	5543
824.809	5688
824.949	5676
825.089	5615
825.228	5596
825.368	5391
825.508	5345
825.648	5311
825.787	5414
825.927	5360
826.067	5326
826.206	5303
826.346	5459
826.485	5376
826.625	5455
826.765	5547
826.904	5490
827.044	5292
827.183	5250
827.323	5170
827.462	5269
827.601	5174
827.741	5227
827.88	5239
828.02	5181
828.159	5265
828.298	5337
828.437	5360
828.577	5296
828.716	5433
828.855	5376
828.994	5204
829.134	5174
829.273	5197
829.412	5174
829.551	5105
829.69	5170
829.829	5254
829.968	5387
830.107	5326
830.246	5303
830.385	5231
830.524	5128
830.663	5079
830.802	5010
830.941	4915
831.08	4881
831.219	5022
831.357	4980
831.496	5204
831.635	4938
831.774	4858
831.913	4889
832.051	4767
832.19	4774
832.329	4858
832.467	4706
832.606	4706
832.744	4733
832.883	4729
833.022	4759
833.16	4812
833.299	4809
833.437	4866
833.576	4812
833.714	4889
833.852	4866
833.991	4896
834.129	5003
834.267	4965
834.406	4930
834.544	4991
834.682	5006
834.821	4957
834.959	5185
835.097	4984
835.235	5174
835.373	5136
835.511	5086
835.65	5018
835.788	5041
835.926	4900
836.064	4946
836.202	4938
836.34	5147
836.478	5258
836.615	5143
836.753	5273
836.891	5307
837.029	5296
837.167	5166
837.305	5159
837.443	5193
837.58	5117
837.718	5265
837.856	5166
837.993	5143
838.131	5235
838.269	5261
838.406	5197
838.544	5159
838.681	5041
838.819	5018
838.956	4896
839.094	4953
839.231	4991
839.369	5090
839.506	5471
839.643	5273
839.781	5071
839.918	5041
840.055	5079
840.193	5113
840.33	5159
840.467	5147
840.604	5197
840.742	5444
840.879	5098
841.016	5105
841.153	5140
841.29	5383
841.427	5334
841.564	5326
841.701	5391
841.838	5292
841.975	5296
842.112	5296
842.249	5147
842.385	5132
842.522	5364
842.659	5162
842.796	5178
842.933	5216
843.069	5147
843.206	5235
843.343	5273
843.479	5269
843.616	5345
843.752	5060
843.889	5003
844.025	5220
844.162	5037
844.298	5216
844.435	5143
844.571	5067
844.708	5201
844.844	5307
844.98	5303
845.117	5292
845.253	5201
845.389	5151
845.525	5185
845.661	5197
845.798	5041
845.934	5083
846.07	5060
846.206	5185
846.342	5292
846.478	5181
846.614	5064
846.75	5006
846.886	4987
847.022	5197
847.158	5029
847.294	5090
847.429	5121
847.565	5048
847.701	5269
847.837	4911
847.972	4812
848.108	4980
848.244	4949
848.379	4873
848.515	4748
848.65	4725
848.786	4752
848.921	4805
849.057	4896
849.192	4900
849.328	4889
849.463	4831
849.598	4809
849.734	4816
849.869	4691
850.004	4691
850.14	4656
850.275	4611
850.41	4550
850.545	4580
850.68	4649
850.815	4675
850.95	4668
851.085	4885
851.22	4774
851.355	4675
851.49	4626
851.625	4664
851.76	4637
851.895	4558
852.03	4550
852.165	4717
852.299	4786
852.434	4824
852.569	4748
852.703	4782
852.838	4889
852.973	4957
853.107	4930
853.242	4725
853.376	4668
853.511	4618
853.645	4645
853.78	4824
853.914	4691
854.048	4683
854.183	4664
854.317	4729
854.451	4850
854.585	4679
854.72	4653
854.854	4755
854.988	4630
855.122	4637
855.256	4519
855.39	4645
855.524	4786
855.658	4752
855.792	4691
855.926	4744
856.06	4812
856.194	4801
856.327	4702
856.461	4656
856.595	4645
856.729	4611
856.862	4805
856.996	4710
857.13	4771
857.263	4812
857.397	4839
857.53	4660
857.664	4759
857.797	4748
857.931	4786
858.064	4691
858.197	4782
858.331	4706
858.464	4683
858.597	4542
858.731	4618
858.864	4702
858.997	4603
859.13	4694
859.263	4653
859.396	4698
859.529	4573
859.662	4573
859.795	4577
859.928	4664
860.061	4782
860.194	4839
860.327	4592
860.46	4565
860.592	4744
860.725	4736
860.858	4725
860.99	4599
861.123	4508
861.256	4512
861.388	4672
861.521	5425
861.653	4470
861.786	4504
861.918	4512
862.05	4531
862.183	4580
862.315	4615
862.447	4691
862.58	4622
862.712	4436
862.844	4322
862.976	4462
863.108	4519
863.24	4866
863.372	4337
863.504	4436
863.636	4402
863.768	4489
863.9	4409
864.032	4402
864.164	4432
864.296	4489
864.428	4535
864.559	4558
864.691	4573
864.823	4493
864.954	4493
865.086	4561
865.217	4432
865.349	4481
865.48	4432
865.612	4542
865.743	4653
865.875	4447
866.006	4432
866.137	4493
866.269	4451
866.4	4447
866.531	4440
866.662	4375
866.793	4421
866.924	4432
867.055	4451
867.186	4466
867.317	4394
867.448	4398
867.579	4398
867.71	4394
867.841	4409
867.972	4462
868.103	4455
868.233	4462
868.364	4447
868.495	4516
868.625	4656
868.756	4786
868.886	4618
869.017	4645
869.147	4763
869.278	4824
869.408	4721
869.539	4683
869.669	4714
869.799	4664
869.929	4778
870.06	4706
870.19	4965
870.32	4923
870.45	4938
870.58	5033
870.71	5102
870.84	5159
870.97	4965
871.1	4904
871.23	5170
871.36	5159
871.489	5048
871.619	5102
871.749	5105
871.879	5136
872.008	5155
872.138	5079
872.267	4976
872.397	4862
872.526	4847
872.656	4744
872.785	4809
872.915	4915
873.044	5037
873.173	4957
873.303	4999
873.432	4980
873.561	5003
873.69	4870
873.819	4911
873.948	4987
874.077	4816
874.206	4725
874.335	4805
874.464	4892
874.593	5124
874.722	4923
874.851	5090
874.979	5079
875.108	5037
875.237	4965
875.365	4873
875.494	4873
875.623	5010
875.751	4877
875.88	4839
876.008	4980
876.136	5064
876.265	5246
876.393	5337
876.521	5299
876.65	5220
876.778	5193
876.906	5117
877.034	5056
877.162	5045
877.29	5060
877.418	5083
877.546	5064
877.674	5064
877.802	5045
877.93	5022
878.058	4942
878.185	4915
878.313	4995
878.441	4908
878.568	4767
878.696	4873
878.824	4980
878.951	5006
879.079	5143
879.206	5330
879.333	5159
879.461	5003
879.588	5018
879.715	5147
879.842	5220
879.97	4957
880.097	4854
880.224	4778
880.351	4835
880.478	4881
880.605	4824
880.732	4736
880.859	5102
880.986	4915
881.112	4938
881.239	4786
881.366	4672
881.493	4622
881.619	4649
881.746	4668
881.872	4626
881.999	4626
882.125	4714
882.252	4786
882.378	4850
882.505	4999
882.631	4793
882.757	4668
882.883	4733
883.01	4774
883.136	4656
883.262	4592
883.388	4618
883.514	4793
883.64	4866
883.766	4854
883.892	4637
884.018	4714
884.143	4930
884.269	5014
884.395	4687
884.52	4641
884.646	4694
884.772	4508
884.897	4573
885.023	4672
885.148	4683
885.274	4873
885.399	4812
885.524	4672
885.65	4694
885.775	4774
885.9	4740
886.025	4854
886.15	4797
886.275	4759
886.4	4706
886.525	4755
886.65	4725
886.775	4710
886.9	4923
887.025	5060
887.149	4843
887.274	4721
887.399	4558
887.523	4637
887.648	4637
887.773	4554
887.897	4774
888.021	4759
888.146	4653
888.27	4831
888.395	4877
888.519	4831
888.643	4877
888.767	4877
888.891	4637
889.015	4611
889.139	4664
889.263	4622
889.387	4729
889.511	4885
889.635	4824
889.759	4668
889.883	4672
890.006	4763
890.13	4847
890.254	4634
890.377	4717
890.501	4592
890.624	4512
890.748	4656
890.871	4554
890.995	4424
891.118	4386
891.241	4512
891.364	4546
891.488	4634
891.611	4535
891.734	4554
891.857	4565
891.98	4550
892.103	4645
892.226	4637
892.349	4554
892.471	4440
892.594	4577
892.717	4607
892.839	4592
892.962	4630
893.085	4706
893.207	4664
893.33	4485
893.452	4527
893.575	4683
893.697	4584
893.819	4786
893.941	4870
894.064	4767
894.186	4592
894.308	4592
894.43	4771
894.552	4805
894.674	4809
894.796	4607
894.918	4634
895.04	4546
895.161	4702
895.283	4694
895.405	4584
895.526	4660
895.648	4740
895.769	4664
895.891	4717
896.012	4725
896.134	4714
896.255	4710
896.376	4687
896.498	4630
896.619	4694
896.74	4694
896.861	4691
896.982	4949
897.103	5102
897.224	4843
897.345	4755
897.466	4706
897.587	4714
897.708	4900
897.828	4831
897.949	4675
898.07	4637
898.19	4672
898.311	4839
898.431	4691
898.552	4710
898.672	4839
898.792	4790
898.913	4763
899.033	4649
899.153	4474
899.273	4409
899.393	4481
899.513	4500
899.633	4500
899.753	4500
899.873	4500
899.993	4592
900.113	4561
900.232	4596
900.352	4546
900.472	4546
900.591	4447
900.711	4504
900.83	4440
900.95	4596
901.069	4683
901.189	4577
901.308	4421
901.427	4337
901.546	4367
901.665	4440
901.784	4538
901.904	4367
902.023	4318
902.141	4234
902.26	4154
902.379	4306
902.498	4303
902.617	4268
902.735	4413
902.854	4436
902.973	4379
903.091	4227
903.21	4215
903.328	4295
903.446	4303
903.565	4257
903.683	4375
903.801	4284
903.919	4417
904.038	4432
904.156	4333
904.274	4459
904.392	4375
904.51	4417
904.627	4489
904.745	4603
904.863	4630
904.981	4421
905.098	4341
905.216	4375
905.334	4466
905.451	4466
905.569	4466
905.686	4588
905.803	4481
905.921	4428
906.038	4580
906.155	4470
906.272	4417
906.389	4485
906.506	4348
906.623	4398
906.74	4421
906.857	4356
906.974	4367
907.091	4561
907.208	4725
907.324	4607
907.441	4451
907.557	4413
907.674	4371
907.79	4344
907.907	4413
908.023	4519
908.139	4531
908.256	4432
908.372	4508
908.488	4409
908.604	4375
908.72	4383
908.836	4405
908.952	4344
909.068	4417
909.184	4542
909.3	4462
909.415	4580
909.531	4558
909.647	4367
909.762	4379
909.878	4383
909.993	4466
910.108	4421
910.224	4417
910.339	4504
910.454	4481
910.57	4386
910.685	4325
910.8	4687
910.915	4618
911.03	4546
911.145	4356
911.259	4341
911.374	4413
911.489	4306
911.604	4299
911.718	4181
911.833	4246
911.947	4097
912.062	4021
912.176	4230
912.291	4268
912.405	4253
912.519	4489
912.633	4561
912.748	4390
912.862	4348
912.976	4261
913.09	4147
913.204	4223
913.318	4249
913.431	4379
913.545	4398
913.659	4447
913.772	4356
913.886	4284
914	4234
914.113	4386
914.226	4443
914.34	4363
914.453	4287
914.566	4417
914.68	4303
914.793	4299
914.906	4223
915.019	4147
915.132	4109
915.245	4215
915.358	4261
915.47	4227
915.583	4280
915.696	4318
915.809	4405
915.921	4417
916.034	4295
916.146	4276
916.259	4257
916.371	4428
916.483	4375
916.595	4261
916.708	4348
916.82	4314
916.932	4383
917.044	4352
917.156	4352
917.268	4265
917.38	4314
917.491	4261
917.603	4352
917.715	4470
917.826	4428
917.938	4402
918.049	4253
918.161	4417
918.272	4558
918.384	4561
918.495	4440
918.606	4287
918.717	4306
918.828	4360
918.939	4386
919.05	4276
919.161	4356
919.272	4150
919.383	4272
919.494	4478
919.604	4637
919.715	4459
919.826	4337
919.936	4443
920.047	4565
920.157	4508
920.267	4694
920.378	4554
920.488	4504
920.598	4759
920.708	4896
920.818	4778
920.928	4805
921.038	4938
921.148	4980
921.258	4637
921.368	4535
921.477	4538
921.587	4474
921.697	4413
921.806	4554
921.916	4413
922.025	4306
922.134	4295
922.244	4177
922.353	4360
922.462	4192
922.571	4086
922.68	4002
922.789	3991
922.898	4067
923.007	4013
923.116	4105
923.224	4067
923.333	4051
923.442	3998
923.55	4048
923.659	4040
923.767	4162
923.876	4006
923.984	4093
924.092	3918
924.201	4078
924.309	4101
924.417	4166
924.525	4071
924.633	4143
924.741	4957
924.849	3953
924.956	4158
925.064	3968
925.172	3960
925.279	3949
925.387	4105
925.494	4090
925.602	4223
925.709	4196
925.816	4013
925.924	4128
926.031	4253
926.138	4169
926.245	4253
926.352	4112
926.459	4268
926.566	4360
926.673	4131
926.779	4055
926.886	4116
926.993	3972
927.099	3964
927.206	3972
927.312	3968
927.419	4036
927.525	4021
927.631	4109
927.737	3987
927.843	3991
927.95	3892
928.056	3998
928.162	4006
928.267	4071
928.373	4653
928.479	4166
928.585	3880
928.69	4040
928.796	4093
928.901	3945
929.007	3842
929.112	4006
929.218	3994
929.323	3949
929.428	3956
929.533	4097
929.638	3892
929.743	3960
929.848	4071
929.953	4036
930.058	3953
930.163	3819
930.267	3831
930.372	4021
930.477	3838
930.581	4109
930.685	3922
930.79	3869
930.894	3899
930.998	3865
931.103	4051
931.207	3724
931.311	3724
931.415	3679
931.519	3500
931.623	3595
