Data from test_V78500241_70.txt Node
Date: Fri Mar 25 16:49:29 CST 2022
User: usil
Spectrometer: V785-0024
Trigger mode: 0
Integration Time (sec): 4.000000E-1
Scans to average: 1
Nonlinearity correction enabled: false
Boxcar width: 0
Storing dark spectrum: false
XAxis mode: Wavelengths
Number of Pixels in Spectrum: 1024
>>>>>Begin Spectral Data<<<<<
801.071	8062
801.214	8050
801.356	7970
801.499	7917
801.641	7871
801.783	7894
801.926	7978
802.068	7989
802.211	8081
802.353	8012
802.496	7944
802.638	7970
802.78	7978
802.923	7997
803.065	7982
803.208	7826
803.35	7955
803.492	8115
803.635	8145
803.777	7967
803.919	8111
804.061	8457
804.204	8164
804.346	8043
804.488	8005
804.63	8142
804.773	8024
804.915	8107
805.057	8263
805.199	8180
805.341	8298
805.483	8199
805.626	8183
805.768	8164
805.91	8271
806.052	8168
806.194	8111
806.336	8366
806.478	8126
806.62	8206
806.762	8271
806.904	8351
807.046	8495
807.188	8434
807.33	8336
807.472	8457
807.614	8214
807.756	8100
807.898	8027
808.04	7925
808.182	7947
808.324	7951
808.465	7970
808.607	8027
808.749	8100
808.891	8153
809.033	8358
809.174	8168
809.316	7997
809.458	8065
809.6	7997
809.741	8020
809.883	8050
810.025	8096
810.166	8043
810.308	8073
810.45	8024
810.591	7921
810.733	7761
810.875	7761
811.016	7510
811.158	7544
811.299	7651
811.441	7803
811.582	7788
811.724	7666
811.865	7601
812.007	7677
812.148	7613
812.29	7670
812.431	7780
812.573	7947
812.714	8035
812.855	8176
812.997	8290
813.138	8343
813.279	8172
813.421	8115
813.562	7986
813.703	7921
813.845	7738
813.986	7449
814.127	7263
814.268	7259
814.41	7259
814.551	7282
814.692	7293
814.833	7084
814.974	7129
815.115	7118
815.256	6962
815.397	6871
815.539	6943
815.68	6818
815.821	6825
815.962	6894
816.103	6814
816.244	6684
816.385	6627
816.526	6658
816.666	6471
816.807	6353
816.948	6460
817.089	6517
817.23	6471
817.371	6384
817.512	6384
817.653	6418
817.793	6445
817.934	6433
818.075	6502
818.216	6494
818.356	6467
818.497	6311
818.638	6216
818.778	6220
818.919	6178
819.06	6182
819.2	6376
819.341	6395
819.481	6365
819.622	6551
819.762	6795
819.903	6734
820.043	6642
820.184	6665
820.324	6627
820.465	6757
820.605	6684
820.746	6696
820.886	6597
821.026	6673
821.167	6787
821.307	6863
821.447	6859
821.588	6772
821.728	6642
821.868	6536
822.008	6437
822.149	6448
822.289	6448
822.429	6201
822.569	6205
822.709	6182
822.849	5980
822.99	5939
823.13	5961
823.27	5927
823.41	5885
823.55	5821
823.69	5832
823.83	5855
823.97	5756
824.11	5646
824.25	5581
824.389	5649
824.529	5680
824.669	5581
824.809	5634
824.949	5668
825.089	5680
825.228	5619
825.368	5452
825.508	5406
825.648	5421
825.787	5486
825.927	5467
826.067	5395
826.206	5402
826.346	5490
826.485	5455
826.625	5490
826.765	5596
826.904	5600
827.044	5277
827.183	5299
827.323	5239
827.462	5372
827.601	5197
827.741	5303
827.88	5284
828.02	5140
828.159	5299
828.298	5360
828.437	5463
828.577	5341
828.716	5596
828.855	5414
828.994	5220
829.134	5231
829.273	5227
829.412	5204
829.551	5189
829.69	5181
829.829	5318
829.968	5455
830.107	5391
830.246	5315
830.385	5239
830.524	5193
830.663	5155
830.802	5052
830.941	4930
831.08	4919
831.219	5098
831.357	5079
831.496	5239
831.635	5010
831.774	4942
831.913	4904
832.051	4790
832.19	4778
832.329	4923
832.467	4729
832.606	4702
832.744	4793
832.883	4763
833.022	4774
833.16	4896
833.299	4839
833.437	4908
833.576	4896
833.714	4915
833.852	4942
833.991	4987
834.129	5064
834.267	5025
834.406	4984
834.544	5060
834.682	5083
834.821	5052
834.959	5299
835.097	4984
835.235	5201
835.373	5208
835.511	5121
835.65	5067
835.788	5113
835.926	4927
836.064	4923
836.202	4968
836.34	5231
836.478	5303
836.615	5208
836.753	5269
836.891	5341
837.029	5296
837.167	5254
837.305	5162
837.443	5212
837.58	5132
837.718	5353
837.856	5235
837.993	5155
838.131	5292
838.269	5246
838.406	5265
838.544	5216
838.681	5105
838.819	5067
838.956	4976
839.094	4965
839.231	5079
839.369	5170
839.506	5463
839.643	5277
839.781	5086
839.918	5056
840.055	5117
840.193	5136
840.33	5204
840.467	5189
840.604	5204
840.742	5505
840.879	5121
841.016	5151
841.153	5185
841.29	5429
841.427	5414
841.564	5421
841.701	5486
841.838	5349
841.975	5311
842.112	5349
842.249	5220
842.385	5178
842.522	5379
842.659	5239
842.796	5128
842.933	5261
843.069	5227
843.206	5212
843.343	5376
843.479	5318
843.616	5341
843.752	5067
843.889	5124
844.025	5315
844.162	5045
844.298	5269
844.435	5151
844.571	5117
844.708	5239
844.844	5337
844.98	5395
845.117	5349
845.253	5204
845.389	5121
845.525	5204
845.661	5212
845.798	5060
845.934	5204
846.07	5098
846.206	5204
846.342	5364
846.478	5227
846.614	5086
846.75	5075
846.886	5029
847.022	5208
847.158	5037
847.294	5094
847.429	5185
847.565	5159
847.701	5402
847.837	4968
847.972	4873
848.108	5014
848.244	4976
848.379	4870
848.515	4755
848.65	4767
848.786	4809
848.921	4809
849.057	4919
849.192	4946
849.328	4923
849.463	4896
849.598	4896
849.734	4816
849.869	4752
850.004	4721
850.14	4740
850.275	4733
850.41	4596
850.545	4637
850.68	4668
850.815	4645
850.95	4637
851.085	4984
851.22	4752
851.355	4744
851.49	4675
851.625	4717
851.76	4721
851.895	4649
852.03	4618
852.165	4729
852.299	4767
852.434	4854
852.569	4767
852.703	4805
852.838	4835
852.973	5010
853.107	5025
853.242	4793
853.376	4691
853.511	4569
853.645	4736
853.78	4854
853.914	4763
854.048	4752
854.183	4714
854.317	4733
854.451	4896
854.585	4744
854.72	4744
854.854	4774
854.988	4698
855.122	4679
855.256	4599
855.39	4706
855.524	4835
855.658	4733
855.792	4729
855.926	4816
856.06	4866
856.194	4896
856.327	4752
856.461	4729
856.595	4691
856.729	4687
856.862	4873
856.996	4771
857.13	4797
857.263	4828
857.397	4809
857.53	4721
857.664	4778
857.797	4839
857.931	4847
858.064	4782
858.197	4801
858.331	4691
858.464	4675
858.597	4542
858.731	4660
858.864	4683
858.997	4660
859.13	4717
859.263	4729
859.396	4733
859.529	4622
859.662	4580
859.795	4569
859.928	4649
860.061	4854
860.194	4824
860.327	4622
860.46	4592
860.592	4736
860.725	4759
860.858	4733
860.99	4622
861.123	4580
861.256	4577
861.388	4679
861.521	5296
861.653	4573
861.786	4485
861.918	4516
862.05	4546
862.183	4626
862.315	4668
862.447	4759
862.58	4611
862.712	4462
862.844	4344
862.976	4550
863.108	4500
863.24	4949
863.372	4398
863.504	4493
863.636	4516
863.768	4573
863.9	4500
864.032	4451
864.164	4447
864.296	4550
864.428	4641
864.559	4618
864.691	4596
864.823	4611
864.954	4554
865.086	4550
865.217	4485
865.349	4424
865.48	4554
865.612	4561
865.743	4675
865.875	4550
866.006	4432
866.137	4493
866.269	4470
866.4	4516
866.531	4436
866.662	4424
866.793	4500
866.924	4512
867.055	4538
867.186	4474
867.317	4489
867.448	4421
867.579	4440
867.71	4440
867.841	4443
867.972	4512
868.103	4493
868.233	4493
868.364	4462
868.495	4554
868.625	4725
868.756	4767
868.886	4615
869.017	4687
869.147	4809
869.278	4824
869.408	4694
869.539	4664
869.669	4786
869.799	4694
869.929	4847
870.06	4809
870.19	4995
870.32	4972
870.45	4999
870.58	5136
870.71	5170
870.84	5170
870.97	4968
871.1	4934
871.23	5212
871.36	5128
871.489	5067
871.619	5113
871.749	5128
871.879	5220
872.008	5223
872.138	5128
872.267	4999
872.397	4904
872.526	4824
872.656	4774
872.785	4858
872.915	5010
873.044	5117
873.173	4980
873.303	5060
873.432	5029
873.561	5052
873.69	4961
873.819	4900
873.948	5003
874.077	4881
874.206	4771
874.335	4839
874.464	4999
874.593	5086
874.722	5037
874.851	5208
874.979	5060
875.108	5121
875.237	4896
875.365	4885
875.494	4930
875.623	5006
875.751	4831
875.88	4923
876.008	5056
876.136	5090
876.265	5299
876.393	5364
876.521	5311
876.65	5269
876.778	5227
876.906	5113
877.034	5113
877.162	5132
877.29	5045
877.418	5064
877.546	5010
877.674	5094
877.802	5113
877.93	5075
878.058	4946
878.185	4919
878.313	5003
878.441	4991
878.568	4858
878.696	4919
878.824	5064
878.951	5048
879.079	5162
879.206	5296
879.333	5113
879.461	5025
879.588	5003
879.715	5128
879.842	5318
879.97	5052
880.097	4809
880.224	4831
880.351	4847
880.478	4896
880.605	4877
880.732	4824
880.859	5155
880.986	4930
881.112	4915
881.239	4767
881.366	4694
881.493	4702
881.619	4618
881.746	4683
881.872	4706
881.999	4710
882.125	4664
882.252	4854
882.378	4831
882.505	5022
882.631	4858
882.757	4702
882.883	4771
883.01	4774
883.136	4725
883.262	4649
883.388	4668
883.514	4870
883.64	4889
883.766	4767
883.892	4672
884.018	4755
884.143	4961
884.269	5064
884.395	4733
884.52	4721
884.646	4736
884.772	4599
884.897	4573
885.023	4706
885.148	4862
885.274	4911
885.399	4843
885.524	4778
885.65	4706
885.775	4812
885.9	4793
886.025	4938
886.15	4854
886.275	4782
886.4	4710
886.525	4752
886.65	4691
886.775	4744
886.9	4923
887.025	5060
887.149	4843
887.274	4694
887.399	4607
887.523	4664
887.648	4630
887.773	4592
887.897	4786
888.021	4820
888.146	4679
888.27	4828
888.395	4968
888.519	4812
888.643	4835
888.767	4866
888.891	4744
889.015	4664
889.139	4714
889.263	4637
889.387	4759
889.511	4927
889.635	4877
889.759	4679
889.883	4649
890.006	4767
890.13	4870
890.254	4683
890.377	4694
890.501	4592
890.624	4573
890.748	4668
890.871	4535
890.995	4485
891.118	4417
891.241	4565
891.364	4577
891.488	4668
891.611	4558
891.734	4615
891.857	4664
891.98	4565
892.103	4702
892.226	4672
892.349	4554
892.471	4436
892.594	4592
892.717	4641
892.839	4634
892.962	4607
893.085	4729
893.207	4618
893.33	4527
893.452	4546
893.575	4763
893.697	4622
893.819	4850
893.941	4866
894.064	4782
894.186	4611
894.308	4603
894.43	4771
894.552	4831
894.674	4801
894.796	4596
894.918	4649
895.04	4645
895.161	4752
895.283	4729
895.405	4599
895.526	4672
895.648	4729
895.769	4679
895.891	4744
896.012	4797
896.134	4774
896.255	4660
896.376	4656
896.498	4675
896.619	4736
896.74	4615
896.861	4641
896.982	5018
897.103	5136
897.224	4900
897.345	4717
897.466	4675
897.587	4771
897.708	4896
897.828	4820
897.949	4714
898.07	4592
898.19	4691
898.311	4911
898.431	4740
898.552	4824
898.672	4881
898.792	4870
898.913	4786
899.033	4683
899.153	4527
899.273	4455
899.393	4485
899.513	4512
899.633	4596
899.753	4580
899.873	4580
899.993	4641
900.113	4580
900.232	4630
900.352	4561
900.472	4519
900.591	4455
900.711	4527
900.83	4500
900.95	4672
901.069	4778
901.189	4592
901.308	4390
901.427	4303
901.546	4409
901.665	4516
901.784	4535
901.904	4424
902.023	4394
902.141	4257
902.26	4196
902.379	4348
902.498	4291
902.617	4242
902.735	4409
902.854	4436
902.973	4390
903.091	4303
903.21	4257
903.328	4325
903.446	4291
903.565	4280
903.683	4417
903.801	4367
903.919	4428
904.038	4466
904.156	4344
904.274	4497
904.392	4447
904.51	4455
904.627	4531
904.745	4630
904.863	4694
904.981	4417
905.098	4325
905.216	4413
905.334	4447
905.451	4455
905.569	4489
905.686	4569
905.803	4630
905.921	4421
906.038	4569
906.155	4512
906.272	4470
906.389	4489
906.506	4379
906.623	4371
906.74	4459
906.857	4360
906.974	4413
907.091	4618
907.208	4717
907.324	4611
907.441	4535
907.557	4367
907.674	4379
907.79	4337
907.907	4421
908.023	4478
908.139	4516
908.256	4489
908.372	4527
908.488	4478
908.604	4432
908.72	4405
908.836	4421
908.952	4409
909.068	4432
909.184	4596
909.3	4512
909.415	4622
909.531	4599
909.647	4398
909.762	4390
909.878	4360
909.993	4462
910.108	4500
910.224	4436
910.339	4485
910.454	4409
910.57	4424
910.685	4394
910.8	4687
910.915	4618
911.03	4561
911.145	4383
911.259	4348
911.374	4417
911.489	4337
911.604	4306
911.718	4185
911.833	4249
911.947	4135
912.062	4082
912.176	4242
912.291	4329
912.405	4276
912.519	4478
912.633	4573
912.748	4432
912.862	4360
912.976	4223
913.09	4139
913.204	4150
913.318	4284
913.431	4409
913.545	4432
913.659	4481
913.772	4386
913.886	4242
914	4257
914.113	4398
914.226	4489
914.34	4402
914.453	4295
914.566	4455
914.68	4306
914.793	4329
914.906	4227
915.019	4124
915.132	4150
915.245	4211
915.358	4215
915.47	4322
915.583	4291
915.696	4341
915.809	4451
915.921	4447
916.034	4284
916.146	4265
916.259	4227
916.371	4371
916.483	4402
916.595	4310
916.708	4356
916.82	4348
916.932	4329
917.044	4348
917.156	4386
917.268	4344
917.38	4242
917.491	4299
917.603	4379
917.715	4478
917.826	4481
917.938	4341
918.049	4280
918.161	4379
918.272	4580
918.384	4618
918.495	4512
918.606	4322
918.717	4265
918.828	4379
918.939	4432
919.05	4329
919.161	4383
919.272	4158
919.383	4265
919.494	4481
919.604	4656
919.715	4451
919.826	4360
919.936	4409
920.047	4538
920.157	4535
920.267	4702
920.378	4569
920.488	4535
920.598	4733
920.708	4934
920.818	4820
920.928	4828
921.038	5014
921.148	4961
921.258	4656
921.368	4573
921.477	4531
921.587	4516
921.697	4383
921.806	4622
921.916	4451
922.025	4306
922.134	4295
922.244	4246
922.353	4383
922.462	4200
922.571	4158
922.68	4040
922.789	4067
922.898	4051
923.007	4017
923.116	4150
923.224	4116
923.333	4147
923.442	4002
923.55	3987
923.659	4063
923.767	4147
923.876	4013
923.984	4192
924.092	3987
924.201	4093
924.309	4128
924.417	4196
924.525	4055
924.633	4139
924.741	4934
924.849	3922
924.956	4166
925.064	3983
925.172	3911
925.279	4010
925.387	4101
925.494	4101
925.602	4253
925.709	4257
925.816	4032
925.924	4196
926.031	4261
926.138	4169
926.245	4257
926.352	4112
926.459	4306
926.566	4325
926.673	4177
926.779	4090
926.886	4154
926.993	4006
927.099	3953
927.206	4002
927.312	4010
927.419	4071
927.525	4017
927.631	4109
927.737	3975
927.843	3994
927.95	3819
928.056	4013
928.162	4017
928.267	4101
928.373	4740
928.479	4086
928.585	3926
928.69	4078
928.796	4067
928.901	3945
929.007	3941
929.112	4025
929.218	3998
929.323	4002
929.428	3987
929.533	4135
929.638	3937
929.743	3979
929.848	4055
929.953	4006
930.058	3975
930.163	3816
930.267	3850
930.372	3972
930.477	3846
930.581	4116
930.685	3968
930.79	3865
930.894	3918
930.998	3854
931.103	4063
931.207	3732
931.311	3690
931.415	3740
931.519	3538
931.623	3561
