Data from test_V78500241_2258.txt Node
Date: Fri Mar 25 17:04:42 CST 2022
User: usil
Spectrometer: V785-0024
Trigger mode: 0
Integration Time (sec): 4.000000E-1
Scans to average: 1
Nonlinearity correction enabled: false
Boxcar width: 0
Storing dark spectrum: false
XAxis mode: Wavelengths
Number of Pixels in Spectrum: 1024
>>>>>Begin Spectral Data<<<<<
801.071	8058
801.214	8005
801.356	7864
801.499	7875
801.641	7833
801.783	7814
801.926	7978
802.068	7959
802.211	7993
802.353	7944
802.496	7883
802.638	7864
802.78	7902
802.923	7883
803.065	7887
803.208	7833
803.35	7986
803.492	8084
803.635	8130
803.777	8081
803.919	8153
804.061	8454
804.204	8119
804.346	8088
804.488	7989
804.63	8138
804.773	7997
804.915	8172
805.057	8267
805.199	8107
805.341	8256
805.483	8351
805.626	8218
805.768	8134
805.91	8225
806.052	8221
806.194	8092
806.336	8248
806.478	8077
806.62	8119
806.762	8172
806.904	8176
807.046	8480
807.188	8355
807.33	8336
807.472	8347
807.614	8176
807.756	8130
807.898	8031
808.04	7849
808.182	7845
808.324	7830
808.465	7887
808.607	8027
808.749	8161
808.891	8199
809.033	8282
809.174	8229
809.316	8081
809.458	8100
809.6	7989
809.741	8050
809.883	8020
810.025	8119
810.166	8088
810.308	8065
810.45	7887
810.591	7894
810.733	7734
810.875	7636
811.016	7506
811.158	7480
811.299	7643
811.441	7666
811.582	7715
811.724	7616
811.865	7525
812.007	7559
812.148	7620
812.29	7582
812.431	7792
812.573	7871
812.714	8035
812.855	8138
812.997	8161
813.138	8256
813.279	8195
813.421	8001
813.562	7906
813.703	7871
813.845	7681
813.986	7400
814.127	7308
814.268	7263
814.41	7202
814.551	7126
814.692	7228
814.833	7126
814.974	7156
815.115	7095
815.256	6954
815.397	6920
815.539	6962
815.68	6798
815.821	6757
815.962	6894
816.103	6818
816.244	6711
816.385	6563
816.526	6635
816.666	6464
816.807	6315
816.948	6418
817.089	6422
817.23	6429
817.371	6304
817.512	6422
817.653	6448
817.793	6350
817.934	6407
818.075	6456
818.216	6441
818.356	6380
818.497	6292
818.638	6079
818.778	6190
818.919	6121
819.06	6110
819.2	6331
819.341	6300
819.481	6376
819.622	6559
819.762	6726
819.903	6677
820.043	6578
820.184	6532
820.324	6559
820.465	6700
820.605	6673
820.746	6662
820.886	6532
821.026	6681
821.167	6703
821.307	6837
821.447	6734
821.588	6684
821.728	6574
821.868	6494
822.008	6353
822.149	6391
822.289	6296
822.429	6159
822.569	6083
822.709	6110
822.849	5863
822.99	5897
823.13	5950
823.27	5882
823.41	5794
823.55	5771
823.69	5752
823.83	5745
823.97	5680
824.11	5528
824.25	5543
824.389	5592
824.529	5623
824.669	5505
824.809	5581
824.949	5634
825.089	5566
825.228	5573
825.368	5433
825.508	5368
825.648	5326
825.787	5391
825.927	5387
826.067	5299
826.206	5303
826.346	5379
826.485	5387
826.625	5410
826.765	5528
826.904	5535
827.044	5212
827.183	5170
827.323	5159
827.462	5254
827.601	5189
827.741	5124
827.88	5181
828.02	5121
828.159	5170
828.298	5345
828.437	5345
828.577	5318
828.716	5429
828.855	5349
828.994	5136
829.134	5147
829.273	5155
829.412	5143
829.551	5090
829.69	5140
829.829	5220
829.968	5341
830.107	5277
830.246	5265
830.385	5189
830.524	5098
830.663	5083
830.802	5029
830.941	4892
831.08	4850
831.219	5010
831.357	4972
831.496	5147
831.635	4949
831.774	4797
831.913	4843
832.051	4683
832.19	4733
832.329	4850
832.467	4729
832.606	4656
832.744	4656
832.883	4725
833.022	4721
833.16	4729
833.299	4862
833.437	4801
833.576	4866
833.714	4881
833.852	4866
833.991	4896
834.129	4984
834.267	4923
834.406	4873
834.544	4957
834.682	4976
834.821	4949
834.959	5136
835.097	4961
835.235	5060
835.373	5056
835.511	5109
835.65	5033
835.788	5018
835.926	4923
836.064	4862
836.202	4938
836.34	5151
836.478	5250
836.615	5090
836.753	5174
836.891	5296
837.029	5231
837.167	5239
837.305	5162
837.443	5170
837.58	5128
837.718	5261
837.856	5181
837.993	5132
838.131	5231
838.269	5231
838.406	5193
838.544	5147
838.681	5033
838.819	4965
838.956	4919
839.094	4930
839.231	4957
839.369	5064
839.506	5410
839.643	5261
839.781	5052
839.918	4991
840.055	5083
840.193	5045
840.33	5075
840.467	5124
840.604	5193
840.742	5490
840.879	5056
841.016	5079
841.153	5128
841.29	5372
841.427	5288
841.564	5288
841.701	5326
841.838	5261
841.975	5220
842.112	5250
842.249	5124
842.385	5075
842.522	5299
842.659	5121
842.796	5151
842.933	5151
843.069	5117
843.206	5174
843.343	5288
843.479	5292
843.616	5239
843.752	5010
843.889	5018
844.025	5204
844.162	5033
844.298	5201
844.435	5075
844.571	5041
844.708	5151
844.844	5189
844.98	5360
845.117	5311
845.253	5140
845.389	5052
845.525	5132
845.661	5170
845.798	5025
845.934	5117
846.07	5018
846.206	5220
846.342	5326
846.478	5204
846.614	4953
846.75	4953
846.886	4972
847.022	5109
847.158	5010
847.294	5143
847.429	5159
847.565	5037
847.701	5315
847.837	4896
847.972	4786
848.108	4938
848.244	4885
848.379	4763
848.515	4748
848.65	4717
848.786	4721
848.921	4759
849.057	4889
849.192	4923
849.328	4786
849.463	4809
849.598	4790
849.734	4721
849.869	4649
850.004	4618
850.14	4645
850.275	4599
850.41	4485
850.545	4592
850.68	4584
850.815	4618
850.95	4596
851.085	4839
851.22	4759
851.355	4706
851.49	4607
851.625	4592
851.76	4603
851.895	4573
852.03	4516
852.165	4679
852.299	4698
852.434	4809
852.569	4759
852.703	4793
852.838	4877
852.973	4949
853.107	4965
853.242	4755
853.376	4679
853.511	4535
853.645	4649
853.78	4778
853.914	4714
854.048	4660
854.183	4736
854.317	4687
854.451	4843
854.585	4660
854.72	4634
854.854	4759
854.988	4584
855.122	4679
855.256	4538
855.39	4622
855.524	4755
855.658	4717
855.792	4698
855.926	4710
856.06	4805
856.194	4820
856.327	4641
856.461	4527
856.595	4668
856.729	4622
856.862	4687
856.996	4736
857.13	4679
857.263	4763
857.397	4839
857.53	4626
857.664	4683
857.797	4774
857.931	4786
858.064	4721
858.197	4702
858.331	4611
858.464	4634
858.597	4516
858.731	4637
858.864	4672
858.997	4607
859.13	4664
859.263	4664
859.396	4675
859.529	4569
859.662	4599
859.795	4542
859.928	4584
860.061	4755
860.194	4774
860.327	4653
860.46	4573
860.592	4733
860.725	4675
860.858	4759
860.99	4596
861.123	4500
861.256	4542
861.388	4637
861.521	5288
861.653	4493
861.786	4459
861.918	4432
862.05	4519
862.183	4546
862.315	4630
862.447	4630
862.58	4531
862.712	4363
862.844	4295
862.976	4462
863.108	4428
863.24	4892
863.372	4329
863.504	4443
863.636	4409
863.768	4481
863.9	4375
864.032	4386
864.164	4394
864.296	4432
864.428	4554
864.559	4588
864.691	4523
864.823	4516
864.954	4447
865.086	4538
865.217	4462
865.349	4367
865.48	4474
865.612	4527
865.743	4603
865.875	4481
866.006	4424
866.137	4459
866.269	4360
866.4	4398
866.531	4375
866.662	4428
866.793	4394
866.924	4447
867.055	4504
867.186	4497
867.317	4413
867.448	4367
867.579	4360
867.71	4371
867.841	4352
867.972	4493
868.103	4455
868.233	4470
868.364	4443
868.495	4485
868.625	4725
868.756	4782
868.886	4500
869.017	4630
869.147	4782
869.278	4744
869.408	4615
869.539	4634
869.669	4698
869.799	4653
869.929	4748
870.06	4778
870.19	4911
870.32	4923
870.45	4919
870.58	4991
870.71	5086
870.84	5086
870.97	4965
871.1	4923
871.23	5109
871.36	5094
871.489	5060
871.619	5048
871.749	5098
871.879	5136
872.008	5113
872.138	5090
872.267	4987
872.397	4831
872.526	4793
872.656	4763
872.785	4801
872.915	4949
873.044	5052
873.173	4968
873.303	4942
873.432	4934
873.561	4957
873.69	4892
873.819	4847
873.948	4900
874.077	4786
874.206	4793
874.335	4828
874.464	4877
874.593	5025
874.722	4942
874.851	5056
874.979	5060
875.108	5041
875.237	4850
875.365	4885
875.494	4866
875.623	4938
875.751	4812
875.88	4858
876.008	4938
876.136	5067
876.265	5185
876.393	5360
876.521	5299
876.65	5235
876.778	5178
876.906	5075
877.034	5037
877.162	5037
877.29	4965
877.418	5022
877.546	5041
877.674	5033
877.802	5045
877.93	4995
878.058	4927
878.185	4862
878.313	4953
878.441	4965
878.568	4858
878.696	4858
878.824	4980
878.951	5022
879.079	5109
879.206	5254
879.333	5124
879.461	4999
879.588	4965
879.715	5140
879.842	5212
879.97	4961
880.097	4786
880.224	4748
880.351	4763
880.478	4801
880.605	4767
880.732	4782
880.859	5090
880.986	4900
881.112	4892
881.239	4767
881.366	4637
881.493	4630
881.619	4588
881.746	4607
881.872	4645
881.999	4626
882.125	4714
882.252	4759
882.378	4839
882.505	5037
882.631	4797
882.757	4683
882.883	4660
883.01	4702
883.136	4664
883.262	4607
883.388	4592
883.514	4843
883.64	4900
883.766	4759
883.892	4675
884.018	4710
884.143	4911
884.269	4980
884.395	4649
884.52	4679
884.646	4668
884.772	4603
884.897	4569
885.023	4653
885.148	4824
885.274	4797
885.399	4797
885.524	4733
885.65	4687
885.775	4778
885.9	4714
886.025	4858
886.15	4744
886.275	4683
886.4	4634
886.525	4755
886.65	4733
886.775	4675
886.9	4904
887.025	5010
887.149	4839
887.274	4645
887.399	4611
887.523	4592
887.648	4573
887.773	4573
887.897	4771
888.021	4774
888.146	4683
888.27	4793
888.395	4946
888.519	4786
888.643	4816
888.767	4782
888.891	4649
889.015	4618
889.139	4660
889.263	4554
889.387	4755
889.511	4870
889.635	4790
889.759	4607
889.883	4672
890.006	4702
890.13	4778
890.254	4653
890.377	4641
890.501	4580
890.624	4550
890.748	4645
890.871	4519
890.995	4451
891.118	4417
891.241	4497
891.364	4561
891.488	4618
891.611	4474
891.734	4538
891.857	4596
891.98	4577
892.103	4645
892.226	4550
892.349	4561
892.471	4432
892.594	4531
892.717	4573
892.839	4565
892.962	4561
893.085	4660
893.207	4599
893.33	4466
893.452	4546
893.575	4687
893.697	4569
893.819	4767
893.941	4820
894.064	4710
894.186	4611
894.308	4535
894.43	4725
894.552	4847
894.674	4771
894.796	4554
894.918	4550
895.04	4542
895.161	4725
895.283	4626
895.405	4573
895.526	4596
895.648	4687
895.769	4687
895.891	4694
896.012	4755
896.134	4694
896.255	4664
896.376	4645
896.498	4611
896.619	4672
896.74	4626
896.861	4675
896.982	4972
897.103	5018
897.224	4824
897.345	4702
897.466	4664
897.587	4714
897.708	4820
897.828	4733
897.949	4672
898.07	4519
898.19	4607
898.311	4847
898.431	4626
898.552	4714
898.672	4774
898.792	4790
898.913	4786
899.033	4622
899.153	4466
899.273	4447
899.393	4474
899.513	4569
899.633	4550
899.753	4542
899.873	4508
899.993	4580
900.113	4516
900.232	4550
900.352	4504
900.472	4459
900.591	4379
900.711	4512
900.83	4440
900.95	4573
901.069	4710
901.189	4603
901.308	4329
901.427	4310
901.546	4348
901.665	4390
901.784	4481
901.904	4421
902.023	4348
902.141	4162
902.26	4128
902.379	4291
902.498	4219
902.617	4196
902.735	4363
902.854	4409
902.973	4413
903.091	4211
903.21	4246
903.328	4295
903.446	4242
903.565	4261
903.683	4337
903.801	4276
903.919	4367
904.038	4443
904.156	4268
904.274	4474
904.392	4424
904.51	4417
904.627	4386
904.745	4546
904.863	4611
904.981	4390
905.098	4276
905.216	4352
905.334	4424
905.451	4455
905.569	4459
905.686	4531
905.803	4546
905.921	4436
906.038	4561
906.155	4470
906.272	4383
906.389	4440
906.506	4291
906.623	4386
906.74	4352
906.857	4329
906.974	4371
907.091	4607
907.208	4672
907.324	4580
907.441	4500
907.557	4363
907.674	4310
907.79	4310
907.907	4394
908.023	4466
908.139	4489
908.256	4421
908.372	4478
908.488	4459
908.604	4337
908.72	4363
908.836	4352
908.952	4325
909.068	4455
909.184	4546
909.3	4455
909.415	4580
909.531	4599
909.647	4379
909.762	4405
909.878	4344
909.993	4466
910.108	4398
910.224	4379
910.339	4443
910.454	4333
910.57	4348
910.685	4249
910.8	4630
910.915	4611
911.03	4512
911.145	4333
911.259	4306
911.374	4383
911.489	4287
911.604	4344
911.718	4147
911.833	4219
911.947	4074
912.062	4017
912.176	4207
912.291	4276
912.405	4253
912.519	4462
912.633	4538
912.748	4383
912.862	4348
912.976	4223
913.09	4074
913.204	4181
913.318	4249
913.431	4386
913.545	4333
913.659	4440
913.772	4344
913.886	4280
914	4219
914.113	4390
914.226	4383
914.34	4390
914.453	4223
914.566	4459
914.68	4272
914.793	4329
914.906	4154
915.019	4139
915.132	4082
915.245	4211
915.358	4207
915.47	4200
915.583	4265
915.696	4287
915.809	4409
915.921	4383
916.034	4265
916.146	4276
916.259	4211
916.371	4352
916.483	4299
916.595	4253
916.708	4287
916.82	4341
916.932	4314
917.044	4322
917.156	4341
917.268	4215
917.38	4291
917.491	4268
917.603	4356
917.715	4428
917.826	4398
917.938	4348
918.049	4207
918.161	4383
918.272	4538
918.384	4523
918.495	4455
918.606	4310
918.717	4238
918.828	4352
918.939	4386
919.05	4280
919.161	4314
919.272	4131
919.383	4238
919.494	4421
919.604	4611
919.715	4447
919.826	4379
919.936	4379
920.047	4535
920.157	4459
920.267	4702
920.378	4535
920.488	4497
920.598	4744
920.708	4862
920.818	4790
920.928	4744
921.038	4938
921.148	4934
921.258	4641
921.368	4599
921.477	4493
921.587	4436
921.697	4371
921.806	4565
921.916	4398
922.025	4219
922.134	4227
922.244	4238
922.353	4314
922.462	4139
922.571	4071
922.68	3983
922.789	3979
922.898	4029
923.007	3972
923.116	4090
923.224	4032
923.333	4078
923.442	3994
923.55	3956
923.659	3987
923.767	4109
923.876	4013
923.984	4112
924.092	3953
924.201	4051
924.309	4048
924.417	4109
924.525	4032
924.633	4101
924.741	5075
924.849	3926
924.956	4109
925.064	3998
925.172	3915
925.279	3949
925.387	4055
925.494	4071
925.602	4215
925.709	4192
925.816	4055
925.924	4185
926.031	4246
926.138	4131
926.245	4207
926.352	4090
926.459	4242
926.566	4253
926.673	4177
926.779	4051
926.886	4082
926.993	3998
927.099	3930
927.206	3949
927.312	3956
927.419	4097
927.525	4025
927.631	4109
927.737	3926
927.843	3896
927.95	3846
928.056	3922
928.162	3960
928.267	4040
928.373	4675
928.479	4131
928.585	3857
928.69	3937
928.796	4071
928.901	3930
929.007	3854
929.112	3964
929.218	3983
929.323	3911
929.428	3991
929.533	4090
929.638	3888
929.743	3987
929.848	4055
929.953	3934
930.058	3873
930.163	3770
930.267	3804
930.372	3956
930.477	3797
930.581	4074
930.685	3979
930.79	3846
930.894	3861
930.998	3857
931.103	3991
931.207	3701
931.311	3705
931.415	3648
931.519	3473
931.623	3534
