Data from test_V78500241_2218.txt Node
Date: Fri Mar 25 17:04:25 CST 2022
User: usil
Spectrometer: V785-0024
Trigger mode: 0
Integration Time (sec): 4.000000E-1
Scans to average: 1
Nonlinearity correction enabled: false
Boxcar width: 0
Storing dark spectrum: false
XAxis mode: Wavelengths
Number of Pixels in Spectrum: 1024
>>>>>Begin Spectral Data<<<<<
801.071	7955
801.214	7989
801.356	7860
801.499	7795
801.641	7780
801.783	7795
801.926	8008
802.068	7894
802.211	7959
802.353	7967
802.496	7814
802.638	7803
802.78	7856
802.923	7875
803.065	7875
803.208	7864
803.35	7944
803.492	7974
803.635	8199
803.777	7986
803.919	8107
804.061	8438
804.204	8187
804.346	8081
804.488	7974
804.63	8081
804.773	7936
804.915	8100
805.057	8248
805.199	8221
805.341	8157
805.483	8252
805.626	8157
805.768	8229
805.91	8225
806.052	8161
806.194	8069
806.336	8320
806.478	8008
806.62	8111
806.762	8058
806.904	8214
807.046	8423
807.188	8347
807.33	8320
807.472	8332
807.614	8142
807.756	8157
807.898	7974
808.04	7894
808.182	7849
808.324	7856
808.465	7868
808.607	8031
808.749	8084
808.891	8180
809.033	8286
809.174	8195
809.316	8103
809.458	8077
809.6	8031
809.741	8008
809.883	7993
810.025	8100
810.166	8046
810.308	8016
810.45	8039
810.591	7818
810.733	7723
810.875	7677
811.016	7514
811.158	7468
811.299	7609
811.441	7708
811.582	7639
811.724	7556
811.865	7540
812.007	7548
812.148	7586
812.29	7616
812.431	7753
812.573	7852
812.714	7974
812.855	8119
812.997	8161
813.138	8286
813.279	8149
813.421	8054
813.562	7978
813.703	7780
813.845	7723
813.986	7411
814.127	7301
814.268	7213
814.41	7129
814.551	7209
814.692	7179
814.833	7038
814.974	7076
815.115	7069
815.256	6962
815.397	6882
815.539	6989
815.68	6791
815.821	6745
815.962	6840
816.103	6821
816.244	6688
816.385	6604
816.526	6593
816.666	6517
816.807	6331
816.948	6414
817.089	6498
817.23	6410
817.371	6346
817.512	6388
817.653	6441
817.793	6399
817.934	6388
818.075	6486
818.216	6418
818.356	6357
818.497	6273
818.638	6163
818.778	6171
818.919	6159
819.06	6220
819.2	6353
819.341	6323
819.481	6399
819.622	6517
819.762	6757
819.903	6688
820.043	6612
820.184	6604
820.324	6540
820.465	6654
820.605	6662
820.746	6696
820.886	6563
821.026	6650
821.167	6722
821.307	6768
821.447	6722
821.588	6654
821.728	6540
821.868	6525
822.008	6270
822.149	6388
822.289	6300
822.429	6175
822.569	6171
822.709	6148
822.849	5969
822.99	5912
823.13	5889
823.27	5908
823.41	5779
823.55	5786
823.69	5813
823.83	5805
823.97	5634
824.11	5501
824.25	5501
824.389	5505
824.529	5554
824.669	5551
824.809	5600
824.949	5630
825.089	5649
825.228	5592
825.368	5398
825.508	5360
825.648	5330
825.787	5334
825.927	5322
826.067	5345
826.206	5326
826.346	5406
826.485	5368
826.625	5402
826.765	5482
826.904	5512
827.044	5273
827.183	5208
827.323	5140
827.462	5269
827.601	5128
827.741	5166
827.88	5246
828.02	5090
828.159	5204
828.298	5334
828.437	5353
828.577	5201
828.716	5516
828.855	5296
828.994	5178
829.134	5151
829.273	5227
829.412	5147
829.551	5140
829.69	5166
829.829	5258
829.968	5395
830.107	5189
830.246	5265
830.385	5132
830.524	5117
830.663	5037
830.802	4961
830.941	4877
831.08	4881
831.219	4915
831.357	4946
831.496	5197
831.635	4911
831.774	4885
831.913	4839
832.051	4733
832.19	4736
832.329	4835
832.467	4675
832.606	4611
832.744	4710
832.883	4672
833.022	4736
833.16	4771
833.299	4820
833.437	4812
833.576	4793
833.714	4858
833.852	4915
833.991	4858
834.129	4942
834.267	4930
834.406	4885
834.544	4999
834.682	4923
834.821	4980
834.959	5113
835.097	5022
835.235	5124
835.373	5067
835.511	5151
835.65	5041
835.788	5014
835.926	4847
836.064	4896
836.202	4911
836.34	5117
836.478	5254
836.615	5090
836.753	5212
836.891	5303
837.029	5223
837.167	5216
837.305	5132
837.443	5155
837.58	5086
837.718	5170
837.856	5208
837.993	5159
838.131	5250
838.269	5250
838.406	5178
838.544	5155
838.681	5022
838.819	5025
838.956	4870
839.094	4809
839.231	4987
839.369	5113
839.506	5391
839.643	5261
839.781	5140
839.918	5003
840.055	5045
840.193	5060
840.33	5094
840.467	5151
840.604	5174
840.742	5467
840.879	5083
841.016	5117
841.153	5151
841.29	5341
841.427	5273
841.564	5292
841.701	5345
841.838	5322
841.975	5246
842.112	5235
842.249	5094
842.385	5102
842.522	5345
842.659	5109
842.796	5136
842.933	5170
843.069	5185
843.206	5166
843.343	5292
843.479	5277
843.616	5231
843.752	5033
843.889	4980
844.025	5193
844.162	5041
844.298	5208
844.435	5048
844.571	5025
844.708	5216
844.844	5242
844.98	5330
845.117	5254
845.253	5121
845.389	5041
845.525	5098
845.661	5075
845.798	5003
845.934	5064
846.07	5052
846.206	5166
846.342	5269
846.478	5151
846.614	5022
846.75	4957
846.886	4927
847.022	5140
847.158	4946
847.294	5022
847.429	5086
847.565	5064
847.701	5326
847.837	4881
847.972	4771
848.108	4953
848.244	4934
848.379	4809
848.515	4702
848.65	4706
848.786	4763
848.921	4759
849.057	4881
849.192	4892
849.328	4793
849.463	4809
849.598	4812
849.734	4763
849.869	4736
850.004	4596
850.14	4645
850.275	4607
850.41	4554
850.545	4634
850.68	4649
850.815	4580
850.95	4656
851.085	4786
851.22	4710
851.355	4675
851.49	4596
851.625	4645
851.76	4634
851.895	4542
852.03	4542
852.165	4634
852.299	4755
852.434	4733
852.569	4717
852.703	4748
852.838	4866
852.973	4919
853.107	4881
853.242	4748
853.376	4691
853.511	4535
853.645	4618
853.78	4816
853.914	4687
854.048	4618
854.183	4645
854.317	4687
854.451	4885
854.585	4653
854.72	4637
854.854	4786
854.988	4573
855.122	4596
855.256	4440
855.39	4660
855.524	4812
855.658	4717
855.792	4660
855.926	4710
856.06	4714
856.194	4782
856.327	4694
856.461	4607
856.595	4615
856.729	4596
856.862	4706
856.996	4664
857.13	4691
857.263	4744
857.397	4778
857.53	4641
857.664	4702
857.797	4763
857.931	4793
858.064	4664
858.197	4755
858.331	4653
858.464	4603
858.597	4519
858.731	4615
858.864	4622
858.997	4599
859.13	4672
859.263	4702
859.396	4672
859.529	4592
859.662	4542
859.795	4485
859.928	4615
860.061	4733
860.194	4729
860.327	4611
860.46	4558
860.592	4679
860.725	4748
860.858	4733
860.99	4531
861.123	4538
861.256	4493
861.388	4634
861.521	5311
861.653	4455
861.786	4451
861.918	4440
862.05	4554
862.183	4561
862.315	4603
862.447	4637
862.58	4527
862.712	4398
862.844	4306
862.976	4443
863.108	4409
863.24	4885
863.372	4291
863.504	4421
863.636	4383
863.768	4527
863.9	4417
864.032	4386
864.164	4383
864.296	4500
864.428	4519
864.559	4554
864.691	4478
864.823	4538
864.954	4485
865.086	4489
865.217	4447
865.349	4424
865.48	4470
865.612	4512
865.743	4599
865.875	4470
866.006	4379
866.137	4455
866.269	4478
866.4	4428
866.531	4402
866.662	4421
866.793	4402
866.924	4432
867.055	4508
867.186	4459
867.317	4424
867.448	4405
867.579	4413
867.71	4379
867.841	4402
867.972	4455
868.103	4367
868.233	4424
868.364	4447
868.495	4459
868.625	4683
868.756	4782
868.886	4535
869.017	4596
869.147	4767
869.278	4740
869.408	4664
869.539	4653
869.669	4755
869.799	4660
869.929	4771
870.06	4733
870.19	4968
870.32	4892
870.45	4915
870.58	4999
870.71	5105
870.84	5121
870.97	4938
871.1	4892
871.23	5151
871.36	5109
871.489	5022
871.619	5064
871.749	5083
871.879	5090
872.008	5140
872.138	5067
872.267	4987
872.397	4866
872.526	4797
872.656	4733
872.785	4771
872.915	4946
873.044	5052
873.173	4938
873.303	5029
873.432	4953
873.561	4984
873.69	4889
873.819	4858
873.948	4908
874.077	4824
874.206	4740
874.335	4771
874.464	4877
874.593	5022
874.722	4965
874.851	5079
874.979	5041
875.108	5041
875.237	4900
875.365	4885
875.494	4873
875.623	4991
875.751	4835
875.88	4847
876.008	4987
876.136	5041
876.265	5197
876.393	5288
876.521	5227
876.65	5231
876.778	5155
876.906	5098
877.034	5052
877.162	5006
877.29	4984
877.418	5029
877.546	5071
877.674	4984
877.802	5060
877.93	5003
878.058	4949
878.185	4877
878.313	4957
878.441	5014
878.568	4812
878.696	4923
878.824	4953
878.951	4995
879.079	5151
879.206	5322
879.333	5064
879.461	4961
879.588	5010
879.715	5048
879.842	5208
879.97	5033
880.097	4790
880.224	4755
880.351	4763
880.478	4828
880.605	4816
880.732	4820
880.859	5067
880.986	4904
881.112	4946
881.239	4740
881.366	4626
881.493	4607
881.619	4596
881.746	4634
881.872	4611
881.999	4679
882.125	4706
882.252	4748
882.378	4843
882.505	4968
882.631	4801
882.757	4660
882.883	4683
883.01	4763
883.136	4672
883.262	4569
883.388	4618
883.514	4763
883.64	4889
883.766	4774
883.892	4645
884.018	4706
884.143	4923
884.269	5022
884.395	4664
884.52	4653
884.646	4641
884.772	4584
884.897	4516
885.023	4626
885.148	4782
885.274	4866
885.399	4801
885.524	4740
885.65	4721
885.775	4763
885.9	4702
886.025	4847
886.15	4816
886.275	4706
886.4	4649
886.525	4717
886.65	4698
886.775	4664
886.9	4877
887.025	5048
887.149	4797
887.274	4691
887.399	4580
887.523	4599
887.648	4508
887.773	4550
887.897	4778
888.021	4809
888.146	4634
888.27	4793
888.395	4843
888.519	4786
888.643	4831
888.767	4793
888.891	4687
889.015	4596
889.139	4660
889.263	4630
889.387	4793
889.511	4824
889.635	4797
889.759	4615
889.883	4660
890.006	4683
890.13	4801
890.254	4611
890.377	4649
890.501	4519
890.624	4512
890.748	4653
890.871	4504
890.995	4443
891.118	4394
891.241	4565
891.364	4558
891.488	4596
891.611	4516
891.734	4519
891.857	4607
891.98	4565
892.103	4653
892.226	4611
892.349	4497
892.471	4409
892.594	4561
892.717	4611
892.839	4615
892.962	4618
893.085	4630
893.207	4611
893.33	4474
893.452	4531
893.575	4702
893.697	4584
893.819	4793
893.941	4885
894.064	4763
894.186	4596
894.308	4558
894.43	4748
894.552	4812
894.674	4797
894.796	4554
894.918	4584
895.04	4592
895.161	4679
895.283	4645
895.405	4577
895.526	4592
895.648	4729
895.769	4664
895.891	4691
896.012	4710
896.134	4755
896.255	4615
896.376	4588
896.498	4569
896.619	4691
896.74	4649
896.861	4634
896.982	4911
897.103	5025
897.224	4809
897.345	4717
897.466	4698
897.587	4714
897.708	4919
897.828	4767
897.949	4691
898.07	4561
898.19	4607
898.311	4809
898.431	4668
898.552	4656
898.672	4805
898.792	4763
898.913	4771
899.033	4641
899.153	4493
899.273	4436
899.393	4504
899.513	4565
899.633	4508
899.753	4580
899.873	4493
899.993	4554
900.113	4512
900.232	4592
900.352	4481
900.472	4519
900.591	4390
900.711	4485
900.83	4413
900.95	4603
901.069	4698
901.189	4478
901.308	4390
901.427	4276
901.546	4394
901.665	4440
901.784	4508
901.904	4379
902.023	4325
902.141	4196
902.26	4112
902.379	4341
902.498	4249
902.617	4204
902.735	4375
902.854	4386
902.973	4379
903.091	4200
903.21	4227
903.328	4333
903.446	4246
903.565	4272
903.683	4367
903.801	4261
903.919	4424
904.038	4394
904.156	4337
904.274	4424
904.392	4405
904.51	4417
904.627	4504
904.745	4565
904.863	4622
904.981	4352
905.098	4314
905.216	4367
905.334	4394
905.451	4428
905.569	4428
905.686	4550
905.803	4607
905.921	4421
906.038	4565
906.155	4481
906.272	4409
906.389	4436
906.506	4306
906.623	4417
906.74	4398
906.857	4337
906.974	4379
907.091	4538
907.208	4675
907.324	4603
907.441	4500
907.557	4367
907.674	4329
907.79	4314
907.907	4398
908.023	4443
908.139	4485
908.256	4432
908.372	4462
908.488	4489
908.604	4325
908.72	4348
908.836	4386
908.952	4360
909.068	4421
909.184	4580
909.3	4489
909.415	4569
909.531	4500
909.647	4306
909.762	4348
909.878	4360
909.993	4417
910.108	4356
910.224	4379
910.339	4497
910.454	4417
910.57	4386
910.685	4318
910.8	4607
910.915	4550
911.03	4466
911.145	4352
911.259	4299
911.374	4322
911.489	4337
911.604	4306
911.718	4162
911.833	4192
911.947	4093
912.062	3998
912.176	4188
912.291	4257
912.405	4299
912.519	4474
912.633	4512
912.748	4371
912.862	4303
912.976	4200
913.09	4135
913.204	4150
913.318	4261
913.431	4348
913.545	4344
913.659	4436
913.772	4348
913.886	4219
914	4253
914.113	4390
914.226	4402
914.34	4341
914.453	4204
914.566	4432
914.68	4303
914.793	4318
914.906	4120
915.019	4109
915.132	4086
915.245	4143
915.358	4230
915.47	4268
915.583	4280
915.696	4325
915.809	4386
915.921	4447
916.034	4227
916.146	4253
916.259	4261
916.371	4390
916.483	4348
916.595	4287
916.708	4363
916.82	4284
916.932	4325
917.044	4325
917.156	4341
917.268	4211
917.38	4325
917.491	4246
917.603	4363
917.715	4417
917.826	4481
917.938	4348
918.049	4230
918.161	4417
918.272	4519
918.384	4531
918.495	4478
918.606	4295
918.717	4230
918.828	4322
918.939	4356
919.05	4223
919.161	4325
919.272	4116
919.383	4253
919.494	4489
919.604	4618
919.715	4421
919.826	4363
919.936	4375
920.047	4580
920.157	4481
920.267	4706
920.378	4512
920.488	4474
920.598	4698
920.708	4858
920.818	4767
920.928	4759
921.038	4946
921.148	4873
921.258	4615
921.368	4535
921.477	4500
921.587	4436
921.697	4360
921.806	4512
921.916	4421
922.025	4238
922.134	4246
922.244	4188
922.353	4306
922.462	4169
922.571	4120
922.68	4006
922.789	3960
922.898	4090
923.007	3987
923.116	4105
923.224	4078
923.333	4025
923.442	4006
923.55	3975
923.659	3972
923.767	4105
923.876	4002
923.984	4078
924.092	3968
924.201	4048
924.309	4093
924.417	4105
924.525	4029
924.633	4116
924.741	5045
924.849	3888
924.956	4150
925.064	3960
925.172	3907
925.279	3975
925.387	4029
925.494	4032
925.602	4253
925.709	4181
925.816	4101
925.924	4120
926.031	4196
926.138	4166
926.245	4162
926.352	4124
926.459	4261
926.566	4344
926.673	4101
926.779	4109
926.886	4086
926.993	3987
927.099	3934
927.206	3922
927.312	3937
927.419	4036
927.525	4040
927.631	4109
927.737	3972
927.843	3945
927.95	3819
928.056	3983
928.162	3949
928.267	4021
928.373	4664
928.479	4150
928.585	3876
928.69	3949
928.796	4101
928.901	4006
929.007	3842
929.112	3987
929.218	4006
929.323	3941
929.428	3934
929.533	4120
929.638	3884
929.743	3979
929.848	4055
929.953	3994
930.058	3899
930.163	3778
930.267	3808
930.372	3968
930.477	3850
930.581	4013
930.685	3922
930.79	3793
930.894	3861
930.998	3861
931.103	4013
931.207	3682
931.311	3705
931.415	3698
931.519	3496
931.623	3538
