Data from test_V78500241_108.txt Node
Date: Fri Mar 25 16:49:45 CST 2022
User: usil
Spectrometer: V785-0024
Trigger mode: 0
Integration Time (sec): 4.000000E-1
Scans to average: 1
Nonlinearity correction enabled: false
Boxcar width: 0
Storing dark spectrum: false
XAxis mode: Wavelengths
Number of Pixels in Spectrum: 1024
>>>>>Begin Spectral Data<<<<<
801.071	8096
801.214	8077
801.356	7894
801.499	7909
801.641	7849
801.783	7887
801.926	8092
802.068	8062
802.211	7940
802.353	7967
802.496	7890
802.638	7936
802.78	7959
802.923	7932
803.065	7917
803.208	7864
803.35	7974
803.492	8134
803.635	8142
803.777	8001
803.919	8145
804.061	8431
804.204	8126
804.346	8058
804.488	7993
804.63	8046
804.773	7963
804.915	8142
805.057	8229
805.199	8142
805.341	8279
805.483	8294
805.626	8176
805.768	8164
805.91	8199
806.052	8191
806.194	8115
806.336	8271
806.478	8149
806.62	8138
806.762	8191
806.904	8252
807.046	8507
807.188	8362
807.33	8339
807.472	8343
807.614	8126
807.756	8183
807.898	8084
808.04	7913
808.182	7997
808.324	7928
808.465	7909
808.607	8100
808.749	8096
808.891	8298
809.033	8282
809.174	8161
809.316	8062
809.458	8119
809.6	8008
809.741	8020
809.883	8149
810.025	8107
810.166	8107
810.308	8107
810.45	8024
810.591	7879
810.733	7845
810.875	7708
811.016	7552
811.158	7529
811.299	7628
811.441	7757
811.582	7792
811.724	7601
811.865	7578
812.007	7666
812.148	7700
812.29	7708
812.431	7849
812.573	7944
812.714	8016
812.855	8233
812.997	8328
813.138	8366
813.279	8324
813.421	8199
813.562	8134
813.703	7883
813.845	7780
813.986	7464
814.127	7327
814.268	7320
814.41	7308
814.551	7232
814.692	7274
814.833	7221
814.974	7183
815.115	7221
815.256	7057
815.397	6913
815.539	7027
815.68	6867
815.821	6833
815.962	6890
816.103	6814
816.244	6719
816.385	6730
816.526	6642
816.666	6574
816.807	6456
816.948	6506
817.089	6513
817.23	6456
817.371	6429
817.512	6441
817.653	6395
817.793	6414
817.934	6483
818.075	6509
818.216	6445
818.356	6429
818.497	6289
818.638	6190
818.778	6155
818.919	6133
819.06	6163
819.2	6395
819.341	6365
819.481	6494
819.622	6589
819.762	6783
819.903	6734
820.043	6620
820.184	6540
820.324	6642
820.465	6722
820.605	6650
820.746	6650
820.886	6574
821.026	6722
821.167	6768
821.307	6783
821.447	6787
821.588	6715
821.728	6616
821.868	6585
822.008	6323
822.149	6486
822.289	6456
822.429	6213
822.569	6083
822.709	6163
822.849	5920
822.99	5942
823.13	5931
823.27	5923
823.41	5859
823.55	5817
823.69	5840
823.83	5802
823.97	5748
824.11	5611
824.25	5577
824.389	5570
824.529	5638
824.669	5596
824.809	5707
824.949	5699
825.089	5646
825.228	5577
825.368	5402
825.508	5444
825.648	5417
825.787	5421
825.927	5376
826.067	5330
826.206	5265
826.346	5398
826.485	5471
826.625	5452
826.765	5562
826.904	5535
827.044	5231
827.183	5242
827.323	5174
827.462	5299
827.601	5181
827.741	5189
827.88	5242
828.02	5132
828.159	5265
828.298	5341
828.437	5349
828.577	5303
828.716	5547
828.855	5360
828.994	5212
829.134	5227
829.273	5235
829.412	5151
829.551	5227
829.69	5178
829.829	5292
829.968	5383
830.107	5288
830.246	5341
830.385	5197
830.524	5208
830.663	5098
830.802	5010
830.941	4976
831.08	4892
831.219	4987
831.357	5052
831.496	5197
831.635	4987
831.774	4850
831.913	4881
832.051	4801
832.19	4759
832.329	4923
832.467	4710
832.606	4683
832.744	4733
832.883	4816
833.022	4755
833.16	4858
833.299	4854
833.437	4870
833.576	4862
833.714	4896
833.852	4942
833.991	4889
834.129	4968
834.267	5014
834.406	4885
834.544	4995
834.682	4987
834.821	5010
834.959	5197
835.097	5018
835.235	5170
835.373	5128
835.511	5105
835.65	5064
835.788	5128
835.926	4938
836.064	4885
836.202	4942
836.34	5208
836.478	5239
836.615	5174
836.753	5239
836.891	5299
837.029	5273
837.167	5193
837.305	5136
837.443	5147
837.58	5113
837.718	5280
837.856	5201
837.993	5197
838.131	5261
838.269	5231
838.406	5235
838.544	5216
838.681	5060
838.819	5067
838.956	4972
839.094	4934
839.231	4995
839.369	5105
839.506	5471
839.643	5322
839.781	5086
839.918	5075
840.055	5113
840.193	5121
840.33	5159
840.467	5181
840.604	5239
840.742	5433
840.879	5064
841.016	5086
841.153	5117
841.29	5387
841.427	5360
841.564	5311
841.701	5353
841.838	5349
841.975	5258
842.112	5296
842.249	5121
842.385	5124
842.522	5330
842.659	5174
842.796	5155
842.933	5261
843.069	5193
843.206	5201
843.343	5307
843.479	5254
843.616	5280
843.752	5052
843.889	5033
844.025	5239
844.162	5029
844.298	5239
844.435	5067
844.571	5052
844.708	5223
844.844	5318
844.98	5376
845.117	5330
845.253	5174
845.389	5132
845.525	5170
845.661	5181
845.798	5098
845.934	5185
846.07	5071
846.206	5250
846.342	5330
846.478	5212
846.614	5045
846.75	4957
846.886	4984
847.022	5193
847.158	5048
847.294	5124
847.429	5090
847.565	5105
847.701	5395
847.837	4866
847.972	4831
848.108	5014
848.244	4991
848.379	4850
848.515	4771
848.65	4767
848.786	4774
848.921	4774
849.057	4862
849.192	4881
849.328	4847
849.463	4862
849.598	4805
849.734	4835
849.869	4744
850.004	4645
850.14	4694
850.275	4626
850.41	4512
850.545	4634
850.68	4649
850.815	4649
850.95	4656
851.085	4839
851.22	4782
851.355	4710
851.49	4611
851.625	4649
851.76	4630
851.895	4565
852.03	4508
852.165	4702
852.299	4729
852.434	4839
852.569	4694
852.703	4828
852.838	4843
852.973	4919
853.107	4961
853.242	4801
853.376	4702
853.511	4558
853.645	4626
853.78	4820
853.914	4717
854.048	4668
854.183	4618
854.317	4748
854.451	4892
854.585	4725
854.72	4664
854.854	4740
854.988	4641
855.122	4649
855.256	4542
855.39	4698
855.524	4847
855.658	4771
855.792	4725
855.926	4786
856.06	4820
856.194	4828
856.327	4729
856.461	4611
856.595	4626
856.729	4675
856.862	4801
856.996	4752
857.13	4774
857.263	4755
857.397	4771
857.53	4683
857.664	4740
857.797	4801
857.931	4801
858.064	4721
858.197	4736
858.331	4691
858.464	4687
858.597	4542
858.731	4653
858.864	4672
858.997	4618
859.13	4691
859.263	4740
859.396	4782
859.529	4592
859.662	4622
859.795	4561
859.928	4615
860.061	4790
860.194	4759
860.327	4649
860.46	4615
860.592	4744
860.725	4714
860.858	4774
860.99	4596
861.123	4542
861.256	4523
861.388	4668
861.521	5258
861.653	4508
861.786	4489
861.918	4459
862.05	4554
862.183	4546
862.315	4645
862.447	4645
862.58	4592
862.712	4443
862.844	4287
862.976	4500
863.108	4474
863.24	4900
863.372	4375
863.504	4462
863.636	4394
863.768	4489
863.9	4459
864.032	4371
864.164	4405
864.296	4470
864.428	4538
864.559	4580
864.691	4546
864.823	4550
864.954	4474
865.086	4493
865.217	4447
865.349	4402
865.48	4466
865.612	4550
865.743	4641
865.875	4474
866.006	4466
866.137	4500
866.269	4489
866.4	4466
866.531	4512
866.662	4421
866.793	4443
866.924	4474
867.055	4527
867.186	4481
867.317	4417
867.448	4417
867.579	4421
867.71	4383
867.841	4375
867.972	4470
868.103	4489
868.233	4478
868.364	4489
868.495	4466
868.625	4736
868.756	4767
868.886	4580
869.017	4641
869.147	4793
869.278	4828
869.408	4698
869.539	4694
869.669	4733
869.799	4691
869.929	4774
870.06	4820
870.19	4938
870.32	4972
870.45	4980
870.58	5056
870.71	5117
870.84	5136
870.97	4991
871.1	4896
871.23	5140
871.36	5170
871.489	5086
871.619	5136
871.749	5124
871.879	5155
872.008	5174
872.138	5086
872.267	5022
872.397	4870
872.526	4828
872.656	4710
872.785	4881
872.915	4961
873.044	5045
873.173	4946
873.303	4946
873.432	4999
873.561	4995
873.69	4847
873.819	4892
873.948	4949
874.077	4820
874.206	4763
874.335	4831
874.464	4934
874.593	5041
874.722	4976
874.851	5071
874.979	5045
875.108	5064
875.237	4976
875.365	4923
875.494	4870
875.623	4968
875.751	4847
875.88	4923
876.008	5006
876.136	5041
876.265	5212
876.393	5372
876.521	5239
876.65	5311
876.778	5132
876.906	5105
877.034	5086
877.162	5067
877.29	5029
877.418	5067
877.546	5041
877.674	5067
877.802	5064
877.93	5041
878.058	4976
878.185	4904
878.313	5022
878.441	5014
878.568	4824
878.696	4862
878.824	4968
878.951	4995
879.079	5113
879.206	5330
879.333	5113
879.461	5045
879.588	5022
879.715	5159
879.842	5280
879.97	5045
880.097	4801
880.224	4820
880.351	4809
880.478	4831
880.605	4843
880.732	4774
880.859	5136
880.986	4896
881.112	4942
881.239	4858
881.366	4706
881.493	4630
881.619	4645
881.746	4637
881.872	4744
881.999	4710
882.125	4672
882.252	4778
882.378	4892
882.505	4949
882.631	4843
882.757	4744
882.883	4763
883.01	4736
883.136	4702
883.262	4637
883.388	4611
883.514	4877
883.64	4930
883.766	4843
883.892	4698
884.018	4774
884.143	4927
884.269	5033
884.395	4698
884.52	4634
884.646	4672
884.772	4645
884.897	4603
885.023	4714
885.148	4850
885.274	4877
885.399	4835
885.524	4812
885.65	4759
885.775	4793
885.9	4729
886.025	4831
886.15	4782
886.275	4744
886.4	4679
886.525	4740
886.65	4755
886.775	4714
886.9	4938
887.025	5155
887.149	4793
887.274	4645
887.399	4637
887.523	4618
887.648	4603
887.773	4656
887.897	4786
888.021	4812
888.146	4733
888.27	4885
888.395	4984
888.519	4812
888.643	4843
888.767	4797
888.891	4740
889.015	4622
889.139	4721
889.263	4660
889.387	4767
889.511	4858
889.635	4824
889.759	4702
889.883	4702
890.006	4744
890.13	4858
890.254	4618
890.377	4729
890.501	4599
890.624	4554
890.748	4698
890.871	4561
890.995	4447
891.118	4451
891.241	4531
891.364	4622
891.488	4706
891.611	4535
891.734	4550
891.857	4603
891.98	4592
892.103	4641
892.226	4615
892.349	4538
892.471	4443
892.594	4592
892.717	4611
892.839	4668
892.962	4630
893.085	4721
893.207	4649
893.33	4443
893.452	4561
893.575	4691
893.697	4573
893.819	4843
893.941	4847
894.064	4759
894.186	4599
894.308	4611
894.43	4740
894.552	4828
894.674	4805
894.796	4615
894.918	4599
895.04	4569
895.161	4774
895.283	4664
895.405	4607
895.526	4683
895.648	4767
895.769	4702
895.891	4733
896.012	4729
896.134	4771
896.255	4694
896.376	4607
896.498	4675
896.619	4729
896.74	4596
896.861	4679
896.982	4915
897.103	5132
897.224	4828
897.345	4786
897.466	4668
897.587	4790
897.708	4896
897.828	4771
897.949	4687
898.07	4565
898.19	4645
898.311	4816
898.431	4653
898.552	4793
898.672	4828
898.792	4812
898.913	4721
899.033	4668
899.153	4531
899.273	4497
899.393	4523
899.513	4558
899.633	4569
899.753	4573
899.873	4550
899.993	4603
900.113	4531
900.232	4611
900.352	4561
900.472	4512
900.591	4436
900.711	4474
900.83	4470
900.95	4615
901.069	4672
901.189	4538
901.308	4386
901.427	4333
901.546	4413
901.665	4485
901.784	4497
901.904	4386
902.023	4325
902.141	4230
902.26	4204
902.379	4352
902.498	4257
902.617	4238
902.735	4405
902.854	4421
902.973	4348
903.091	4276
903.21	4268
903.328	4329
903.446	4299
903.565	4249
903.683	4348
903.801	4337
903.919	4417
904.038	4466
904.156	4352
904.274	4474
904.392	4405
904.51	4428
904.627	4504
904.745	4599
904.863	4645
904.981	4462
905.098	4318
905.216	4432
905.334	4424
905.451	4436
905.569	4462
905.686	4569
905.803	4592
905.921	4417
906.038	4535
906.155	4546
906.272	4405
906.389	4474
906.506	4402
906.623	4440
906.74	4375
906.857	4360
906.974	4371
907.091	4603
907.208	4702
907.324	4637
907.441	4466
907.557	4344
907.674	4386
907.79	4375
907.907	4367
908.023	4516
908.139	4512
908.256	4466
908.372	4527
908.488	4474
908.604	4363
908.72	4337
908.836	4417
908.952	4417
909.068	4436
909.184	4565
909.3	4512
909.415	4580
909.531	4558
909.647	4371
909.762	4405
909.878	4390
909.993	4443
910.108	4451
910.224	4466
910.339	4485
910.454	4428
910.57	4417
910.685	4333
910.8	4675
910.915	4641
911.03	4493
911.145	4356
911.259	4390
911.374	4394
911.489	4341
911.604	4314
911.718	4150
911.833	4173
911.947	4109
912.062	4059
912.176	4246
912.291	4272
912.405	4249
912.519	4470
912.633	4500
912.748	4390
912.862	4344
912.976	4196
913.09	4158
913.204	4169
913.318	4276
913.431	4337
913.545	4383
913.659	4447
913.772	4375
913.886	4272
914	4291
914.113	4390
914.226	4436
914.34	4421
914.453	4234
914.566	4451
914.68	4325
914.793	4371
914.906	4173
915.019	4116
915.132	4124
915.245	4215
915.358	4192
915.47	4276
915.583	4280
915.696	4322
915.809	4447
915.921	4383
916.034	4295
916.146	4249
916.259	4234
916.371	4405
916.483	4379
916.595	4272
916.708	4383
916.82	4360
916.932	4352
917.044	4356
917.156	4371
917.268	4223
917.38	4303
917.491	4310
917.603	4375
917.715	4497
917.826	4462
917.938	4390
918.049	4242
918.161	4390
918.272	4535
918.384	4607
918.495	4504
918.606	4352
918.717	4268
918.828	4390
918.939	4409
919.05	4261
919.161	4383
919.272	4185
919.383	4261
919.494	4440
919.604	4683
919.715	4443
919.826	4360
919.936	4424
920.047	4542
920.157	4493
920.267	4729
920.378	4565
920.488	4599
920.598	4755
920.708	4949
920.818	4767
920.928	4828
921.038	4961
921.148	4953
921.258	4687
921.368	4603
921.477	4481
921.587	4500
921.697	4379
921.806	4599
921.916	4443
922.025	4325
922.134	4325
922.244	4246
922.353	4329
922.462	4200
922.571	4177
922.68	4025
922.789	3987
922.898	4044
923.007	4021
923.116	4166
923.224	4048
923.333	4086
923.442	4025
923.55	3991
923.659	4071
923.767	4082
923.876	3994
923.984	4166
924.092	4010
924.201	4063
924.309	4150
924.417	4150
924.525	4105
924.633	4128
924.741	4892
924.849	3968
924.956	4124
925.064	3956
925.172	3937
925.279	4002
925.387	4051
925.494	4055
925.602	4265
925.709	4200
925.816	4150
925.924	4150
926.031	4242
926.138	4204
926.245	4227
926.352	4097
926.459	4268
926.566	4337
926.673	4246
926.779	4109
926.886	4124
926.993	3991
927.099	3960
927.206	4002
927.312	3949
927.419	4063
927.525	4063
927.631	4124
927.737	3949
927.843	4010
927.95	3857
928.056	3937
928.162	4017
928.267	4067
928.373	4641
928.479	4128
928.585	3880
928.69	4093
928.796	4112
928.901	4002
929.007	3808
929.112	4036
929.218	4021
929.323	3979
929.428	3964
929.533	4177
929.638	3968
929.743	3983
929.848	4071
929.953	4040
930.058	3972
930.163	3804
930.267	3846
930.372	4025
930.477	3846
930.581	4150
930.685	3922
930.79	3876
930.894	3896
930.998	3880
931.103	4071
931.207	3747
931.311	3743
931.415	3686
931.519	3538
931.623	3549
