Data from test_V78500241_2773.txt Node
Date: Fri Mar 25 17:08:17 CST 2022
User: usil
Spectrometer: V785-0024
Trigger mode: 0
Integration Time (sec): 4.000000E-1
Scans to average: 1
Nonlinearity correction enabled: false
Boxcar width: 0
Storing dark spectrum: false
XAxis mode: Wavelengths
Number of Pixels in Spectrum: 1024
>>>>>Begin Spectral Data<<<<<
801.071	8005
801.214	7989
801.356	7902
801.499	7951
801.641	7860
801.783	7856
801.926	7997
802.068	7974
802.211	8058
802.353	7978
802.496	7852
802.638	7909
802.78	7928
802.923	8027
803.065	7940
803.208	7898
803.35	7986
803.492	8119
803.635	8225
803.777	8115
803.919	8164
804.061	8438
804.204	8191
804.346	8031
804.488	7997
804.63	8145
804.773	8058
804.915	8096
805.057	8320
805.199	8172
805.341	8199
805.483	8279
805.626	8214
805.768	8134
805.91	8218
806.052	8233
806.194	8168
806.336	8351
806.478	8096
806.62	8062
806.762	8096
806.904	8282
807.046	8484
807.188	8374
807.33	8396
807.472	8347
807.614	8180
807.756	8123
807.898	8043
808.04	7902
808.182	7902
808.324	7871
808.465	7947
808.607	8107
808.749	8191
808.891	8244
809.033	8305
809.174	8218
809.316	8077
809.458	8073
809.6	8008
809.741	8005
809.883	8092
810.025	8100
810.166	8058
810.308	8043
810.45	8058
810.591	7898
810.733	7734
810.875	7712
811.016	7586
811.158	7487
811.299	7605
811.441	7757
811.582	7727
811.724	7578
811.865	7639
812.007	7575
812.148	7586
812.29	7636
812.431	7826
812.573	7887
812.714	8065
812.855	8145
812.997	8286
813.138	8351
813.279	8202
813.421	8092
813.562	8020
813.703	7959
813.845	7811
813.986	7514
814.127	7327
814.268	7274
814.41	7232
814.551	7183
814.692	7145
814.833	7133
814.974	7080
815.115	7065
815.256	6962
815.397	6924
815.539	7015
815.68	6795
815.821	6795
815.962	6825
816.103	6825
816.244	6798
816.385	6639
816.526	6639
816.666	6528
816.807	6338
816.948	6467
817.089	6486
817.23	6483
817.371	6429
817.512	6395
817.653	6388
817.793	6369
817.934	6475
818.075	6521
818.216	6471
818.356	6433
818.497	6247
818.638	6194
818.778	6228
818.919	6125
819.06	6144
819.2	6311
819.341	6353
819.481	6365
819.622	6521
819.762	6673
819.903	6749
820.043	6639
820.184	6563
820.324	6623
820.465	6677
820.605	6681
820.746	6608
820.886	6513
821.026	6642
821.167	6669
821.307	6833
821.447	6802
821.588	6681
821.728	6532
821.868	6506
822.008	6426
822.149	6384
822.289	6369
822.429	6152
822.569	6117
822.709	6136
822.849	5961
822.99	5927
823.13	5942
823.27	5912
823.41	5855
823.55	5748
823.69	5790
823.83	5794
823.97	5741
824.11	5570
824.25	5570
824.389	5600
824.529	5600
824.669	5493
824.809	5646
824.949	5722
825.089	5657
825.228	5596
825.368	5433
825.508	5410
825.648	5341
825.787	5376
825.927	5429
826.067	5307
826.206	5261
826.346	5391
826.485	5406
826.625	5448
826.765	5532
826.904	5493
827.044	5231
827.183	5220
827.323	5151
827.462	5258
827.601	5159
827.741	5220
827.88	5189
828.02	5136
828.159	5254
828.298	5322
828.437	5395
828.577	5265
828.716	5512
828.855	5349
828.994	5147
829.134	5132
829.273	5204
829.412	5151
829.551	5178
829.69	5178
829.829	5296
829.968	5398
830.107	5250
830.246	5296
830.385	5143
830.524	5140
830.663	5048
830.802	4942
830.941	4892
831.08	4896
831.219	4976
831.357	4965
831.496	5124
831.635	4961
831.774	4862
831.913	4927
832.051	4744
832.19	4740
832.329	4877
832.467	4714
832.606	4691
832.744	4744
832.883	4702
833.022	4733
833.16	4820
833.299	4873
833.437	4839
833.576	4797
833.714	4946
833.852	4919
833.991	4938
834.129	4961
834.267	4984
834.406	4934
834.544	4968
834.682	5029
834.821	4957
834.959	5181
835.097	4995
835.235	5132
835.373	5083
835.511	5143
835.65	5052
835.788	5025
835.926	4957
836.064	4896
836.202	4965
836.34	5159
836.478	5284
836.615	5117
836.753	5201
836.891	5311
837.029	5258
837.167	5212
837.305	5170
837.443	5113
837.58	5079
837.718	5280
837.856	5185
837.993	5151
838.131	5288
838.269	5204
838.406	5231
838.544	5170
838.681	5064
838.819	5006
838.956	4866
839.094	4908
839.231	4965
839.369	5098
839.506	5341
839.643	5265
839.781	5041
839.918	5025
840.055	5086
840.193	5075
840.33	5098
840.467	5140
840.604	5227
840.742	5444
840.879	5090
841.016	5124
841.153	5185
841.29	5391
841.427	5349
841.564	5277
841.701	5334
841.838	5284
841.975	5246
842.112	5307
842.249	5140
842.385	5071
842.522	5322
842.659	5181
842.796	5166
842.933	5197
843.069	5193
843.206	5151
843.343	5330
843.479	5223
843.616	5258
843.752	5010
843.889	5003
844.025	5231
844.162	5090
844.298	5227
844.435	5079
844.571	5071
844.708	5212
844.844	5242
844.98	5398
845.117	5322
845.253	5109
845.389	5067
845.525	5193
845.661	5159
845.798	5029
845.934	5185
846.07	5098
846.206	5216
846.342	5288
846.478	5178
846.614	5033
846.75	4976
846.886	4892
847.022	5132
847.158	5010
847.294	5052
847.429	5155
847.565	5048
847.701	5349
847.837	4862
847.972	4812
848.108	4965
848.244	4908
848.379	4828
848.515	4702
848.65	4755
848.786	4748
848.921	4774
849.057	4896
849.192	4915
849.328	4881
849.463	4885
849.598	4778
849.734	4767
849.869	4721
850.004	4622
850.14	4687
850.275	4626
850.41	4535
850.545	4580
850.68	4649
850.815	4668
850.95	4603
851.085	4900
851.22	4714
851.355	4710
851.49	4668
851.625	4679
851.76	4626
851.895	4569
852.03	4554
852.165	4664
852.299	4717
852.434	4793
852.569	4755
852.703	4748
852.838	4885
852.973	4938
853.107	4919
853.242	4752
853.376	4683
853.511	4558
853.645	4618
853.78	4793
853.914	4729
854.048	4656
854.183	4649
854.317	4672
854.451	4835
854.585	4679
854.72	4656
854.854	4793
854.988	4588
855.122	4668
855.256	4561
855.39	4660
855.524	4793
855.658	4763
855.792	4679
855.926	4748
856.06	4790
856.194	4843
856.327	4736
856.461	4634
856.595	4679
856.729	4607
856.862	4752
856.996	4714
857.13	4748
857.263	4714
857.397	4797
857.53	4630
857.664	4714
857.797	4805
857.931	4797
858.064	4683
858.197	4752
858.331	4641
858.464	4637
858.597	4504
858.731	4653
858.864	4630
858.997	4603
859.13	4664
859.263	4637
859.396	4706
859.529	4615
859.662	4592
859.795	4592
859.928	4618
860.061	4801
860.194	4790
860.327	4641
860.46	4561
860.592	4714
860.725	4691
860.858	4733
860.99	4592
861.123	4508
861.256	4569
861.388	4592
861.521	5299
861.653	4493
861.786	4474
861.918	4489
862.05	4546
862.183	4550
862.315	4588
862.447	4607
862.58	4535
862.712	4398
862.844	4383
862.976	4474
863.108	4474
863.24	4752
863.372	4322
863.504	4405
863.636	4375
863.768	4504
863.9	4394
864.032	4405
864.164	4432
864.296	4500
864.428	4577
864.559	4535
864.691	4546
864.823	4500
864.954	4474
865.086	4493
865.217	4481
865.349	4417
865.48	4421
865.612	4516
865.743	4656
865.875	4485
866.006	4432
866.137	4497
866.269	4440
866.4	4424
866.531	4443
866.662	4390
866.793	4352
866.924	4455
867.055	4508
867.186	4478
867.317	4440
867.448	4363
867.579	4409
867.71	4432
867.841	4402
867.972	4432
868.103	4459
868.233	4493
868.364	4478
868.495	4485
868.625	4717
868.756	4744
868.886	4596
869.017	4660
869.147	4771
869.278	4793
869.408	4668
869.539	4675
869.669	4752
869.799	4683
869.929	4767
870.06	4744
870.19	4927
870.32	4938
870.45	4938
870.58	5060
870.71	5124
870.84	5071
870.97	4965
871.1	4896
871.23	5124
871.36	5121
871.489	5003
871.619	5086
871.749	5105
871.879	5147
872.008	5181
872.138	5086
872.267	5006
872.397	4877
872.526	4809
872.656	4683
872.785	4828
872.915	4934
873.044	5018
873.173	4923
873.303	5006
873.432	4987
873.561	4984
873.69	4900
873.819	4866
873.948	4949
874.077	4824
874.206	4752
874.335	4847
874.464	4934
874.593	5079
874.722	4995
874.851	5071
874.979	5060
875.108	5022
875.237	4976
875.365	4858
875.494	4847
875.623	5006
875.751	4816
875.88	4881
876.008	5006
876.136	5067
876.265	5242
876.393	5326
876.521	5239
876.65	5189
876.778	5197
876.906	5029
877.034	5014
877.162	5018
877.29	5006
877.418	5037
877.546	5056
877.674	5086
877.802	4995
877.93	5022
878.058	4934
878.185	4877
878.313	4968
878.441	4980
878.568	4824
878.696	4900
878.824	4965
878.951	5010
879.079	5128
879.206	5364
879.333	5075
879.461	5014
879.588	5022
879.715	5136
879.842	5212
879.97	5037
880.097	4744
880.224	4717
880.351	4828
880.478	4824
880.605	4778
880.732	4828
880.859	5090
880.986	4949
881.112	4946
881.239	4778
881.366	4691
881.493	4626
881.619	4561
881.746	4675
881.872	4626
881.999	4649
882.125	4641
882.252	4771
882.378	4835
882.505	5006
882.631	4782
882.757	4634
882.883	4721
883.01	4782
883.136	4755
883.262	4634
883.388	4592
883.514	4809
883.64	4877
883.766	4752
883.892	4683
884.018	4694
884.143	4934
884.269	5025
884.395	4656
884.52	4645
884.646	4653
884.772	4603
884.897	4558
885.023	4668
885.148	4797
885.274	4866
885.399	4835
885.524	4717
885.65	4675
885.775	4797
885.9	4664
886.025	4858
886.15	4782
886.275	4736
886.4	4649
886.525	4721
886.65	4717
886.775	4687
886.9	4927
887.025	5018
887.149	4774
887.274	4664
887.399	4569
887.523	4634
887.648	4592
887.773	4573
887.897	4778
888.021	4793
888.146	4694
888.27	4816
888.395	4892
888.519	4801
888.643	4805
888.767	4824
888.891	4694
889.015	4615
889.139	4668
889.263	4630
889.387	4755
889.511	4782
889.635	4805
889.759	4656
889.883	4675
890.006	4767
890.13	4831
890.254	4622
890.377	4694
890.501	4573
890.624	4489
890.748	4649
890.871	4535
890.995	4413
891.118	4436
891.241	4485
891.364	4565
891.488	4615
891.611	4485
891.734	4519
891.857	4584
891.98	4538
892.103	4687
892.226	4603
892.349	4527
892.471	4443
892.594	4561
892.717	4603
892.839	4580
892.962	4573
893.085	4660
893.207	4645
893.33	4474
893.452	4535
893.575	4729
893.697	4618
893.819	4790
893.941	4831
894.064	4744
894.186	4550
894.308	4599
894.43	4725
894.552	4793
894.674	4763
894.796	4558
894.918	4615
895.04	4588
895.161	4721
895.283	4649
895.405	4508
895.526	4592
895.648	4679
895.769	4702
895.891	4702
896.012	4736
896.134	4721
896.255	4714
896.376	4637
896.498	4653
896.619	4687
896.74	4622
896.861	4645
896.982	4904
897.103	5086
897.224	4843
897.345	4733
897.466	4679
897.587	4729
897.708	4843
897.828	4782
897.949	4675
898.07	4538
898.19	4603
898.311	4820
898.431	4664
898.552	4744
898.672	4801
898.792	4816
898.913	4748
899.033	4672
899.153	4504
899.273	4413
899.393	4538
899.513	4542
899.633	4531
899.753	4531
899.873	4523
899.993	4607
900.113	4573
900.232	4584
900.352	4584
900.472	4447
900.591	4428
900.711	4481
900.83	4443
900.95	4596
901.069	4706
901.189	4603
901.308	4329
901.427	4276
901.546	4390
901.665	4474
901.784	4523
901.904	4360
902.023	4325
902.141	4219
902.26	4166
902.379	4318
902.498	4246
902.617	4268
902.735	4405
902.854	4398
902.973	4325
903.091	4207
903.21	4223
903.328	4306
903.446	4287
903.565	4284
903.683	4379
903.801	4314
903.919	4421
904.038	4409
904.156	4303
904.274	4421
904.392	4428
904.51	4405
904.627	4409
904.745	4580
904.863	4637
904.981	4394
905.098	4276
905.216	4337
905.334	4421
905.451	4443
905.569	4436
905.686	4561
905.803	4554
905.921	4390
906.038	4504
906.155	4489
906.272	4428
906.389	4432
906.506	4356
906.623	4367
906.74	4440
906.857	4352
906.974	4379
907.091	4569
907.208	4702
907.324	4592
907.441	4489
907.557	4341
907.674	4322
907.79	4287
907.907	4421
908.023	4474
908.139	4489
908.256	4443
908.372	4459
908.488	4440
908.604	4375
908.72	4367
908.836	4386
908.952	4383
909.068	4371
909.184	4535
909.3	4481
909.415	4653
909.531	4615
909.647	4322
909.762	4398
909.878	4360
909.993	4470
910.108	4402
910.224	4428
910.339	4478
910.454	4360
910.57	4356
910.685	4272
910.8	4611
910.915	4607
911.03	4485
911.145	4310
911.259	4329
911.374	4379
911.489	4261
911.604	4272
911.718	4181
911.833	4185
911.947	4105
912.062	4036
912.176	4223
912.291	4253
912.405	4230
912.519	4474
912.633	4493
912.748	4383
912.862	4276
912.976	4215
913.09	4112
913.204	4154
913.318	4272
913.431	4383
913.545	4371
913.659	4462
913.772	4409
913.886	4230
914	4249
914.113	4333
914.226	4447
914.34	4398
914.453	4227
914.566	4405
914.68	4329
914.793	4299
914.906	4200
915.019	4135
915.132	4071
915.245	4238
915.358	4207
915.47	4268
915.583	4310
915.696	4287
915.809	4409
915.921	4436
916.034	4265
916.146	4249
916.259	4177
916.371	4352
916.483	4398
916.595	4227
916.708	4325
916.82	4333
916.932	4325
917.044	4386
917.156	4325
917.268	4276
917.38	4287
917.491	4276
917.603	4348
917.715	4436
917.826	4417
917.938	4325
918.049	4257
918.161	4379
918.272	4489
918.384	4470
918.495	4428
918.606	4268
918.717	4238
918.828	4333
918.939	4375
919.05	4268
919.161	4344
919.272	4166
919.383	4223
919.494	4421
919.604	4653
919.715	4428
919.826	4356
919.936	4371
920.047	4516
920.157	4519
920.267	4679
920.378	4538
920.488	4508
920.598	4740
920.708	4866
920.818	4744
920.928	4763
921.038	4889
921.148	4934
921.258	4573
921.368	4535
921.477	4561
921.587	4493
921.697	4352
921.806	4554
921.916	4398
922.025	4276
922.134	4265
922.244	4185
922.353	4344
922.462	4223
922.571	4128
922.68	4010
922.789	4010
922.898	4055
923.007	4002
923.116	4112
923.224	4017
923.333	4059
923.442	3991
923.55	4010
923.659	4002
923.767	4093
923.876	3991
923.984	4101
924.092	3998
924.201	4040
924.309	4135
924.417	4109
924.525	4067
924.633	4131
924.741	4881
924.849	3926
924.956	4109
925.064	3983
925.172	3892
925.279	3953
925.387	4010
925.494	4051
925.602	4143
925.709	4173
925.816	4025
925.924	4158
926.031	4234
926.138	4147
926.245	4211
926.352	4055
926.459	4272
926.566	4333
926.673	4128
926.779	4013
926.886	4051
926.993	4002
927.099	3911
927.206	3934
927.312	3915
927.419	4040
927.525	4029
927.631	4131
927.737	3949
927.843	3899
927.95	3816
928.056	3949
928.162	3960
928.267	4082
928.373	4675
928.479	4147
928.585	3854
928.69	4048
928.796	4078
928.901	3937
929.007	3835
929.112	4006
929.218	3979
929.323	3915
929.428	3960
929.533	4086
929.638	3896
929.743	3922
929.848	4029
929.953	3994
930.058	3941
930.163	3827
930.267	3869
930.372	3991
930.477	3835
930.581	4082
930.685	3960
930.79	3861
930.894	3873
930.998	3842
931.103	4032
931.207	3667
931.311	3682
931.415	3644
931.519	3504
931.623	3553
