Data from test_V78500241_2053.txt Node
Date: Fri Mar 25 17:03:16 CST 2022
User: usil
Spectrometer: V785-0024
Trigger mode: 0
Integration Time (sec): 4.000000E-1
Scans to average: 1
Nonlinearity correction enabled: false
Boxcar width: 0
Storing dark spectrum: false
XAxis mode: Wavelengths
Number of Pixels in Spectrum: 1024
>>>>>Begin Spectral Data<<<<<
801.071	7993
801.214	7993
801.356	7822
801.499	7849
801.641	7769
801.783	7818
801.926	7970
802.068	7925
802.211	7909
802.353	8024
802.496	7765
802.638	7807
802.78	7849
802.923	7925
803.065	7852
803.208	7833
803.35	7928
803.492	8027
803.635	8142
803.777	7997
803.919	8138
804.061	8423
804.204	8096
804.346	8115
804.488	8024
804.63	7993
804.773	7963
804.915	8069
805.057	8305
805.199	8149
805.341	8221
805.483	8290
805.626	8237
805.768	8111
805.91	8168
806.052	8180
806.194	8145
806.336	8263
806.478	8149
806.62	8069
806.762	8138
806.904	8294
807.046	8427
807.188	8313
807.33	8267
807.472	8374
807.614	8176
807.756	8107
807.898	7993
808.04	7917
808.182	7887
808.324	7837
808.465	7913
808.607	8054
808.749	8103
808.891	8259
809.033	8313
809.174	8252
809.316	8050
809.458	8046
809.6	7982
809.741	8069
809.883	7986
810.025	8161
810.166	8130
810.308	8062
810.45	7989
810.591	7845
810.733	7715
810.875	7605
811.016	7544
811.158	7457
811.299	7590
811.441	7738
811.582	7666
811.724	7514
811.865	7559
812.007	7559
812.148	7567
812.29	7578
812.431	7746
812.573	7906
812.714	7974
812.855	8142
812.997	8218
813.138	8305
813.279	8153
813.421	8043
813.562	7894
813.703	7822
813.845	7746
813.986	7388
814.127	7206
814.268	7228
814.41	7240
814.551	7190
814.692	7221
814.833	7126
814.974	7080
815.115	7095
815.256	6939
815.397	6966
815.539	6928
815.68	6795
815.821	6760
815.962	6848
816.103	6859
816.244	6700
816.385	6627
816.526	6551
816.666	6479
816.807	6289
816.948	6399
817.089	6479
817.23	6422
817.371	6346
817.512	6418
817.653	6384
817.793	6300
817.934	6448
818.075	6422
818.216	6441
818.356	6422
818.497	6224
818.638	6148
818.778	6136
818.919	6117
819.06	6163
819.2	6308
819.341	6350
819.481	6365
819.622	6540
819.762	6722
819.903	6677
820.043	6559
820.184	6547
820.324	6559
820.465	6662
820.605	6681
820.746	6700
820.886	6471
821.026	6623
821.167	6753
821.307	6745
821.447	6741
821.588	6719
821.728	6574
821.868	6448
822.008	6311
822.149	6334
822.289	6429
822.429	6167
822.569	6060
822.709	6133
822.849	5954
822.99	5939
823.13	5897
823.27	5935
823.41	5783
823.55	5828
823.69	5748
823.83	5775
823.97	5592
824.11	5505
824.25	5486
824.389	5509
824.529	5581
824.669	5505
824.809	5596
824.949	5665
825.089	5608
825.228	5505
825.368	5440
825.508	5360
825.648	5349
825.787	5315
825.927	5349
826.067	5292
826.206	5307
826.346	5398
826.485	5372
826.625	5463
826.765	5505
826.904	5463
827.044	5242
827.183	5223
827.323	5143
827.462	5201
827.601	5201
827.741	5136
827.88	5189
828.02	5132
828.159	5242
828.298	5322
828.437	5341
828.577	5280
828.716	5471
828.855	5364
828.994	5208
829.134	5147
829.273	5189
829.412	5128
829.551	5056
829.69	5159
829.829	5261
829.968	5368
830.107	5265
830.246	5303
830.385	5204
830.524	5132
830.663	5079
830.802	4999
830.941	4885
831.08	4866
831.219	5018
831.357	4927
831.496	5174
831.635	4904
831.774	4870
831.913	4873
832.051	4717
832.19	4744
832.329	4831
832.467	4687
832.606	4641
832.744	4717
832.883	4675
833.022	4748
833.16	4831
833.299	4816
833.437	4820
833.576	4870
833.714	4831
833.852	4828
833.991	4866
834.129	4946
834.267	4904
834.406	4919
834.544	4984
834.682	4957
834.821	4927
834.959	5162
835.097	4957
835.235	5140
835.373	5052
835.511	5102
835.65	5018
835.788	4999
835.926	4889
836.064	4885
836.202	4904
836.34	5132
836.478	5204
836.615	5124
836.753	5155
836.891	5318
837.029	5231
837.167	5174
837.305	5166
837.443	5113
837.58	5117
837.718	5208
837.856	5178
837.993	5102
838.131	5231
838.269	5216
838.406	5231
838.544	5151
838.681	5041
838.819	4976
838.956	4892
839.094	4946
839.231	4968
839.369	5025
839.506	5376
839.643	5265
839.781	5067
839.918	5003
840.055	5060
840.193	5075
840.33	5064
840.467	5083
840.604	5178
840.742	5429
840.879	5094
841.016	5064
841.153	5181
841.29	5417
841.427	5349
841.564	5353
841.701	5318
841.838	5231
841.975	5170
842.112	5318
842.249	5109
842.385	5037
842.522	5284
842.659	5132
842.796	5140
842.933	5170
843.069	5166
843.206	5189
843.343	5292
843.479	5201
843.616	5193
843.752	5067
843.889	4999
844.025	5201
844.162	5018
844.298	5223
844.435	5136
844.571	5041
844.708	5181
844.844	5265
844.98	5303
845.117	5280
845.253	5124
845.389	5094
845.525	5208
845.661	5185
845.798	5045
845.934	5117
846.07	5025
846.206	5143
846.342	5303
846.478	5170
846.614	5025
846.75	4930
846.886	4972
847.022	5117
847.158	5003
847.294	5064
847.429	5037
847.565	5105
847.701	5311
847.837	4839
847.972	4847
848.108	4949
848.244	4938
848.379	4774
848.515	4740
848.65	4717
848.786	4748
848.921	4748
849.057	4843
849.192	4873
849.328	4816
849.463	4854
849.598	4793
849.734	4752
849.869	4710
850.004	4588
850.14	4622
850.275	4565
850.41	4500
850.545	4573
850.68	4637
850.815	4653
850.95	4599
851.085	4870
851.22	4744
851.355	4668
851.49	4622
851.625	4649
851.76	4664
851.895	4565
852.03	4561
852.165	4668
852.299	4694
852.434	4744
852.569	4748
852.703	4801
852.838	4889
852.973	4904
853.107	4915
853.242	4725
853.376	4683
853.511	4550
853.645	4645
853.78	4736
853.914	4672
854.048	4660
854.183	4656
854.317	4694
854.451	4824
854.585	4649
854.72	4634
854.854	4759
854.988	4596
855.122	4622
855.256	4516
855.39	4634
855.524	4752
855.658	4736
855.792	4691
855.926	4725
856.06	4771
856.194	4786
856.327	4637
856.461	4637
856.595	4622
856.729	4599
856.862	4759
856.996	4672
857.13	4782
857.263	4752
857.397	4778
857.53	4653
857.664	4733
857.797	4748
857.931	4793
858.064	4634
858.197	4733
858.331	4649
858.464	4577
858.597	4489
858.731	4618
858.864	4603
858.997	4607
859.13	4656
859.263	4611
859.396	4740
859.529	4577
859.662	4546
859.795	4508
859.928	4645
860.061	4763
860.194	4790
860.327	4596
860.46	4535
860.592	4664
860.725	4675
860.858	4748
860.99	4561
861.123	4512
861.256	4523
861.388	4546
861.521	5296
861.653	4489
861.786	4470
861.918	4432
862.05	4516
862.183	4516
862.315	4645
862.447	4675
862.58	4558
862.712	4459
862.844	4284
862.976	4478
863.108	4413
863.24	4774
863.372	4363
863.504	4398
863.636	4402
863.768	4493
863.9	4443
864.032	4379
864.164	4367
864.296	4497
864.428	4554
864.559	4554
864.691	4523
864.823	4485
864.954	4470
865.086	4451
865.217	4478
865.349	4394
865.48	4500
865.612	4474
865.743	4607
865.875	4466
866.006	4398
866.137	4447
866.269	4466
866.4	4478
866.531	4421
866.662	4436
866.793	4375
866.924	4455
867.055	4485
867.186	4443
867.317	4394
867.448	4367
867.579	4386
867.71	4379
867.841	4371
867.972	4470
868.103	4455
868.233	4432
868.364	4462
868.495	4500
868.625	4618
868.756	4759
868.886	4527
869.017	4580
869.147	4778
869.278	4786
869.408	4706
869.539	4630
869.669	4717
869.799	4641
869.929	4771
870.06	4790
870.19	4968
870.32	4885
870.45	4927
870.58	5014
870.71	5060
870.84	5109
870.97	5010
871.1	4919
871.23	5147
871.36	5174
871.489	4999
871.619	5090
871.749	5124
871.879	5181
872.008	5166
872.138	5052
872.267	4946
872.397	4854
872.526	4843
872.656	4725
872.785	4767
872.915	4980
873.044	4987
873.173	4873
873.303	4980
873.432	4957
873.561	4987
873.69	4904
873.819	4854
873.948	4900
874.077	4824
874.206	4691
874.335	4801
874.464	4942
874.593	5010
874.722	4938
874.851	5098
874.979	5025
875.108	5014
875.237	4976
875.365	4877
875.494	4908
875.623	4976
875.751	4782
875.88	4831
876.008	4991
876.136	5048
876.265	5216
876.393	5311
876.521	5250
876.65	5235
876.778	5204
876.906	5033
877.034	5056
877.162	5003
877.29	4995
877.418	5056
877.546	5060
877.674	5037
877.802	5090
877.93	5037
878.058	4930
878.185	4949
878.313	4965
878.441	4942
878.568	4828
878.696	4858
878.824	4999
878.951	4980
879.079	5136
879.206	5277
879.333	5071
879.461	4968
879.588	5010
879.715	5124
879.842	5216
879.97	5014
880.097	4801
880.224	4733
880.351	4767
880.478	4847
880.605	4744
880.732	4752
880.859	5083
880.986	4934
881.112	4946
881.239	4782
881.366	4645
881.493	4588
881.619	4607
881.746	4626
881.872	4588
881.999	4607
882.125	4679
882.252	4771
882.378	4847
882.505	4965
882.631	4812
882.757	4641
882.883	4744
883.01	4771
883.136	4672
883.262	4546
883.388	4618
883.514	4850
883.64	4831
883.766	4805
883.892	4668
884.018	4759
884.143	4885
884.269	4995
884.395	4706
884.52	4618
884.646	4618
884.772	4592
884.897	4538
885.023	4653
885.148	4809
885.274	4889
885.399	4793
885.524	4755
885.65	4714
885.775	4778
885.9	4706
886.025	4873
886.15	4782
886.275	4778
886.4	4641
886.525	4694
886.65	4694
886.775	4679
886.9	4934
887.025	5041
887.149	4790
887.274	4649
887.399	4565
887.523	4580
887.648	4535
887.773	4550
887.897	4767
888.021	4736
888.146	4683
888.27	4839
888.395	4854
888.519	4797
888.643	4801
888.767	4801
888.891	4675
889.015	4634
889.139	4668
889.263	4630
889.387	4752
889.511	4896
889.635	4774
889.759	4584
889.883	4653
890.006	4691
890.13	4881
890.254	4622
890.377	4706
890.501	4516
890.624	4535
890.748	4615
890.871	4550
890.995	4485
891.118	4409
891.241	4474
891.364	4508
891.488	4615
891.611	4474
891.734	4554
891.857	4580
891.98	4527
892.103	4630
892.226	4577
892.349	4523
892.471	4447
892.594	4512
892.717	4634
892.839	4622
892.962	4573
893.085	4668
893.207	4584
893.33	4504
893.452	4523
893.575	4656
893.697	4538
893.819	4797
893.941	4850
894.064	4729
894.186	4577
894.308	4577
894.43	4736
894.552	4801
894.674	4725
894.796	4569
894.918	4588
895.04	4508
895.161	4714
895.283	4622
895.405	4584
895.526	4637
895.648	4653
895.769	4679
895.891	4721
896.012	4721
896.134	4763
896.255	4668
896.376	4634
896.498	4615
896.619	4653
896.74	4599
896.861	4637
896.982	4930
897.103	5102
897.224	4831
897.345	4771
897.466	4687
897.587	4660
897.708	4862
897.828	4809
897.949	4664
898.07	4538
898.19	4653
898.311	4847
898.431	4679
898.552	4778
898.672	4812
898.792	4767
898.913	4740
899.033	4649
899.153	4519
899.273	4421
899.393	4481
899.513	4535
899.633	4481
899.753	4561
899.873	4493
899.993	4565
900.113	4538
900.232	4626
900.352	4523
900.472	4493
900.591	4421
900.711	4493
900.83	4428
900.95	4626
901.069	4664
901.189	4516
901.308	4371
901.427	4360
901.546	4402
901.665	4489
901.784	4470
901.904	4409
902.023	4306
902.141	4200
902.26	4169
902.379	4287
902.498	4253
902.617	4249
902.735	4383
902.854	4390
902.973	4379
903.091	4249
903.21	4246
903.328	4272
903.446	4238
903.565	4253
903.683	4367
903.801	4306
903.919	4409
904.038	4459
904.156	4295
904.274	4413
904.392	4405
904.51	4413
904.627	4500
904.745	4561
904.863	4637
904.981	4375
905.098	4295
905.216	4333
905.334	4379
905.451	4424
905.569	4451
905.686	4531
905.803	4573
905.921	4386
906.038	4565
906.155	4523
906.272	4402
906.389	4489
906.506	4383
906.623	4390
906.74	4428
906.857	4325
906.974	4360
907.091	4561
907.208	4694
907.324	4565
907.441	4459
907.557	4341
907.674	4356
907.79	4325
907.907	4356
908.023	4485
908.139	4405
908.256	4398
908.372	4459
908.488	4436
908.604	4383
908.72	4337
908.836	4344
908.952	4337
909.068	4428
909.184	4618
909.3	4478
909.415	4573
909.531	4569
909.647	4314
909.762	4337
909.878	4322
909.993	4451
910.108	4405
910.224	4405
910.339	4470
910.454	4424
910.57	4371
910.685	4306
910.8	4641
910.915	4637
911.03	4512
911.145	4299
911.259	4333
911.374	4402
911.489	4322
911.604	4272
911.718	4158
911.833	4177
911.947	4097
912.062	3987
912.176	4211
912.291	4204
912.405	4234
912.519	4462
912.633	4462
912.748	4379
912.862	4291
912.976	4207
913.09	4120
913.204	4143
913.318	4268
913.431	4386
913.545	4371
913.659	4451
913.772	4390
913.886	4215
914	4215
914.113	4390
914.226	4436
914.34	4363
914.453	4249
914.566	4455
914.68	4329
914.793	4291
914.906	4204
915.019	4105
915.132	4086
915.245	4200
915.358	4185
915.47	4230
915.583	4238
915.696	4284
915.809	4421
915.921	4424
916.034	4303
916.146	4242
916.259	4230
916.371	4367
916.483	4360
916.595	4265
916.708	4322
916.82	4280
916.932	4306
917.044	4329
917.156	4306
917.268	4227
917.38	4276
917.491	4337
917.603	4329
917.715	4402
917.826	4398
917.938	4325
918.049	4253
918.161	4402
918.272	4538
918.384	4527
918.495	4424
918.606	4306
918.717	4223
918.828	4299
918.939	4402
919.05	4276
919.161	4306
919.272	4093
919.383	4223
919.494	4462
919.604	4615
919.715	4421
919.826	4379
919.936	4398
920.047	4481
920.157	4485
920.267	4721
920.378	4588
920.488	4531
920.598	4679
920.708	4896
920.818	4755
920.928	4782
921.038	4946
921.148	4938
921.258	4660
921.368	4558
921.477	4538
921.587	4447
921.697	4398
921.806	4573
921.916	4409
922.025	4261
922.134	4284
922.244	4192
922.353	4306
922.462	4150
922.571	4093
922.68	3994
922.789	3945
922.898	4029
923.007	3968
923.116	4063
923.224	4021
923.333	4082
923.442	4013
923.55	3991
923.659	4025
923.767	4078
923.876	3972
923.984	4082
924.092	3960
924.201	4097
924.309	4048
924.417	4078
924.525	4074
924.633	4116
924.741	5090
924.849	3941
924.956	4101
925.064	3964
925.172	3857
925.279	3964
925.387	4059
925.494	4067
925.602	4185
925.709	4154
925.816	4025
925.924	4143
926.031	4192
926.138	4166
926.245	4234
926.352	4067
926.459	4276
926.566	4341
926.673	4158
926.779	4078
926.886	4059
926.993	3975
927.099	3987
927.206	3911
927.312	3918
927.419	4048
927.525	4025
927.631	4090
927.737	3937
927.843	3911
927.95	3838
928.056	3899
928.162	3968
928.267	4040
928.373	4573
928.479	4120
928.585	3884
928.69	3991
928.796	4032
928.901	3930
929.007	3850
929.112	3994
929.218	3975
929.323	3968
929.428	3975
929.533	4131
929.638	3880
929.743	3934
929.848	4067
929.953	3983
930.058	3979
930.163	3793
930.267	3838
930.372	3983
930.477	3781
930.581	4078
930.685	3949
930.79	3850
930.894	3892
930.998	3846
931.103	4044
931.207	3667
931.311	3705
931.415	3682
931.519	3488
931.623	3599
