Data from test_V78500241_1881.txt Node
Date: Fri Mar 25 17:02:04 CST 2022
User: usil
Spectrometer: V785-0024
Trigger mode: 0
Integration Time (sec): 4.000000E-1
Scans to average: 1
Nonlinearity correction enabled: false
Boxcar width: 0
Storing dark spectrum: false
XAxis mode: Wavelengths
Number of Pixels in Spectrum: 1024
>>>>>Begin Spectral Data<<<<<
801.071	8024
801.214	7940
801.356	7864
801.499	7841
801.641	7738
801.783	7818
801.926	8024
802.068	7902
802.211	7970
802.353	8020
802.496	7833
802.638	7894
802.78	7818
802.923	7967
803.065	7860
803.208	7795
803.35	7944
803.492	8069
803.635	8130
803.777	8081
803.919	8088
804.061	8518
804.204	8153
804.346	8024
804.488	7947
804.63	8107
804.773	7989
804.915	8100
805.057	8252
805.199	8123
805.341	8202
805.483	8282
805.626	8225
805.768	8119
805.91	8206
806.052	8191
806.194	8092
806.336	8279
806.478	8107
806.62	8100
806.762	8119
806.904	8298
807.046	8442
807.188	8366
807.33	8290
807.472	8343
807.614	8195
807.756	8161
807.898	7978
808.04	7936
808.182	7906
808.324	7883
808.465	7841
808.607	8001
808.749	8134
808.891	8244
809.033	8332
809.174	8225
809.316	8088
809.458	8054
809.6	7997
809.741	8043
809.883	8073
810.025	8016
810.166	8012
810.308	7993
810.45	8008
810.591	7814
810.733	7738
810.875	7674
811.016	7514
811.158	7419
811.299	7590
811.441	7666
811.582	7674
811.724	7601
811.865	7533
812.007	7609
812.148	7601
812.29	7670
812.431	7715
812.573	7871
812.714	8020
812.855	8065
812.997	8145
813.138	8305
813.279	8130
813.421	8081
813.562	7963
813.703	7818
813.845	7792
813.986	7362
814.127	7217
814.268	7183
814.41	7187
814.551	7160
814.692	7236
814.833	7145
814.974	7137
815.115	7202
815.256	6981
815.397	6905
815.539	6913
815.68	6787
815.821	6795
815.962	6852
816.103	6772
816.244	6749
816.385	6525
816.526	6623
816.666	6456
816.807	6338
816.948	6361
817.089	6395
817.23	6399
817.371	6350
817.512	6369
817.653	6365
817.793	6323
817.934	6410
818.075	6471
818.216	6399
818.356	6422
818.497	6232
818.638	6155
818.778	6197
818.919	6091
819.06	6083
819.2	6334
819.341	6346
819.481	6338
819.622	6502
819.762	6745
819.903	6681
820.043	6623
820.184	6585
820.324	6559
820.465	6707
820.605	6662
820.746	6650
820.886	6513
821.026	6616
821.167	6711
821.307	6741
821.447	6753
821.588	6639
821.728	6544
821.868	6452
822.008	6308
822.149	6342
822.289	6334
822.429	6201
822.569	6087
822.709	6117
822.849	5885
822.99	5870
823.13	5916
823.27	5859
823.41	5756
823.55	5824
823.69	5775
823.83	5733
823.97	5657
824.11	5516
824.25	5509
824.389	5528
824.529	5604
824.669	5501
824.809	5661
824.949	5684
825.089	5634
825.228	5547
825.368	5353
825.508	5349
825.648	5303
825.787	5417
825.927	5406
826.067	5322
826.206	5318
826.346	5372
826.485	5372
826.625	5353
826.765	5562
826.904	5509
827.044	5208
827.183	5242
827.323	5102
827.462	5159
827.601	5170
827.741	5197
827.88	5162
828.02	5056
828.159	5227
828.298	5208
828.437	5334
828.577	5231
828.716	5463
828.855	5341
828.994	5159
829.134	5174
829.273	5197
829.412	5151
829.551	5132
829.69	5162
829.829	5242
829.968	5376
830.107	5235
830.246	5242
830.385	5147
830.524	5090
830.663	5113
830.802	4961
830.941	4919
831.08	4847
831.219	4957
831.357	4976
831.496	5140
831.635	4877
831.774	4797
831.913	4786
832.051	4767
832.19	4755
832.329	4805
832.467	4664
832.606	4607
832.744	4706
832.883	4717
833.022	4702
833.16	4752
833.299	4866
833.437	4797
833.576	4816
833.714	4850
833.852	4835
833.991	4854
834.129	4942
834.267	4934
834.406	4949
834.544	4934
834.682	4942
834.821	4927
834.959	5140
835.097	4927
835.235	5109
835.373	5086
835.511	5128
835.65	5018
835.788	4999
835.926	4942
836.064	4904
836.202	4930
836.34	5121
836.478	5189
836.615	5124
836.753	5220
836.891	5326
837.029	5265
837.167	5201
837.305	5155
837.443	5136
837.58	5052
837.718	5296
837.856	5208
837.993	5136
838.131	5212
838.269	5181
838.406	5162
838.544	5143
838.681	5006
838.819	4999
838.956	4946
839.094	4934
839.231	5006
839.369	5025
839.506	5379
839.643	5318
839.781	5052
839.918	4991
840.055	5117
840.193	5079
840.33	5067
840.467	5201
840.604	5155
840.742	5455
840.879	5102
841.016	5090
841.153	5128
841.29	5372
841.427	5337
841.564	5311
841.701	5311
841.838	5216
841.975	5181
842.112	5311
842.249	5159
842.385	5136
842.522	5326
842.659	5155
842.796	5102
842.933	5212
843.069	5121
843.206	5117
843.343	5296
843.479	5261
843.616	5261
843.752	5018
843.889	5041
844.025	5246
844.162	5033
844.298	5197
844.435	5083
844.571	5060
844.708	5181
844.844	5326
844.98	5406
845.117	5239
845.253	5102
845.389	5048
845.525	5143
845.661	5109
845.798	5041
845.934	5098
846.07	5022
846.206	5151
846.342	5277
846.478	5147
846.614	5018
846.75	4946
846.886	4953
847.022	5132
847.158	5037
847.294	5094
847.429	5105
847.565	5079
847.701	5277
847.837	4831
847.972	4755
848.108	4919
848.244	4904
848.379	4744
848.515	4706
848.65	4733
848.786	4729
848.921	4824
849.057	4790
849.192	4923
849.328	4805
849.463	4858
849.598	4748
849.734	4767
849.869	4645
850.004	4615
850.14	4679
850.275	4618
850.41	4474
850.545	4577
850.68	4588
850.815	4630
850.95	4622
851.085	4809
851.22	4698
851.355	4626
851.49	4622
851.625	4622
851.76	4675
851.895	4577
852.03	4542
852.165	4641
852.299	4740
852.434	4801
852.569	4733
852.703	4755
852.838	4835
852.973	4904
853.107	4892
853.242	4710
853.376	4634
853.511	4538
853.645	4546
853.78	4763
853.914	4710
854.048	4656
854.183	4618
854.317	4729
854.451	4843
854.585	4653
854.72	4630
854.854	4721
854.988	4577
855.122	4615
855.256	4504
855.39	4584
855.524	4782
855.658	4694
855.792	4622
855.926	4740
856.06	4763
856.194	4805
856.327	4687
856.461	4565
856.595	4634
856.729	4641
856.862	4736
856.996	4691
857.13	4710
857.263	4778
857.397	4854
857.53	4637
857.664	4763
857.797	4721
857.931	4767
858.064	4660
858.197	4748
858.331	4656
858.464	4577
858.597	4512
858.731	4618
858.864	4618
858.997	4584
859.13	4649
859.263	4687
859.396	4714
859.529	4603
859.662	4577
859.795	4554
859.928	4656
860.061	4725
860.194	4763
860.327	4630
860.46	4596
860.592	4706
860.725	4710
860.858	4683
860.99	4588
861.123	4519
861.256	4527
861.388	4615
861.521	5341
861.653	4481
861.786	4443
861.918	4455
862.05	4474
862.183	4527
862.315	4596
862.447	4618
862.58	4580
862.712	4383
862.844	4329
862.976	4470
863.108	4417
863.24	4904
863.372	4341
863.504	4466
863.636	4394
863.768	4462
863.9	4428
864.032	4375
864.164	4379
864.296	4485
864.428	4535
864.559	4561
864.691	4504
864.823	4565
864.954	4485
865.086	4481
865.217	4432
865.349	4394
865.48	4443
865.612	4489
865.743	4622
865.875	4443
866.006	4424
866.137	4481
866.269	4402
866.4	4379
866.531	4413
866.662	4375
866.793	4394
866.924	4409
867.055	4455
867.186	4500
867.317	4402
867.448	4356
867.579	4367
867.71	4371
867.841	4329
867.972	4447
868.103	4440
868.233	4466
868.364	4417
868.495	4470
868.625	4675
868.756	4744
868.886	4577
869.017	4596
869.147	4710
869.278	4774
869.408	4645
869.539	4615
869.669	4694
869.799	4653
869.929	4759
870.06	4725
870.19	4991
870.32	4866
870.45	4942
870.58	4999
870.71	5086
870.84	5060
870.97	4896
871.1	4908
871.23	5140
871.36	5098
871.489	5022
871.619	4991
871.749	5052
871.879	5117
872.008	5102
872.138	5018
872.267	4938
872.397	4812
872.526	4767
872.656	4706
872.785	4740
872.915	4995
873.044	5022
873.173	4972
873.303	4980
873.432	4946
873.561	4957
873.69	4919
873.819	4866
873.948	4866
874.077	4793
874.206	4767
874.335	4797
874.464	4930
874.593	5029
874.722	4957
874.851	5052
874.979	5094
875.108	4995
875.237	4934
875.365	4858
875.494	4847
875.623	4930
875.751	4839
875.88	4904
876.008	4953
876.136	4953
876.265	5227
876.393	5357
876.521	5231
876.65	5239
876.778	5185
876.906	5045
877.034	4991
877.162	4984
877.29	4995
877.418	5033
877.546	5037
877.674	5052
877.802	5010
877.93	5041
878.058	4930
878.185	4839
878.313	4965
878.441	4987
878.568	4816
878.696	4858
878.824	4900
878.951	5006
879.079	5143
879.206	5280
879.333	5105
879.461	4968
879.588	5045
879.715	5113
879.842	5174
879.97	5010
880.097	4778
880.224	4774
880.351	4831
880.478	4793
880.605	4812
880.732	4771
880.859	5117
880.986	4843
881.112	4877
881.239	4725
881.366	4641
881.493	4603
881.619	4637
881.746	4679
881.872	4645
881.999	4664
882.125	4626
882.252	4778
882.378	4831
882.505	4953
882.631	4801
882.757	4691
882.883	4725
883.01	4740
883.136	4649
883.262	4622
883.388	4622
883.514	4793
883.64	4816
883.766	4771
883.892	4630
884.018	4710
884.143	4866
884.269	5010
884.395	4653
884.52	4588
884.646	4649
884.772	4577
884.897	4554
885.023	4656
885.148	4793
885.274	4809
885.399	4778
885.524	4694
885.65	4675
885.775	4721
885.9	4645
886.025	4858
886.15	4797
886.275	4725
886.4	4653
886.525	4736
886.65	4630
886.775	4717
886.9	4843
887.025	5018
887.149	4786
887.274	4653
887.399	4554
887.523	4584
887.648	4599
887.773	4569
887.897	4782
888.021	4733
888.146	4649
888.27	4793
888.395	4892
888.519	4774
888.643	4873
888.767	4809
888.891	4694
889.015	4656
889.139	4656
889.263	4615
889.387	4714
889.511	4812
889.635	4767
889.759	4622
889.883	4672
890.006	4733
890.13	4755
890.254	4558
890.377	4634
890.501	4546
890.624	4577
890.748	4656
890.871	4493
890.995	4455
891.118	4348
891.241	4504
891.364	4516
891.488	4615
891.611	4443
891.734	4535
891.857	4592
891.98	4550
892.103	4641
892.226	4607
892.349	4554
892.471	4371
892.594	4542
892.717	4577
892.839	4508
892.962	4599
893.085	4675
893.207	4622
893.33	4421
893.452	4500
893.575	4656
893.697	4561
893.819	4774
893.941	4797
894.064	4767
894.186	4554
894.308	4546
894.43	4706
894.552	4797
894.674	4778
894.796	4538
894.918	4596
895.04	4588
895.161	4675
895.283	4618
895.405	4607
895.526	4649
895.648	4668
895.769	4740
895.891	4717
896.012	4687
896.134	4717
896.255	4664
896.376	4626
896.498	4584
896.619	4740
896.74	4622
896.861	4626
896.982	4919
897.103	5067
897.224	4793
897.345	4748
897.466	4618
897.587	4744
897.708	4835
897.828	4759
897.949	4675
898.07	4558
898.19	4660
898.311	4801
898.431	4683
898.552	4702
898.672	4850
898.792	4809
898.913	4733
899.033	4649
899.153	4493
899.273	4432
899.393	4497
899.513	4535
899.633	4577
899.753	4542
899.873	4523
899.993	4584
900.113	4516
900.232	4603
900.352	4550
900.472	4519
900.591	4451
900.711	4489
900.83	4474
900.95	4622
901.069	4656
901.189	4531
901.308	4303
901.427	4299
901.546	4329
901.665	4512
901.784	4558
901.904	4383
902.023	4306
902.141	4139
902.26	4181
902.379	4329
902.498	4238
902.617	4185
902.735	4356
902.854	4417
902.973	4386
903.091	4246
903.21	4219
903.328	4280
903.446	4219
903.565	4253
903.683	4352
903.801	4230
903.919	4436
904.038	4436
904.156	4325
904.274	4478
904.392	4394
904.51	4424
904.627	4447
904.745	4565
904.863	4660
904.981	4386
905.098	4280
905.216	4348
905.334	4402
905.451	4424
905.569	4459
905.686	4531
905.803	4565
905.921	4386
906.038	4512
906.155	4512
906.272	4379
906.389	4443
906.506	4394
906.623	4390
906.74	4356
906.857	4356
906.974	4344
907.091	4558
907.208	4634
907.324	4641
907.441	4443
907.557	4375
907.674	4314
907.79	4295
907.907	4386
908.023	4497
908.139	4459
908.256	4455
908.372	4459
908.488	4440
908.604	4344
908.72	4341
908.836	4383
908.952	4303
909.068	4421
909.184	4523
909.3	4424
909.415	4538
909.531	4538
909.647	4333
909.762	4356
909.878	4352
909.993	4402
910.108	4421
910.224	4409
910.339	4497
910.454	4398
910.57	4325
910.685	4284
910.8	4660
910.915	4656
911.03	4447
911.145	4329
911.259	4325
911.374	4318
911.489	4287
911.604	4287
911.718	4139
911.833	4215
911.947	4086
912.062	4021
912.176	4211
912.291	4215
912.405	4204
912.519	4470
912.633	4459
912.748	4341
912.862	4280
912.976	4166
913.09	4097
913.204	4169
913.318	4242
913.431	4341
913.545	4371
913.659	4424
913.772	4341
913.886	4257
914	4177
914.113	4394
914.226	4497
914.34	4409
914.453	4230
914.566	4394
914.68	4268
914.793	4314
914.906	4154
915.019	4120
915.132	4093
915.245	4200
915.358	4219
915.47	4185
915.583	4303
915.696	4280
915.809	4402
915.921	4375
916.034	4207
916.146	4219
916.259	4238
916.371	4386
916.483	4360
916.595	4268
916.708	4322
916.82	4337
916.932	4329
917.044	4325
917.156	4390
917.268	4249
917.38	4268
917.491	4284
917.603	4333
917.715	4462
917.826	4379
917.938	4344
918.049	4223
918.161	4413
918.272	4535
918.384	4531
918.495	4432
918.606	4322
918.717	4253
918.828	4303
918.939	4363
919.05	4238
919.161	4322
919.272	4105
919.383	4261
919.494	4474
919.604	4607
919.715	4417
919.826	4348
919.936	4371
920.047	4489
920.157	4466
920.267	4660
920.378	4577
920.488	4451
920.598	4679
920.708	4873
920.818	4702
920.928	4793
921.038	4930
921.148	4900
921.258	4565
921.368	4538
921.477	4500
921.587	4447
921.697	4390
921.806	4546
921.916	4455
922.025	4272
922.134	4246
922.244	4215
922.353	4265
922.462	4196
922.571	4105
922.68	3964
922.789	3991
922.898	4010
923.007	4002
923.116	4067
923.224	4013
923.333	4086
923.442	4021
923.55	3941
923.659	3991
923.767	4124
923.876	4013
923.984	4139
924.092	4006
924.201	4074
924.309	4097
924.417	4173
924.525	4040
924.633	4139
924.741	5079
924.849	3915
924.956	4109
925.064	4002
925.172	3896
925.279	3907
925.387	4055
925.494	4025
925.602	4211
925.709	4162
925.816	4063
925.924	4086
926.031	4246
926.138	4169
926.245	4207
926.352	4101
926.459	4238
926.566	4299
926.673	4109
926.779	4044
926.886	4116
926.993	3987
927.099	3960
927.206	3918
927.312	3941
927.419	4025
927.525	3991
927.631	4093
927.737	3960
927.843	3930
927.95	3861
928.056	3956
928.162	3991
928.267	4082
928.373	4580
928.479	4090
928.585	3854
928.69	4032
928.796	4086
928.901	3979
929.007	3819
929.112	3960
929.218	4006
929.323	3937
929.428	3937
929.533	4082
929.638	3915
929.743	3956
929.848	4040
929.953	3956
930.058	3915
930.163	3781
930.267	3842
930.372	3968
930.477	3797
930.581	4017
930.685	3941
930.79	3804
930.894	3835
930.998	3846
931.103	3998
931.207	3694
931.311	3694
931.415	3660
931.519	3504
931.623	3538
