Data from test_V78500241_556.txt Node
Date: Fri Mar 25 16:52:52 CST 2022
User: usil
Spectrometer: V785-0024
Trigger mode: 0
Integration Time (sec): 4.000000E-1
Scans to average: 1
Nonlinearity correction enabled: false
Boxcar width: 0
Storing dark spectrum: false
XAxis mode: Wavelengths
Number of Pixels in Spectrum: 1024
>>>>>Begin Spectral Data<<<<<
801.071	8050
801.214	7970
801.356	7894
801.499	7784
801.641	7788
801.783	7879
801.926	8035
802.068	7902
802.211	8065
802.353	8077
802.496	7894
802.638	7932
802.78	7940
802.923	7913
803.065	7898
803.208	7822
803.35	7944
803.492	8035
803.635	8081
803.777	7974
803.919	8115
804.061	8393
804.204	8176
804.346	8005
804.488	7887
804.63	8092
804.773	7967
804.915	8062
805.057	8336
805.199	8100
805.341	8279
805.483	8332
805.626	8187
805.768	8153
805.91	8172
806.052	8301
806.194	8081
806.336	8358
806.478	8088
806.62	8054
806.762	8149
806.904	8267
807.046	8377
807.188	8301
807.33	8305
807.472	8286
807.614	8180
807.756	8210
807.898	8016
808.04	7860
808.182	8012
808.324	7955
808.465	7925
808.607	8039
808.749	8134
808.891	8240
809.033	8294
809.174	8252
809.316	8088
809.458	8054
809.6	8005
809.741	8062
809.883	7982
810.025	8069
810.166	8107
810.308	8008
810.45	8058
810.591	7913
810.733	7712
810.875	7613
811.016	7571
811.158	7582
811.299	7544
811.441	7784
811.582	7708
811.724	7605
811.865	7620
812.007	7624
812.148	7685
812.29	7643
812.431	7765
812.573	7978
812.714	8084
812.855	8195
812.997	8400
813.138	8389
813.279	8248
813.421	8221
813.562	8103
813.703	7913
813.845	7822
813.986	7567
814.127	7369
814.268	7301
814.41	7236
814.551	7190
814.692	7202
814.833	7171
814.974	7129
815.115	7084
815.256	7088
815.397	6985
815.539	7012
815.68	6882
815.821	6829
815.962	6989
816.103	6856
816.244	6798
816.385	6639
816.526	6650
816.666	6544
816.807	6281
816.948	6460
817.089	6547
817.23	6437
817.371	6414
817.512	6376
817.653	6426
817.793	6441
817.934	6448
818.075	6517
818.216	6445
818.356	6441
818.497	6285
818.638	6106
818.778	6133
818.919	6144
819.06	6190
819.2	6338
819.341	6319
819.481	6422
819.622	6528
819.762	6783
819.903	6741
820.043	6604
820.184	6616
820.324	6593
820.465	6703
820.605	6673
820.746	6604
820.886	6566
821.026	6608
821.167	6707
821.307	6837
821.447	6768
821.588	6673
821.728	6593
821.868	6502
822.008	6357
822.149	6369
822.289	6384
822.429	6209
822.569	6076
822.709	6117
822.849	5927
822.99	5942
823.13	5889
823.27	5973
823.41	5870
823.55	5824
823.69	5813
823.83	5798
823.97	5729
824.11	5570
824.25	5520
824.389	5524
824.529	5608
824.669	5562
824.809	5634
824.949	5665
825.089	5642
825.228	5608
825.368	5402
825.508	5349
825.648	5376
825.787	5402
825.927	5410
826.067	5334
826.206	5353
826.346	5421
826.485	5410
826.625	5448
826.765	5532
826.904	5509
827.044	5284
827.183	5227
827.323	5201
827.462	5288
827.601	5220
827.741	5242
827.88	5269
828.02	5193
828.159	5269
828.298	5326
828.437	5395
828.577	5292
828.716	5471
828.855	5334
828.994	5204
829.134	5185
829.273	5170
829.412	5155
829.551	5155
829.69	5166
829.829	5265
829.968	5414
830.107	5288
830.246	5322
830.385	5136
830.524	5178
830.663	5105
830.802	4999
830.941	4889
831.08	4938
831.219	4995
831.357	4984
831.496	5185
831.635	4965
831.774	4866
831.913	4877
832.051	4721
832.19	4782
832.329	4877
832.467	4714
832.606	4630
832.744	4710
832.883	4733
833.022	4698
833.16	4767
833.299	4862
833.437	4850
833.576	4809
833.714	4911
833.852	4885
833.991	4930
834.129	5010
834.267	4980
834.406	4889
834.544	4968
834.682	5029
834.821	4972
834.959	5178
835.097	5010
835.235	5220
835.373	5109
835.511	5113
835.65	5018
835.788	5045
835.926	4949
836.064	4885
836.202	4934
836.34	5201
836.478	5231
836.615	5147
836.753	5201
836.891	5261
837.029	5273
837.167	5193
837.305	5185
837.443	5159
837.58	5128
837.718	5261
837.856	5166
837.993	5201
838.131	5303
838.269	5201
838.406	5208
838.544	5208
838.681	5037
838.819	5075
838.956	4942
839.094	4904
839.231	5056
839.369	5056
839.506	5433
839.643	5288
839.781	5060
839.918	5029
840.055	5124
840.193	5174
840.33	5098
840.467	5170
840.604	5239
840.742	5455
840.879	5052
841.016	5117
841.153	5185
841.29	5364
841.427	5391
841.564	5315
841.701	5368
841.838	5303
841.975	5277
842.112	5204
842.249	5147
842.385	5147
842.522	5357
842.659	5212
842.796	5193
842.933	5212
843.069	5178
843.206	5181
843.343	5288
843.479	5235
843.616	5269
843.752	5014
843.889	4987
844.025	5265
844.162	5045
844.298	5208
844.435	5132
844.571	5109
844.708	5231
844.844	5364
844.98	5341
845.117	5311
845.253	5174
845.389	5102
845.525	5181
845.661	5174
845.798	5075
845.934	5159
846.07	5098
846.206	5212
846.342	5372
846.478	5235
846.614	5045
846.75	5018
846.886	4927
847.022	5143
847.158	5025
847.294	5075
847.429	5094
847.565	5083
847.701	5402
847.837	4908
847.972	4831
848.108	5010
848.244	4968
848.379	4793
848.515	4748
848.65	4729
848.786	4774
848.921	4801
849.057	4870
849.192	4942
849.328	4877
849.463	4862
849.598	4778
849.734	4786
849.869	4740
850.004	4637
850.14	4668
850.275	4634
850.41	4558
850.545	4561
850.68	4596
850.815	4645
850.95	4645
851.085	4870
851.22	4755
851.355	4736
851.49	4607
851.625	4641
851.76	4683
851.895	4527
852.03	4546
852.165	4596
852.299	4687
852.434	4778
852.569	4786
852.703	4793
852.838	4854
852.973	4949
853.107	4927
853.242	4759
853.376	4656
853.511	4603
853.645	4588
853.78	4816
853.914	4736
854.048	4687
854.183	4679
854.317	4691
854.451	4828
854.585	4683
854.72	4645
854.854	4774
854.988	4664
855.122	4637
855.256	4542
855.39	4660
855.524	4805
855.658	4755
855.792	4721
855.926	4767
856.06	4801
856.194	4820
856.327	4736
856.461	4656
856.595	4615
856.729	4641
856.862	4774
856.996	4733
857.13	4774
857.263	4820
857.397	4812
857.53	4675
857.664	4740
857.797	4767
857.931	4778
858.064	4702
858.197	4790
858.331	4694
858.464	4634
858.597	4573
858.731	4656
858.864	4637
858.997	4611
859.13	4733
859.263	4691
859.396	4748
859.529	4569
859.662	4565
859.795	4538
859.928	4656
860.061	4801
860.194	4824
860.327	4691
860.46	4561
860.592	4721
860.725	4740
860.858	4763
860.99	4630
861.123	4550
861.256	4561
861.388	4668
861.521	5452
861.653	4497
861.786	4462
861.918	4508
862.05	4516
862.183	4542
862.315	4649
862.447	4679
862.58	4550
862.712	4367
862.844	4363
862.976	4466
863.108	4440
863.24	4919
863.372	4341
863.504	4421
863.636	4402
863.768	4478
863.9	4443
864.032	4398
864.164	4405
864.296	4402
864.428	4542
864.559	4618
864.691	4565
864.823	4508
864.954	4542
865.086	4500
865.217	4466
865.349	4451
865.48	4428
865.612	4497
865.743	4554
865.875	4493
866.006	4459
866.137	4436
866.269	4405
866.4	4443
866.531	4367
866.662	4459
866.793	4409
866.924	4417
867.055	4470
867.186	4459
867.317	4428
867.448	4432
867.579	4379
867.71	4394
867.841	4390
867.972	4470
868.103	4474
868.233	4424
868.364	4424
868.495	4478
868.625	4656
868.756	4793
868.886	4523
869.017	4660
869.147	4778
869.278	4759
869.408	4691
869.539	4641
869.669	4729
869.799	4672
869.929	4790
870.06	4744
870.19	4938
870.32	4885
870.45	4972
870.58	5022
870.71	5090
870.84	5109
870.97	4908
871.1	4877
871.23	5170
871.36	5143
871.489	5037
871.619	5067
871.749	5128
871.879	5128
872.008	5170
872.138	5056
872.267	5018
872.397	4870
872.526	4847
872.656	4721
872.785	4816
872.915	4904
873.044	5048
873.173	4953
873.303	4946
873.432	4980
873.561	4934
873.69	4896
873.819	4892
873.948	4927
874.077	4831
874.206	4782
874.335	4809
874.464	4953
874.593	5102
874.722	5025
874.851	5151
874.979	5143
875.108	5022
875.237	4930
875.365	4866
875.494	4904
875.623	4980
875.751	4824
875.88	4870
876.008	4995
876.136	5060
876.265	5189
876.393	5277
876.521	5258
876.65	5212
876.778	5178
876.906	5117
877.034	4991
877.162	5003
877.29	5025
877.418	5064
877.546	5083
877.674	5033
877.802	5010
877.93	5060
878.058	4915
878.185	4843
878.313	4995
878.441	4961
878.568	4839
878.696	4896
878.824	4946
878.951	4984
879.079	5174
879.206	5288
879.333	5083
879.461	4995
879.588	5014
879.715	5159
879.842	5227
879.97	5018
880.097	4850
880.224	4744
880.351	4824
880.478	4839
880.605	4801
880.732	4790
880.859	5086
880.986	4900
881.112	4930
881.239	4847
881.366	4687
881.493	4634
881.619	4599
881.746	4660
881.872	4649
881.999	4637
882.125	4691
882.252	4828
882.378	4828
882.505	4949
882.631	4809
882.757	4683
882.883	4767
883.01	4748
883.136	4656
883.262	4618
883.388	4618
883.514	4820
883.64	4862
883.766	4843
883.892	4675
884.018	4660
884.143	4911
884.269	5052
884.395	4714
884.52	4611
884.646	4618
884.772	4611
884.897	4512
885.023	4645
885.148	4820
885.274	4889
885.399	4820
885.524	4698
885.65	4752
885.775	4771
885.9	4721
886.025	4866
886.15	4721
886.275	4687
886.4	4630
886.525	4736
886.65	4702
886.775	4679
886.9	4927
887.025	5010
887.149	4824
887.274	4710
887.399	4558
887.523	4626
887.648	4588
887.773	4546
887.897	4752
888.021	4812
888.146	4641
888.27	4847
888.395	4923
888.519	4771
888.643	4778
888.767	4873
888.891	4645
889.015	4660
889.139	4675
889.263	4561
889.387	4786
889.511	4953
889.635	4801
889.759	4645
889.883	4641
890.006	4752
890.13	4843
890.254	4634
890.377	4714
890.501	4535
890.624	4565
890.748	4615
890.871	4538
890.995	4428
891.118	4428
891.241	4527
891.364	4569
891.488	4653
891.611	4462
891.734	4535
891.857	4603
891.98	4561
892.103	4656
892.226	4565
892.349	4561
892.471	4436
892.594	4618
892.717	4577
892.839	4611
892.962	4611
893.085	4641
893.207	4580
893.33	4478
893.452	4554
893.575	4664
893.697	4592
893.819	4786
893.941	4866
894.064	4774
894.186	4550
894.308	4592
894.43	4714
894.552	4877
894.674	4774
894.796	4550
894.918	4653
895.04	4588
895.161	4683
895.283	4660
895.405	4546
895.526	4641
895.648	4641
895.769	4694
895.891	4710
896.012	4702
896.134	4748
896.255	4675
896.376	4672
896.498	4596
896.619	4702
896.74	4618
896.861	4675
896.982	4995
897.103	5102
897.224	4816
897.345	4782
897.466	4645
897.587	4755
897.708	4930
897.828	4736
897.949	4660
898.07	4542
898.19	4664
898.311	4835
898.431	4687
898.552	4740
898.672	4778
898.792	4809
898.913	4714
899.033	4626
899.153	4531
899.273	4424
899.393	4489
899.513	4527
899.633	4470
899.753	4546
899.873	4504
899.993	4580
900.113	4554
900.232	4596
900.352	4561
900.472	4519
900.591	4421
900.711	4516
900.83	4436
900.95	4607
901.069	4615
901.189	4508
901.308	4367
901.427	4360
901.546	4424
901.665	4451
901.784	4523
901.904	4421
902.023	4341
902.141	4177
902.26	4188
902.379	4303
902.498	4200
902.617	4204
902.735	4375
902.854	4371
902.973	4352
903.091	4211
903.21	4196
903.328	4238
903.446	4276
903.565	4242
903.683	4363
903.801	4272
903.919	4375
904.038	4462
904.156	4337
904.274	4405
904.392	4409
904.51	4440
904.627	4481
904.745	4592
904.863	4622
904.981	4371
905.098	4253
905.216	4383
905.334	4436
905.451	4436
905.569	4497
905.686	4554
905.803	4569
905.921	4432
906.038	4573
906.155	4451
906.272	4363
906.389	4500
906.506	4303
906.623	4325
906.74	4394
906.857	4291
906.974	4352
907.091	4626
907.208	4694
907.324	4611
907.441	4466
907.557	4352
907.674	4383
907.79	4318
907.907	4421
908.023	4485
908.139	4440
908.256	4417
908.372	4500
908.488	4455
908.604	4337
908.72	4322
908.836	4341
908.952	4363
909.068	4440
909.184	4554
909.3	4500
909.415	4596
909.531	4550
909.647	4375
909.762	4356
909.878	4325
909.993	4447
910.108	4451
910.224	4436
910.339	4455
910.454	4383
910.57	4341
910.685	4299
910.8	4637
910.915	4584
911.03	4478
911.145	4306
911.259	4329
911.374	4386
911.489	4257
911.604	4246
911.718	4158
911.833	4169
911.947	4071
912.062	4048
912.176	4230
912.291	4211
912.405	4253
912.519	4409
912.633	4504
912.748	4360
912.862	4314
912.976	4196
913.09	4139
913.204	4196
913.318	4272
913.431	4371
913.545	4379
913.659	4421
913.772	4390
913.886	4257
914	4238
914.113	4394
914.226	4424
914.34	4436
914.453	4268
914.566	4432
914.68	4360
914.793	4329
914.906	4162
915.019	4143
915.132	4093
915.245	4181
915.358	4246
915.47	4227
915.583	4257
915.696	4280
915.809	4455
915.921	4394
916.034	4234
916.146	4253
916.259	4257
916.371	4402
916.483	4325
916.595	4272
916.708	4318
916.82	4295
916.932	4352
917.044	4325
917.156	4333
917.268	4261
917.38	4276
917.491	4314
917.603	4295
917.715	4440
917.826	4417
917.938	4322
918.049	4276
918.161	4402
918.272	4531
918.384	4485
918.495	4451
918.606	4329
918.717	4242
918.828	4303
918.939	4318
919.05	4272
919.161	4318
919.272	4139
919.383	4230
919.494	4481
919.604	4637
919.715	4394
919.826	4363
919.936	4375
920.047	4569
920.157	4474
920.267	4702
920.378	4542
920.488	4451
920.598	4702
920.708	4908
920.818	4805
920.928	4721
921.038	4919
921.148	4946
921.258	4645
921.368	4550
921.477	4493
921.587	4428
921.697	4367
921.806	4546
921.916	4440
922.025	4314
922.134	4284
922.244	4234
922.353	4276
922.462	4192
922.571	4162
922.68	4025
922.789	3918
922.898	4082
923.007	3994
923.116	4116
923.224	4048
923.333	4063
923.442	3975
923.55	4013
923.659	3975
923.767	4067
923.876	3991
923.984	4086
924.092	3960
924.201	4059
924.309	4135
924.417	4109
924.525	4040
924.633	4139
924.741	5105
924.849	3915
924.956	4143
925.064	3945
925.172	3892
925.279	4021
925.387	4074
925.494	4082
925.602	4234
925.709	4234
925.816	4051
925.924	4090
926.031	4200
926.138	4200
926.245	4200
926.352	4097
926.459	4280
926.566	4291
926.673	4131
926.779	4093
926.886	4128
926.993	3994
927.099	3994
927.206	3934
927.312	3922
927.419	3983
927.525	4040
927.631	4188
927.737	3994
927.843	3945
927.95	3846
928.056	3964
928.162	3983
928.267	4051
928.373	4653
928.479	4120
928.585	3884
928.69	4017
928.796	4090
928.901	3968
929.007	3873
929.112	4002
929.218	3983
929.323	3907
929.428	3960
929.533	4093
929.638	3930
929.743	3991
929.848	4048
929.953	3964
930.058	3892
930.163	3797
930.267	3781
930.372	3983
930.477	3800
930.581	4086
930.685	3983
930.79	3854
930.894	3907
930.998	3846
931.103	4051
931.207	3720
931.311	3663
931.415	3728
931.519	3530
931.623	3568
