Data from test_V78500241_58.txt Node
Date: Fri Mar 25 16:49:24 CST 2022
User: usil
Spectrometer: V785-0024
Trigger mode: 0
Integration Time (sec): 4.000000E-1
Scans to average: 1
Nonlinearity correction enabled: false
Boxcar width: 0
Storing dark spectrum: false
XAxis mode: Wavelengths
Number of Pixels in Spectrum: 1024
>>>>>Begin Spectral Data<<<<<
801.071	8103
801.214	8092
801.356	7989
801.499	7955
801.641	7852
801.783	7852
801.926	8005
802.068	7963
802.211	8050
802.353	7997
802.496	7921
802.638	8043
802.78	7944
802.923	7970
803.065	7963
803.208	7898
803.35	8012
803.492	8168
803.635	8180
803.777	7909
803.919	8111
804.061	8404
804.204	8271
804.346	8092
804.488	7986
804.63	8081
804.773	7993
804.915	8054
805.057	8332
805.199	8149
805.341	8195
805.483	8298
805.626	8210
805.768	8111
805.91	8187
806.052	8206
806.194	8103
806.336	8347
806.478	8134
806.62	8145
806.762	8271
806.904	8301
807.046	8530
807.188	8347
807.33	8358
807.472	8358
807.614	8210
807.756	8218
807.898	8062
808.04	7955
808.182	7989
808.324	7849
808.465	7887
808.607	8096
808.749	8103
808.891	8294
809.033	8370
809.174	8191
809.316	8043
809.458	8081
809.6	7963
809.741	7993
809.883	8005
810.025	8107
810.166	8012
810.308	8050
810.45	8012
810.591	7898
810.733	7822
810.875	7727
811.016	7597
811.158	7567
811.299	7700
811.441	7795
811.582	7719
811.724	7609
811.865	7567
812.007	7666
812.148	7636
812.29	7662
812.431	7769
812.573	7967
812.714	7989
812.855	8233
812.997	8221
813.138	8332
813.279	8252
813.421	8119
813.562	8024
813.703	7883
813.845	7750
813.986	7487
814.127	7270
814.268	7285
814.41	7316
814.551	7236
814.692	7213
814.833	7126
814.974	7129
815.115	7160
815.256	6939
815.397	6981
815.539	6962
815.68	6726
815.821	6783
815.962	6859
816.103	6741
816.244	6745
816.385	6677
816.526	6551
816.666	6532
816.807	6403
816.948	6452
817.089	6570
817.23	6452
817.371	6391
817.512	6384
817.653	6486
817.793	6376
817.934	6426
818.075	6494
818.216	6426
818.356	6471
818.497	6311
818.638	6205
818.778	6213
818.919	6190
819.06	6178
819.2	6357
819.341	6388
819.481	6388
819.622	6517
819.762	6673
819.903	6764
820.043	6692
820.184	6620
820.324	6639
820.465	6722
820.605	6734
820.746	6707
820.886	6559
821.026	6673
821.167	6703
821.307	6859
821.447	6802
821.588	6673
821.728	6582
821.868	6521
822.008	6418
822.149	6376
822.289	6380
822.429	6186
822.569	6110
822.709	6095
822.849	5954
822.99	5946
823.13	5946
823.27	5969
823.41	5866
823.55	5870
823.69	5809
823.83	5832
823.97	5703
824.11	5577
824.25	5478
824.389	5630
824.529	5619
824.669	5619
824.809	5611
824.949	5745
825.089	5649
825.228	5657
825.368	5467
825.508	5402
825.648	5322
825.787	5379
825.927	5444
826.067	5383
826.206	5296
826.346	5395
826.485	5459
826.625	5425
826.765	5630
826.904	5524
827.044	5296
827.183	5277
827.323	5189
827.462	5292
827.601	5208
827.741	5201
827.88	5254
828.02	5136
828.159	5227
828.298	5345
828.437	5414
828.577	5334
828.716	5467
828.855	5337
828.994	5170
829.134	5212
829.273	5242
829.412	5132
829.551	5147
829.69	5170
829.829	5273
829.968	5398
830.107	5307
830.246	5334
830.385	5189
830.524	5166
830.663	5071
830.802	4987
830.941	4908
831.08	4949
831.219	4995
831.357	5025
831.496	5162
831.635	4965
831.774	4896
831.913	4889
832.051	4771
832.19	4721
832.329	4911
832.467	4668
832.606	4656
832.744	4809
832.883	4805
833.022	4763
833.16	4797
833.299	4790
833.437	4801
833.576	4854
833.714	4885
833.852	4919
833.991	4873
834.129	4968
834.267	4946
834.406	4889
834.544	4976
834.682	5029
834.821	4999
834.959	5197
835.097	5018
835.235	5178
835.373	5102
835.511	5105
835.65	5018
835.788	5041
835.926	4877
836.064	4900
836.202	4972
836.34	5201
836.478	5265
836.615	5109
836.753	5235
836.891	5284
837.029	5299
837.167	5204
837.305	5124
837.443	5136
837.58	5121
837.718	5261
837.856	5204
837.993	5204
838.131	5239
838.269	5197
838.406	5189
838.544	5223
838.681	5090
838.819	5079
838.956	4930
839.094	4949
839.231	5025
839.369	5121
839.506	5463
839.643	5284
839.781	5113
839.918	5029
840.055	5113
840.193	5121
840.33	5121
840.467	5193
840.604	5216
840.742	5493
840.879	5075
841.016	5140
841.153	5147
841.29	5383
841.427	5376
841.564	5337
841.701	5368
841.838	5318
841.975	5208
842.112	5299
842.249	5170
842.385	5105
842.522	5296
842.659	5204
842.796	5174
842.933	5181
843.069	5178
843.206	5189
843.343	5334
843.479	5277
843.616	5296
843.752	5083
843.889	5029
844.025	5273
844.162	5064
844.298	5242
844.435	5037
844.571	5147
844.708	5223
844.844	5258
844.98	5368
845.117	5334
845.253	5208
845.389	5185
845.525	5166
845.661	5189
845.798	5079
845.934	5121
846.07	5075
846.206	5242
846.342	5334
846.478	5223
846.614	5071
846.75	5003
846.886	4999
847.022	5136
847.158	5075
847.294	5098
847.429	5132
847.565	5060
847.701	5357
847.837	4870
847.972	4828
848.108	4976
848.244	4942
848.379	4816
848.515	4755
848.65	4706
848.786	4828
848.921	4862
849.057	4866
849.192	4892
849.328	4843
849.463	4835
849.598	4831
849.734	4805
849.869	4752
850.004	4706
850.14	4714
850.275	4637
850.41	4577
850.545	4592
850.68	4599
850.815	4622
850.95	4660
851.085	4877
851.22	4752
851.355	4717
851.49	4675
851.625	4592
851.76	4630
851.895	4538
852.03	4535
852.165	4702
852.299	4714
852.434	4843
852.569	4816
852.703	4797
852.838	4877
852.973	4976
853.107	4934
853.242	4778
853.376	4698
853.511	4554
853.645	4694
853.78	4843
853.914	4721
854.048	4687
854.183	4691
854.317	4736
854.451	4900
854.585	4721
854.72	4687
854.854	4793
854.988	4615
855.122	4618
855.256	4588
855.39	4691
855.524	4801
855.658	4748
855.792	4763
855.926	4763
856.06	4786
856.194	4873
856.327	4793
856.461	4660
856.595	4599
856.729	4687
856.862	4828
856.996	4710
857.13	4755
857.263	4824
857.397	4816
857.53	4687
857.664	4744
857.797	4771
857.931	4778
858.064	4748
858.197	4778
858.331	4679
858.464	4660
858.597	4527
858.731	4691
858.864	4660
858.997	4637
859.13	4698
859.263	4721
859.396	4733
859.529	4641
859.662	4531
859.795	4580
859.928	4618
860.061	4820
860.194	4759
860.327	4656
860.46	4584
860.592	4714
860.725	4740
860.858	4744
860.99	4653
861.123	4599
861.256	4561
861.388	4626
861.521	5258
861.653	4519
861.786	4447
861.918	4527
862.05	4538
862.183	4607
862.315	4626
862.447	4675
862.58	4592
862.712	4428
862.844	4360
862.976	4470
863.108	4497
863.24	4885
863.372	4341
863.504	4493
863.636	4421
863.768	4504
863.9	4462
864.032	4371
864.164	4447
864.296	4481
864.428	4546
864.559	4588
864.691	4584
864.823	4573
864.954	4535
865.086	4527
865.217	4474
865.349	4440
865.48	4478
865.612	4542
865.743	4653
865.875	4500
866.006	4481
866.137	4493
866.269	4455
866.4	4466
866.531	4447
866.662	4440
866.793	4424
866.924	4440
867.055	4565
867.186	4455
867.317	4466
867.448	4371
867.579	4424
867.71	4421
867.841	4402
867.972	4493
868.103	4519
868.233	4470
868.364	4470
868.495	4500
868.625	4721
868.756	4755
868.886	4558
869.017	4714
869.147	4797
869.278	4797
869.408	4687
869.539	4687
869.669	4683
869.799	4710
869.929	4797
870.06	4736
870.19	4984
870.32	4919
870.45	4965
870.58	5071
870.71	5064
870.84	5178
870.97	4980
871.1	4919
871.23	5204
871.36	5143
871.489	5037
871.619	5121
871.749	5143
871.879	5201
872.008	5193
872.138	5033
872.267	4968
872.397	4885
872.526	4820
872.656	4767
872.785	4854
872.915	5003
873.044	5041
873.173	4911
873.303	4968
873.432	4961
873.561	5003
873.69	4877
873.819	4889
873.948	4984
874.077	4847
874.206	4786
874.335	4839
874.464	4927
874.593	5090
874.722	5003
874.851	5102
874.979	5132
875.108	5006
875.237	4961
875.365	4911
875.494	4942
875.623	5025
875.751	4793
875.88	4881
876.008	5064
876.136	5018
876.265	5208
876.393	5311
876.521	5239
876.65	5303
876.778	5189
876.906	5094
877.034	4984
877.162	5090
877.29	5010
877.418	5090
877.546	5067
877.674	5056
877.802	5064
877.93	5060
878.058	4957
878.185	4919
878.313	4976
878.441	4968
878.568	4847
878.696	4870
878.824	5025
878.951	4999
879.079	5162
879.206	5315
879.333	5136
879.461	5014
879.588	5014
879.715	5090
879.842	5265
879.97	4984
880.097	4805
880.224	4763
880.351	4870
880.478	4850
880.605	4843
880.732	4771
880.859	5090
880.986	4999
881.112	5010
881.239	4793
881.366	4748
881.493	4645
881.619	4687
881.746	4649
881.872	4698
881.999	4733
882.125	4763
882.252	4782
882.378	4862
882.505	5037
882.631	4866
882.757	4706
882.883	4824
883.01	4801
883.136	4729
883.262	4653
883.388	4660
883.514	4847
883.64	4949
883.766	4881
883.892	4748
884.018	4824
884.143	4911
884.269	5090
884.395	4759
884.52	4672
884.646	4721
884.772	4649
884.897	4596
885.023	4717
885.148	4820
885.274	4949
885.399	4892
885.524	4778
885.65	4774
885.775	4801
885.9	4828
886.025	4949
886.15	4889
886.275	4816
886.4	4748
886.525	4820
886.65	4748
886.775	4725
886.9	4984
887.025	5132
887.149	4885
887.274	4668
887.399	4672
887.523	4637
887.648	4664
887.773	4660
887.897	4809
888.021	4858
888.146	4782
888.27	4927
888.395	4953
888.519	4850
888.643	4866
888.767	4904
888.891	4755
889.015	4615
889.139	4702
889.263	4691
889.387	4820
889.511	4923
889.635	4858
889.759	4752
889.883	4694
890.006	4801
890.13	4938
890.254	4691
890.377	4755
890.501	4622
890.624	4664
890.748	4691
890.871	4546
890.995	4508
891.118	4428
891.241	4615
891.364	4649
891.488	4691
891.611	4592
891.734	4630
891.857	4660
891.98	4645
892.103	4675
892.226	4637
892.349	4596
892.471	4478
892.594	4618
892.717	4672
892.839	4687
892.962	4698
893.085	4706
893.207	4672
893.33	4485
893.452	4584
893.575	4702
893.697	4626
893.819	4885
893.941	4915
894.064	4885
894.186	4618
894.308	4641
894.43	4801
894.552	4911
894.674	4816
894.796	4649
894.918	4649
895.04	4626
895.161	4790
895.283	4721
895.405	4634
895.526	4687
895.648	4740
895.769	4740
895.891	4793
896.012	4771
896.134	4809
896.255	4790
896.376	4736
896.498	4641
896.619	4790
896.74	4702
896.861	4729
896.982	4984
897.103	5136
897.224	4946
897.345	4820
897.466	4748
897.587	4809
897.708	4938
897.828	4790
897.949	4702
898.07	4618
898.19	4733
898.311	4870
898.431	4744
898.552	4812
898.672	4881
898.792	4866
898.913	4831
899.033	4656
899.153	4527
899.273	4466
899.393	4577
899.513	4599
899.633	4603
899.753	4584
899.873	4577
899.993	4607
900.113	4603
900.232	4645
900.352	4592
900.472	4573
900.591	4451
900.711	4546
900.83	4504
900.95	4634
901.069	4755
901.189	4637
901.308	4379
901.427	4344
901.546	4443
901.665	4596
901.784	4550
901.904	4489
902.023	4413
902.141	4253
902.26	4234
902.379	4371
902.498	4325
902.617	4257
902.735	4398
902.854	4455
902.973	4386
903.091	4238
903.21	4314
903.328	4360
903.446	4325
903.565	4329
903.683	4428
903.801	4344
903.919	4462
904.038	4516
904.156	4333
904.274	4474
904.392	4485
904.51	4459
904.627	4584
904.745	4630
904.863	4763
904.981	4500
905.098	4325
905.216	4402
905.334	4504
905.451	4546
905.569	4523
905.686	4630
905.803	4641
905.921	4466
906.038	4634
906.155	4569
906.272	4470
906.389	4516
906.506	4451
906.623	4421
906.74	4466
906.857	4375
906.974	4443
907.091	4641
907.208	4759
907.324	4653
907.441	4573
907.557	4409
907.674	4424
907.79	4421
907.907	4478
908.023	4565
908.139	4546
908.256	4565
908.372	4519
908.488	4504
908.604	4421
908.72	4363
908.836	4428
908.952	4497
909.068	4516
909.184	4634
909.3	4519
909.415	4622
909.531	4630
909.647	4421
909.762	4447
909.878	4409
909.993	4550
910.108	4527
910.224	4489
910.339	4538
910.454	4447
910.57	4413
910.685	4375
910.8	4714
910.915	4637
911.03	4558
911.145	4424
911.259	4402
911.374	4440
911.489	4379
911.604	4299
911.718	4230
911.833	4272
911.947	4105
912.062	4059
912.176	4291
912.291	4287
912.405	4276
912.519	4546
912.633	4554
912.748	4455
912.862	4360
912.976	4253
913.09	4154
913.204	4253
913.318	4280
913.431	4462
913.545	4432
913.659	4489
913.772	4409
913.886	4318
914	4318
914.113	4459
914.226	4497
914.34	4428
914.453	4276
914.566	4470
914.68	4379
914.793	4398
914.906	4204
915.019	4135
915.132	4109
915.245	4265
915.358	4253
915.47	4280
915.583	4310
915.696	4363
915.809	4470
915.921	4493
916.034	4344
916.146	4333
916.259	4299
916.371	4462
916.483	4436
916.595	4344
916.708	4390
916.82	4337
916.932	4417
917.044	4371
917.156	4386
917.268	4333
917.38	4329
917.491	4348
917.603	4409
917.715	4508
917.826	4497
917.938	4409
918.049	4310
918.161	4447
918.272	4607
918.384	4634
918.495	4516
918.606	4371
918.717	4310
918.828	4390
918.939	4405
919.05	4314
919.161	4394
919.272	4173
919.383	4299
919.494	4519
919.604	4782
919.715	4485
919.826	4409
919.936	4432
920.047	4580
920.157	4538
920.267	4763
920.378	4599
920.488	4577
920.598	4736
920.708	4949
920.818	4812
920.928	4801
921.038	5029
921.148	4972
921.258	4717
921.368	4622
921.477	4558
921.587	4531
921.697	4405
921.806	4630
921.916	4462
922.025	4333
922.134	4333
922.244	4337
922.353	4371
922.462	4234
922.571	4147
922.68	4086
922.789	4055
922.898	4051
923.007	4036
923.116	4135
923.224	4086
923.333	4154
923.442	4021
923.55	4101
923.659	4101
923.767	4135
923.876	4109
923.984	4200
924.092	4071
924.201	4166
924.309	4120
924.417	4166
924.525	4120
924.633	4128
924.741	5079
924.849	4017
924.956	4192
925.064	3994
925.172	3945
925.279	4055
925.387	4067
925.494	4074
925.602	4276
925.709	4234
925.816	4112
925.924	4207
926.031	4314
926.138	4211
926.245	4238
926.352	4147
926.459	4295
926.566	4341
926.673	4192
926.779	4147
926.886	4131
926.993	4017
927.099	4059
927.206	4082
927.312	4002
927.419	4105
927.525	4097
927.631	4162
927.737	4032
927.843	4013
927.95	3915
928.056	3964
928.162	3998
928.267	4120
928.373	4759
928.479	4207
928.585	3934
928.69	4086
928.796	4120
928.901	4029
929.007	3876
929.112	4055
929.218	4010
929.323	4021
929.428	3964
929.533	4185
929.638	3953
929.743	4029
929.848	4093
929.953	4032
930.058	4006
930.163	3835
930.267	3907
930.372	4025
930.477	3850
930.581	4169
930.685	3949
930.79	3861
930.894	3949
930.998	3926
931.103	4135
931.207	3762
931.311	3778
931.415	3728
931.519	3606
931.623	3595
