Data from test_V78500241_88.txt Node
Date: Fri Mar 25 16:49:36 CST 2022
User: usil
Spectrometer: V785-0024
Trigger mode: 0
Integration Time (sec): 4.000000E-1
Scans to average: 1
Nonlinearity correction enabled: false
Boxcar width: 0
Storing dark spectrum: false
XAxis mode: Wavelengths
Number of Pixels in Spectrum: 1024
>>>>>Begin Spectral Data<<<<<
801.071	8065
801.214	8084
801.356	7951
801.499	7875
801.641	7864
801.783	7875
801.926	8043
802.068	7951
802.211	8020
802.353	8077
802.496	7944
802.638	7978
802.78	7974
802.923	8024
803.065	7978
803.208	7902
803.35	7970
803.492	8039
803.635	8138
803.777	8039
803.919	8084
804.061	8442
804.204	8126
804.346	8012
804.488	7906
804.63	8081
804.773	8027
804.915	8050
805.057	8267
805.199	8103
805.341	8176
805.483	8248
805.626	8240
805.768	8145
805.91	8161
806.052	8214
806.194	8153
806.336	8294
806.478	8161
806.62	8142
806.762	8157
806.904	8279
807.046	8438
807.188	8434
807.33	8317
807.472	8282
807.614	8187
807.756	8149
807.898	8081
808.04	7921
808.182	7909
808.324	7890
808.465	7944
808.607	7970
808.749	7997
808.891	8214
809.033	8237
809.174	8221
809.316	8065
809.458	8069
809.6	7997
809.741	8119
809.883	8046
810.025	8096
810.166	8058
810.308	8043
810.45	8046
810.591	7936
810.733	7788
810.875	7693
811.016	7533
811.158	7521
811.299	7681
811.441	7776
811.582	7780
811.724	7639
811.865	7636
812.007	7628
812.148	7689
812.29	7708
812.431	7849
812.573	7894
812.714	7986
812.855	8225
812.997	8282
813.138	8393
813.279	8279
813.421	8233
813.562	8008
813.703	7932
813.845	7856
813.986	7460
814.127	7251
814.268	7175
814.41	7251
814.551	7190
814.692	7213
814.833	7103
814.974	7122
815.115	7187
815.256	7012
815.397	6947
815.539	6947
815.68	6806
815.821	6867
815.962	6848
816.103	6806
816.244	6703
816.385	6696
816.526	6608
816.666	6547
816.807	6365
816.948	6502
817.089	6509
817.23	6490
817.371	6376
817.512	6418
817.653	6460
817.793	6403
817.934	6448
818.075	6429
818.216	6506
818.356	6460
818.497	6304
818.638	6175
818.778	6197
818.919	6190
819.06	6178
819.2	6391
819.341	6323
819.481	6357
819.622	6585
819.762	6783
819.903	6768
820.043	6612
820.184	6623
820.324	6544
820.465	6802
820.605	6738
820.746	6635
820.886	6563
821.026	6692
821.167	6760
821.307	6818
821.447	6818
821.588	6688
821.728	6669
821.868	6494
822.008	6372
822.149	6464
822.289	6403
822.429	6201
822.569	6175
822.709	6178
822.849	5939
822.99	5916
823.13	5923
823.27	5931
823.41	5836
823.55	5779
823.69	5809
823.83	5859
823.97	5695
824.11	5665
824.25	5615
824.389	5611
824.529	5653
824.669	5604
824.809	5657
824.949	5684
825.089	5661
825.228	5634
825.368	5463
825.508	5395
825.648	5406
825.787	5467
825.927	5360
826.067	5326
826.206	5311
826.346	5391
826.485	5436
826.625	5455
826.765	5520
826.904	5509
827.044	5254
827.183	5254
827.323	5159
827.462	5239
827.601	5181
827.741	5235
827.88	5269
828.02	5124
828.159	5250
828.298	5353
828.437	5345
828.577	5299
828.716	5497
828.855	5406
828.994	5220
829.134	5132
829.273	5208
829.412	5109
829.551	5178
829.69	5174
829.829	5227
829.968	5440
830.107	5242
830.246	5307
830.385	5185
830.524	5159
830.663	5098
830.802	5029
830.941	4938
831.08	4938
831.219	4980
831.357	5048
831.496	5220
831.635	4976
831.774	4908
831.913	4915
832.051	4721
832.19	4778
832.329	4850
832.467	4687
832.606	4664
832.744	4740
832.883	4752
833.022	4729
833.16	4812
833.299	4801
833.437	4862
833.576	4858
833.714	4911
833.852	4904
833.991	4858
834.129	4991
834.267	4999
834.406	4949
834.544	5060
834.682	5018
834.821	4980
834.959	5140
835.097	5075
835.235	5204
835.373	5117
835.511	5109
835.65	5037
835.788	5079
835.926	4923
836.064	4877
836.202	4991
836.34	5220
836.478	5250
836.615	5185
836.753	5235
836.891	5330
837.029	5269
837.167	5254
837.305	5181
837.443	5189
837.58	5098
837.718	5277
837.856	5239
837.993	5170
838.131	5265
838.269	5227
838.406	5311
838.544	5216
838.681	5098
838.819	4999
838.956	4930
839.094	4965
839.231	4991
839.369	5071
839.506	5444
839.643	5307
839.781	5064
839.918	5025
840.055	5132
840.193	5136
840.33	5128
840.467	5132
840.604	5223
840.742	5452
840.879	5143
841.016	5079
841.153	5212
841.29	5391
841.427	5376
841.564	5429
841.701	5379
841.838	5296
841.975	5277
842.112	5299
842.249	5132
842.385	5113
842.522	5296
842.659	5204
842.796	5174
842.933	5197
843.069	5174
843.206	5147
843.343	5315
843.479	5246
843.616	5299
843.752	5071
843.889	5037
844.025	5235
844.162	5041
844.298	5231
844.435	5132
844.571	5079
844.708	5193
844.844	5341
844.98	5326
845.117	5292
845.253	5212
845.389	5079
845.525	5201
845.661	5143
845.798	5094
845.934	5117
846.07	5041
846.206	5269
846.342	5303
846.478	5220
846.614	5067
846.75	4991
846.886	4987
847.022	5159
847.158	5041
847.294	5086
847.429	5124
847.565	5045
847.701	5349
847.837	4873
847.972	4801
848.108	4980
848.244	4984
848.379	4793
848.515	4774
848.65	4714
848.786	4786
848.921	4839
849.057	4870
849.192	4930
849.328	4870
849.463	4892
849.598	4858
849.734	4786
849.869	4774
850.004	4740
850.14	4668
850.275	4622
850.41	4542
850.545	4622
850.68	4634
850.815	4599
850.95	4618
851.085	4862
851.22	4767
851.355	4675
851.49	4580
851.625	4653
851.76	4649
851.895	4569
852.03	4527
852.165	4683
852.299	4748
852.434	4793
852.569	4725
852.703	4763
852.838	4866
852.973	4930
853.107	4915
853.242	4725
853.376	4710
853.511	4584
853.645	4679
853.78	4793
853.914	4736
854.048	4714
854.183	4717
854.317	4672
854.451	4877
854.585	4660
854.72	4615
854.854	4812
854.988	4580
855.122	4679
855.256	4550
855.39	4706
855.524	4805
855.658	4740
855.792	4683
855.926	4755
856.06	4771
856.194	4801
856.327	4733
856.461	4641
856.595	4641
856.729	4675
856.862	4816
856.996	4759
857.13	4774
857.263	4816
857.397	4824
857.53	4683
857.664	4744
857.797	4767
857.931	4812
858.064	4759
858.197	4759
858.331	4611
858.464	4611
858.597	4607
858.731	4626
858.864	4672
858.997	4596
859.13	4653
859.263	4679
859.396	4744
859.529	4603
859.662	4584
859.795	4546
859.928	4645
860.061	4793
860.194	4862
860.327	4592
860.46	4588
860.592	4763
860.725	4698
860.858	4729
860.99	4599
861.123	4546
861.256	4550
861.388	4641
861.521	5223
861.653	4527
861.786	4462
861.918	4462
862.05	4531
862.183	4630
862.315	4626
862.447	4656
862.58	4580
862.712	4440
862.844	4344
862.976	4481
863.108	4470
863.24	4889
863.372	4447
863.504	4436
863.636	4424
863.768	4516
863.9	4447
864.032	4417
864.164	4398
864.296	4512
864.428	4569
864.559	4588
864.691	4573
864.823	4596
864.954	4531
865.086	4554
865.217	4516
865.349	4466
865.48	4519
865.612	4489
865.743	4660
865.875	4447
866.006	4504
866.137	4478
866.269	4451
866.4	4459
866.531	4451
866.662	4363
866.793	4405
866.924	4481
867.055	4497
867.186	4516
867.317	4481
867.448	4402
867.579	4405
867.71	4417
867.841	4405
867.972	4493
868.103	4474
868.233	4440
868.364	4466
868.495	4500
868.625	4729
868.756	4812
868.886	4580
869.017	4641
869.147	4805
869.278	4790
869.408	4653
869.539	4656
869.669	4782
869.799	4656
869.929	4778
870.06	4736
870.19	4987
870.32	4938
870.45	4915
870.58	5075
870.71	5124
870.84	5124
870.97	4976
871.1	4885
871.23	5216
871.36	5140
871.489	5025
871.619	5151
871.749	5079
871.879	5174
872.008	5216
872.138	5048
872.267	4976
872.397	4889
872.526	4809
872.656	4748
872.785	4847
872.915	4972
873.044	5071
873.173	4961
873.303	5014
873.432	4949
873.561	4923
873.69	4896
873.819	4904
873.948	4927
874.077	4843
874.206	4771
874.335	4816
874.464	4915
874.593	5064
874.722	4987
874.851	5105
874.979	5064
875.108	5094
875.237	4953
875.365	4923
875.494	4881
875.623	5014
875.751	4850
875.88	4850
876.008	4968
876.136	5041
876.265	5189
876.393	5318
876.521	5318
876.65	5223
876.778	5162
876.906	5105
877.034	5098
877.162	5056
877.29	4953
877.418	5071
877.546	5079
877.674	5086
877.802	5071
877.93	4984
878.058	4976
878.185	4900
878.313	4965
878.441	5037
878.568	4835
878.696	4930
878.824	4991
878.951	5010
879.079	5151
879.206	5307
879.333	5109
879.461	4991
879.588	5060
879.715	5128
879.842	5292
879.97	5083
880.097	4828
880.224	4763
880.351	4824
880.478	4809
880.605	4820
880.732	4801
880.859	5056
880.986	4911
881.112	4919
881.239	4797
881.366	4706
881.493	4622
881.619	4561
881.746	4611
881.872	4736
881.999	4668
882.125	4736
882.252	4812
882.378	4854
882.505	5006
882.631	4858
882.757	4675
882.883	4771
883.01	4828
883.136	4736
883.262	4683
883.388	4615
883.514	4831
883.64	4892
883.766	4793
883.892	4687
884.018	4714
884.143	4908
884.269	5067
884.395	4729
884.52	4634
884.646	4698
884.772	4626
884.897	4618
885.023	4656
885.148	4793
885.274	4858
885.399	4839
885.524	4710
885.65	4698
885.775	4740
885.9	4736
886.025	4873
886.15	4854
886.275	4733
886.4	4706
886.525	4714
886.65	4698
886.775	4687
886.9	5006
887.025	5048
887.149	4831
887.274	4702
887.399	4645
887.523	4645
887.648	4653
887.773	4611
887.897	4812
888.021	4854
888.146	4736
888.27	4843
888.395	4923
888.519	4812
888.643	4824
888.767	4873
888.891	4733
889.015	4641
889.139	4679
889.263	4618
889.387	4733
889.511	4927
889.635	4786
889.759	4664
889.883	4706
890.006	4748
890.13	4854
890.254	4611
890.377	4706
890.501	4573
890.624	4512
890.748	4622
890.871	4531
890.995	4447
891.118	4398
891.241	4504
891.364	4542
891.488	4660
891.611	4535
891.734	4565
891.857	4603
891.98	4554
892.103	4672
892.226	4611
892.349	4550
892.471	4459
892.594	4565
892.717	4607
892.839	4577
892.962	4634
893.085	4698
893.207	4634
893.33	4451
893.452	4596
893.575	4618
893.697	4596
893.819	4824
893.941	4866
894.064	4778
894.186	4584
894.308	4573
894.43	4790
894.552	4862
894.674	4790
894.796	4599
894.918	4599
895.04	4565
895.161	4774
895.283	4729
895.405	4603
895.526	4615
895.648	4679
895.769	4717
895.891	4733
896.012	4771
896.134	4782
896.255	4687
896.376	4687
896.498	4710
896.619	4714
896.74	4656
896.861	4664
896.982	4938
897.103	5147
897.224	4812
897.345	4828
897.466	4679
897.587	4797
897.708	4870
897.828	4782
897.949	4622
898.07	4607
898.19	4656
898.311	4881
898.431	4744
898.552	4774
898.672	4839
898.792	4809
898.913	4714
899.033	4607
899.153	4497
899.273	4405
899.393	4485
899.513	4504
899.633	4538
899.753	4558
899.873	4538
899.993	4584
900.113	4523
900.232	4622
900.352	4527
900.472	4481
900.591	4451
900.711	4489
900.83	4440
900.95	4641
901.069	4698
901.189	4607
901.308	4421
901.427	4356
901.546	4398
901.665	4493
901.784	4527
901.904	4360
902.023	4363
902.141	4192
902.26	4211
902.379	4356
902.498	4295
902.617	4276
902.735	4375
902.854	4440
902.973	4375
903.091	4268
903.21	4234
903.328	4287
903.446	4291
903.565	4280
903.683	4367
903.801	4333
903.919	4421
904.038	4447
904.156	4363
904.274	4470
904.392	4451
904.51	4447
904.627	4497
904.745	4542
904.863	4694
904.981	4402
905.098	4341
905.216	4367
905.334	4440
905.451	4481
905.569	4436
905.686	4546
905.803	4588
905.921	4432
906.038	4577
906.155	4531
906.272	4386
906.389	4474
906.506	4386
906.623	4379
906.74	4371
906.857	4325
906.974	4375
907.091	4569
907.208	4714
907.324	4588
907.441	4508
907.557	4367
907.674	4371
907.79	4386
907.907	4436
908.023	4459
908.139	4462
908.256	4459
908.372	4519
908.488	4481
908.604	4440
908.72	4329
908.836	4447
908.952	4367
909.068	4478
909.184	4596
909.3	4500
909.415	4561
909.531	4584
909.647	4360
909.762	4375
909.878	4344
909.993	4516
910.108	4409
910.224	4436
910.339	4478
910.454	4451
910.57	4443
910.685	4318
910.8	4634
910.915	4607
911.03	4504
911.145	4314
911.259	4333
911.374	4421
911.489	4356
911.604	4299
911.718	4181
911.833	4185
911.947	4112
912.062	4036
912.176	4242
912.291	4207
912.405	4276
912.519	4497
912.633	4538
912.748	4375
912.862	4344
912.976	4215
913.09	4112
913.204	4181
913.318	4299
913.431	4341
913.545	4325
913.659	4462
913.772	4360
913.886	4280
914	4246
914.113	4394
914.226	4428
914.34	4394
914.453	4299
914.566	4417
914.68	4325
914.793	4341
914.906	4192
915.019	4124
915.132	4044
915.245	4188
915.358	4261
915.47	4185
915.583	4318
915.696	4318
915.809	4440
915.921	4485
916.034	4227
916.146	4227
916.259	4238
916.371	4398
916.483	4386
916.595	4242
916.708	4375
916.82	4375
916.932	4318
917.044	4352
917.156	4344
917.268	4230
917.38	4291
917.491	4253
917.603	4398
917.715	4443
917.826	4497
917.938	4398
918.049	4295
918.161	4455
918.272	4569
918.384	4558
918.495	4466
918.606	4371
918.717	4253
918.828	4363
918.939	4428
919.05	4303
919.161	4367
919.272	4215
919.383	4261
919.494	4478
919.604	4687
919.715	4466
919.826	4428
919.936	4455
920.047	4565
920.157	4580
920.267	4782
920.378	4584
920.488	4580
920.598	4812
920.708	4908
920.818	4778
920.928	4858
921.038	4995
921.148	4999
921.258	4729
921.368	4653
921.477	4603
921.587	4523
921.697	4443
921.806	4641
921.916	4512
922.025	4367
922.134	4348
922.244	4287
922.353	4421
922.462	4276
922.571	4200
922.68	4112
922.789	4067
922.898	4101
923.007	4067
923.116	4169
923.224	4109
923.333	4124
923.442	4090
923.55	4029
923.659	4086
923.767	4147
923.876	4048
923.984	4204
924.092	4067
924.201	4135
924.309	4200
924.417	4215
924.525	4105
924.633	4200
924.741	4938
924.849	3998
924.956	4173
925.064	4029
925.172	3949
925.279	4040
925.387	4139
925.494	4169
925.602	4280
925.709	4242
925.816	4082
925.924	4131
926.031	4276
926.138	4234
926.245	4306
926.352	4162
926.459	4291
926.566	4371
926.673	4192
926.779	4135
926.886	4150
926.993	4025
927.099	4029
927.206	3979
927.312	4063
927.419	4131
927.525	4067
927.631	4154
927.737	4032
927.843	4002
927.95	3861
928.056	4013
928.162	4017
928.267	4101
928.373	4668
928.479	4150
928.585	3934
928.69	4067
928.796	4154
928.901	4051
929.007	3903
929.112	4086
929.218	4040
929.323	3983
929.428	4021
929.533	4131
929.638	3953
929.743	4010
929.848	4109
929.953	4048
930.058	4006
930.163	3857
930.267	3899
930.372	4048
930.477	3896
930.581	4139
930.685	3998
930.79	3884
930.894	3915
930.998	3956
931.103	4090
931.207	3793
931.311	3747
931.415	3675
931.519	3561
931.623	3603
