Data from test_V78500241_1873.txt Node
Date: Fri Mar 25 17:02:01 CST 2022
User: usil
Spectrometer: V785-0024
Trigger mode: 0
Integration Time (sec): 4.000000E-1
Scans to average: 1
Nonlinearity correction enabled: false
Boxcar width: 0
Storing dark spectrum: false
XAxis mode: Wavelengths
Number of Pixels in Spectrum: 1024
>>>>>Begin Spectral Data<<<<<
801.071	8024
801.214	8005
801.356	7871
801.499	7811
801.641	7811
801.783	7875
801.926	7906
802.068	7890
802.211	7986
802.353	7974
802.496	7849
802.638	7856
802.78	7875
802.923	7871
803.065	7845
803.208	7826
803.35	7967
803.492	8115
803.635	8149
803.777	8012
803.919	8069
804.061	8419
804.204	8157
804.346	8062
804.488	7970
804.63	8115
804.773	8012
804.915	8054
805.057	8233
805.199	8225
805.341	8138
805.483	8210
805.626	8206
805.768	8107
805.91	8214
806.052	8252
806.194	8065
806.336	8286
806.478	8046
806.62	8043
806.762	8138
806.904	8256
807.046	8473
807.188	8389
807.33	8294
807.472	8377
807.614	8199
807.756	8115
807.898	7951
808.04	7955
808.182	7921
808.324	7845
808.465	7894
808.607	8096
808.749	8107
808.891	8218
809.033	8290
809.174	8248
809.316	8035
809.458	8092
809.6	7974
809.741	8096
809.883	8035
810.025	8107
810.166	8084
810.308	8012
810.45	7974
810.591	7799
810.733	7746
810.875	7658
811.016	7548
811.158	7476
811.299	7559
811.441	7696
811.582	7666
811.724	7552
811.865	7586
812.007	7552
812.148	7609
812.29	7693
812.431	7772
812.573	7902
812.714	7997
812.855	8081
812.997	8290
813.138	8252
813.279	8145
813.421	8039
813.562	7963
813.703	7837
813.845	7738
813.986	7426
814.127	7270
814.268	7183
814.41	7149
814.551	7190
814.692	7187
814.833	7088
814.974	7095
815.115	7126
815.256	6954
815.397	6863
815.539	6886
815.68	6833
815.821	6730
815.962	6856
816.103	6795
816.244	6650
816.385	6578
816.526	6612
816.666	6460
816.807	6319
816.948	6448
817.089	6433
817.23	6388
817.371	6304
817.512	6376
817.653	6437
817.793	6391
817.934	6448
818.075	6399
818.216	6475
818.356	6380
818.497	6289
818.638	6148
818.778	6144
818.919	6140
819.06	6194
819.2	6331
819.341	6289
819.481	6361
819.622	6513
819.762	6757
819.903	6696
820.043	6639
820.184	6555
820.324	6631
820.465	6681
820.605	6673
820.746	6650
820.886	6498
821.026	6665
821.167	6692
821.307	6776
821.447	6738
821.588	6658
821.728	6513
821.868	6506
822.008	6311
822.149	6331
822.289	6319
822.429	6133
822.569	6064
822.709	6159
822.849	5950
822.99	5908
823.13	5923
823.27	5870
823.41	5847
823.55	5767
823.69	5748
823.83	5752
823.97	5688
824.11	5505
824.25	5478
824.389	5596
824.529	5570
824.669	5512
824.809	5592
824.949	5623
825.089	5611
825.228	5558
825.368	5372
825.508	5345
825.648	5337
825.787	5387
825.927	5349
826.067	5322
826.206	5353
826.346	5368
826.485	5395
826.625	5433
826.765	5490
826.904	5501
827.044	5174
827.183	5204
827.323	5117
827.462	5246
827.601	5128
827.741	5181
827.88	5178
828.02	5113
828.159	5181
828.298	5334
828.437	5357
828.577	5296
828.716	5509
828.855	5330
828.994	5178
829.134	5162
829.273	5212
829.412	5178
829.551	5105
829.69	5147
829.829	5223
829.968	5337
830.107	5250
830.246	5212
830.385	5174
830.524	5105
830.663	5025
830.802	4930
830.941	4870
831.08	4896
831.219	4972
831.357	4987
831.496	5136
831.635	4877
831.774	4831
831.913	4847
832.051	4744
832.19	4733
832.329	4767
832.467	4691
832.606	4622
832.744	4748
832.883	4725
833.022	4702
833.16	4797
833.299	4828
833.437	4805
833.576	4782
833.714	4854
833.852	4850
833.991	4866
834.129	4934
834.267	4976
834.406	4881
834.544	4957
834.682	4938
834.821	4908
834.959	5151
835.097	4968
835.235	5105
835.373	5075
835.511	5052
835.65	5090
835.788	5037
835.926	4873
836.064	4877
836.202	4946
836.34	5140
836.478	5223
836.615	5109
836.753	5212
836.891	5284
837.029	5231
837.167	5170
837.305	5162
837.443	5132
837.58	5102
837.718	5239
837.856	5220
837.993	5174
838.131	5201
838.269	5189
838.406	5132
838.544	5197
838.681	5037
838.819	4961
838.956	4870
839.094	4843
839.231	4968
839.369	5124
839.506	5402
839.643	5212
839.781	5045
839.918	5022
840.055	5064
840.193	5064
840.33	5151
840.467	5128
840.604	5151
840.742	5425
840.879	5083
841.016	5045
841.153	5124
841.29	5387
841.427	5296
841.564	5242
841.701	5311
841.838	5288
841.975	5246
842.112	5315
842.249	5143
842.385	5071
842.522	5277
842.659	5155
842.796	5151
842.933	5151
843.069	5166
843.206	5143
843.343	5315
843.479	5235
843.616	5204
843.752	5033
843.889	5022
844.025	5174
844.162	5041
844.298	5227
844.435	5075
844.571	5041
844.708	5193
844.844	5277
844.98	5303
845.117	5277
845.253	5079
845.389	5048
845.525	5136
845.661	5098
845.798	5045
845.934	5117
846.07	5052
846.206	5155
846.342	5223
846.478	5174
846.614	4999
846.75	4938
846.886	4938
847.022	5124
847.158	5018
847.294	5075
847.429	5045
847.565	5052
847.701	5288
847.837	4854
847.972	4820
848.108	4934
848.244	4934
848.379	4801
848.515	4710
848.65	4706
848.786	4714
848.921	4774
849.057	4877
849.192	4881
849.328	4801
849.463	4885
849.598	4831
849.734	4752
849.869	4683
850.004	4679
850.14	4649
850.275	4603
850.41	4504
850.545	4550
850.68	4599
850.815	4611
850.95	4645
851.085	4881
851.22	4790
851.355	4672
851.49	4622
851.625	4615
851.76	4637
851.895	4546
852.03	4527
852.165	4714
852.299	4694
852.434	4790
852.569	4706
852.703	4771
852.838	4824
852.973	4927
853.107	4915
853.242	4790
853.376	4683
853.511	4584
853.645	4645
853.78	4790
853.914	4683
854.048	4675
854.183	4653
854.317	4675
854.451	4839
854.585	4698
854.72	4637
854.854	4725
854.988	4580
855.122	4634
855.256	4470
855.39	4683
855.524	4755
855.658	4710
855.792	4687
855.926	4702
856.06	4740
856.194	4797
856.327	4683
856.461	4558
856.595	4561
856.729	4664
856.862	4744
856.996	4668
857.13	4740
857.263	4706
857.397	4786
857.53	4626
857.664	4702
857.797	4725
857.931	4812
858.064	4672
858.197	4767
858.331	4675
858.464	4599
858.597	4500
858.731	4592
858.864	4641
858.997	4637
859.13	4664
859.263	4740
859.396	4702
859.529	4561
859.662	4527
859.795	4519
859.928	4596
860.061	4782
860.194	4740
860.327	4630
860.46	4542
860.592	4679
860.725	4740
860.858	4679
860.99	4588
861.123	4481
861.256	4519
861.388	4634
861.521	5372
861.653	4481
861.786	4447
861.918	4432
862.05	4519
862.183	4554
862.315	4558
862.447	4622
862.58	4558
862.712	4375
862.844	4356
862.976	4455
863.108	4466
863.24	4881
863.372	4329
863.504	4436
863.636	4436
863.768	4508
863.9	4402
864.032	4363
864.164	4383
864.296	4523
864.428	4527
864.559	4546
864.691	4535
864.823	4455
864.954	4478
865.086	4466
865.217	4432
865.349	4398
865.48	4462
865.612	4451
865.743	4615
865.875	4447
866.006	4432
866.137	4459
866.269	4402
866.4	4466
866.531	4447
866.662	4360
866.793	4413
866.924	4440
867.055	4519
867.186	4466
867.317	4440
867.448	4383
867.579	4352
867.71	4428
867.841	4352
867.972	4432
868.103	4481
868.233	4443
868.364	4428
868.495	4519
868.625	4656
868.756	4736
868.886	4546
869.017	4588
869.147	4782
869.278	4740
869.408	4672
869.539	4634
869.669	4714
869.799	4653
869.929	4733
870.06	4774
870.19	4923
870.32	4877
870.45	4900
870.58	4995
870.71	4995
870.84	5140
870.97	4946
871.1	4858
871.23	5132
871.36	5147
871.489	5014
871.619	5060
871.749	5090
871.879	5086
872.008	5162
872.138	5010
872.267	5045
872.397	4828
872.526	4782
872.656	4782
872.785	4809
872.915	4972
873.044	5006
873.173	4930
873.303	5010
873.432	4930
873.561	4911
873.69	4866
873.819	4854
873.948	4934
874.077	4816
874.206	4771
874.335	4797
874.464	4923
874.593	5086
874.722	4946
874.851	5102
874.979	5041
875.108	5071
875.237	4870
875.365	4934
875.494	4828
875.623	4946
875.751	4831
875.88	4873
876.008	4949
876.136	5022
876.265	5170
876.393	5330
876.521	5277
876.65	5208
876.778	5201
876.906	5121
877.034	5056
877.162	5075
877.29	4991
877.418	5029
877.546	5037
877.674	5029
877.802	5045
877.93	5045
878.058	4919
878.185	4915
878.313	4987
878.441	4949
878.568	4801
878.696	4858
878.824	4953
878.951	4984
879.079	5117
879.206	5265
879.333	5136
879.461	4976
879.588	4965
879.715	5098
879.842	5269
879.97	5003
880.097	4805
880.224	4755
880.351	4797
880.478	4816
880.605	4778
880.732	4797
880.859	5010
880.986	4892
881.112	4885
881.239	4778
881.366	4717
881.493	4588
881.619	4603
881.746	4656
881.872	4641
881.999	4649
882.125	4675
882.252	4763
882.378	4801
882.505	4991
882.631	4767
882.757	4626
882.883	4717
883.01	4740
883.136	4607
883.262	4588
883.388	4607
883.514	4850
883.64	4877
883.766	4820
883.892	4653
884.018	4717
884.143	4858
884.269	5018
884.395	4656
884.52	4649
884.646	4660
884.772	4577
884.897	4546
885.023	4653
885.148	4767
885.274	4904
885.399	4812
885.524	4733
885.65	4698
885.775	4733
885.9	4710
886.025	4824
886.15	4752
886.275	4733
886.4	4645
886.525	4729
886.65	4649
886.775	4687
886.9	4900
887.025	5022
887.149	4767
887.274	4649
887.399	4561
887.523	4599
887.648	4596
887.773	4615
887.897	4748
888.021	4801
888.146	4668
888.27	4820
888.395	4896
888.519	4824
888.643	4786
888.767	4767
888.891	4668
889.015	4558
889.139	4634
889.263	4592
889.387	4717
889.511	4877
889.635	4793
889.759	4596
889.883	4615
890.006	4729
890.13	4889
890.254	4634
890.377	4645
890.501	4558
890.624	4569
890.748	4630
890.871	4478
890.995	4455
891.118	4356
891.241	4550
891.364	4550
891.488	4656
891.611	4478
891.734	4512
891.857	4622
891.98	4569
892.103	4664
892.226	4538
892.349	4493
892.471	4405
892.594	4569
892.717	4626
892.839	4569
892.962	4573
893.085	4634
893.207	4561
893.33	4485
893.452	4466
893.575	4660
893.697	4592
893.819	4850
893.941	4835
894.064	4793
894.186	4584
894.308	4569
894.43	4736
894.552	4786
894.674	4755
894.796	4538
894.918	4622
895.04	4569
895.161	4675
895.283	4683
895.405	4535
895.526	4634
895.648	4645
895.769	4675
895.891	4683
896.012	4740
896.134	4694
896.255	4634
896.376	4679
896.498	4668
896.619	4691
896.74	4596
896.861	4645
896.982	4919
897.103	5037
897.224	4790
897.345	4752
897.466	4656
897.587	4714
897.708	4809
897.828	4694
897.949	4714
898.07	4588
898.19	4630
898.311	4831
898.431	4641
898.552	4736
898.672	4771
898.792	4790
898.913	4683
899.033	4637
899.153	4531
899.273	4405
899.393	4493
899.513	4470
899.633	4538
899.753	4508
899.873	4493
899.993	4569
900.113	4550
900.232	4577
900.352	4573
900.472	4504
900.591	4432
900.711	4485
900.83	4447
900.95	4596
901.069	4714
901.189	4523
901.308	4360
901.427	4295
901.546	4383
901.665	4485
901.784	4500
901.904	4325
902.023	4337
902.141	4173
902.26	4177
902.379	4303
902.498	4204
902.617	4200
902.735	4386
902.854	4356
902.973	4383
903.091	4238
903.21	4200
903.328	4306
903.446	4276
903.565	4280
903.683	4344
903.801	4306
903.919	4409
904.038	4417
904.156	4322
904.274	4394
904.392	4375
904.51	4402
904.627	4481
904.745	4550
904.863	4622
904.981	4360
905.098	4253
905.216	4329
905.334	4363
905.451	4436
905.569	4417
905.686	4523
905.803	4550
905.921	4413
906.038	4569
906.155	4470
906.272	4405
906.389	4459
906.506	4325
906.623	4341
906.74	4386
906.857	4310
906.974	4383
907.091	4561
907.208	4687
907.324	4577
907.441	4485
907.557	4322
907.674	4337
907.79	4341
907.907	4375
908.023	4474
908.139	4466
908.256	4417
908.372	4497
908.488	4413
908.604	4344
908.72	4303
908.836	4356
908.952	4375
909.068	4421
909.184	4550
909.3	4466
909.415	4554
909.531	4531
909.647	4352
909.762	4379
909.878	4299
909.993	4398
910.108	4428
910.224	4424
910.339	4485
910.454	4413
910.57	4390
910.685	4322
910.8	4656
910.915	4546
911.03	4523
911.145	4325
911.259	4348
911.374	4371
911.489	4261
911.604	4261
911.718	4181
911.833	4238
911.947	4071
912.062	4078
912.176	4177
912.291	4200
912.405	4268
912.519	4424
912.633	4455
912.748	4390
912.862	4284
912.976	4192
913.09	4109
913.204	4207
913.318	4253
913.431	4375
913.545	4318
913.659	4428
913.772	4379
913.886	4238
914	4249
914.113	4356
914.226	4474
914.34	4390
914.453	4257
914.566	4478
914.68	4268
914.793	4341
914.906	4150
915.019	4128
915.132	4071
915.245	4185
915.358	4219
915.47	4268
915.583	4234
915.696	4306
915.809	4375
915.921	4398
916.034	4227
916.146	4242
916.259	4200
916.371	4405
916.483	4409
916.595	4291
916.708	4329
916.82	4299
916.932	4287
917.044	4337
917.156	4257
917.268	4234
917.38	4253
917.491	4284
917.603	4322
917.715	4390
917.826	4398
917.938	4371
918.049	4276
918.161	4367
918.272	4535
918.384	4538
918.495	4455
918.606	4284
918.717	4257
918.828	4341
918.939	4337
919.05	4280
919.161	4344
919.272	4147
919.383	4246
919.494	4443
919.604	4611
919.715	4459
919.826	4325
919.936	4379
920.047	4481
920.157	4485
920.267	4698
920.378	4535
920.488	4504
920.598	4698
920.708	4889
920.818	4736
920.928	4755
921.038	4927
921.148	4919
921.258	4596
921.368	4516
921.477	4474
921.587	4489
921.697	4375
921.806	4489
921.916	4398
922.025	4253
922.134	4219
922.244	4192
922.353	4325
922.462	4188
922.571	4150
922.68	3991
922.789	3987
922.898	3979
923.007	4006
923.116	4074
923.224	4063
923.333	4040
923.442	4002
923.55	3991
923.659	4029
923.767	4059
923.876	4002
923.984	4112
924.092	4010
924.201	4055
924.309	4074
924.417	4112
924.525	4063
924.633	4112
924.741	5045
924.849	3930
924.956	4200
925.064	3953
925.172	3903
925.279	3956
925.387	4029
925.494	4071
925.602	4219
925.709	4181
925.816	4006
925.924	4131
926.031	4188
926.138	4154
926.245	4196
926.352	4090
926.459	4268
926.566	4314
926.673	4139
926.779	4093
926.886	4044
926.993	3979
927.099	3945
927.206	3930
927.312	3945
927.419	4036
927.525	4021
927.631	4101
927.737	3960
927.843	3888
927.95	3846
928.056	3941
928.162	4013
928.267	4093
928.373	4554
928.479	4128
928.585	3865
928.69	4025
928.796	4090
928.901	3975
929.007	3823
929.112	4036
929.218	3941
929.323	3953
929.428	3934
929.533	4090
929.638	3884
929.743	3953
929.848	4082
929.953	3994
930.058	3922
930.163	3823
930.267	3789
930.372	3945
930.477	3804
930.581	4051
930.685	3926
930.79	3816
930.894	3873
930.998	3842
931.103	4067
931.207	3698
931.311	3667
931.415	3644
931.519	3523
931.623	3500
