Data from test_V78500241_936.txt Node
Date: Fri Mar 25 16:55:30 CST 2022
User: usil
Spectrometer: V785-0024
Trigger mode: 0
Integration Time (sec): 4.000000E-1
Scans to average: 1
Nonlinearity correction enabled: false
Boxcar width: 0
Storing dark spectrum: false
XAxis mode: Wavelengths
Number of Pixels in Spectrum: 1024
>>>>>Begin Spectral Data<<<<<
801.071	8043
801.214	8092
801.356	7833
801.499	7909
801.641	7784
801.783	7826
801.926	7917
802.068	7913
802.211	7894
802.353	7940
802.496	7849
802.638	7921
802.78	7913
802.923	7883
803.065	7868
803.208	7917
803.35	7967
803.492	8065
803.635	8153
803.777	8123
803.919	8164
804.061	8423
804.204	8081
804.346	8020
804.488	7898
804.63	8077
804.773	8107
804.915	8062
805.057	8263
805.199	8115
805.341	8161
805.483	8229
805.626	8130
805.768	8058
805.91	8248
806.052	8187
806.194	8039
806.336	8298
806.478	8054
806.62	8012
806.762	8123
806.904	8183
807.046	8476
807.188	8313
807.33	8233
807.472	8355
807.614	8149
807.756	8168
807.898	7963
808.04	7902
808.182	7928
808.324	7883
808.465	7944
808.607	7959
808.749	8062
808.891	8229
809.033	8286
809.174	8187
809.316	8077
809.458	8065
809.6	8024
809.741	8111
809.883	7982
810.025	8054
810.166	8027
810.308	8027
810.45	7932
810.591	7898
810.733	7708
810.875	7624
811.016	7487
811.158	7476
811.299	7537
811.441	7704
811.582	7704
811.724	7499
811.865	7544
812.007	7537
812.148	7521
812.29	7628
812.431	7742
812.573	7868
812.714	7913
812.855	8176
812.997	8210
813.138	8259
813.279	8126
813.421	8065
813.562	8008
813.703	7830
813.845	7761
813.986	7499
814.127	7308
814.268	7244
814.41	7225
814.551	7110
814.692	7149
814.833	7050
814.974	7015
815.115	7072
815.256	6973
815.397	6916
815.539	6985
815.68	6878
815.821	6726
815.962	6909
816.103	6821
816.244	6700
816.385	6623
816.526	6654
816.666	6525
816.807	6266
816.948	6426
817.089	6479
817.23	6460
817.371	6410
817.512	6414
817.653	6346
817.793	6376
817.934	6388
818.075	6395
818.216	6452
818.356	6414
818.497	6224
818.638	6121
818.778	6152
818.919	6106
819.06	6159
819.2	6311
819.341	6289
819.481	6338
819.622	6486
819.762	6673
819.903	6719
820.043	6551
820.184	6547
820.324	6525
820.465	6635
820.605	6684
820.746	6570
820.886	6525
821.026	6677
821.167	6650
821.307	6745
821.447	6757
821.588	6650
821.728	6559
821.868	6517
822.008	6300
822.149	6410
822.289	6331
822.429	6167
822.569	6083
822.709	6079
822.849	5923
822.99	5893
823.13	6003
823.27	5916
823.41	5745
823.55	5726
823.69	5691
823.83	5760
823.97	5695
824.11	5532
824.25	5528
824.389	5501
824.529	5528
824.669	5452
824.809	5592
824.949	5649
825.089	5589
825.228	5551
825.368	5376
825.508	5326
825.648	5372
825.787	5421
825.927	5387
826.067	5341
826.206	5277
826.346	5311
826.485	5360
826.625	5387
826.765	5604
826.904	5471
827.044	5292
827.183	5189
827.323	5159
827.462	5231
827.601	5155
827.741	5170
827.88	5159
828.02	5094
828.159	5250
828.298	5242
828.437	5337
828.577	5265
828.716	5482
828.855	5322
828.994	5132
829.134	5140
829.273	5216
829.412	5098
829.551	5124
829.69	5121
829.829	5254
829.968	5299
830.107	5277
830.246	5231
830.385	5113
830.524	5117
830.663	5060
830.802	5025
830.941	4911
831.08	4850
831.219	4995
831.357	4995
831.496	5124
831.635	4965
831.774	4850
831.913	4816
832.051	4725
832.19	4755
832.329	4850
832.467	4687
832.606	4641
832.744	4698
832.883	4717
833.022	4702
833.16	4790
833.299	4782
833.437	4828
833.576	4824
833.714	4889
833.852	4885
833.991	4904
834.129	4927
834.267	4923
834.406	4919
834.544	5022
834.682	5003
834.821	4927
834.959	5159
835.097	4957
835.235	5109
835.373	5064
835.511	5060
835.65	4968
835.788	4995
835.926	4881
836.064	4850
836.202	4976
836.34	5201
836.478	5223
836.615	5113
836.753	5185
836.891	5376
837.029	5235
837.167	5231
837.305	5159
837.443	5166
837.58	5045
837.718	5246
837.856	5201
837.993	5098
838.131	5208
838.269	5189
838.406	5227
838.544	5181
838.681	4987
838.819	5029
838.956	4892
839.094	4866
839.231	4999
839.369	5105
839.506	5463
839.643	5277
839.781	5113
839.918	4995
840.055	5136
840.193	5067
840.33	5098
840.467	5124
840.604	5223
840.742	5391
840.879	5071
841.016	5121
841.153	5090
841.29	5318
841.427	5334
841.564	5273
841.701	5357
841.838	5223
841.975	5239
842.112	5261
842.249	5113
842.385	5094
842.522	5322
842.659	5178
842.796	5121
842.933	5197
843.069	5170
843.206	5147
843.343	5258
843.479	5185
843.616	5277
843.752	5048
843.889	4984
844.025	5197
844.162	5003
844.298	5208
844.435	5041
844.571	5056
844.708	5143
844.844	5288
844.98	5299
845.117	5242
845.253	5136
845.389	5090
845.525	5155
845.661	5147
845.798	5025
845.934	5143
846.07	5048
846.206	5140
846.342	5280
846.478	5178
846.614	5014
846.75	4934
846.886	4908
847.022	5113
847.158	4938
847.294	5033
847.429	5060
847.565	5075
847.701	5269
847.837	4862
847.972	4778
848.108	4957
848.244	4927
848.379	4774
848.515	4702
848.65	4687
848.786	4675
848.921	4828
849.057	4858
849.192	4934
849.328	4801
849.463	4801
849.598	4797
849.734	4710
849.869	4656
850.004	4660
850.14	4630
850.275	4550
850.41	4489
850.545	4542
850.68	4580
850.815	4630
850.95	4615
851.085	4835
851.22	4729
851.355	4660
851.49	4649
851.625	4573
851.76	4626
851.895	4588
852.03	4569
852.165	4664
852.299	4725
852.434	4812
852.569	4736
852.703	4801
852.838	4809
852.973	4889
853.107	4911
853.242	4702
853.376	4660
853.511	4577
853.645	4603
853.78	4820
853.914	4664
854.048	4702
854.183	4584
854.317	4698
854.451	4854
854.585	4668
854.72	4637
854.854	4778
854.988	4592
855.122	4634
855.256	4523
855.39	4626
855.524	4786
855.658	4717
855.792	4702
855.926	4675
856.06	4736
856.194	4752
856.327	4725
856.461	4603
856.595	4565
856.729	4584
856.862	4752
856.996	4694
857.13	4668
857.263	4736
857.397	4778
857.53	4668
857.664	4691
857.797	4736
857.931	4733
858.064	4649
858.197	4752
858.331	4599
858.464	4588
858.597	4531
858.731	4649
858.864	4641
858.997	4607
859.13	4618
859.263	4611
859.396	4729
859.529	4554
859.662	4558
859.795	4538
859.928	4630
860.061	4729
860.194	4805
860.327	4569
860.46	4550
860.592	4660
860.725	4721
860.858	4687
860.99	4535
861.123	4508
861.256	4558
861.388	4626
861.521	5178
861.653	4500
861.786	4451
861.918	4447
862.05	4519
862.183	4512
862.315	4580
862.447	4611
862.58	4542
862.712	4352
862.844	4314
862.976	4421
863.108	4451
863.24	4763
863.372	4322
863.504	4398
863.636	4398
863.768	4417
863.9	4405
864.032	4329
864.164	4390
864.296	4470
864.428	4561
864.559	4546
864.691	4542
864.823	4523
864.954	4451
865.086	4500
865.217	4462
865.349	4386
865.48	4409
865.612	4470
865.743	4641
865.875	4470
866.006	4447
866.137	4405
866.269	4413
866.4	4432
866.531	4421
866.662	4394
866.793	4367
866.924	4379
867.055	4485
867.186	4436
867.317	4409
867.448	4363
867.579	4383
867.71	4386
867.841	4348
867.972	4470
868.103	4455
868.233	4432
868.364	4474
868.495	4478
868.625	4618
868.756	4698
868.886	4516
869.017	4615
869.147	4748
869.278	4729
869.408	4641
869.539	4626
869.669	4714
869.799	4664
869.929	4763
870.06	4759
870.19	4927
870.32	4892
870.45	4885
870.58	4949
870.71	5067
870.84	5060
870.97	4961
871.1	4873
871.23	5098
871.36	5113
871.489	4991
871.619	5025
871.749	5071
871.879	5124
872.008	5113
872.138	5041
872.267	4949
872.397	4831
872.526	4793
872.656	4733
872.785	4778
872.915	4904
873.044	4995
873.173	4877
873.303	4980
873.432	4980
873.561	4927
873.69	4870
873.819	4843
873.948	4900
874.077	4812
874.206	4744
874.335	4721
874.464	4915
874.593	5006
874.722	4968
874.851	5079
874.979	5075
875.108	5022
875.237	4881
875.365	4862
875.494	4858
875.623	4968
875.751	4828
875.88	4881
876.008	5022
876.136	5045
876.265	5159
876.393	5334
876.521	5204
876.65	5208
876.778	5162
876.906	5067
877.034	4984
877.162	5014
877.29	4980
877.418	5083
877.546	5033
877.674	4976
877.802	5033
877.93	5003
878.058	4919
878.185	4885
878.313	4930
878.441	4934
878.568	4809
878.696	4889
878.824	4972
878.951	4961
879.079	5109
879.206	5258
879.333	5033
879.461	4968
879.588	4968
879.715	5162
879.842	5269
879.97	4976
880.097	4801
880.224	4698
880.351	4782
880.478	4805
880.605	4748
880.732	4786
880.859	5048
880.986	4908
881.112	4881
881.239	4820
881.366	4668
881.493	4611
881.619	4573
881.746	4584
881.872	4637
881.999	4679
882.125	4714
882.252	4759
882.378	4797
882.505	4987
882.631	4748
882.757	4626
882.883	4729
883.01	4748
883.136	4656
883.262	4588
883.388	4588
883.514	4831
883.64	4805
883.766	4793
883.892	4702
884.018	4748
884.143	4889
884.269	4961
884.395	4714
884.52	4607
884.646	4645
884.772	4622
884.897	4535
885.023	4668
885.148	4786
885.274	4809
885.399	4771
885.524	4683
885.65	4687
885.775	4797
885.9	4729
886.025	4847
886.15	4790
886.275	4691
886.4	4653
886.525	4744
886.65	4687
886.775	4702
886.9	4889
887.025	5037
887.149	4736
887.274	4618
887.399	4554
887.523	4630
887.648	4580
887.773	4550
887.897	4759
888.021	4774
888.146	4672
888.27	4805
888.395	4892
888.519	4793
888.643	4759
888.767	4778
888.891	4706
889.015	4561
889.139	4637
889.263	4584
889.387	4763
889.511	4870
889.635	4767
889.759	4645
889.883	4653
890.006	4691
890.13	4824
890.254	4645
890.377	4668
890.501	4523
890.624	4504
890.748	4615
890.871	4531
890.995	4405
891.118	4371
891.241	4519
891.364	4531
891.488	4599
891.611	4489
891.734	4519
891.857	4630
891.98	4516
892.103	4637
892.226	4569
892.349	4550
892.471	4390
892.594	4550
892.717	4573
892.839	4561
892.962	4618
893.085	4675
893.207	4569
893.33	4466
893.452	4538
893.575	4664
893.697	4611
893.819	4801
893.941	4797
894.064	4782
894.186	4538
894.308	4588
894.43	4702
894.552	4782
894.674	4740
894.796	4523
894.918	4607
895.04	4565
895.161	4694
895.283	4626
895.405	4531
895.526	4615
895.648	4672
895.769	4698
895.891	4729
896.012	4717
896.134	4683
896.255	4702
896.376	4603
896.498	4641
896.619	4672
896.74	4607
896.861	4630
896.982	4942
897.103	5075
897.224	4782
897.345	4653
897.466	4660
897.587	4710
897.708	4858
897.828	4771
897.949	4660
898.07	4519
898.19	4634
898.311	4831
898.431	4691
898.552	4683
898.672	4809
898.792	4797
898.913	4744
899.033	4626
899.153	4527
899.273	4409
899.393	4474
899.513	4504
899.633	4485
899.753	4558
899.873	4512
899.993	4577
900.113	4580
900.232	4592
900.352	4481
900.472	4485
900.591	4394
900.711	4459
900.83	4405
900.95	4637
901.069	4626
901.189	4516
901.308	4367
901.427	4303
901.546	4375
901.665	4466
901.784	4535
901.904	4402
902.023	4306
902.141	4207
902.26	4162
902.379	4322
902.498	4268
902.617	4227
902.735	4325
902.854	4329
902.973	4344
903.091	4177
903.21	4200
903.328	4242
903.446	4242
903.565	4268
903.683	4325
903.801	4242
903.919	4371
904.038	4428
904.156	4287
904.274	4466
904.392	4413
904.51	4451
904.627	4459
904.745	4565
904.863	4577
904.981	4390
905.098	4337
905.216	4344
905.334	4421
905.451	4405
905.569	4424
905.686	4508
905.803	4565
905.921	4386
906.038	4554
906.155	4478
906.272	4394
906.389	4497
906.506	4352
906.623	4386
906.74	4394
906.857	4318
906.974	4379
907.091	4577
907.208	4641
907.324	4554
907.441	4481
907.557	4314
907.674	4276
907.79	4280
907.907	4383
908.023	4447
908.139	4481
908.256	4386
908.372	4432
908.488	4455
908.604	4341
908.72	4329
908.836	4375
908.952	4390
909.068	4428
909.184	4542
909.3	4481
909.415	4565
909.531	4554
909.647	4344
909.762	4379
909.878	4363
909.993	4390
910.108	4371
910.224	4421
910.339	4443
910.454	4402
910.57	4379
910.685	4272
910.8	4596
910.915	4584
911.03	4466
911.145	4303
911.259	4341
911.374	4352
911.489	4325
911.604	4253
911.718	4128
911.833	4177
911.947	4051
912.062	3987
912.176	4207
912.291	4230
912.405	4272
912.519	4504
912.633	4504
912.748	4371
912.862	4291
912.976	4177
913.09	4078
913.204	4139
913.318	4234
913.431	4363
913.545	4371
913.659	4394
913.772	4352
913.886	4215
914	4204
914.113	4329
914.226	4440
914.34	4360
914.453	4246
914.566	4443
914.68	4280
914.793	4367
914.906	4128
915.019	4112
915.132	4048
915.245	4124
915.358	4185
915.47	4238
915.583	4272
915.696	4272
915.809	4379
915.921	4424
916.034	4242
916.146	4230
916.259	4211
916.371	4386
916.483	4363
916.595	4249
916.708	4329
916.82	4341
916.932	4291
917.044	4341
917.156	4246
917.268	4230
917.38	4261
917.491	4238
917.603	4341
917.715	4432
917.826	4417
917.938	4329
918.049	4238
918.161	4398
918.272	4569
918.384	4512
918.495	4443
918.606	4265
918.717	4238
918.828	4322
918.939	4348
919.05	4246
919.161	4280
919.272	4166
919.383	4204
919.494	4390
919.604	4641
919.715	4447
919.826	4318
919.936	4363
920.047	4531
920.157	4470
920.267	4668
920.378	4497
920.488	4508
920.598	4649
920.708	4850
920.818	4725
920.928	4771
921.038	4927
921.148	4904
921.258	4569
921.368	4493
921.477	4523
921.587	4462
921.697	4348
921.806	4523
921.916	4390
922.025	4253
922.134	4268
922.244	4211
922.353	4318
922.462	4223
922.571	4139
922.68	3983
922.789	4002
922.898	4029
923.007	3979
923.116	4078
923.224	4044
923.333	4090
923.442	3979
923.55	3994
923.659	3979
923.767	4090
923.876	3979
923.984	4105
924.092	3987
924.201	4071
924.309	4090
924.417	4059
924.525	4036
924.633	4109
924.741	5029
924.849	3922
924.956	4124
925.064	3934
925.172	3915
925.279	3915
925.387	4048
925.494	4055
925.602	4181
925.709	4135
925.816	4013
925.924	4154
926.031	4234
926.138	4192
926.245	4207
926.352	4074
926.459	4207
926.566	4253
926.673	4131
926.779	4086
926.886	4048
926.993	3937
927.099	3998
927.206	3926
927.312	3937
927.419	4032
927.525	4063
927.631	4097
927.737	3975
927.843	3926
927.95	3827
928.056	3949
928.162	3979
928.267	4078
928.373	4626
928.479	4120
928.585	3888
928.69	3994
928.796	4044
928.901	3953
929.007	3888
929.112	4002
929.218	3953
929.323	3937
929.428	3953
929.533	4051
929.638	3896
929.743	3964
929.848	4071
929.953	3968
930.058	3953
930.163	3759
930.267	3819
930.372	3998
930.477	3778
930.581	4086
930.685	3941
930.79	3816
930.894	3865
930.998	3888
931.103	3975
931.207	3698
931.311	3717
931.415	3679
931.519	3500
931.623	3561
