Data from test_V78500241_2200.txt Node
Date: Fri Mar 25 17:04:17 CST 2022
User: usil
Spectrometer: V785-0024
Trigger mode: 0
Integration Time (sec): 4.000000E-1
Scans to average: 1
Nonlinearity correction enabled: false
Boxcar width: 0
Storing dark spectrum: false
XAxis mode: Wavelengths
Number of Pixels in Spectrum: 1024
>>>>>Begin Spectral Data<<<<<
801.071	7993
801.214	8039
801.356	7826
801.499	7845
801.641	7811
801.783	7795
801.926	7940
802.068	7864
802.211	8012
802.353	8031
802.496	7890
802.638	7814
802.78	7826
802.923	7898
803.065	7852
803.208	7837
803.35	7993
803.492	8081
803.635	8096
803.777	8027
803.919	8191
804.061	8461
804.204	8180
804.346	8073
804.488	7940
804.63	8107
804.773	8005
804.915	8153
805.057	8305
805.199	8214
805.341	8199
805.483	8229
805.626	8225
805.768	8119
805.91	8206
806.052	8271
806.194	8100
806.336	8252
806.478	8142
806.62	8073
806.762	8153
806.904	8218
807.046	8537
807.188	8377
807.33	8332
807.472	8347
807.614	8164
807.756	8176
807.898	7963
808.04	7921
808.182	7871
808.324	7883
808.465	7951
808.607	8103
808.749	8100
808.891	8183
809.033	8317
809.174	8248
809.316	8020
809.458	8024
809.6	8001
809.741	8119
809.883	8039
810.025	8081
810.166	8008
810.308	8031
810.45	7974
810.591	7837
810.733	7742
810.875	7651
811.016	7449
811.158	7449
811.299	7563
811.441	7658
811.582	7674
811.724	7636
811.865	7510
812.007	7567
812.148	7620
812.29	7609
812.431	7807
812.573	7917
812.714	7944
812.855	8187
812.997	8252
813.138	8267
813.279	8187
813.421	8100
813.562	7989
813.703	7883
813.845	7788
813.986	7487
814.127	7247
814.268	7183
814.41	7187
814.551	7171
814.692	7209
814.833	7107
814.974	7110
815.115	7133
815.256	6973
815.397	6996
815.539	6932
815.68	6768
815.821	6787
815.962	6825
816.103	6810
816.244	6673
816.385	6536
816.526	6589
816.666	6464
816.807	6289
816.948	6479
817.089	6452
817.23	6460
817.371	6380
817.512	6346
817.653	6319
817.793	6372
817.934	6372
818.075	6433
818.216	6475
818.356	6380
818.497	6266
818.638	6079
818.778	6117
818.919	6114
819.06	6167
819.2	6331
819.341	6338
819.481	6388
819.622	6460
819.762	6662
819.903	6684
820.043	6559
820.184	6570
820.324	6585
820.465	6681
820.605	6642
820.746	6593
820.886	6456
821.026	6616
821.167	6719
821.307	6760
821.447	6856
821.588	6658
821.728	6631
821.868	6486
822.008	6365
822.149	6369
822.289	6384
822.429	6171
822.569	6087
822.709	6152
822.849	5927
822.99	5942
823.13	5992
823.27	5969
823.41	5847
823.55	5828
823.69	5745
823.83	5748
823.97	5699
824.11	5562
824.25	5532
824.389	5539
824.529	5630
824.669	5554
824.809	5672
824.949	5684
825.089	5638
825.228	5570
825.368	5425
825.508	5372
825.648	5425
825.787	5417
825.927	5391
826.067	5368
826.206	5364
826.346	5417
826.485	5425
826.625	5463
826.765	5585
826.904	5528
827.044	5265
827.183	5261
827.323	5143
827.462	5280
827.601	5166
827.741	5227
827.88	5265
828.02	5162
828.159	5277
828.298	5383
828.437	5433
828.577	5296
828.716	5570
828.855	5391
828.994	5208
829.134	5121
829.273	5216
829.412	5140
829.551	5166
829.69	5174
829.829	5254
829.968	5452
830.107	5322
830.246	5368
830.385	5208
830.524	5178
830.663	5124
830.802	5033
830.941	4953
831.08	4919
831.219	5067
831.357	5052
831.496	5185
831.635	4942
831.774	4942
831.913	4858
832.051	4797
832.19	4790
832.329	4839
832.467	4729
832.606	4706
832.744	4793
832.883	4752
833.022	4752
833.16	4790
833.299	4797
833.437	4873
833.576	4896
833.714	4904
833.852	4870
833.991	4923
834.129	4953
834.267	4987
834.406	4942
834.544	5014
834.682	4999
834.821	5029
834.959	5208
835.097	5018
835.235	5151
835.373	5102
835.511	5124
835.65	5056
835.788	5052
835.926	4961
836.064	4938
836.202	4972
836.34	5220
836.478	5284
836.615	5151
836.753	5220
836.891	5296
837.029	5261
837.167	5299
837.305	5181
837.443	5178
837.58	5113
837.718	5334
837.856	5212
837.993	5170
838.131	5269
838.269	5261
838.406	5250
838.544	5174
838.681	5067
838.819	5003
838.956	4938
839.094	4911
839.231	4987
839.369	5136
839.506	5425
839.643	5307
839.781	5067
839.918	5071
840.055	5124
840.193	5113
840.33	5113
840.467	5159
840.604	5227
840.742	5467
840.879	5109
841.016	5155
841.153	5162
841.29	5459
841.427	5387
841.564	5258
841.701	5368
841.838	5383
841.975	5280
842.112	5315
842.249	5117
842.385	5124
842.522	5379
842.659	5162
842.796	5193
842.933	5231
843.069	5193
843.206	5166
843.343	5349
843.479	5250
843.616	5296
843.752	5102
843.889	4980
844.025	5239
844.162	5094
844.298	5231
844.435	5117
844.571	5083
844.708	5227
844.844	5345
844.98	5414
845.117	5364
845.253	5181
845.389	5117
845.525	5189
845.661	5143
845.798	5060
845.934	5124
846.07	5086
846.206	5280
846.342	5292
846.478	5193
846.614	5022
846.75	4991
846.886	4946
847.022	5170
847.158	5025
847.294	5132
847.429	5155
847.565	5086
847.701	5311
847.837	4896
847.972	4870
848.108	4938
848.244	4873
848.379	4816
848.515	4782
848.65	4725
848.786	4774
848.921	4835
849.057	4904
849.192	4904
849.328	4812
849.463	4839
849.598	4744
849.734	4774
849.869	4729
850.004	4649
850.14	4706
850.275	4683
850.41	4558
850.545	4580
850.68	4664
850.815	4664
850.95	4634
851.085	4885
851.22	4733
851.355	4672
851.49	4641
851.625	4656
851.76	4683
851.895	4630
852.03	4584
852.165	4656
852.299	4736
852.434	4778
852.569	4782
852.703	4763
852.838	4839
852.973	4961
853.107	4896
853.242	4752
853.376	4683
853.511	4565
853.645	4668
853.78	4812
853.914	4717
854.048	4668
854.183	4611
854.317	4759
854.451	4889
854.585	4706
854.72	4679
854.854	4820
854.988	4672
855.122	4714
855.256	4546
855.39	4683
855.524	4763
855.658	4755
855.792	4767
855.926	4740
856.06	4786
856.194	4831
856.327	4740
856.461	4656
856.595	4630
856.729	4668
856.862	4809
856.996	4656
857.13	4694
857.263	4801
857.397	4831
857.53	4717
857.664	4725
857.797	4797
857.931	4774
858.064	4687
858.197	4778
858.331	4721
858.464	4656
858.597	4542
858.731	4641
858.864	4660
858.997	4603
859.13	4675
859.263	4672
859.396	4725
859.529	4565
859.662	4615
859.795	4561
859.928	4653
860.061	4790
860.194	4767
860.327	4626
860.46	4573
860.592	4691
860.725	4778
860.858	4729
860.99	4554
861.123	4565
861.256	4592
861.388	4637
861.521	5436
861.653	4504
861.786	4470
861.918	4504
862.05	4558
862.183	4611
862.315	4596
862.447	4645
862.58	4588
862.712	4398
862.844	4344
862.976	4451
863.108	4443
863.24	4801
863.372	4398
863.504	4455
863.636	4443
863.768	4485
863.9	4436
864.032	4383
864.164	4421
864.296	4508
864.428	4580
864.559	4535
864.691	4546
864.823	4546
864.954	4527
865.086	4535
865.217	4489
865.349	4447
865.48	4470
865.612	4512
865.743	4656
865.875	4474
866.006	4428
866.137	4485
866.269	4527
866.4	4516
866.531	4516
866.662	4394
866.793	4455
866.924	4443
867.055	4451
867.186	4504
867.317	4447
867.448	4409
867.579	4405
867.71	4462
867.841	4394
867.972	4508
868.103	4462
868.233	4474
868.364	4455
868.495	4519
868.625	4714
868.756	4790
868.886	4584
869.017	4615
869.147	4790
869.278	4805
869.408	4714
869.539	4694
869.669	4744
869.799	4706
869.929	4801
870.06	4752
870.19	4961
870.32	4930
870.45	4953
870.58	5067
870.71	5105
870.84	5170
870.97	4923
871.1	4938
871.23	5204
871.36	5155
871.489	5052
871.619	5086
871.749	5102
871.879	5151
872.008	5201
872.138	5075
872.267	5014
872.397	4866
872.526	4820
872.656	4748
872.785	4847
872.915	4991
873.044	5025
873.173	4919
873.303	4987
873.432	5006
873.561	4984
873.69	4892
873.819	4889
873.948	4949
874.077	4892
874.206	4763
874.335	4809
874.464	4919
874.593	5105
874.722	5022
874.851	5162
874.979	5075
875.108	5071
875.237	4938
875.365	4896
875.494	4896
875.623	5041
875.751	4858
875.88	4866
876.008	5045
876.136	5029
876.265	5189
876.393	5402
876.521	5212
876.65	5273
876.778	5128
876.906	5124
877.034	5025
877.162	5098
877.29	4987
877.418	5102
877.546	5075
877.674	5056
877.802	5060
877.93	4999
878.058	4984
878.185	4908
878.313	5022
878.441	4976
878.568	4748
878.696	4881
878.824	5006
878.951	4999
879.079	5162
879.206	5292
879.333	5121
879.461	4987
879.588	5022
879.715	5102
879.842	5269
879.97	5052
880.097	4790
880.224	4767
880.351	4858
880.478	4850
880.605	4809
880.732	4816
880.859	5060
880.986	4934
881.112	4934
881.239	4843
881.366	4717
881.493	4603
881.619	4645
881.746	4702
881.872	4660
881.999	4672
882.125	4687
882.252	4812
882.378	4820
882.505	4972
882.631	4858
882.757	4771
882.883	4748
883.01	4729
883.136	4679
883.262	4649
883.388	4626
883.514	4831
883.64	4911
883.766	4828
883.892	4679
884.018	4733
884.143	4930
884.269	4968
884.395	4744
884.52	4660
884.646	4687
884.772	4611
884.897	4519
885.023	4683
885.148	4805
885.274	4824
885.399	4839
885.524	4755
885.65	4736
885.775	4763
885.9	4740
886.025	4896
886.15	4752
886.275	4691
886.4	4691
886.525	4694
886.65	4675
886.775	4725
886.9	4915
887.025	4976
887.149	4809
887.274	4660
887.399	4603
887.523	4645
887.648	4641
887.773	4554
887.897	4755
888.021	4793
888.146	4675
888.27	4793
888.395	4927
888.519	4824
888.643	4790
888.767	4820
888.891	4687
889.015	4611
889.139	4679
889.263	4626
889.387	4797
889.511	4873
889.635	4797
889.759	4702
889.883	4626
890.006	4729
890.13	4831
890.254	4691
890.377	4691
890.501	4497
890.624	4519
890.748	4618
890.871	4535
890.995	4402
891.118	4402
891.241	4527
891.364	4554
891.488	4679
891.611	4481
891.734	4519
891.857	4596
891.98	4565
892.103	4656
892.226	4645
892.349	4584
892.471	4462
892.594	4573
892.717	4615
892.839	4573
892.962	4622
893.085	4706
893.207	4656
893.33	4481
893.452	4519
893.575	4660
893.697	4603
893.819	4782
893.941	4835
894.064	4744
894.186	4558
894.308	4588
894.43	4759
894.552	4850
894.674	4767
894.796	4569
894.918	4634
895.04	4573
895.161	4706
895.283	4702
895.405	4546
895.526	4656
895.648	4653
895.769	4729
895.891	4736
896.012	4759
896.134	4706
896.255	4645
896.376	4664
896.498	4664
896.619	4675
896.74	4664
896.861	4641
896.982	4934
897.103	5045
897.224	4858
897.345	4774
897.466	4679
897.587	4740
897.708	4824
897.828	4797
897.949	4702
898.07	4577
898.19	4664
898.311	4786
898.431	4672
898.552	4683
898.672	4793
898.792	4790
898.913	4786
899.033	4607
899.153	4493
899.273	4432
899.393	4523
899.513	4550
899.633	4519
899.753	4538
899.873	4550
899.993	4618
900.113	4580
900.232	4565
900.352	4599
900.472	4500
900.591	4390
900.711	4493
900.83	4489
900.95	4630
901.069	4668
901.189	4535
901.308	4383
901.427	4310
901.546	4436
901.665	4481
901.784	4504
901.904	4443
902.023	4287
902.141	4192
902.26	4207
902.379	4322
902.498	4287
902.617	4219
902.735	4417
902.854	4440
902.973	4363
903.091	4234
903.21	4261
903.328	4299
903.446	4325
903.565	4261
903.683	4405
903.801	4318
903.919	4390
904.038	4436
904.156	4306
904.274	4459
904.392	4447
904.51	4402
904.627	4462
904.745	4535
904.863	4626
904.981	4443
905.098	4295
905.216	4371
905.334	4443
905.451	4451
905.569	4489
905.686	4573
905.803	4584
905.921	4424
906.038	4538
906.155	4512
906.272	4402
906.389	4497
906.506	4306
906.623	4409
906.74	4409
906.857	4325
906.974	4356
907.091	4588
907.208	4679
907.324	4596
907.441	4489
907.557	4386
907.674	4337
907.79	4356
907.907	4386
908.023	4466
908.139	4466
908.256	4424
908.372	4470
908.488	4470
908.604	4333
908.72	4352
908.836	4394
908.952	4352
909.068	4421
909.184	4558
909.3	4504
909.415	4584
909.531	4573
909.647	4375
909.762	4344
909.878	4348
909.993	4436
910.108	4413
910.224	4440
910.339	4443
910.454	4383
910.57	4413
910.685	4306
910.8	4622
910.915	4653
911.03	4519
911.145	4314
911.259	4337
911.374	4371
911.489	4272
911.604	4280
911.718	4173
911.833	4166
911.947	4086
912.062	4025
912.176	4242
912.291	4265
912.405	4253
912.519	4447
912.633	4523
912.748	4360
912.862	4306
912.976	4169
913.09	4116
913.204	4185
913.318	4253
913.431	4344
913.545	4352
913.659	4481
913.772	4394
913.886	4268
914	4223
914.113	4383
914.226	4405
914.34	4394
914.453	4223
914.566	4421
914.68	4287
914.793	4322
914.906	4147
915.019	4135
915.132	4082
915.245	4185
915.358	4207
915.47	4230
915.583	4238
915.696	4310
915.809	4398
915.921	4447
916.034	4265
916.146	4268
916.259	4219
916.371	4383
916.483	4379
916.595	4303
916.708	4363
916.82	4348
916.932	4344
917.044	4314
917.156	4344
917.268	4215
917.38	4280
917.491	4318
917.603	4348
917.715	4421
917.826	4474
917.938	4360
918.049	4230
918.161	4413
918.272	4542
918.384	4527
918.495	4424
918.606	4314
918.717	4223
918.828	4356
918.939	4352
919.05	4303
919.161	4337
919.272	4150
919.383	4253
919.494	4489
919.604	4653
919.715	4428
919.826	4386
919.936	4421
920.047	4519
920.157	4493
920.267	4668
920.378	4580
920.488	4497
920.598	4725
920.708	4892
920.818	4767
920.928	4717
921.038	4949
921.148	4968
921.258	4672
921.368	4561
921.477	4485
921.587	4497
921.697	4360
921.806	4535
921.916	4462
922.025	4325
922.134	4265
922.244	4188
922.353	4322
922.462	4154
922.571	4109
922.68	4036
922.789	3930
922.898	4013
923.007	4021
923.116	4101
923.224	4013
923.333	4063
923.442	3991
923.55	3953
923.659	4006
923.767	4097
923.876	4036
923.984	4109
924.092	4017
924.201	4093
924.309	4105
924.417	4090
924.525	4044
924.633	4112
924.741	4999
924.849	3926
924.956	4116
925.064	3949
925.172	3854
925.279	3975
925.387	4021
925.494	4067
925.602	4188
925.709	4162
925.816	3979
925.924	4116
926.031	4230
926.138	4215
926.245	4215
926.352	4112
926.459	4246
926.566	4272
926.673	4185
926.779	4124
926.886	4097
926.993	3987
927.099	3922
927.206	3960
927.312	3975
927.419	4051
927.525	4051
927.631	4105
927.737	3975
927.843	3918
927.95	3861
928.056	3968
928.162	3975
928.267	4040
928.373	4653
928.479	4101
928.585	3884
928.69	4017
928.796	4040
928.901	3956
929.007	3869
929.112	3998
929.218	4025
929.323	3930
929.428	3964
929.533	4090
929.638	3865
929.743	3949
929.848	4029
929.953	4036
930.058	3934
930.163	3804
930.267	3812
930.372	3983
930.477	3838
930.581	4097
930.685	3941
930.79	3789
930.894	3918
930.998	3865
931.103	4048
931.207	3724
931.311	3705
931.415	3679
931.519	3507
931.623	3561
