Data from test_V78500241_581.txt Node
Date: Fri Mar 25 16:53:02 CST 2022
User: usil
Spectrometer: V785-0024
Trigger mode: 0
Integration Time (sec): 4.000000E-1
Scans to average: 1
Nonlinearity correction enabled: false
Boxcar width: 0
Storing dark spectrum: false
XAxis mode: Wavelengths
Number of Pixels in Spectrum: 1024
>>>>>Begin Spectral Data<<<<<
801.071	8069
801.214	8031
801.356	7955
801.499	7868
801.641	7795
801.783	7868
801.926	8050
802.068	8012
802.211	8001
802.353	8062
802.496	7913
802.638	7963
802.78	7902
802.923	7921
803.065	7879
803.208	7788
803.35	7970
803.492	8115
803.635	8180
803.777	8043
803.919	8081
804.061	8377
804.204	8263
804.346	8012
804.488	7959
804.63	8035
804.773	8039
804.915	8054
805.057	8290
805.199	8191
805.341	8313
805.483	8286
805.626	8233
805.768	8107
805.91	8237
806.052	8225
806.194	8164
806.336	8275
806.478	8134
806.62	8046
806.762	8199
806.904	8237
807.046	8511
807.188	8298
807.33	8233
807.472	8290
807.614	8221
807.756	8100
807.898	7982
808.04	7913
808.182	7913
808.324	7860
808.465	7955
808.607	8027
808.749	8115
808.891	8199
809.033	8298
809.174	8275
809.316	8046
809.458	8054
809.6	8024
809.741	8062
809.883	7997
810.025	8077
810.166	8123
810.308	8027
810.45	7989
810.591	7879
810.733	7769
810.875	7700
811.016	7582
811.158	7529
811.299	7616
811.441	7696
811.582	7693
811.724	7590
811.865	7582
812.007	7601
812.148	7655
812.29	7620
812.431	7753
812.573	7875
812.714	8016
812.855	8157
812.997	8275
813.138	8381
813.279	8271
813.421	8187
813.562	8031
813.703	7894
813.845	7769
813.986	7487
814.127	7346
814.268	7308
814.41	7285
814.551	7160
814.692	7206
814.833	7069
814.974	7137
815.115	7133
815.256	6985
815.397	7012
815.539	7057
815.68	6833
815.821	6916
815.962	6886
816.103	6798
816.244	6749
816.385	6688
816.526	6665
816.666	6513
816.807	6323
816.948	6479
817.089	6467
817.23	6426
817.371	6380
817.512	6403
817.653	6426
817.793	6369
817.934	6426
818.075	6532
818.216	6456
818.356	6445
818.497	6254
818.638	6171
818.778	6091
818.919	6121
819.06	6171
819.2	6292
819.341	6327
819.481	6380
819.622	6604
819.762	6722
819.903	6798
820.043	6593
820.184	6574
820.324	6582
820.465	6631
820.605	6658
820.746	6642
820.886	6532
821.026	6692
821.167	6696
821.307	6806
821.447	6692
821.588	6669
821.728	6593
821.868	6414
822.008	6311
822.149	6391
822.289	6384
822.429	6205
822.569	6102
822.709	6152
822.849	5935
822.99	5882
823.13	5954
823.27	5920
823.41	5824
823.55	5802
823.69	5771
823.83	5847
823.97	5710
824.11	5551
824.25	5501
824.389	5600
824.529	5558
824.669	5592
824.809	5668
824.949	5684
825.089	5611
825.228	5573
825.368	5448
825.508	5360
825.648	5360
825.787	5398
825.927	5391
826.067	5299
826.206	5330
826.346	5368
826.485	5360
826.625	5391
826.765	5585
826.904	5414
827.044	5242
827.183	5208
827.323	5185
827.462	5250
827.601	5159
827.741	5216
827.88	5250
828.02	5140
828.159	5220
828.298	5341
828.437	5364
828.577	5277
828.716	5471
828.855	5330
828.994	5181
829.134	5170
829.273	5197
829.412	5216
829.551	5143
829.69	5159
829.829	5250
829.968	5391
830.107	5242
830.246	5258
830.385	5147
830.524	5170
830.663	5086
830.802	4965
830.941	4881
831.08	4881
831.219	4938
831.357	4957
831.496	5216
831.635	4892
831.774	4839
831.913	4854
832.051	4771
832.19	4786
832.329	4862
832.467	4691
832.606	4679
832.744	4744
832.883	4733
833.022	4725
833.16	4847
833.299	4854
833.437	4812
833.576	4843
833.714	4904
833.852	4839
833.991	4870
834.129	4949
834.267	5014
834.406	4908
834.544	4984
834.682	4968
834.821	4938
834.959	5170
835.097	5006
835.235	5162
835.373	5064
835.511	5090
835.65	5029
835.788	5048
835.926	4930
836.064	4923
836.202	4984
836.34	5193
836.478	5181
836.615	5086
836.753	5181
836.891	5315
837.029	5239
837.167	5254
837.305	5147
837.443	5189
837.58	5098
837.718	5246
837.856	5170
837.993	5143
838.131	5242
838.269	5231
838.406	5197
838.544	5201
838.681	5052
838.819	4980
838.956	4911
839.094	4965
839.231	4984
839.369	5086
839.506	5463
839.643	5246
839.781	5090
839.918	4987
840.055	5060
840.193	5086
840.33	5117
840.467	5155
840.604	5132
840.742	5440
840.879	5071
841.016	5079
841.153	5155
841.29	5360
841.427	5334
841.564	5395
841.701	5364
841.838	5284
841.975	5254
842.112	5246
842.249	5178
842.385	5083
842.522	5326
842.659	5178
842.796	5140
842.933	5231
843.069	5189
843.206	5124
843.343	5334
843.479	5235
843.616	5292
843.752	5022
843.889	4991
844.025	5246
844.162	5045
844.298	5174
844.435	5102
844.571	5041
844.708	5147
844.844	5242
844.98	5383
845.117	5296
845.253	5117
845.389	5090
845.525	5185
845.661	5231
845.798	5022
845.934	5159
846.07	5041
846.206	5170
846.342	5265
846.478	5201
846.614	5029
846.75	4987
846.886	4938
847.022	5136
847.158	5037
847.294	5041
847.429	5086
847.565	5056
847.701	5303
847.837	4877
847.972	4790
848.108	4938
848.244	4984
848.379	4778
848.515	4710
848.65	4645
848.786	4740
848.921	4820
849.057	4900
849.192	4946
849.328	4793
849.463	4908
849.598	4839
849.734	4816
849.869	4729
850.004	4656
850.14	4660
850.275	4599
850.41	4554
850.545	4618
850.68	4584
850.815	4596
850.95	4645
851.085	4866
851.22	4805
851.355	4736
851.49	4649
851.625	4679
851.76	4721
851.895	4603
852.03	4542
852.165	4675
852.299	4778
852.434	4828
852.569	4797
852.703	4786
852.838	4896
852.973	4984
853.107	4976
853.242	4767
853.376	4691
853.511	4607
853.645	4649
853.78	4797
853.914	4721
854.048	4698
854.183	4630
854.317	4687
854.451	4889
854.585	4649
854.72	4664
854.854	4805
854.988	4618
855.122	4626
855.256	4588
855.39	4683
855.524	4824
855.658	4771
855.792	4771
855.926	4763
856.06	4771
856.194	4854
856.327	4714
856.461	4675
856.595	4672
856.729	4641
856.862	4797
856.996	4778
857.13	4790
857.263	4793
857.397	4809
857.53	4683
857.664	4797
857.797	4771
857.931	4816
858.064	4717
858.197	4717
858.331	4706
858.464	4656
858.597	4565
858.731	4630
858.864	4634
858.997	4687
859.13	4694
859.263	4733
859.396	4725
859.529	4607
859.662	4603
859.795	4596
859.928	4675
860.061	4759
860.194	4805
860.327	4653
860.46	4603
860.592	4717
860.725	4706
860.858	4790
860.99	4641
861.123	4569
861.256	4531
861.388	4630
861.521	5364
861.653	4519
861.786	4485
861.918	4558
862.05	4577
862.183	4607
862.315	4649
862.447	4653
862.58	4580
862.712	4432
862.844	4413
862.976	4554
863.108	4493
863.24	4820
863.372	4383
863.504	4432
863.636	4436
863.768	4550
863.9	4489
864.032	4398
864.164	4402
864.296	4493
864.428	4577
864.559	4603
864.691	4569
864.823	4584
864.954	4485
865.086	4527
865.217	4542
865.349	4485
865.48	4519
865.612	4550
865.743	4668
865.875	4481
866.006	4466
866.137	4535
866.269	4474
866.4	4466
866.531	4462
866.662	4470
866.793	4421
866.924	4424
867.055	4527
867.186	4538
867.317	4455
867.448	4428
867.579	4371
867.71	4421
867.841	4360
867.972	4478
868.103	4489
868.233	4436
868.364	4481
868.495	4550
868.625	4710
868.756	4812
868.886	4565
869.017	4641
869.147	4801
869.278	4759
869.408	4706
869.539	4694
869.669	4763
869.799	4733
869.929	4801
870.06	4786
870.19	4995
870.32	4957
870.45	4965
870.58	5048
870.71	5159
870.84	5117
870.97	4942
871.1	4938
871.23	5189
871.36	5124
871.489	5102
871.619	5140
871.749	5060
871.879	5185
872.008	5239
872.138	5048
872.267	5079
872.397	4873
872.526	4820
872.656	4778
872.785	4828
872.915	4961
873.044	5056
873.173	5003
873.303	4995
873.432	4980
873.561	4961
873.69	4889
873.819	4900
873.948	5006
874.077	4930
874.206	4816
874.335	4835
874.464	4889
874.593	5124
874.722	4984
874.851	5170
874.979	5098
875.108	5033
875.237	4930
875.365	4900
875.494	4934
875.623	5067
875.751	4900
875.88	4892
876.008	5045
876.136	5064
876.265	5239
876.393	5357
876.521	5280
876.65	5273
876.778	5201
876.906	5121
877.034	5060
877.162	5102
877.29	4987
877.418	5098
877.546	5132
877.674	5102
877.802	5067
877.93	5102
878.058	4953
878.185	4919
878.313	4980
878.441	5022
878.568	4790
878.696	4892
878.824	4991
878.951	5041
879.079	5193
879.206	5322
879.333	5117
879.461	4999
879.588	5006
879.715	5155
879.842	5261
879.97	5029
880.097	4835
880.224	4793
880.351	4816
880.478	4870
880.605	4854
880.732	4805
880.859	5147
880.986	4972
881.112	4908
881.239	4782
881.366	4694
881.493	4664
881.619	4637
881.746	4660
881.872	4714
881.999	4714
882.125	4740
882.252	4843
882.378	4858
882.505	5025
882.631	4862
882.757	4675
882.883	4774
883.01	4725
883.136	4752
883.262	4649
883.388	4626
883.514	4866
883.64	4927
883.766	4805
883.892	4672
884.018	4759
884.143	4953
884.269	5041
884.395	4683
884.52	4721
884.646	4691
884.772	4603
884.897	4584
885.023	4714
885.148	4752
885.274	4866
885.399	4805
885.524	4721
885.65	4740
885.775	4782
885.9	4748
886.025	4850
886.15	4816
886.275	4721
886.4	4649
886.525	4744
886.65	4672
886.775	4721
886.9	4976
887.025	5022
887.149	4786
887.274	4656
887.399	4611
887.523	4603
887.648	4618
887.773	4603
887.897	4778
888.021	4767
888.146	4687
888.27	4835
888.395	4911
888.519	4881
888.643	4828
888.767	4858
888.891	4687
889.015	4645
889.139	4714
889.263	4626
889.387	4828
889.511	4938
889.635	4831
889.759	4656
889.883	4675
890.006	4782
890.13	4850
890.254	4675
890.377	4733
890.501	4535
890.624	4558
890.748	4679
890.871	4512
890.995	4478
891.118	4417
891.241	4550
891.364	4550
891.488	4702
891.611	4481
891.734	4535
891.857	4596
891.98	4596
892.103	4611
892.226	4634
892.349	4554
892.471	4428
892.594	4554
892.717	4584
892.839	4580
892.962	4641
893.085	4694
893.207	4611
893.33	4424
893.452	4542
893.575	4729
893.697	4607
893.819	4790
893.941	4885
894.064	4729
894.186	4603
894.308	4584
894.43	4786
894.552	4877
894.674	4782
894.796	4561
894.918	4565
895.04	4599
895.161	4778
895.283	4714
895.405	4622
895.526	4664
895.648	4706
895.769	4691
895.891	4755
896.012	4767
896.134	4733
896.255	4660
896.376	4660
896.498	4630
896.619	4714
896.74	4687
896.861	4691
896.982	4987
897.103	5121
897.224	4850
897.345	4820
897.466	4687
897.587	4767
897.708	4847
897.828	4809
897.949	4706
898.07	4584
898.19	4653
898.311	4828
898.431	4710
898.552	4805
898.672	4782
898.792	4793
898.913	4767
899.033	4649
899.153	4542
899.273	4417
899.393	4497
899.513	4565
899.633	4497
899.753	4580
899.873	4542
899.993	4634
900.113	4527
900.232	4618
900.352	4516
900.472	4512
900.591	4451
900.711	4500
900.83	4489
900.95	4630
901.069	4668
901.189	4580
901.308	4421
901.427	4318
901.546	4367
901.665	4500
901.784	4519
901.904	4405
902.023	4402
902.141	4223
902.26	4162
902.379	4348
902.498	4249
902.617	4230
902.735	4360
902.854	4421
902.973	4333
903.091	4272
903.21	4211
903.328	4337
903.446	4284
903.565	4280
903.683	4371
903.801	4249
903.919	4443
904.038	4459
904.156	4371
904.274	4481
904.392	4402
904.51	4443
904.627	4535
904.745	4592
904.863	4656
904.981	4390
905.098	4299
905.216	4344
905.334	4447
905.451	4443
905.569	4447
905.686	4565
905.803	4596
905.921	4436
906.038	4569
906.155	4531
906.272	4402
906.389	4478
906.506	4402
906.623	4402
906.74	4436
906.857	4325
906.974	4409
907.091	4588
907.208	4702
907.324	4611
907.441	4573
907.557	4356
907.674	4333
907.79	4306
907.907	4383
908.023	4470
908.139	4500
908.256	4432
908.372	4481
908.488	4466
908.604	4398
908.72	4363
908.836	4386
908.952	4348
909.068	4451
909.184	4561
909.3	4527
909.415	4580
909.531	4637
909.647	4390
909.762	4386
909.878	4318
909.993	4481
910.108	4489
910.224	4413
910.339	4478
910.454	4390
910.57	4333
910.685	4314
910.8	4679
910.915	4611
911.03	4508
911.145	4356
911.259	4325
911.374	4383
911.489	4306
911.604	4280
911.718	4211
911.833	4238
911.947	4131
912.062	4055
912.176	4246
912.291	4253
912.405	4276
912.519	4500
912.633	4523
912.748	4409
912.862	4344
912.976	4230
913.09	4105
913.204	4162
913.318	4265
913.431	4360
913.545	4432
913.659	4421
913.772	4325
913.886	4272
914	4276
914.113	4371
914.226	4478
914.34	4405
914.453	4211
914.566	4436
914.68	4287
914.793	4333
914.906	4185
915.019	4120
915.132	4124
915.245	4192
915.358	4249
915.47	4257
915.583	4314
915.696	4299
915.809	4405
915.921	4455
916.034	4299
916.146	4249
916.259	4261
916.371	4405
916.483	4356
916.595	4287
916.708	4314
916.82	4306
916.932	4348
917.044	4303
917.156	4402
917.268	4249
917.38	4291
917.491	4276
917.603	4337
917.715	4447
917.826	4497
917.938	4360
918.049	4253
918.161	4371
918.272	4580
918.384	4535
918.495	4409
918.606	4322
918.717	4268
918.828	4352
918.939	4367
919.05	4291
919.161	4379
919.272	4116
919.383	4238
919.494	4504
919.604	4649
919.715	4424
919.826	4428
919.936	4383
920.047	4542
920.157	4508
920.267	4687
920.378	4497
920.488	4508
920.598	4710
920.708	4949
920.818	4771
920.928	4740
921.038	4900
921.148	4927
921.258	4664
921.368	4565
921.477	4485
921.587	4432
921.697	4402
921.806	4554
921.916	4451
922.025	4303
922.134	4310
922.244	4188
922.353	4363
922.462	4204
922.571	4105
922.68	3991
922.789	3983
922.898	4051
923.007	3994
923.116	4093
923.224	4086
923.333	4071
923.442	3987
923.55	3994
923.659	4040
923.767	4147
923.876	3994
923.984	4128
924.092	3972
924.201	4101
924.309	4124
924.417	4139
924.525	4029
924.633	4116
924.741	5048
924.849	3949
924.956	4101
925.064	3979
925.172	3922
925.279	3983
925.387	4074
925.494	4063
925.602	4261
925.709	4177
925.816	4055
925.924	4169
926.031	4234
926.138	4147
926.245	4261
926.352	4101
926.459	4261
926.566	4295
926.673	4219
926.779	4055
926.886	4128
926.993	3941
927.099	3994
927.206	3983
927.312	3945
927.419	4086
927.525	4025
927.631	4063
927.737	3972
927.843	3945
927.95	3865
928.056	3987
928.162	3975
928.267	4051
928.373	4687
928.479	4112
928.585	3903
928.69	4032
928.796	4063
928.901	3991
929.007	3888
929.112	4010
929.218	4006
929.323	3964
929.428	4002
929.533	4090
929.638	3937
929.743	3968
929.848	4017
929.953	3991
930.058	3937
930.163	3770
930.267	3857
930.372	4002
930.477	3804
930.581	4101
930.685	3979
930.79	3781
930.894	3876
930.998	3884
931.103	4071
931.207	3743
931.311	3709
931.415	3682
931.519	3542
931.623	3576
