Data from test_V78500241_1411.txt Node
Date: Fri Mar 25 16:58:48 CST 2022
User: usil
Spectrometer: V785-0024
Trigger mode: 0
Integration Time (sec): 4.000000E-1
Scans to average: 1
Nonlinearity correction enabled: false
Boxcar width: 0
Storing dark spectrum: false
XAxis mode: Wavelengths
Number of Pixels in Spectrum: 1024
>>>>>Begin Spectral Data<<<<<
801.071	7978
801.214	8012
801.356	7864
801.499	7818
801.641	7814
801.783	7776
801.926	7947
802.068	7879
802.211	7947
802.353	7917
802.496	7871
802.638	7818
802.78	7879
802.923	7951
803.065	7841
803.208	7795
803.35	7974
803.492	8054
803.635	8111
803.777	8031
803.919	8164
804.061	8324
804.204	8199
804.346	8107
804.488	7967
804.63	8039
804.773	8008
804.915	8031
805.057	8286
805.199	8221
805.341	8202
805.483	8195
805.626	8191
805.768	8115
805.91	8183
806.052	8282
806.194	8142
806.336	8233
806.478	8092
806.62	8054
806.762	8138
806.904	8225
807.046	8415
807.188	8431
807.33	8305
807.472	8339
807.614	8123
807.756	8062
807.898	8001
808.04	7849
808.182	7856
808.324	7814
808.465	7974
808.607	8039
808.749	8180
808.891	8134
809.033	8267
809.174	8183
809.316	8043
809.458	8069
809.6	8035
809.741	8005
809.883	8001
810.025	8073
810.166	8008
810.308	7974
810.45	7963
810.591	7849
810.733	7685
810.875	7693
811.016	7499
811.158	7525
811.299	7616
811.441	7677
811.582	7689
811.724	7559
811.865	7540
812.007	7605
812.148	7533
812.29	7594
812.431	7719
812.573	7883
812.714	7940
812.855	8145
812.997	8134
813.138	8298
813.279	8176
813.421	8149
813.562	7944
813.703	7803
813.845	7727
813.986	7426
814.127	7244
814.268	7168
814.41	7209
814.551	7149
814.692	7175
814.833	7107
814.974	7107
815.115	7088
815.256	7000
815.397	6939
815.539	6894
815.68	6802
815.821	6768
815.962	6882
816.103	6806
816.244	6711
816.385	6597
816.526	6566
816.666	6498
816.807	6342
816.948	6388
817.089	6471
817.23	6429
817.371	6304
817.512	6361
817.653	6399
817.793	6376
817.934	6388
818.075	6418
818.216	6414
818.356	6365
818.497	6254
818.638	6182
818.778	6163
818.919	6155
819.06	6136
819.2	6292
819.341	6365
819.481	6403
819.622	6555
819.762	6726
819.903	6707
820.043	6601
820.184	6506
820.324	6604
820.465	6665
820.605	6700
820.746	6639
820.886	6460
821.026	6642
821.167	6669
821.307	6753
821.447	6772
821.588	6658
821.728	6502
821.868	6441
822.008	6308
822.149	6372
822.289	6372
822.429	6125
822.569	6079
822.709	6072
822.849	5897
822.99	5912
823.13	5889
823.27	5920
823.41	5836
823.55	5764
823.69	5798
823.83	5767
823.97	5665
824.11	5509
824.25	5501
824.389	5562
824.529	5573
824.669	5493
824.809	5570
824.949	5642
825.089	5558
825.228	5551
825.368	5395
825.508	5391
825.648	5330
825.787	5364
825.927	5406
826.067	5307
826.206	5269
826.346	5387
826.485	5326
826.625	5402
826.765	5566
826.904	5440
827.044	5277
827.183	5204
827.323	5113
827.462	5265
827.601	5124
827.741	5193
827.88	5220
828.02	5094
828.159	5231
828.298	5307
828.437	5345
828.577	5299
828.716	5467
828.855	5315
828.994	5178
829.134	5124
829.273	5155
829.412	5128
829.551	5105
829.69	5155
829.829	5258
829.968	5364
830.107	5208
830.246	5216
830.385	5166
830.524	5121
830.663	5033
830.802	5003
830.941	4904
831.08	4858
831.219	4942
831.357	4915
831.496	5155
831.635	4984
831.774	4797
831.913	4862
832.051	4725
832.19	4721
832.329	4824
832.467	4649
832.606	4573
832.744	4733
832.883	4714
833.022	4679
833.16	4710
833.299	4797
833.437	4820
833.576	4801
833.714	4820
833.852	4824
833.991	4793
834.129	4968
834.267	4908
834.406	4900
834.544	4934
834.682	4995
834.821	4942
834.959	5151
835.097	5025
835.235	5151
835.373	5060
835.511	5064
835.65	4999
835.788	5060
835.926	4904
836.064	4843
836.202	4930
836.34	5128
836.478	5151
836.615	5128
836.753	5197
836.891	5269
837.029	5242
837.167	5178
837.305	5159
837.443	5124
837.58	5064
837.718	5208
837.856	5117
837.993	5193
838.131	5227
838.269	5201
838.406	5181
838.544	5147
838.681	5025
838.819	4991
838.956	4934
839.094	4900
839.231	4930
839.369	5048
839.506	5444
839.643	5273
839.781	5018
839.918	4999
840.055	5071
840.193	5083
840.33	5052
840.467	5121
840.604	5140
840.742	5448
840.879	5052
841.016	5121
841.153	5075
841.29	5345
841.427	5299
841.564	5284
841.701	5334
841.838	5216
841.975	5197
842.112	5220
842.249	5102
842.385	5071
842.522	5360
842.659	5193
842.796	5151
842.933	5178
843.069	5094
843.206	5105
843.343	5292
843.479	5212
843.616	5231
843.752	4987
843.889	5010
844.025	5204
844.162	4976
844.298	5155
844.435	5083
844.571	5067
844.708	5124
844.844	5265
844.98	5307
845.117	5280
845.253	5181
845.389	5075
845.525	5098
845.661	5056
845.798	5010
845.934	5151
846.07	4984
846.206	5216
846.342	5254
846.478	5162
846.614	5010
846.75	4961
846.886	4946
847.022	5113
847.158	5048
847.294	5075
847.429	5098
847.565	5010
847.701	5357
847.837	4812
847.972	4793
848.108	4930
848.244	4923
848.379	4733
848.515	4683
848.65	4714
848.786	4729
848.921	4759
849.057	4839
849.192	4911
849.328	4843
849.463	4824
849.598	4774
849.734	4710
849.869	4664
850.004	4592
850.14	4645
850.275	4603
850.41	4531
850.545	4546
850.68	4596
850.815	4622
850.95	4645
851.085	4805
851.22	4774
851.355	4660
851.49	4561
851.625	4618
851.76	4626
851.895	4546
852.03	4516
852.165	4618
852.299	4698
852.434	4774
852.569	4694
852.703	4767
852.838	4805
852.973	4885
853.107	4896
853.242	4752
853.376	4664
853.511	4550
853.645	4573
853.78	4714
853.914	4679
854.048	4725
854.183	4645
854.317	4702
854.451	4881
854.585	4630
854.72	4603
854.854	4694
854.988	4561
855.122	4584
855.256	4455
855.39	4672
855.524	4706
855.658	4687
855.792	4694
855.926	4717
856.06	4736
856.194	4729
856.327	4675
856.461	4558
856.595	4580
856.729	4603
856.862	4683
856.996	4660
857.13	4710
857.263	4744
857.397	4793
857.53	4626
857.664	4736
857.797	4740
857.931	4812
858.064	4645
858.197	4687
858.331	4645
858.464	4561
858.597	4474
858.731	4584
858.864	4580
858.997	4599
859.13	4702
859.263	4660
859.396	4626
859.529	4558
859.662	4599
859.795	4508
859.928	4599
860.061	4725
860.194	4805
860.327	4580
860.46	4527
860.592	4733
860.725	4679
860.858	4675
860.99	4550
861.123	4504
861.256	4493
861.388	4584
861.521	5410
861.653	4504
861.786	4398
861.918	4462
862.05	4516
862.183	4527
862.315	4592
862.447	4630
862.58	4542
862.712	4402
862.844	4306
862.976	4455
863.108	4478
863.24	4877
863.372	4325
863.504	4421
863.636	4424
863.768	4489
863.9	4451
864.032	4363
864.164	4379
864.296	4481
864.428	4535
864.559	4561
864.691	4542
864.823	4546
864.954	4535
865.086	4516
865.217	4523
865.349	4428
865.48	4516
865.612	4478
865.743	4626
865.875	4497
866.006	4462
866.137	4474
866.269	4466
866.4	4478
866.531	4470
866.662	4470
866.793	4455
866.924	4451
867.055	4538
867.186	4447
867.317	4455
867.448	4379
867.579	4462
867.71	4443
867.841	4413
867.972	4489
868.103	4478
868.233	4516
868.364	4508
868.495	4550
868.625	4679
868.756	4763
868.886	4596
869.017	4596
869.147	4824
869.278	4797
869.408	4626
869.539	4683
869.669	4755
869.799	4656
869.929	4782
870.06	4786
870.19	4991
870.32	4911
870.45	4984
870.58	5018
870.71	5140
870.84	5109
870.97	4953
871.1	4987
871.23	5220
871.36	5155
871.489	5048
871.619	5102
871.749	5109
871.879	5143
872.008	5201
872.138	5067
872.267	5048
872.397	4870
872.526	4767
872.656	4786
872.785	4847
872.915	4961
873.044	5056
873.173	5014
873.303	4980
873.432	4984
873.561	4976
873.69	4934
873.819	4885
873.948	4972
874.077	4862
874.206	4793
874.335	4847
874.464	4942
874.593	5075
874.722	5006
874.851	5121
874.979	5090
875.108	5052
875.237	4938
875.365	4866
875.494	4904
875.623	4980
875.751	4820
875.88	4946
876.008	4999
876.136	5113
876.265	5201
876.393	5349
876.521	5273
876.65	5250
876.778	5227
876.906	5090
877.034	5014
877.162	5060
877.29	5006
877.418	5083
877.546	5067
877.674	5083
877.802	5022
877.93	5006
878.058	4995
878.185	4847
878.313	4976
878.441	4930
878.568	4843
878.696	4816
878.824	4957
878.951	5018
879.079	5166
879.206	5364
879.333	5124
879.461	4987
879.588	5056
879.715	5143
879.842	5254
879.97	5025
880.097	4831
880.224	4797
880.351	4793
880.478	4839
880.605	4831
880.732	4797
880.859	5151
880.986	4965
881.112	4942
881.239	4767
881.366	4702
881.493	4675
881.619	4603
881.746	4649
881.872	4698
881.999	4717
882.125	4748
882.252	4816
882.378	4877
882.505	4949
882.631	4805
882.757	4691
882.883	4733
883.01	4793
883.136	4691
883.262	4618
883.388	4656
883.514	4809
883.64	4885
883.766	4797
883.892	4706
884.018	4733
884.143	4877
884.269	5045
884.395	4675
884.52	4672
884.646	4664
884.772	4599
884.897	4615
885.023	4721
885.148	4824
885.274	4923
885.399	4835
885.524	4778
885.65	4755
885.775	4774
885.9	4805
886.025	4900
886.15	4809
886.275	4767
886.4	4656
886.525	4816
886.65	4687
886.775	4683
886.9	4927
887.025	5003
887.149	4812
887.274	4649
887.399	4622
887.523	4649
887.648	4615
887.773	4626
887.897	4782
888.021	4835
888.146	4733
888.27	4831
888.395	4927
888.519	4797
888.643	4835
888.767	4889
888.891	4729
889.015	4618
889.139	4668
889.263	4668
889.387	4782
889.511	4930
889.635	4847
889.759	4645
889.883	4698
890.006	4752
890.13	4900
890.254	4626
890.377	4717
890.501	4573
890.624	4512
890.748	4679
890.871	4546
890.995	4459
891.118	4413
891.241	4516
891.364	4565
891.488	4687
891.611	4478
891.734	4577
891.857	4618
891.98	4580
892.103	4653
892.226	4653
892.349	4531
892.471	4428
892.594	4584
892.717	4622
892.839	4603
892.962	4653
893.085	4729
893.207	4615
893.33	4500
893.452	4512
893.575	4664
893.697	4592
893.819	4854
893.941	4881
894.064	4812
894.186	4634
894.308	4584
894.43	4763
894.552	4831
894.674	4828
894.796	4554
894.918	4603
895.04	4599
895.161	4702
895.283	4729
895.405	4607
895.526	4679
895.648	4679
895.769	4698
895.891	4763
896.012	4778
896.134	4725
896.255	4706
896.376	4664
896.498	4626
896.619	4691
896.74	4622
896.861	4683
896.982	4927
897.103	5147
897.224	4870
897.345	4763
897.466	4649
897.587	4763
897.708	4828
897.828	4797
897.949	4740
898.07	4546
898.19	4672
898.311	4790
898.431	4664
898.552	4706
898.672	4843
898.792	4858
898.913	4740
899.033	4656
899.153	4504
899.273	4462
899.393	4504
899.513	4542
899.633	4531
899.753	4546
899.873	4516
899.993	4603
900.113	4580
900.232	4622
900.352	4569
900.472	4485
900.591	4424
900.711	4512
900.83	4443
900.95	4641
901.069	4729
901.189	4573
901.308	4337
901.427	4363
901.546	4455
901.665	4512
901.784	4546
901.904	4413
902.023	4363
902.141	4227
902.26	4207
902.379	4325
902.498	4257
902.617	4227
902.735	4379
902.854	4436
902.973	4398
903.091	4238
903.21	4284
903.328	4314
903.446	4261
903.565	4261
903.683	4375
903.801	4322
903.919	4417
904.038	4443
904.156	4318
904.274	4398
904.392	4413
904.51	4470
904.627	4489
904.745	4592
904.863	4649
904.981	4462
905.098	4360
905.216	4363
905.334	4417
905.451	4481
905.569	4440
905.686	4569
905.803	4573
905.921	4440
906.038	4565
906.155	4527
906.272	4443
906.389	4428
906.506	4363
906.623	4409
906.74	4390
906.857	4337
906.974	4402
907.091	4554
907.208	4664
907.324	4672
907.441	4466
907.557	4379
907.674	4383
907.79	4306
907.907	4383
908.023	4478
908.139	4481
908.256	4424
908.372	4500
908.488	4497
908.604	4398
908.72	4367
908.836	4413
908.952	4405
909.068	4432
909.184	4588
909.3	4485
909.415	4592
909.531	4561
909.647	4402
909.762	4405
909.878	4409
909.993	4478
910.108	4402
910.224	4413
910.339	4489
910.454	4462
910.57	4367
910.685	4306
910.8	4641
910.915	4630
911.03	4538
911.145	4356
911.259	4322
911.374	4379
911.489	4344
911.604	4348
911.718	4173
911.833	4234
911.947	4074
912.062	4021
912.176	4204
912.291	4223
912.405	4230
912.519	4500
912.633	4542
912.748	4375
912.862	4383
912.976	4207
913.09	4090
913.204	4177
913.318	4249
913.431	4360
913.545	4341
913.659	4428
913.772	4379
913.886	4246
914	4284
914.113	4383
914.226	4455
914.34	4386
914.453	4280
914.566	4455
914.68	4341
914.793	4333
914.906	4192
915.019	4116
915.132	4101
915.245	4227
915.358	4211
915.47	4215
915.583	4272
915.696	4299
915.809	4440
915.921	4478
916.034	4287
916.146	4238
916.259	4238
916.371	4360
916.483	4421
916.595	4322
916.708	4287
916.82	4344
916.932	4348
917.044	4352
917.156	4352
917.268	4246
917.38	4242
917.491	4257
917.603	4295
917.715	4417
917.826	4409
917.938	4379
918.049	4242
918.161	4402
918.272	4588
918.384	4546
918.495	4451
918.606	4337
918.717	4242
918.828	4352
918.939	4337
919.05	4242
919.161	4310
919.272	4124
919.383	4261
919.494	4455
919.604	4622
919.715	4489
919.826	4314
919.936	4428
920.047	4523
920.157	4493
920.267	4740
920.378	4542
920.488	4542
920.598	4702
920.708	4885
920.818	4782
920.928	4790
921.038	4938
921.148	4934
921.258	4630
921.368	4565
921.477	4470
921.587	4451
921.697	4417
921.806	4596
921.916	4462
922.025	4280
922.134	4284
922.244	4276
922.353	4352
922.462	4162
922.571	4124
922.68	4036
922.789	4002
922.898	4036
923.007	4017
923.116	4143
923.224	4017
923.333	4071
923.442	3968
923.55	4032
923.659	4086
923.767	4124
923.876	4040
923.984	4124
924.092	3972
924.201	4071
924.309	4059
924.417	4128
924.525	4059
924.633	4128
924.741	5067
924.849	3930
924.956	4166
925.064	3945
925.172	3869
925.279	3994
925.387	4044
925.494	4055
925.602	4169
925.709	4185
925.816	4010
925.924	4154
926.031	4207
926.138	4154
926.245	4200
926.352	4093
926.459	4303
926.566	4318
926.673	4128
926.779	4090
926.886	4074
926.993	4010
927.099	3975
927.206	3911
927.312	3937
927.419	4055
927.525	4071
927.631	4093
927.737	3964
927.843	3987
927.95	3880
928.056	3991
928.162	3987
928.267	4067
928.373	4698
928.479	4105
928.585	3854
928.69	4006
928.796	4055
928.901	3941
929.007	3812
929.112	4036
929.218	4002
929.323	3930
929.428	3956
929.533	4090
929.638	3915
929.743	3994
929.848	4021
929.953	4048
930.058	3949
930.163	3770
930.267	3854
930.372	4044
930.477	3812
930.581	4116
930.685	4002
930.79	3812
930.894	3903
930.998	3838
931.103	4071
931.207	3766
931.311	3701
931.415	3644
931.519	3534
931.623	3580
