Data from test_V78500241_1817.txt Node
Date: Fri Mar 25 17:01:38 CST 2022
User: usil
Spectrometer: V785-0024
Trigger mode: 0
Integration Time (sec): 4.000000E-1
Scans to average: 1
Nonlinearity correction enabled: false
Boxcar width: 0
Storing dark spectrum: false
XAxis mode: Wavelengths
Number of Pixels in Spectrum: 1024
>>>>>Begin Spectral Data<<<<<
801.071	7970
801.214	8039
801.356	7830
801.499	7879
801.641	7795
801.783	7826
801.926	7883
802.068	7875
802.211	7967
802.353	8027
802.496	7830
802.638	7849
802.78	7917
802.923	7951
803.065	7875
803.208	7864
803.35	8008
803.492	8024
803.635	8153
803.777	7936
803.919	8031
804.061	8431
804.204	8164
804.346	8062
804.488	7970
804.63	8081
804.773	8012
804.915	8107
805.057	8309
805.199	8183
805.341	8191
805.483	8237
805.626	8225
805.768	8111
805.91	8229
806.052	8180
806.194	8103
806.336	8183
806.478	8039
806.62	8084
806.762	8084
806.904	8290
807.046	8465
807.188	8389
807.33	8355
807.472	8317
807.614	8180
807.756	8168
807.898	8012
808.04	7894
808.182	7879
808.324	7902
808.465	7868
808.607	8046
808.749	8096
808.891	8176
809.033	8347
809.174	8225
809.316	8107
809.458	8012
809.6	8050
809.741	8024
809.883	8096
810.025	8039
810.166	8058
810.308	7967
810.45	7982
810.591	7814
810.733	7704
810.875	7689
811.016	7506
811.158	7434
811.299	7594
811.441	7734
811.582	7651
811.724	7506
811.865	7594
812.007	7605
812.148	7559
812.29	7624
812.431	7715
812.573	7898
812.714	7993
812.855	8043
812.997	8206
813.138	8305
813.279	8149
813.421	8077
813.562	7890
813.703	7807
813.845	7776
813.986	7381
814.127	7232
814.268	7285
814.41	7175
814.551	7187
814.692	7183
814.833	7072
814.974	7107
815.115	7118
815.256	6928
815.397	6935
815.539	7000
815.68	6818
815.821	6768
815.962	6882
816.103	6779
816.244	6646
816.385	6563
816.526	6608
816.666	6483
816.807	6273
816.948	6388
817.089	6513
817.23	6426
817.371	6361
817.512	6342
817.653	6350
817.793	6353
817.934	6369
818.075	6433
818.216	6399
818.356	6422
818.497	6273
818.638	6076
818.778	6133
818.919	6129
819.06	6102
819.2	6342
819.341	6331
819.481	6384
819.622	6445
819.762	6707
819.903	6700
820.043	6585
820.184	6555
820.324	6559
820.465	6753
820.605	6669
820.746	6673
820.886	6498
821.026	6665
821.167	6677
821.307	6798
821.447	6734
821.588	6719
821.728	6589
821.868	6467
822.008	6292
822.149	6426
822.289	6357
822.429	6152
822.569	6076
822.709	6064
822.849	5977
822.99	5923
823.13	5931
823.27	5878
823.41	5783
823.55	5828
823.69	5771
823.83	5786
823.97	5604
824.11	5558
824.25	5486
824.389	5566
824.529	5524
824.669	5497
824.809	5615
824.949	5672
825.089	5672
825.228	5505
825.368	5387
825.508	5364
825.648	5387
825.787	5330
825.927	5391
826.067	5311
826.206	5292
826.346	5395
826.485	5402
826.625	5395
826.765	5501
826.904	5463
827.044	5246
827.183	5174
827.323	5136
827.462	5246
827.601	5151
827.741	5174
827.88	5174
828.02	5083
828.159	5216
828.298	5280
828.437	5353
828.577	5299
828.716	5490
828.855	5284
828.994	5128
829.134	5124
829.273	5220
829.412	5181
829.551	5132
829.69	5151
829.829	5201
829.968	5372
830.107	5227
830.246	5277
830.385	5178
830.524	5105
830.663	5056
830.802	4957
830.941	4908
831.08	4835
831.219	4995
831.357	4980
831.496	5151
831.635	4877
831.774	4828
831.913	4812
832.051	4717
832.19	4782
832.329	4835
832.467	4660
832.606	4660
832.744	4744
832.883	4710
833.022	4714
833.16	4805
833.299	4809
833.437	4812
833.576	4820
833.714	4839
833.852	4919
833.991	4904
834.129	4911
834.267	4862
834.406	4908
834.544	5033
834.682	4946
834.821	4949
834.959	5166
835.097	4980
835.235	5178
835.373	5048
835.511	5105
835.65	5006
835.788	4987
835.926	4900
836.064	4831
836.202	4885
836.34	5155
836.478	5216
836.615	5094
836.753	5181
836.891	5261
837.029	5227
837.167	5185
837.305	5143
837.443	5094
837.58	5079
837.718	5220
837.856	5178
837.993	5185
838.131	5185
838.269	5223
838.406	5174
838.544	5212
838.681	5083
838.819	4999
838.956	4892
839.094	4892
839.231	4927
839.369	5079
839.506	5398
839.643	5246
839.781	5029
839.918	5018
840.055	5075
840.193	5090
840.33	5083
840.467	5098
840.604	5208
840.742	5463
840.879	5041
841.016	5098
841.153	5121
841.29	5364
841.427	5345
841.564	5318
841.701	5330
841.838	5223
841.975	5242
842.112	5235
842.249	5113
842.385	5105
842.522	5326
842.659	5143
842.796	5143
842.933	5181
843.069	5140
843.206	5132
843.343	5273
843.479	5212
843.616	5277
843.752	4991
843.889	5010
844.025	5193
844.162	5033
844.298	5220
844.435	5071
844.571	5033
844.708	5204
844.844	5277
844.98	5303
845.117	5334
845.253	5102
845.389	5117
845.525	5170
845.661	5117
845.798	4961
845.934	5086
846.07	5056
846.206	5170
846.342	5254
846.478	5197
846.614	5014
846.75	4991
846.886	4961
847.022	5124
847.158	4984
847.294	5067
847.429	5060
847.565	5003
847.701	5326
847.837	4892
847.972	4854
848.108	4949
848.244	4984
848.379	4812
848.515	4698
848.65	4725
848.786	4752
848.921	4778
849.057	4828
849.192	4854
849.328	4824
849.463	4809
849.598	4752
849.734	4710
849.869	4683
850.004	4656
850.14	4702
850.275	4618
850.41	4519
850.545	4584
850.68	4569
850.815	4599
850.95	4596
851.085	4900
851.22	4786
851.355	4618
851.49	4573
851.625	4588
851.76	4615
851.895	4523
852.03	4508
852.165	4626
852.299	4691
852.434	4767
852.569	4706
852.703	4748
852.838	4790
852.973	4927
853.107	4919
853.242	4702
853.376	4698
853.511	4519
853.645	4603
853.78	4812
853.914	4668
854.048	4641
854.183	4615
854.317	4679
854.451	4797
854.585	4698
854.72	4603
854.854	4774
854.988	4618
855.122	4630
855.256	4523
855.39	4630
855.524	4767
855.658	4752
855.792	4706
855.926	4675
856.06	4782
856.194	4843
856.327	4733
856.461	4615
856.595	4622
856.729	4626
856.862	4733
856.996	4687
857.13	4736
857.263	4729
857.397	4812
857.53	4653
857.664	4748
857.797	4706
857.931	4717
858.064	4660
858.197	4729
858.331	4668
858.464	4615
858.597	4489
858.731	4634
858.864	4607
858.997	4592
859.13	4725
859.263	4733
859.396	4675
859.529	4577
859.662	4561
859.795	4497
859.928	4615
860.061	4767
860.194	4801
860.327	4584
860.46	4577
860.592	4702
860.725	4725
860.858	4691
860.99	4592
861.123	4500
861.256	4500
861.388	4588
861.521	5425
861.653	4508
861.786	4447
861.918	4443
862.05	4489
862.183	4603
862.315	4561
862.447	4645
862.58	4527
862.712	4375
862.844	4337
862.976	4455
863.108	4459
863.24	4877
863.372	4322
863.504	4432
863.636	4417
863.768	4497
863.9	4455
864.032	4363
864.164	4466
864.296	4447
864.428	4538
864.559	4519
864.691	4497
864.823	4500
864.954	4512
865.086	4519
865.217	4428
865.349	4390
865.48	4421
865.612	4508
865.743	4634
865.875	4474
866.006	4462
866.137	4481
866.269	4436
866.4	4447
866.531	4421
866.662	4421
866.793	4417
866.924	4421
867.055	4481
867.186	4417
867.317	4443
867.448	4348
867.579	4421
867.71	4379
867.841	4348
867.972	4436
868.103	4455
868.233	4485
868.364	4413
868.495	4455
868.625	4653
868.756	4744
868.886	4546
869.017	4641
869.147	4771
869.278	4729
869.408	4691
869.539	4641
869.669	4710
869.799	4736
869.929	4721
870.06	4698
870.19	4904
870.32	4923
870.45	4889
870.58	5041
870.71	5083
870.84	5147
870.97	4927
871.1	4873
871.23	5136
871.36	5121
871.489	5006
871.619	5064
871.749	5083
871.879	5159
872.008	5174
872.138	5022
872.267	4991
872.397	4854
872.526	4782
872.656	4694
872.785	4881
872.915	4949
873.044	4991
873.173	4961
873.303	5003
873.432	4927
873.561	4984
873.69	4885
873.819	4881
873.948	4885
874.077	4790
874.206	4740
874.335	4755
874.464	4927
874.593	5071
874.722	4953
874.851	5098
874.979	5086
875.108	5075
875.237	4938
875.365	4900
875.494	4908
875.623	4953
875.751	4778
875.88	4866
876.008	4976
876.136	5010
876.265	5166
876.393	5357
876.521	5204
876.65	5140
876.778	5117
876.906	5025
877.034	5010
877.162	5025
877.29	4976
877.418	5064
877.546	5064
877.674	5006
877.802	5018
877.93	4984
878.058	4976
878.185	4854
878.313	4927
878.441	4911
878.568	4801
878.696	4854
878.824	4987
878.951	4968
879.079	5098
879.206	5334
879.333	5075
879.461	4965
879.588	4991
879.715	5105
879.842	5216
879.97	5045
880.097	4778
880.224	4714
880.351	4828
880.478	4801
880.605	4797
880.732	4801
880.859	5071
880.986	4911
881.112	4885
881.239	4793
881.366	4691
881.493	4618
881.619	4588
881.746	4607
881.872	4660
881.999	4622
882.125	4626
882.252	4820
882.378	4809
882.505	4953
882.631	4809
882.757	4744
882.883	4740
883.01	4740
883.136	4656
883.262	4592
883.388	4626
883.514	4767
883.64	4885
883.766	4778
883.892	4668
884.018	4664
884.143	4881
884.269	4987
884.395	4653
884.52	4565
884.646	4649
884.772	4634
884.897	4618
885.023	4656
885.148	4767
885.274	4790
885.399	4771
885.524	4668
885.65	4653
885.775	4774
885.9	4717
886.025	4847
886.15	4778
886.275	4736
886.4	4660
886.525	4687
886.65	4687
886.775	4679
886.9	4862
887.025	5075
887.149	4809
887.274	4675
887.399	4584
887.523	4554
887.648	4611
887.773	4584
887.897	4752
888.021	4816
888.146	4675
888.27	4812
888.395	4873
888.519	4801
888.643	4778
888.767	4790
888.891	4634
889.015	4561
889.139	4592
889.263	4653
889.387	4733
889.511	4858
889.635	4824
889.759	4630
889.883	4603
890.006	4694
890.13	4809
890.254	4622
890.377	4683
890.501	4535
890.624	4493
890.748	4668
890.871	4542
890.995	4443
891.118	4394
891.241	4493
891.364	4538
891.488	4630
891.611	4481
891.734	4538
891.857	4622
891.98	4565
892.103	4599
892.226	4618
892.349	4516
892.471	4421
892.594	4546
892.717	4599
892.839	4523
892.962	4558
893.085	4645
893.207	4622
893.33	4436
893.452	4481
893.575	4596
893.697	4558
893.819	4786
893.941	4767
894.064	4797
894.186	4573
894.308	4554
894.43	4691
894.552	4801
894.674	4725
894.796	4531
894.918	4538
895.04	4584
895.161	4683
895.283	4626
895.405	4554
895.526	4656
895.648	4645
895.769	4660
895.891	4736
896.012	4717
896.134	4710
896.255	4694
896.376	4687
896.498	4653
896.619	4698
896.74	4637
896.861	4615
896.982	4927
897.103	5090
897.224	4843
897.345	4717
897.466	4702
897.587	4710
897.708	4824
897.828	4710
897.949	4611
898.07	4531
898.19	4599
898.311	4881
898.431	4660
898.552	4706
898.672	4782
898.792	4786
898.913	4740
899.033	4645
899.153	4497
899.273	4424
899.393	4481
899.513	4519
899.633	4519
899.753	4542
899.873	4504
899.993	4580
900.113	4489
900.232	4641
900.352	4535
900.472	4519
900.591	4405
900.711	4527
900.83	4405
900.95	4641
901.069	4679
901.189	4588
901.308	4363
901.427	4341
901.546	4371
901.665	4462
901.784	4500
901.904	4337
902.023	4356
902.141	4192
902.26	4169
902.379	4303
902.498	4238
902.617	4192
902.735	4371
902.854	4360
902.973	4367
903.091	4177
903.21	4280
903.328	4299
903.446	4276
903.565	4261
903.683	4322
903.801	4303
903.919	4428
904.038	4447
904.156	4280
904.274	4432
904.392	4409
904.51	4402
904.627	4478
904.745	4569
904.863	4656
904.981	4383
905.098	4310
905.216	4383
905.334	4405
905.451	4478
905.569	4421
905.686	4546
905.803	4550
905.921	4413
906.038	4500
906.155	4470
906.272	4394
906.389	4466
906.506	4371
906.623	4413
906.74	4329
906.857	4329
906.974	4352
907.091	4588
907.208	4672
907.324	4569
907.441	4470
907.557	4344
907.674	4363
907.79	4337
907.907	4405
908.023	4481
908.139	4466
908.256	4402
908.372	4481
908.488	4459
908.604	4360
908.72	4314
908.836	4341
908.952	4356
909.068	4428
909.184	4558
909.3	4459
909.415	4584
909.531	4516
909.647	4386
909.762	4383
909.878	4333
909.993	4413
910.108	4421
910.224	4443
910.339	4481
910.454	4367
910.57	4367
910.685	4341
910.8	4607
910.915	4611
911.03	4455
911.145	4325
911.259	4295
911.374	4356
911.489	4333
911.604	4215
911.718	4150
911.833	4211
911.947	4109
912.062	4044
912.176	4200
912.291	4249
912.405	4242
912.519	4455
912.633	4481
912.748	4440
912.862	4287
912.976	4257
913.09	4109
913.204	4185
913.318	4299
913.431	4375
913.545	4310
913.659	4462
913.772	4295
913.886	4272
914	4181
914.113	4341
914.226	4447
914.34	4424
914.453	4230
914.566	4455
914.68	4303
914.793	4295
914.906	4139
915.019	4120
915.132	4055
915.245	4166
915.358	4238
915.47	4223
915.583	4223
915.696	4249
915.809	4371
915.921	4409
916.034	4295
916.146	4276
916.259	4230
916.371	4356
916.483	4303
916.595	4276
916.708	4280
916.82	4318
916.932	4284
917.044	4314
917.156	4310
917.268	4265
917.38	4253
917.491	4253
917.603	4318
917.715	4379
917.826	4417
917.938	4371
918.049	4280
918.161	4363
918.272	4493
918.384	4512
918.495	4447
918.606	4261
918.717	4234
918.828	4325
918.939	4329
919.05	4253
919.161	4303
919.272	4166
919.383	4192
919.494	4428
919.604	4622
919.715	4390
919.826	4383
919.936	4409
920.047	4535
920.157	4493
920.267	4710
920.378	4554
920.488	4504
920.598	4706
920.708	4828
920.818	4778
920.928	4744
921.038	4972
921.148	4949
921.258	4637
921.368	4535
921.477	4481
921.587	4470
921.697	4386
921.806	4535
921.916	4390
922.025	4272
922.134	4249
922.244	4188
922.353	4337
922.462	4173
922.571	4124
922.68	4040
922.789	3979
922.898	4051
923.007	4002
923.116	4097
923.224	4093
923.333	4124
923.442	3994
923.55	3987
923.659	4044
923.767	4063
923.876	4029
923.984	4074
924.092	3960
924.201	4044
924.309	4090
924.417	4131
924.525	4093
924.633	4093
924.741	5067
924.849	3930
924.956	4105
925.064	3884
925.172	3888
925.279	3937
925.387	4036
925.494	4097
925.602	4223
925.709	4200
925.816	4074
925.924	4158
926.031	4211
926.138	4162
926.245	4185
926.352	4074
926.459	4253
926.566	4268
926.673	4162
926.779	4071
926.886	4082
926.993	3991
927.099	3964
927.206	3968
927.312	3972
927.419	4021
927.525	4029
927.631	4093
927.737	3918
927.843	3907
927.95	3819
928.056	3918
928.162	3991
928.267	4055
928.373	4546
928.479	4109
928.585	3903
928.69	4048
928.796	4055
928.901	3941
929.007	3892
929.112	4006
929.218	3987
929.323	3937
929.428	3979
929.533	4124
929.638	3854
929.743	3979
929.848	4063
929.953	3998
930.058	3937
930.163	3819
930.267	3789
930.372	3953
930.477	3781
930.581	4086
930.685	3922
930.79	3808
930.894	3876
930.998	3850
931.103	4010
931.207	3713
931.311	3667
931.415	3705
931.519	3507
931.623	3557
