Data from test_V78500241_2511.txt Node
Date: Fri Mar 25 17:06:27 CST 2022
User: usil
Spectrometer: V785-0024
Trigger mode: 0
Integration Time (sec): 4.000000E-1
Scans to average: 1
Nonlinearity correction enabled: false
Boxcar width: 0
Storing dark spectrum: false
XAxis mode: Wavelengths
Number of Pixels in Spectrum: 1024
>>>>>Begin Spectral Data<<<<<
801.071	8016
801.214	7993
801.356	7864
801.499	7814
801.641	7784
801.783	7845
801.926	8005
802.068	7951
802.211	7894
802.353	7989
802.496	7868
802.638	7879
802.78	7845
802.923	7826
803.065	7833
803.208	7830
803.35	7951
803.492	8073
803.635	8199
803.777	8020
803.919	8077
804.061	8431
804.204	8153
804.346	8043
804.488	8016
804.63	8115
804.773	8024
804.915	8149
805.057	8256
805.199	8111
805.341	8191
805.483	8256
805.626	8240
805.768	8237
805.91	8221
806.052	8157
806.194	8115
806.336	8237
806.478	8138
806.62	8031
806.762	8145
806.904	8248
807.046	8446
807.188	8355
807.33	8324
807.472	8309
807.614	8123
807.756	8126
807.898	7963
808.04	7852
808.182	7883
808.324	7830
808.465	7902
808.607	8043
808.749	8054
808.891	8202
809.033	8301
809.174	8271
809.316	8100
809.458	8054
809.6	8031
809.741	8062
809.883	8065
810.025	8142
810.166	8103
810.308	8008
810.45	7978
810.591	7852
810.733	7765
810.875	7632
811.016	7540
811.158	7464
811.299	7632
811.441	7674
811.582	7761
811.724	7586
811.865	7525
812.007	7643
812.148	7582
812.29	7609
812.431	7723
812.573	7890
812.714	7932
812.855	8138
812.997	8202
813.138	8317
813.279	8183
813.421	8115
813.562	8001
813.703	7925
813.845	7712
813.986	7411
814.127	7240
814.268	7228
814.41	7171
814.551	7240
814.692	7251
814.833	7133
814.974	7099
815.115	7141
815.256	6977
815.397	6897
815.539	6943
815.68	6833
815.821	6776
815.962	6844
816.103	6829
816.244	6696
816.385	6589
816.526	6551
816.666	6525
816.807	6357
816.948	6441
817.089	6486
817.23	6437
817.371	6464
817.512	6407
817.653	6369
817.793	6388
817.934	6323
818.075	6456
818.216	6441
818.356	6410
818.497	6289
818.638	6087
818.778	6155
818.919	6136
819.06	6175
819.2	6281
819.341	6315
819.481	6384
819.622	6528
819.762	6768
819.903	6662
820.043	6627
820.184	6585
820.324	6620
820.465	6711
820.605	6642
820.746	6696
820.886	6589
821.026	6665
821.167	6738
821.307	6821
821.447	6730
821.588	6654
821.728	6570
821.868	6559
822.008	6334
822.149	6357
822.289	6380
822.429	6091
822.569	6095
822.709	6133
822.849	5946
822.99	5931
823.13	5893
823.27	5882
823.41	5832
823.55	5737
823.69	5752
823.83	5764
823.97	5608
824.11	5528
824.25	5463
824.389	5543
824.529	5532
824.669	5566
824.809	5688
824.949	5581
825.089	5653
825.228	5573
825.368	5417
825.508	5379
825.648	5334
825.787	5345
825.927	5318
826.067	5280
826.206	5273
826.346	5395
826.485	5398
826.625	5429
826.765	5577
826.904	5444
827.044	5227
827.183	5197
827.323	5147
827.462	5254
827.601	5155
827.741	5174
827.88	5204
828.02	5098
828.159	5227
828.298	5318
828.437	5299
828.577	5296
828.716	5528
828.855	5307
828.994	5197
829.134	5124
829.273	5189
829.412	5174
829.551	5071
829.69	5132
829.829	5185
829.968	5357
830.107	5258
830.246	5231
830.385	5212
830.524	5162
830.663	5018
830.802	4968
830.941	4881
831.08	4854
831.219	5048
831.357	4968
831.496	5162
831.635	4942
831.774	4896
831.913	4816
832.051	4691
832.19	4748
832.329	4816
832.467	4687
832.606	4618
832.744	4733
832.883	4710
833.022	4675
833.16	4744
833.299	4809
833.437	4786
833.576	4835
833.714	4870
833.852	4877
833.991	4889
834.129	4881
834.267	4911
834.406	4870
834.544	4999
834.682	4934
834.821	4984
834.959	5132
835.097	4953
835.235	5128
835.373	5098
835.511	5124
835.65	4968
835.788	5018
835.926	4870
836.064	4873
836.202	4946
836.34	5170
836.478	5250
836.615	5121
836.753	5204
836.891	5303
837.029	5265
837.167	5220
837.305	5132
837.443	5128
837.58	5060
837.718	5220
837.856	5181
837.993	5159
838.131	5239
838.269	5204
838.406	5208
838.544	5178
838.681	5022
838.819	4987
838.956	4870
839.094	4873
839.231	4991
839.369	5105
839.506	5444
839.643	5231
839.781	5052
839.918	5033
840.055	5121
840.193	5064
840.33	5090
840.467	5098
840.604	5151
840.742	5436
840.879	5105
841.016	5094
841.153	5121
841.29	5395
841.427	5296
841.564	5261
841.701	5318
841.838	5258
841.975	5261
842.112	5239
842.249	5121
842.385	5056
842.522	5311
842.659	5178
842.796	5170
842.933	5193
843.069	5140
843.206	5181
843.343	5311
843.479	5204
843.616	5311
843.752	5090
843.889	4984
844.025	5204
844.162	5075
844.298	5166
844.435	4999
844.571	5079
844.708	5140
844.844	5296
844.98	5299
845.117	5288
845.253	5178
845.389	5014
845.525	5189
845.661	5109
845.798	5045
845.934	5105
846.07	5029
846.206	5159
846.342	5303
846.478	5098
846.614	5041
846.75	5003
846.886	4980
847.022	5140
847.158	5022
847.294	5037
847.429	5090
847.565	5052
847.701	5379
847.837	4812
847.972	4786
848.108	4953
848.244	4896
848.379	4767
848.515	4744
848.65	4694
848.786	4721
848.921	4774
849.057	4854
849.192	4934
849.328	4847
849.463	4847
849.598	4786
849.734	4748
849.869	4698
850.004	4630
850.14	4664
850.275	4596
850.41	4535
850.545	4577
850.68	4630
850.815	4607
850.95	4615
851.085	4828
851.22	4736
851.355	4630
851.49	4580
851.625	4637
851.76	4634
851.895	4573
852.03	4546
852.165	4634
852.299	4767
852.434	4740
852.569	4763
852.703	4740
852.838	4812
852.973	4915
853.107	4923
853.242	4710
853.376	4683
853.511	4542
853.645	4637
853.78	4759
853.914	4683
854.048	4675
854.183	4611
854.317	4668
854.451	4828
854.585	4672
854.72	4656
854.854	4710
854.988	4656
855.122	4649
855.256	4504
855.39	4702
855.524	4767
855.658	4744
855.792	4706
855.926	4748
856.06	4714
856.194	4793
856.327	4660
856.461	4653
856.595	4622
856.729	4561
856.862	4778
856.996	4687
857.13	4793
857.263	4763
857.397	4763
857.53	4634
857.664	4679
857.797	4755
857.931	4778
858.064	4672
858.197	4759
858.331	4634
858.464	4596
858.597	4497
858.731	4596
858.864	4630
858.997	4584
859.13	4618
859.263	4622
859.396	4679
859.529	4561
859.662	4531
859.795	4542
859.928	4630
860.061	4759
860.194	4782
860.327	4637
860.46	4577
860.592	4759
860.725	4698
860.858	4683
860.99	4542
861.123	4519
861.256	4466
861.388	4577
861.521	5235
861.653	4481
861.786	4466
861.918	4497
862.05	4500
862.183	4550
862.315	4596
862.447	4641
862.58	4538
862.712	4421
862.844	4306
862.976	4470
863.108	4436
863.24	4873
863.372	4299
863.504	4405
863.636	4371
863.768	4451
863.9	4424
864.032	4398
864.164	4363
864.296	4455
864.428	4516
864.559	4542
864.691	4558
864.823	4493
864.954	4481
865.086	4516
865.217	4428
865.349	4443
865.48	4451
865.612	4462
865.743	4618
865.875	4504
866.006	4405
866.137	4466
866.269	4436
866.4	4443
866.531	4451
866.662	4447
866.793	4409
866.924	4402
867.055	4489
867.186	4497
867.317	4443
867.448	4348
867.579	4394
867.71	4413
867.841	4394
867.972	4440
868.103	4436
868.233	4428
868.364	4447
868.495	4508
868.625	4649
868.756	4706
868.886	4561
869.017	4630
869.147	4752
869.278	4733
869.408	4664
869.539	4641
869.669	4679
869.799	4649
869.929	4744
870.06	4748
870.19	4976
870.32	4965
870.45	4968
870.58	5018
870.71	5079
870.84	5098
870.97	4968
871.1	4862
871.23	5079
871.36	5151
871.489	5014
871.619	5010
871.749	5136
871.879	5109
872.008	5147
872.138	5067
872.267	4980
872.397	4812
872.526	4805
872.656	4744
872.785	4805
872.915	4961
873.044	4984
873.173	4957
873.303	4908
873.432	4968
873.561	4957
873.69	4900
873.819	4877
873.948	4923
874.077	4801
874.206	4820
874.335	4820
874.464	4930
874.593	5056
874.722	4904
874.851	5090
874.979	5060
875.108	5014
875.237	4877
875.365	4892
875.494	4908
875.623	4953
875.751	4866
875.88	4828
876.008	4957
876.136	5025
876.265	5185
876.393	5315
876.521	5204
876.65	5227
876.778	5166
876.906	5029
877.034	4999
877.162	5048
877.29	5010
877.418	5041
877.546	5033
877.674	5029
877.802	4984
877.93	5029
878.058	4984
878.185	4850
878.313	4915
878.441	4938
878.568	4790
878.696	4839
878.824	4938
878.951	5052
879.079	5159
879.206	5269
879.333	5086
879.461	4968
879.588	4999
879.715	5140
879.842	5189
879.97	4995
880.097	4782
880.224	4755
880.351	4809
880.478	4774
880.605	4790
880.732	4755
880.859	5033
880.986	4858
881.112	4930
881.239	4771
881.366	4702
881.493	4618
881.619	4573
881.746	4641
881.872	4645
881.999	4714
882.125	4679
882.252	4748
882.378	4850
882.505	4900
882.631	4782
882.757	4615
882.883	4702
883.01	4702
883.136	4630
883.262	4618
883.388	4611
883.514	4790
883.64	4793
883.766	4694
883.892	4672
884.018	4748
884.143	4877
884.269	5006
884.395	4649
884.52	4588
884.646	4607
884.772	4577
884.897	4538
885.023	4630
885.148	4786
885.274	4858
885.399	4793
885.524	4725
885.65	4687
885.775	4774
885.9	4694
886.025	4881
886.15	4782
886.275	4702
886.4	4618
886.525	4687
886.65	4626
886.775	4668
886.9	4904
887.025	5052
887.149	4767
887.274	4672
887.399	4615
887.523	4626
887.648	4630
887.773	4599
887.897	4653
888.021	4793
888.146	4706
888.27	4805
888.395	4911
888.519	4790
888.643	4809
888.767	4854
888.891	4630
889.015	4588
889.139	4687
889.263	4611
889.387	4740
889.511	4824
889.635	4774
889.759	4622
889.883	4672
890.006	4694
890.13	4866
890.254	4592
890.377	4649
890.501	4531
890.624	4565
890.748	4615
890.871	4523
890.995	4481
891.118	4379
891.241	4527
891.364	4542
891.488	4637
891.611	4535
891.734	4565
891.857	4637
891.98	4550
892.103	4626
892.226	4615
892.349	4523
892.471	4413
892.594	4550
892.717	4603
892.839	4535
892.962	4615
893.085	4664
893.207	4577
893.33	4459
893.452	4535
893.575	4675
893.697	4603
893.819	4828
893.941	4812
894.064	4774
894.186	4573
894.308	4599
894.43	4744
894.552	4843
894.674	4793
894.796	4618
894.918	4615
895.04	4580
895.161	4729
895.283	4710
895.405	4599
895.526	4656
895.648	4687
895.769	4702
895.891	4759
896.012	4763
896.134	4755
896.255	4683
896.376	4637
896.498	4615
896.619	4725
896.74	4596
896.861	4710
896.982	4942
897.103	5113
897.224	4866
897.345	4786
897.466	4740
897.587	4752
897.708	4908
897.828	4854
897.949	4691
898.07	4599
898.19	4694
898.311	4889
898.431	4774
898.552	4767
898.672	4896
898.792	4866
898.913	4809
899.033	4637
899.153	4554
899.273	4478
899.393	4531
899.513	4531
899.633	4577
899.753	4622
899.873	4542
899.993	4641
900.113	4565
900.232	4584
900.352	4592
900.472	4504
900.591	4413
900.711	4500
900.83	4500
900.95	4626
901.069	4740
901.189	4615
901.308	4375
901.427	4360
901.546	4424
901.665	4485
901.784	4584
901.904	4417
902.023	4329
902.141	4230
902.26	4204
902.379	4405
902.498	4272
902.617	4265
902.735	4390
902.854	4421
902.973	4390
903.091	4257
903.21	4280
903.328	4322
903.446	4344
903.565	4306
903.683	4386
903.801	4337
903.919	4440
904.038	4466
904.156	4375
904.274	4523
904.392	4447
904.51	4478
904.627	4500
904.745	4569
904.863	4694
904.981	4436
905.098	4341
905.216	4390
905.334	4451
905.451	4466
905.569	4497
905.686	4599
905.803	4641
905.921	4485
906.038	4573
906.155	4493
906.272	4451
906.389	4504
906.506	4409
906.623	4398
906.74	4447
906.857	4348
906.974	4360
907.091	4573
907.208	4679
907.324	4599
907.441	4504
907.557	4383
907.674	4375
907.79	4341
907.907	4360
908.023	4516
908.139	4554
908.256	4478
908.372	4500
908.488	4493
908.604	4402
908.72	4337
908.836	4436
908.952	4409
909.068	4443
909.184	4599
909.3	4519
909.415	4603
909.531	4565
909.647	4367
909.762	4409
909.878	4322
909.993	4485
910.108	4409
910.224	4440
910.339	4558
910.454	4417
910.57	4363
910.685	4325
910.8	4645
910.915	4603
911.03	4497
911.145	4310
911.259	4360
911.374	4424
911.489	4265
911.604	4318
911.718	4230
911.833	4261
911.947	4120
912.062	4097
912.176	4223
912.291	4287
912.405	4246
912.519	4485
912.633	4523
912.748	4386
912.862	4348
912.976	4238
913.09	4135
913.204	4219
913.318	4291
913.431	4394
913.545	4432
913.659	4474
913.772	4375
913.886	4303
914	4272
914.113	4428
914.226	4455
914.34	4413
914.453	4295
914.566	4466
914.68	4360
914.793	4318
914.906	4204
915.019	4150
915.132	4139
915.245	4227
915.358	4268
915.47	4303
915.583	4318
915.696	4352
915.809	4436
915.921	4455
916.034	4318
916.146	4276
916.259	4291
916.371	4390
916.483	4424
916.595	4310
916.708	4402
916.82	4360
916.932	4360
917.044	4348
917.156	4356
917.268	4249
917.38	4280
917.491	4306
917.603	4379
917.715	4447
917.826	4443
917.938	4360
918.049	4272
918.161	4402
918.272	4550
918.384	4592
918.495	4489
918.606	4325
918.717	4287
918.828	4379
918.939	4402
919.05	4261
919.161	4325
919.272	4158
919.383	4257
919.494	4455
919.604	4641
919.715	4466
919.826	4405
919.936	4424
920.047	4542
920.157	4535
920.267	4729
920.378	4580
920.488	4523
920.598	4752
920.708	4877
920.818	4774
920.928	4812
921.038	4987
921.148	4961
921.258	4675
921.368	4577
921.477	4516
921.587	4516
921.697	4424
921.806	4561
921.916	4451
922.025	4314
922.134	4322
922.244	4261
922.353	4325
922.462	4177
922.571	4192
922.68	4055
922.789	3994
922.898	4093
923.007	4010
923.116	4090
923.224	4055
923.333	4097
923.442	4021
923.55	4021
923.659	4036
923.767	4131
923.876	4013
923.984	4154
924.092	4044
924.201	4116
924.309	4128
924.417	4185
924.525	4074
924.633	4147
924.741	5105
924.849	3945
924.956	4124
925.064	3983
925.172	3941
925.279	3979
925.387	4101
925.494	4090
925.602	4227
925.709	4200
925.816	4082
925.924	4139
926.031	4265
926.138	4192
926.245	4219
926.352	4109
926.459	4223
926.566	4318
926.673	4150
926.779	4048
926.886	4135
926.993	3987
927.099	3972
927.206	3987
927.312	3960
927.419	4093
927.525	3998
927.631	4147
927.737	3991
927.843	3949
927.95	3842
928.056	3964
928.162	4002
928.267	4082
928.373	4603
928.479	4162
928.585	3876
928.69	4112
928.796	4124
928.901	4063
929.007	3827
929.112	3994
929.218	3968
929.323	3964
929.428	3968
929.533	4109
929.638	3903
929.743	3983
929.848	4124
929.953	4006
930.058	3983
930.163	3816
930.267	3831
930.372	3975
930.477	3846
930.581	4093
930.685	3945
930.79	3835
930.894	3926
930.998	3861
931.103	4078
931.207	3755
931.311	3751
931.415	3698
931.519	3538
931.623	3591
