Data from test_V78500241_1970.txt Node
Date: Fri Mar 25 17:02:41 CST 2022
User: usil
Spectrometer: V785-0024
Trigger mode: 0
Integration Time (sec): 4.000000E-1
Scans to average: 1
Nonlinearity correction enabled: false
Boxcar width: 0
Storing dark spectrum: false
XAxis mode: Wavelengths
Number of Pixels in Spectrum: 1024
>>>>>Begin Spectral Data<<<<<
801.071	8005
801.214	8027
801.356	7936
801.499	7871
801.641	7727
801.783	7761
801.926	7917
802.068	7913
802.211	7959
802.353	8027
802.496	7826
802.638	7883
802.78	7887
802.923	7932
803.065	7913
803.208	7875
803.35	7955
803.492	8096
803.635	8107
803.777	7974
803.919	8149
804.061	8454
804.204	8130
804.346	8035
804.488	7993
804.63	8088
804.773	7974
804.915	8046
805.057	8347
805.199	8164
805.341	8123
805.483	8252
805.626	8229
805.768	8145
805.91	8157
806.052	8233
806.194	8111
806.336	8290
806.478	8149
806.62	8008
806.762	8191
806.904	8252
807.046	8454
807.188	8332
807.33	8290
807.472	8362
807.614	8161
807.756	8225
807.898	7974
808.04	7898
808.182	7947
808.324	7921
808.465	7890
808.607	8062
808.749	8195
808.891	8237
809.033	8358
809.174	8267
809.316	8115
809.458	8123
809.6	8050
809.741	8115
809.883	7978
810.025	8183
810.166	8054
810.308	8035
810.45	8027
810.591	7860
810.733	7689
810.875	7704
811.016	7487
811.158	7483
811.299	7582
811.441	7719
811.582	7674
811.724	7559
811.865	7552
812.007	7525
812.148	7567
812.29	7578
812.431	7765
812.573	7887
812.714	8001
812.855	8149
812.997	8206
813.138	8332
813.279	8180
813.421	8050
813.562	7967
813.703	7814
813.845	7689
813.986	7430
814.127	7209
814.268	7209
814.41	7251
814.551	7213
814.692	7247
814.833	7126
814.974	7164
815.115	7118
815.256	6958
815.397	6924
815.539	6954
815.68	6802
815.821	6818
815.962	6897
816.103	6840
816.244	6783
816.385	6525
816.526	6631
816.666	6521
816.807	6285
816.948	6483
817.089	6517
817.23	6456
817.371	6353
817.512	6399
817.653	6407
817.793	6369
817.934	6433
818.075	6464
818.216	6429
818.356	6445
818.497	6220
818.638	6171
818.778	6163
818.919	6167
819.06	6155
819.2	6350
819.341	6353
819.481	6414
819.622	6494
819.762	6760
819.903	6681
820.043	6612
820.184	6585
820.324	6536
820.465	6650
820.605	6654
820.746	6642
820.886	6544
821.026	6635
821.167	6776
821.307	6875
821.447	6791
821.588	6635
821.728	6555
821.868	6475
822.008	6353
822.149	6353
822.289	6388
822.429	6209
822.569	6144
822.709	6148
822.849	5988
822.99	5954
823.13	5912
823.27	5927
823.41	5828
823.55	5851
823.69	5844
823.83	5798
823.97	5661
824.11	5509
824.25	5573
824.389	5543
824.529	5604
824.669	5551
824.809	5638
824.949	5676
825.089	5676
825.228	5547
825.368	5471
825.508	5395
825.648	5353
825.787	5379
825.927	5383
826.067	5299
826.206	5299
826.346	5372
826.485	5395
826.625	5379
826.765	5520
826.904	5459
827.044	5258
827.183	5204
827.323	5159
827.462	5284
827.601	5204
827.741	5208
827.88	5235
828.02	5109
828.159	5189
828.298	5322
828.437	5334
828.577	5250
828.716	5501
828.855	5353
828.994	5185
829.134	5117
829.273	5231
829.412	5166
829.551	5170
829.69	5174
829.829	5277
829.968	5345
830.107	5292
830.246	5265
830.385	5193
830.524	5132
830.663	5079
830.802	4976
830.941	4904
831.08	4923
831.219	4991
831.357	5029
831.496	5151
831.635	4953
831.774	4896
831.913	4911
832.051	4763
832.19	4793
832.329	4873
832.467	4725
832.606	4622
832.744	4717
832.883	4809
833.022	4736
833.16	4774
833.299	4866
833.437	4831
833.576	4831
833.714	4850
833.852	4900
833.991	4961
834.129	4961
834.267	4980
834.406	4938
834.544	5033
834.682	5014
834.821	4957
834.959	5170
835.097	5014
835.235	5128
835.373	5109
835.511	5102
835.65	5052
835.788	4999
835.926	4923
836.064	4923
836.202	4911
836.34	5151
836.478	5250
836.615	5151
836.753	5201
836.891	5299
837.029	5231
837.167	5258
837.305	5124
837.443	5143
837.58	5083
837.718	5311
837.856	5212
837.993	5181
838.131	5246
838.269	5231
838.406	5223
838.544	5201
838.681	5098
838.819	5056
838.956	4919
839.094	4889
839.231	4984
839.369	5052
839.506	5391
839.643	5273
839.781	5060
839.918	5075
840.055	5102
840.193	5128
840.33	5147
840.467	5197
840.604	5189
840.742	5497
840.879	5064
841.016	5071
841.153	5140
841.29	5341
841.427	5311
841.564	5341
841.701	5357
841.838	5258
841.975	5204
842.112	5288
842.249	5159
842.385	5136
842.522	5318
842.659	5174
842.796	5143
842.933	5227
843.069	5151
843.206	5170
843.343	5284
843.479	5216
843.616	5322
843.752	5006
843.889	4991
844.025	5216
844.162	5056
844.298	5254
844.435	5075
844.571	5056
844.708	5178
844.844	5337
844.98	5372
845.117	5307
845.253	5181
845.389	5105
845.525	5197
845.661	5162
845.798	5048
845.934	5143
846.07	5075
846.206	5201
846.342	5277
846.478	5193
846.614	5041
846.75	4961
846.886	4919
847.022	5109
847.158	5064
847.294	5045
847.429	5094
847.565	5056
847.701	5284
847.837	4892
847.972	4820
848.108	4946
848.244	4938
848.379	4793
848.515	4729
848.65	4733
848.786	4744
848.921	4702
849.057	4831
849.192	4858
849.328	4854
849.463	4866
849.598	4782
849.734	4752
849.869	4717
850.004	4637
850.14	4664
850.275	4592
850.41	4508
850.545	4596
850.68	4554
850.815	4611
850.95	4668
851.085	4843
851.22	4714
851.355	4618
851.49	4618
851.625	4641
851.76	4660
851.895	4596
852.03	4558
852.165	4645
852.299	4717
852.434	4797
852.569	4786
852.703	4828
852.838	4889
852.973	4961
853.107	4949
853.242	4725
853.376	4714
853.511	4630
853.645	4668
853.78	4793
853.914	4778
854.048	4755
854.183	4706
854.317	4771
854.451	4881
854.585	4752
854.72	4656
854.854	4809
854.988	4641
855.122	4679
855.256	4580
855.39	4687
855.524	4843
855.658	4755
855.792	4748
855.926	4782
856.06	4797
856.194	4843
856.327	4763
856.461	4626
856.595	4664
856.729	4748
856.862	4774
856.996	4782
857.13	4786
857.263	4812
857.397	4858
857.53	4717
857.664	4740
857.797	4786
857.931	4793
858.064	4755
858.197	4771
858.331	4679
858.464	4615
858.597	4577
858.731	4660
858.864	4675
858.997	4653
859.13	4752
859.263	4706
859.396	4706
859.529	4626
859.662	4596
859.795	4599
859.928	4645
860.061	4790
860.194	4790
860.327	4573
860.46	4577
860.592	4759
860.725	4736
860.858	4824
860.99	4626
861.123	4546
861.256	4531
861.388	4599
861.521	5307
861.653	4493
861.786	4478
861.918	4508
862.05	4527
862.183	4565
862.315	4634
862.447	4660
862.58	4596
862.712	4432
862.844	4363
862.976	4523
863.108	4519
863.24	4786
863.372	4379
863.504	4516
863.636	4432
863.768	4542
863.9	4478
864.032	4383
864.164	4493
864.296	4512
864.428	4542
864.559	4611
864.691	4599
864.823	4592
864.954	4512
865.086	4554
865.217	4508
865.349	4497
865.48	4500
865.612	4516
865.743	4622
865.875	4504
866.006	4428
866.137	4470
866.269	4500
866.4	4519
866.531	4451
866.662	4436
866.793	4405
866.924	4424
867.055	4523
867.186	4481
867.317	4413
867.448	4405
867.579	4398
867.71	4375
867.841	4383
867.972	4489
868.103	4493
868.233	4508
868.364	4455
868.495	4546
868.625	4702
868.756	4759
868.886	4637
869.017	4641
869.147	4812
869.278	4847
869.408	4668
869.539	4660
869.669	4721
869.799	4725
869.929	4790
870.06	4759
870.19	4984
870.32	4957
870.45	4987
870.58	5033
870.71	5151
870.84	5140
870.97	4957
871.1	4919
871.23	5193
871.36	5223
871.489	5086
871.619	5162
871.749	5102
871.879	5147
872.008	5239
872.138	5052
872.267	4995
872.397	4862
872.526	4812
872.656	4763
872.785	4824
872.915	5014
873.044	5086
873.173	4995
873.303	4968
873.432	4999
873.561	4953
873.69	4870
873.819	4866
873.948	5010
874.077	4873
874.206	4782
874.335	4847
874.464	4995
874.593	5083
874.722	5018
874.851	5140
874.979	5079
875.108	5052
875.237	4972
875.365	4957
875.494	4896
875.623	5014
875.751	4877
875.88	4915
876.008	5003
876.136	5109
876.265	5269
876.393	5337
876.521	5284
876.65	5284
876.778	5212
876.906	5109
877.034	5067
877.162	5037
877.29	5041
877.418	5098
877.546	5037
877.674	5128
877.802	5067
877.93	4987
878.058	5003
878.185	4915
878.313	4984
878.441	4984
878.568	4843
878.696	4847
878.824	5006
878.951	4984
879.079	5181
879.206	5280
879.333	5064
879.461	4980
879.588	5022
879.715	5140
879.842	5250
879.97	5006
880.097	4828
880.224	4729
880.351	4831
880.478	4870
880.605	4793
880.732	4782
880.859	5140
880.986	4923
881.112	4938
881.239	4858
881.366	4710
881.493	4641
881.619	4615
881.746	4675
881.872	4691
881.999	4675
882.125	4698
882.252	4767
882.378	4870
882.505	5014
882.631	4812
882.757	4691
882.883	4748
883.01	4691
883.136	4691
883.262	4649
883.388	4645
883.514	4866
883.64	4854
883.766	4820
883.892	4683
884.018	4725
884.143	4919
884.269	5018
884.395	4714
884.52	4664
884.646	4694
884.772	4577
884.897	4577
885.023	4698
885.148	4801
885.274	4881
885.399	4854
885.524	4733
885.65	4748
885.775	4782
885.9	4691
886.025	4915
886.15	4816
886.275	4702
886.4	4702
886.525	4771
886.65	4733
886.775	4721
886.9	4942
887.025	5086
887.149	4782
887.274	4672
887.399	4660
887.523	4603
887.648	4584
887.773	4607
887.897	4782
888.021	4805
888.146	4683
888.27	4824
888.395	4949
888.519	4786
888.643	4820
888.767	4839
888.891	4660
889.015	4622
889.139	4710
889.263	4611
889.387	4721
889.511	4908
889.635	4854
889.759	4664
889.883	4641
890.006	4729
890.13	4824
890.254	4618
890.377	4744
890.501	4573
890.624	4607
890.748	4641
890.871	4531
890.995	4485
891.118	4394
891.241	4546
891.364	4584
891.488	4641
891.611	4527
891.734	4603
891.857	4641
891.98	4592
892.103	4672
892.226	4656
892.349	4538
892.471	4508
892.594	4538
892.717	4599
892.839	4577
892.962	4626
893.085	4702
893.207	4649
893.33	4497
893.452	4531
893.575	4683
893.697	4561
893.819	4820
893.941	4881
894.064	4790
894.186	4565
894.308	4611
894.43	4725
894.552	4831
894.674	4755
894.796	4580
894.918	4618
895.04	4634
895.161	4736
895.283	4683
895.405	4645
895.526	4653
895.648	4683
895.769	4694
895.891	4710
896.012	4771
896.134	4717
896.255	4706
896.376	4656
896.498	4645
896.619	4672
896.74	4645
896.861	4664
896.982	4896
897.103	5075
897.224	4850
897.345	4778
897.466	4691
897.587	4790
897.708	4873
897.828	4820
897.949	4694
898.07	4611
898.19	4622
898.311	4847
898.431	4717
898.552	4782
898.672	4782
898.792	4805
898.913	4755
899.033	4649
899.153	4527
899.273	4440
899.393	4508
899.513	4603
899.633	4508
899.753	4561
899.873	4523
899.993	4603
900.113	4561
900.232	4596
900.352	4584
900.472	4527
900.591	4375
900.711	4546
900.83	4493
900.95	4679
901.069	4733
901.189	4607
901.308	4356
901.427	4318
901.546	4402
901.665	4470
901.784	4531
901.904	4421
902.023	4394
902.141	4181
902.26	4204
902.379	4337
902.498	4299
902.617	4257
902.735	4421
902.854	4443
902.973	4341
903.091	4207
903.21	4242
903.328	4325
903.446	4284
903.565	4318
903.683	4386
903.801	4268
903.919	4413
904.038	4432
904.156	4375
904.274	4485
904.392	4409
904.51	4432
904.627	4485
904.745	4584
904.863	4645
904.981	4398
905.098	4303
905.216	4409
905.334	4447
905.451	4413
905.569	4424
905.686	4580
905.803	4569
905.921	4402
906.038	4573
906.155	4493
906.272	4424
906.389	4478
906.506	4398
906.623	4379
906.74	4371
906.857	4375
906.974	4394
907.091	4561
907.208	4668
907.324	4603
907.441	4478
907.557	4333
907.674	4344
907.79	4337
907.907	4390
908.023	4504
908.139	4436
908.256	4440
908.372	4493
908.488	4459
908.604	4371
908.72	4348
908.836	4383
908.952	4402
909.068	4394
909.184	4527
909.3	4516
909.415	4565
909.531	4584
909.647	4352
909.762	4409
909.878	4341
909.993	4489
910.108	4409
910.224	4424
910.339	4504
910.454	4424
910.57	4394
910.685	4261
910.8	4653
910.915	4603
911.03	4497
911.145	4325
911.259	4405
911.374	4371
911.489	4322
911.604	4337
911.718	4207
911.833	4230
911.947	4093
912.062	4032
912.176	4200
912.291	4261
912.405	4249
912.519	4466
912.633	4500
912.748	4405
912.862	4318
912.976	4253
913.09	4112
913.204	4188
913.318	4299
913.431	4386
913.545	4360
913.659	4436
913.772	4402
913.886	4284
914	4242
914.113	4363
914.226	4390
914.34	4390
914.453	4234
914.566	4481
914.68	4325
914.793	4325
914.906	4166
915.019	4158
915.132	4074
915.245	4185
915.358	4238
915.47	4242
915.583	4268
915.696	4295
915.809	4440
915.921	4455
916.034	4230
916.146	4215
916.259	4223
916.371	4413
916.483	4352
916.595	4249
916.708	4333
916.82	4329
916.932	4303
917.044	4356
917.156	4337
917.268	4211
917.38	4227
917.491	4268
917.603	4360
917.715	4432
917.826	4451
917.938	4348
918.049	4238
918.161	4333
918.272	4512
918.384	4531
918.495	4481
918.606	4310
918.717	4287
918.828	4322
918.939	4341
919.05	4284
919.161	4333
919.272	4181
919.383	4223
919.494	4447
919.604	4660
919.715	4417
919.826	4409
919.936	4371
920.047	4554
920.157	4527
920.267	4668
920.378	4535
920.488	4569
920.598	4717
920.708	4889
920.818	4759
920.928	4740
921.038	4938
921.148	4923
921.258	4656
921.368	4569
921.477	4470
921.587	4474
921.697	4371
921.806	4546
921.916	4470
922.025	4276
922.134	4265
922.244	4230
922.353	4348
922.462	4192
922.571	4101
922.68	4002
922.789	3968
922.898	4059
923.007	4010
923.116	4086
923.224	4036
923.333	4086
923.442	3968
923.55	3972
923.659	4006
923.767	4093
923.876	4013
923.984	4116
924.092	3998
924.201	4097
924.309	4139
924.417	4051
924.525	4109
924.633	4135
924.741	5022
924.849	3945
924.956	4101
925.064	3964
925.172	3922
925.279	4010
925.387	4082
925.494	4067
925.602	4268
925.709	4207
925.816	4040
925.924	4109
926.031	4204
926.138	4185
926.245	4238
926.352	4078
926.459	4246
926.566	4318
926.673	4219
926.779	4109
926.886	4071
926.993	3991
927.099	3975
927.206	3991
927.312	3949
927.419	4048
927.525	3994
927.631	4097
927.737	3941
927.843	3896
927.95	3816
928.056	4002
928.162	4010
928.267	4048
928.373	4565
928.479	4150
928.585	3903
928.69	4013
928.796	4074
928.901	3922
929.007	3835
929.112	4021
929.218	3994
929.323	3960
929.428	3937
929.533	4124
929.638	3941
929.743	3956
929.848	4029
929.953	4021
930.058	3930
930.163	3762
930.267	3819
930.372	3964
930.477	3812
930.581	4055
930.685	3979
930.79	3861
930.894	3911
930.998	3873
931.103	4059
931.207	3751
931.311	3686
931.415	3682
931.519	3542
931.623	3553
