Data from test_V78500241_2372.txt Node
Date: Fri Mar 25 17:05:29 CST 2022
User: usil
Spectrometer: V785-0024
Trigger mode: 0
Integration Time (sec): 4.000000E-1
Scans to average: 1
Nonlinearity correction enabled: false
Boxcar width: 0
Storing dark spectrum: false
XAxis mode: Wavelengths
Number of Pixels in Spectrum: 1024
>>>>>Begin Spectral Data<<<<<
801.071	8027
801.214	7967
801.356	7830
801.499	7875
801.641	7833
801.783	7826
801.926	7967
802.068	7925
802.211	8001
802.353	7978
802.496	7860
802.638	7947
802.78	7928
802.923	7932
803.065	7830
803.208	7792
803.35	8031
803.492	8054
803.635	8161
803.777	7982
803.919	8199
804.061	8419
804.204	8187
804.346	8062
804.488	7967
804.63	8107
804.773	7986
804.915	8123
805.057	8358
805.199	8062
805.341	8176
805.483	8221
805.626	8183
805.768	8202
805.91	8183
806.052	8210
806.194	8111
806.336	8320
806.478	8111
806.62	8039
806.762	8073
806.904	8244
807.046	8423
807.188	8332
807.33	8362
807.472	8305
807.614	8111
807.756	8103
807.898	8065
808.04	7868
808.182	7902
808.324	7917
808.465	7944
808.607	8008
808.749	8149
808.891	8153
809.033	8290
809.174	8210
809.316	8054
809.458	8062
809.6	8024
809.741	8077
809.883	8043
810.025	8145
810.166	8130
810.308	7986
810.45	8005
810.591	7868
810.733	7742
810.875	7655
811.016	7514
811.158	7491
811.299	7540
811.441	7700
811.582	7639
811.724	7563
811.865	7540
812.007	7624
812.148	7636
812.29	7616
812.431	7792
812.573	7921
812.714	7928
812.855	8176
812.997	8180
813.138	8339
813.279	8115
813.421	8062
813.562	7989
813.703	7830
813.845	7731
813.986	7419
814.127	7221
814.268	7221
814.41	7145
814.551	7160
814.692	7217
814.833	7050
814.974	7156
815.115	7080
815.256	6966
815.397	6932
815.539	6973
815.68	6806
815.821	6795
815.962	6909
816.103	6837
816.244	6696
816.385	6662
816.526	6635
816.666	6494
816.807	6277
816.948	6490
817.089	6490
817.23	6452
817.371	6441
817.512	6418
817.653	6350
817.793	6414
817.934	6372
818.075	6506
818.216	6414
818.356	6357
818.497	6251
818.638	6144
818.778	6136
818.919	6175
819.06	6163
819.2	6331
819.341	6372
819.481	6418
819.622	6517
819.762	6738
819.903	6707
820.043	6612
820.184	6574
820.324	6627
820.465	6669
820.605	6631
820.746	6635
820.886	6555
821.026	6677
821.167	6734
821.307	6810
821.447	6760
821.588	6692
821.728	6597
821.868	6433
822.008	6350
822.149	6361
822.289	6311
822.429	6114
822.569	6076
822.709	6140
822.849	5977
822.99	5939
823.13	5958
823.27	5958
823.41	5760
823.55	5756
823.69	5790
823.83	5775
823.97	5661
824.11	5535
824.25	5520
824.389	5532
824.529	5520
824.669	5551
824.809	5649
824.949	5630
825.089	5680
825.228	5509
825.368	5410
825.508	5353
825.648	5307
825.787	5357
825.927	5379
826.067	5307
826.206	5299
826.346	5360
826.485	5410
826.625	5391
826.765	5577
826.904	5493
827.044	5341
827.183	5178
827.323	5113
827.462	5212
827.601	5121
827.741	5162
827.88	5174
828.02	5109
828.159	5277
828.298	5299
828.437	5368
828.577	5341
828.716	5505
828.855	5284
828.994	5189
829.134	5151
829.273	5201
829.412	5067
829.551	5147
829.69	5201
829.829	5250
829.968	5398
830.107	5311
830.246	5273
830.385	5220
830.524	5155
830.663	5109
830.802	4980
830.941	4968
831.08	4889
831.219	5033
831.357	5025
831.496	5170
831.635	4949
831.774	4900
831.913	4930
832.051	4744
832.19	4812
832.329	4885
832.467	4755
832.606	4653
832.744	4706
832.883	4763
833.022	4733
833.16	4805
833.299	4839
833.437	4850
833.576	4915
833.714	4900
833.852	4923
833.991	4858
834.129	4968
834.267	4991
834.406	4946
834.544	5029
834.682	5018
834.821	5010
834.959	5181
835.097	5056
835.235	5166
835.373	5117
835.511	5181
835.65	5090
835.788	5022
835.926	4930
836.064	4942
836.202	4961
836.34	5239
836.478	5212
836.615	5113
836.753	5204
836.891	5334
837.029	5235
837.167	5258
837.305	5216
837.443	5140
837.58	5109
837.718	5269
837.856	5227
837.993	5155
838.131	5280
838.269	5269
838.406	5242
838.544	5269
838.681	5060
838.819	5052
838.956	4881
839.094	4919
839.231	5003
839.369	5113
839.506	5379
839.643	5307
839.781	5090
839.918	5037
840.055	5189
840.193	5117
840.33	5151
840.467	5151
840.604	5231
840.742	5467
840.879	5147
841.016	5181
841.153	5208
841.29	5402
841.427	5360
841.564	5353
841.701	5357
841.838	5307
841.975	5277
842.112	5353
842.249	5181
842.385	5170
842.522	5334
842.659	5193
842.796	5143
842.933	5174
843.069	5151
843.206	5216
843.343	5360
843.479	5261
843.616	5315
843.752	5060
843.889	5052
844.025	5242
844.162	5029
844.298	5254
844.435	5136
844.571	5060
844.708	5265
844.844	5353
844.98	5395
845.117	5372
845.253	5197
845.389	5143
845.525	5181
845.661	5147
845.798	5025
845.934	5193
846.07	5064
846.206	5239
846.342	5299
846.478	5227
846.614	5064
846.75	4995
846.886	4946
847.022	5220
847.158	5018
847.294	5113
847.429	5117
847.565	5105
847.701	5307
847.837	4930
847.972	4885
848.108	4965
848.244	4942
848.379	4820
848.515	4733
848.65	4759
848.786	4797
848.921	4824
849.057	4881
849.192	4976
849.328	4847
849.463	4885
849.598	4790
849.734	4767
849.869	4740
850.004	4675
850.14	4679
850.275	4618
850.41	4561
850.545	4565
850.68	4675
850.815	4645
850.95	4656
851.085	4831
851.22	4790
851.355	4698
851.49	4656
851.625	4672
851.76	4672
851.895	4637
852.03	4596
852.165	4740
852.299	4812
852.434	4839
852.569	4793
852.703	4786
852.838	4908
852.973	4957
853.107	4972
853.242	4759
853.376	4698
853.511	4626
853.645	4611
853.78	4816
853.914	4717
854.048	4664
854.183	4664
854.317	4721
854.451	4816
854.585	4702
854.72	4641
854.854	4778
854.988	4599
855.122	4683
855.256	4588
855.39	4721
855.524	4812
855.658	4797
855.792	4698
855.926	4763
856.06	4797
856.194	4820
856.327	4721
856.461	4637
856.595	4668
856.729	4622
856.862	4805
856.996	4729
857.13	4755
857.263	4793
857.397	4828
857.53	4744
857.664	4752
857.797	4782
857.931	4805
858.064	4725
858.197	4771
858.331	4656
858.464	4645
858.597	4550
858.731	4664
858.864	4626
858.997	4577
859.13	4672
859.263	4725
859.396	4679
859.529	4584
859.662	4584
859.795	4573
859.928	4649
860.061	4786
860.194	4816
860.327	4611
860.46	4622
860.592	4744
860.725	4740
860.858	4767
860.99	4607
861.123	4584
861.256	4561
861.388	4683
861.521	5360
861.653	4504
861.786	4470
861.918	4474
862.05	4538
862.183	4607
862.315	4660
862.447	4698
862.58	4596
862.712	4462
862.844	4299
862.976	4485
863.108	4508
863.24	4881
863.372	4356
863.504	4466
863.636	4493
863.768	4538
863.9	4443
864.032	4405
864.164	4432
864.296	4538
864.428	4588
864.559	4561
864.691	4535
864.823	4531
864.954	4531
865.086	4500
865.217	4519
865.349	4443
865.48	4474
865.612	4531
865.743	4630
865.875	4489
866.006	4466
866.137	4455
866.269	4489
866.4	4478
866.531	4451
866.662	4417
866.793	4409
866.924	4443
867.055	4538
867.186	4470
867.317	4451
867.448	4390
867.579	4443
867.71	4398
867.841	4379
867.972	4504
868.103	4481
868.233	4485
868.364	4474
868.495	4516
868.625	4656
868.756	4778
868.886	4565
869.017	4634
869.147	4778
869.278	4736
869.408	4694
869.539	4679
869.669	4759
869.799	4641
869.929	4801
870.06	4714
870.19	4953
870.32	4942
870.45	4930
870.58	5014
870.71	5090
870.84	5094
870.97	4915
871.1	4953
871.23	5136
871.36	5208
871.489	5018
871.619	5113
871.749	5048
871.879	5140
872.008	5212
872.138	5083
872.267	4980
872.397	4862
872.526	4816
872.656	4797
872.785	4843
872.915	4999
873.044	5083
873.173	4953
873.303	4965
873.432	4957
873.561	4976
873.69	4892
873.819	4873
873.948	4976
874.077	4835
874.206	4778
874.335	4820
874.464	4965
874.593	5102
874.722	4968
874.851	5102
874.979	5094
875.108	5045
875.237	4900
875.365	4927
875.494	4900
875.623	4961
875.751	4870
875.88	4870
876.008	5014
876.136	5045
876.265	5223
876.393	5303
876.521	5197
876.65	5258
876.778	5181
876.906	5121
877.034	5067
877.162	5083
877.29	5014
877.418	5060
877.546	5075
877.674	5064
877.802	5083
877.93	5033
878.058	4976
878.185	4870
878.313	5022
878.441	4995
878.568	4877
878.696	4915
878.824	4904
878.951	5006
879.079	5204
879.206	5315
879.333	5102
879.461	4999
879.588	5037
879.715	5128
879.842	5220
879.97	5029
880.097	4850
880.224	4755
880.351	4812
880.478	4824
880.605	4767
880.732	4839
880.859	5124
880.986	4847
881.112	4923
881.239	4801
881.366	4729
881.493	4630
881.619	4599
881.746	4675
881.872	4675
881.999	4725
882.125	4721
882.252	4774
882.378	4820
882.505	4999
882.631	4839
882.757	4710
882.883	4790
883.01	4755
883.136	4656
883.262	4668
883.388	4653
883.514	4839
883.64	4866
883.766	4831
883.892	4706
884.018	4755
884.143	4938
884.269	5071
884.395	4729
884.52	4664
884.646	4653
884.772	4634
884.897	4546
885.023	4679
885.148	4752
885.274	4854
885.399	4782
885.524	4733
885.65	4733
885.775	4801
885.9	4752
886.025	4816
886.15	4790
886.275	4733
886.4	4710
886.525	4755
886.65	4714
886.775	4653
886.9	4892
887.025	5029
887.149	4831
887.274	4687
887.399	4618
887.523	4611
887.648	4618
887.773	4588
887.897	4797
888.021	4786
888.146	4698
888.27	4828
888.395	4968
888.519	4778
888.643	4816
888.767	4843
888.891	4725
889.015	4618
889.139	4675
889.263	4618
889.387	4786
889.511	4908
889.635	4809
889.759	4607
889.883	4637
890.006	4786
890.13	4896
890.254	4626
890.377	4679
890.501	4538
890.624	4516
890.748	4622
890.871	4550
890.995	4459
891.118	4417
891.241	4531
891.364	4504
891.488	4668
891.611	4531
891.734	4592
891.857	4615
891.98	4569
892.103	4694
892.226	4615
892.349	4538
892.471	4440
892.594	4535
892.717	4599
892.839	4535
892.962	4622
893.085	4702
893.207	4615
893.33	4512
893.452	4500
893.575	4683
893.697	4535
893.819	4820
893.941	4820
894.064	4782
894.186	4615
894.308	4538
894.43	4755
894.552	4816
894.674	4740
894.796	4565
894.918	4618
895.04	4573
895.161	4767
895.283	4649
895.405	4611
895.526	4645
895.648	4729
895.769	4656
895.891	4714
896.012	4706
896.134	4752
896.255	4675
896.376	4649
896.498	4641
896.619	4679
896.74	4603
896.861	4694
896.982	4934
897.103	5079
897.224	4790
897.345	4759
897.466	4702
897.587	4733
897.708	4831
897.828	4809
897.949	4683
898.07	4554
898.19	4687
898.311	4862
898.431	4672
898.552	4778
898.672	4812
898.792	4797
898.913	4774
899.033	4637
899.153	4531
899.273	4459
899.393	4523
899.513	4538
899.633	4531
899.753	4527
899.873	4531
899.993	4577
900.113	4569
900.232	4618
900.352	4531
900.472	4497
900.591	4440
900.711	4485
900.83	4470
900.95	4675
901.069	4721
901.189	4565
901.308	4367
901.427	4341
901.546	4367
901.665	4485
901.784	4523
901.904	4394
902.023	4299
902.141	4200
902.26	4177
902.379	4303
902.498	4268
902.617	4238
902.735	4356
902.854	4367
902.973	4352
903.091	4223
903.21	4223
903.328	4261
903.446	4306
903.565	4280
903.683	4348
903.801	4303
903.919	4375
904.038	4459
904.156	4325
904.274	4405
904.392	4371
904.51	4417
904.627	4455
904.745	4577
904.863	4679
904.981	4443
905.098	4287
905.216	4367
905.334	4470
905.451	4421
905.569	4489
905.686	4580
905.803	4569
905.921	4371
906.038	4630
906.155	4493
906.272	4394
906.389	4432
906.506	4371
906.623	4398
906.74	4363
906.857	4268
906.974	4329
907.091	4550
907.208	4675
907.324	4584
907.441	4535
907.557	4310
907.674	4348
907.79	4310
907.907	4398
908.023	4462
908.139	4512
908.256	4409
908.372	4474
908.488	4436
908.604	4325
908.72	4333
908.836	4394
908.952	4390
909.068	4481
909.184	4603
909.3	4478
909.415	4622
909.531	4584
909.647	4386
909.762	4405
909.878	4371
909.993	4428
910.108	4413
910.224	4436
910.339	4485
910.454	4409
910.57	4398
910.685	4303
910.8	4675
910.915	4622
911.03	4500
911.145	4303
911.259	4333
911.374	4367
911.489	4299
911.604	4291
911.718	4169
911.833	4249
911.947	4029
912.062	4055
912.176	4204
912.291	4227
912.405	4261
912.519	4459
912.633	4550
912.748	4386
912.862	4314
912.976	4196
913.09	4071
913.204	4204
913.318	4268
913.431	4352
913.545	4367
913.659	4424
913.772	4356
913.886	4242
914	4246
914.113	4394
914.226	4436
914.34	4436
914.453	4291
914.566	4466
914.68	4329
914.793	4337
914.906	4166
915.019	4120
915.132	4071
915.245	4188
915.358	4215
915.47	4249
915.583	4280
915.696	4303
915.809	4409
915.921	4459
916.034	4249
916.146	4230
916.259	4227
916.371	4394
916.483	4360
916.595	4280
916.708	4333
916.82	4295
916.932	4284
917.044	4344
917.156	4421
917.268	4215
917.38	4291
917.491	4265
917.603	4325
917.715	4428
917.826	4394
917.938	4348
918.049	4268
918.161	4405
918.272	4512
918.384	4565
918.495	4417
918.606	4303
918.717	4204
918.828	4318
918.939	4363
919.05	4253
919.161	4318
919.272	4135
919.383	4261
919.494	4459
919.604	4637
919.715	4481
919.826	4363
919.936	4417
920.047	4554
920.157	4462
920.267	4683
920.378	4546
920.488	4535
920.598	4771
920.708	4835
920.818	4763
920.928	4755
921.038	4942
921.148	4930
921.258	4664
921.368	4554
921.477	4519
921.587	4440
921.697	4390
921.806	4531
921.916	4451
922.025	4314
922.134	4268
922.244	4215
922.353	4344
922.462	4196
922.571	4158
922.68	4032
922.789	4006
922.898	3983
923.007	3983
923.116	4086
923.224	4032
923.333	4063
923.442	4010
923.55	4013
923.659	3983
923.767	4082
923.876	4036
923.984	4135
924.092	4010
924.201	4097
924.309	4082
924.417	4131
924.525	4040
924.633	4105
924.741	5064
924.849	3926
924.956	4086
925.064	3945
925.172	3892
925.279	3960
925.387	4086
925.494	4025
925.602	4196
925.709	4173
925.816	4029
925.924	4196
926.031	4215
926.138	4154
926.245	4211
926.352	4097
926.459	4268
926.566	4303
926.673	4120
926.779	4090
926.886	4120
926.993	3979
927.099	3934
927.206	3945
927.312	3941
927.419	4074
927.525	4055
927.631	4090
927.737	3979
927.843	3945
927.95	3838
928.056	3941
928.162	3979
928.267	4059
928.373	4577
928.479	4120
928.585	3869
928.69	4044
928.796	4032
928.901	4025
929.007	3861
929.112	4013
929.218	3964
929.323	3968
929.428	3915
929.533	4071
929.638	3979
929.743	3964
929.848	4074
929.953	4013
930.058	3949
930.163	3804
930.267	3842
930.372	3998
930.477	3812
930.581	4059
930.685	3953
930.79	3812
930.894	3930
930.998	3793
931.103	4032
931.207	3705
931.311	3698
931.415	3656
931.519	3538
931.623	3564
