Data from test_V78500241_1714.txt Node
Date: Fri Mar 25 17:00:55 CST 2022
User: usil
Spectrometer: V785-0024
Trigger mode: 0
Integration Time (sec): 4.000000E-1
Scans to average: 1
Nonlinearity correction enabled: false
Boxcar width: 0
Storing dark spectrum: false
XAxis mode: Wavelengths
Number of Pixels in Spectrum: 1024
>>>>>Begin Spectral Data<<<<<
801.071	8012
801.214	8024
801.356	7902
801.499	7898
801.641	7814
801.783	7868
801.926	7993
802.068	7894
802.211	8005
802.353	7970
802.496	7830
802.638	7852
802.78	7978
802.923	8001
803.065	7932
803.208	7875
803.35	8008
803.492	8088
803.635	8149
803.777	7932
803.919	8111
804.061	8465
804.204	8164
804.346	8138
804.488	7978
804.63	8050
804.773	8020
804.915	8168
805.057	8374
805.199	8187
805.341	8259
805.483	8324
805.626	8199
805.768	8103
805.91	8229
806.052	8317
806.194	8145
806.336	8202
806.478	8088
806.62	8065
806.762	8168
806.904	8343
807.046	8530
807.188	8320
807.33	8267
807.472	8301
807.614	8115
807.756	8119
807.898	8005
808.04	7841
808.182	7894
808.324	7928
808.465	7921
808.607	8073
808.749	8084
808.891	8218
809.033	8320
809.174	8263
809.316	8088
809.458	8100
809.6	8073
809.741	8111
809.883	8050
810.025	8161
810.166	8046
810.308	8065
810.45	7997
810.591	7898
810.733	7704
810.875	7719
811.016	7518
811.158	7468
811.299	7556
811.441	7765
811.582	7666
811.724	7613
811.865	7487
812.007	7616
812.148	7559
812.29	7628
812.431	7792
812.573	7928
812.714	8039
812.855	8065
812.997	8237
813.138	8309
813.279	8153
813.421	8134
813.562	8016
813.703	7795
813.845	7780
813.986	7445
814.127	7289
814.268	7236
814.41	7247
814.551	7198
814.692	7221
814.833	7031
814.974	7069
815.115	7107
815.256	6962
815.397	6913
815.539	6958
815.68	6825
815.821	6829
815.962	6871
816.103	6783
816.244	6696
816.385	6646
816.526	6620
816.666	6445
816.807	6338
816.948	6437
817.089	6471
817.23	6448
817.371	6365
817.512	6365
817.653	6380
817.793	6376
817.934	6422
818.075	6467
818.216	6437
818.356	6426
818.497	6300
818.638	6178
818.778	6133
818.919	6117
819.06	6182
819.2	6327
819.341	6376
819.481	6346
819.622	6521
819.762	6707
819.903	6711
820.043	6574
820.184	6593
820.324	6513
820.465	6692
820.605	6734
820.746	6658
820.886	6502
821.026	6658
821.167	6730
821.307	6738
821.447	6779
821.588	6650
821.728	6528
821.868	6441
822.008	6372
822.149	6395
822.289	6342
822.429	6155
822.569	6136
822.709	6095
822.849	5939
822.99	5908
823.13	5961
823.27	5878
823.41	5752
823.55	5760
823.69	5805
823.83	5745
823.97	5718
824.11	5535
824.25	5512
824.389	5562
824.529	5573
824.669	5482
824.809	5653
824.949	5695
825.089	5608
825.228	5551
825.368	5387
825.508	5337
825.648	5387
825.787	5463
825.927	5387
826.067	5296
826.206	5318
826.346	5406
826.485	5391
826.625	5452
826.765	5562
826.904	5471
827.044	5254
827.183	5223
827.323	5105
827.462	5277
827.601	5197
827.741	5178
827.88	5231
828.02	5086
828.159	5254
828.298	5299
828.437	5341
828.577	5292
828.716	5459
828.855	5357
828.994	5136
829.134	5140
829.273	5201
829.412	5121
829.551	5121
829.69	5166
829.829	5258
829.968	5379
830.107	5280
830.246	5288
830.385	5216
830.524	5109
830.663	5045
830.802	4968
830.941	4881
831.08	4892
831.219	5003
831.357	4949
831.496	5147
831.635	4942
831.774	4870
831.913	4873
832.051	4717
832.19	4702
832.329	4835
832.467	4717
832.606	4653
832.744	4752
832.883	4706
833.022	4744
833.16	4809
833.299	4801
833.437	4824
833.576	4790
833.714	4877
833.852	4889
833.991	4881
834.129	4946
834.267	4949
834.406	4930
834.544	4972
834.682	4984
834.821	4908
834.959	5189
835.097	4961
835.235	5140
835.373	5113
835.511	5075
835.65	5022
835.788	5056
835.926	4949
836.064	4896
836.202	4968
836.34	5185
836.478	5231
836.615	5174
836.753	5216
836.891	5299
837.029	5254
837.167	5208
837.305	5159
837.443	5185
837.58	5083
837.718	5284
837.856	5235
837.993	5136
838.131	5193
838.269	5220
838.406	5185
838.544	5193
838.681	5090
838.819	5029
838.956	4900
839.094	4908
839.231	5025
839.369	5113
839.506	5383
839.643	5223
839.781	5048
839.918	5056
840.055	5071
840.193	5102
840.33	5052
840.467	5064
840.604	5208
840.742	5387
840.879	5117
841.016	5086
841.153	5136
841.29	5349
841.427	5345
841.564	5318
841.701	5417
841.838	5258
841.975	5235
842.112	5258
842.249	5117
842.385	5098
842.522	5326
842.659	5174
842.796	5109
842.933	5220
843.069	5185
843.206	5178
843.343	5288
843.479	5265
843.616	5216
843.752	5006
843.889	5045
844.025	5250
844.162	5018
844.298	5216
844.435	5079
844.571	5025
844.708	5201
844.844	5326
844.98	5345
845.117	5254
845.253	5140
845.389	5067
845.525	5181
845.661	5181
845.798	5048
845.934	5140
846.07	5033
846.206	5185
846.342	5296
846.478	5216
846.614	5041
846.75	4961
846.886	4972
847.022	5147
847.158	4984
847.294	5094
847.429	5071
847.565	5033
847.701	5277
847.837	4862
847.972	4805
848.108	4949
848.244	4927
848.379	4835
848.515	4717
848.65	4736
848.786	4706
848.921	4835
849.057	4900
849.192	4908
849.328	4824
849.463	4854
849.598	4797
849.734	4702
849.869	4729
850.004	4656
850.14	4698
850.275	4634
850.41	4523
850.545	4550
850.68	4645
850.815	4592
850.95	4645
851.085	4858
851.22	4752
851.355	4691
851.49	4615
851.625	4641
851.76	4618
851.895	4580
852.03	4531
852.165	4649
852.299	4710
852.434	4790
852.569	4744
852.703	4812
852.838	4824
852.973	4892
853.107	4850
853.242	4729
853.376	4687
853.511	4535
853.645	4611
853.78	4763
853.914	4672
854.048	4683
854.183	4641
854.317	4683
854.451	4862
854.585	4694
854.72	4634
854.854	4793
854.988	4641
855.122	4607
855.256	4550
855.39	4656
855.524	4793
855.658	4702
855.792	4675
855.926	4740
856.06	4755
856.194	4828
856.327	4672
856.461	4611
856.595	4603
856.729	4656
856.862	4771
856.996	4664
857.13	4725
857.263	4736
857.397	4797
857.53	4584
857.664	4733
857.797	4752
857.931	4740
858.064	4679
858.197	4740
858.331	4626
858.464	4573
858.597	4504
858.731	4645
858.864	4630
858.997	4649
859.13	4656
859.263	4622
859.396	4694
859.529	4580
859.662	4558
859.795	4531
859.928	4645
860.061	4755
860.194	4801
860.327	4561
860.46	4599
860.592	4706
860.725	4748
860.858	4717
860.99	4615
861.123	4523
861.256	4531
861.388	4561
861.521	5155
861.653	4459
861.786	4405
861.918	4432
862.05	4554
862.183	4550
862.315	4599
862.447	4649
862.58	4516
862.712	4394
862.844	4348
862.976	4459
863.108	4440
863.24	4873
863.372	4352
863.504	4367
863.636	4421
863.768	4519
863.9	4402
864.032	4344
864.164	4424
864.296	4470
864.428	4516
864.559	4542
864.691	4565
864.823	4527
864.954	4508
865.086	4550
865.217	4466
865.349	4436
865.48	4459
865.612	4474
865.743	4607
865.875	4508
866.006	4440
866.137	4443
866.269	4462
866.4	4451
866.531	4428
866.662	4436
866.793	4398
866.924	4436
867.055	4542
867.186	4451
867.317	4402
867.448	4383
867.579	4432
867.71	4405
867.841	4390
867.972	4470
868.103	4466
868.233	4432
868.364	4470
868.495	4466
868.625	4649
868.756	4744
868.886	4546
869.017	4630
869.147	4755
869.278	4790
869.408	4664
869.539	4641
869.669	4733
869.799	4637
869.929	4763
870.06	4691
870.19	4942
870.32	4919
870.45	4930
870.58	4999
870.71	5109
870.84	5010
870.97	4946
871.1	4923
871.23	5132
871.36	5098
871.489	5041
871.619	5045
871.749	5056
871.879	5121
872.008	5181
872.138	5033
872.267	4927
872.397	4877
872.526	4809
872.656	4717
872.785	4793
872.915	4915
873.044	4976
873.173	4911
873.303	4972
873.432	5018
873.561	4957
873.69	4862
873.819	4854
873.948	4919
874.077	4797
874.206	4733
874.335	4771
874.464	4927
874.593	5052
874.722	4980
874.851	5067
874.979	5056
875.108	5064
875.237	4934
875.365	4847
875.494	4862
875.623	4957
875.751	4847
875.88	4911
876.008	4942
876.136	5022
876.265	5166
876.393	5326
876.521	5235
876.65	5197
876.778	5166
876.906	5060
877.034	5052
877.162	5079
877.29	5018
877.418	5060
877.546	4999
877.674	5060
877.802	5056
877.93	5010
878.058	4972
878.185	4904
878.313	5010
878.441	4911
878.568	4786
878.696	4858
878.824	4965
878.951	4965
879.079	5102
879.206	5299
879.333	5045
879.461	4991
879.588	4972
879.715	5083
879.842	5223
879.97	4999
880.097	4778
880.224	4729
880.351	4763
880.478	4809
880.605	4763
880.732	4801
880.859	5098
880.986	4915
881.112	4915
881.239	4752
881.366	4683
881.493	4599
881.619	4550
881.746	4634
881.872	4645
881.999	4675
882.125	4717
882.252	4733
882.378	4843
882.505	4934
882.631	4790
882.757	4687
882.883	4744
883.01	4759
883.136	4664
883.262	4542
883.388	4618
883.514	4812
883.64	4892
883.766	4820
883.892	4702
884.018	4683
884.143	4862
884.269	4980
884.395	4645
884.52	4626
884.646	4630
884.772	4558
884.897	4561
885.023	4664
885.148	4801
885.274	4850
885.399	4824
885.524	4679
885.65	4759
885.775	4763
885.9	4733
886.025	4866
886.15	4748
886.275	4714
886.4	4649
886.525	4733
886.65	4714
886.775	4687
886.9	4896
887.025	5003
887.149	4801
887.274	4656
887.399	4588
887.523	4592
887.648	4580
887.773	4596
887.897	4744
888.021	4778
888.146	4721
888.27	4835
888.395	4904
888.519	4801
888.643	4771
888.767	4839
888.891	4664
889.015	4611
889.139	4679
889.263	4618
889.387	4782
889.511	4786
889.635	4771
889.759	4622
889.883	4679
890.006	4733
890.13	4835
890.254	4611
890.377	4672
890.501	4569
890.624	4516
890.748	4649
890.871	4512
890.995	4447
891.118	4440
891.241	4489
891.364	4535
891.488	4645
891.611	4470
891.734	4508
891.857	4588
891.98	4538
892.103	4634
892.226	4607
892.349	4516
892.471	4436
892.594	4550
892.717	4580
892.839	4603
892.962	4599
893.085	4634
893.207	4584
893.33	4440
893.452	4508
893.575	4691
893.697	4573
893.819	4801
893.941	4805
894.064	4774
894.186	4558
894.308	4561
894.43	4736
894.552	4778
894.674	4729
894.796	4588
894.918	4607
895.04	4561
895.161	4691
895.283	4691
895.405	4580
895.526	4630
895.648	4656
895.769	4691
895.891	4691
896.012	4774
896.134	4729
896.255	4645
896.376	4645
896.498	4573
896.619	4660
896.74	4630
896.861	4634
896.982	4919
897.103	5071
897.224	4854
897.345	4710
897.466	4714
897.587	4748
897.708	4831
897.828	4767
897.949	4630
898.07	4561
898.19	4664
898.311	4881
898.431	4664
898.552	4714
898.672	4778
898.792	4793
898.913	4725
899.033	4634
899.153	4497
899.273	4383
899.393	4474
899.513	4527
899.633	4538
899.753	4516
899.873	4516
899.993	4580
900.113	4519
900.232	4519
900.352	4519
900.472	4516
900.591	4386
900.711	4489
900.83	4459
900.95	4611
901.069	4691
901.189	4542
901.308	4379
901.427	4299
901.546	4360
901.665	4474
901.784	4531
901.904	4356
902.023	4329
902.141	4166
902.26	4131
902.379	4360
902.498	4238
902.617	4223
902.735	4367
902.854	4398
902.973	4363
903.091	4188
903.21	4261
903.328	4272
903.446	4291
903.565	4268
903.683	4363
903.801	4310
903.919	4383
904.038	4394
904.156	4268
904.274	4424
904.392	4436
904.51	4455
904.627	4516
904.745	4596
904.863	4634
904.981	4390
905.098	4356
905.216	4341
905.334	4405
905.451	4424
905.569	4424
905.686	4542
905.803	4569
905.921	4398
906.038	4527
906.155	4493
906.272	4417
906.389	4455
906.506	4303
906.623	4371
906.74	4352
906.857	4329
906.974	4348
907.091	4599
907.208	4653
907.324	4603
907.441	4500
907.557	4348
907.674	4371
907.79	4306
907.907	4379
908.023	4478
908.139	4474
908.256	4421
908.372	4489
908.488	4455
908.604	4333
908.72	4280
908.836	4360
908.952	4356
909.068	4428
909.184	4527
909.3	4424
909.415	4558
909.531	4554
909.647	4371
909.762	4337
909.878	4318
909.993	4497
910.108	4409
910.224	4386
910.339	4436
910.454	4436
910.57	4348
910.685	4303
910.8	4653
910.915	4569
911.03	4440
911.145	4314
911.259	4287
911.374	4367
911.489	4280
911.604	4265
911.718	4162
911.833	4196
911.947	4112
912.062	4029
912.176	4207
912.291	4253
912.405	4196
912.519	4398
912.633	4481
912.748	4379
912.862	4291
912.976	4158
913.09	4120
913.204	4150
913.318	4238
913.431	4390
913.545	4344
913.659	4459
913.772	4360
913.886	4238
914	4185
914.113	4402
914.226	4443
914.34	4333
914.453	4188
914.566	4436
914.68	4295
914.793	4295
914.906	4169
915.019	4139
915.132	4059
915.245	4166
915.358	4192
915.47	4242
915.583	4291
915.696	4303
915.809	4402
915.921	4455
916.034	4265
916.146	4276
916.259	4242
916.371	4409
916.483	4341
916.595	4310
916.708	4329
916.82	4306
916.932	4325
917.044	4249
917.156	4356
917.268	4211
917.38	4268
917.491	4280
917.603	4367
917.715	4405
917.826	4455
917.938	4379
918.049	4265
918.161	4375
918.272	4538
918.384	4535
918.495	4481
918.606	4337
918.717	4242
918.828	4360
918.939	4341
919.05	4246
919.161	4356
919.272	4101
919.383	4253
919.494	4462
919.604	4588
919.715	4424
919.826	4360
919.936	4405
920.047	4523
920.157	4508
920.267	4736
920.378	4519
920.488	4531
920.598	4691
920.708	4854
920.818	4752
920.928	4721
921.038	4968
921.148	4904
921.258	4675
921.368	4546
921.477	4470
921.587	4443
921.697	4402
921.806	4531
921.916	4462
922.025	4284
922.134	4276
922.244	4257
922.353	4341
922.462	4173
922.571	4116
922.68	3987
922.789	3960
922.898	4025
923.007	4006
923.116	4097
923.224	4074
923.333	4090
923.442	4017
923.55	3998
923.659	4017
923.767	4078
923.876	3964
923.984	4128
924.092	3994
924.201	4036
924.309	4109
924.417	4097
924.525	4044
924.633	4109
924.741	4835
924.849	3953
924.956	4124
925.064	3991
925.172	3907
925.279	3934
925.387	4040
925.494	4116
925.602	4204
925.709	4185
925.816	4059
925.924	4090
926.031	4219
926.138	4166
926.245	4204
926.352	4097
926.459	4265
926.566	4303
926.673	4124
926.779	4044
926.886	4086
926.993	3983
927.099	3941
927.206	3876
927.312	3918
927.419	4067
927.525	4021
927.631	4063
927.737	3949
927.843	3937
927.95	3835
928.056	3907
928.162	3979
928.267	4086
928.373	4683
928.479	4082
928.585	3869
928.69	4029
928.796	4036
928.901	3960
929.007	3804
929.112	4021
929.218	3979
929.323	3945
929.428	3960
929.533	4074
929.638	3945
929.743	3956
929.848	4010
929.953	4013
930.058	3934
930.163	3751
930.267	3854
930.372	3945
930.477	3804
930.581	4067
930.685	3949
930.79	3835
930.894	3899
930.998	3861
931.103	3972
931.207	3743
931.311	3656
931.415	3671
931.519	3538
931.623	3538
