Data from test_V78500241_430.txt Node
Date: Fri Mar 25 16:51:59 CST 2022
User: usil
Spectrometer: V785-0024
Trigger mode: 0
Integration Time (sec): 4.000000E-1
Scans to average: 1
Nonlinearity correction enabled: false
Boxcar width: 0
Storing dark spectrum: false
XAxis mode: Wavelengths
Number of Pixels in Spectrum: 1024
>>>>>Begin Spectral Data<<<<<
801.071	8107
801.214	8107
801.356	7947
801.499	7932
801.641	7864
801.783	7875
801.926	8069
802.068	8012
802.211	8062
802.353	8008
802.496	7955
802.638	7909
802.78	7993
802.923	7944
803.065	7951
803.208	7909
803.35	7967
803.492	8043
803.635	8088
803.777	7951
803.919	8077
804.061	8434
804.204	8168
804.346	7989
804.488	7986
804.63	8142
804.773	8020
804.915	8157
805.057	8347
805.199	8298
805.341	8301
805.483	8279
805.626	8240
805.768	8096
805.91	8206
806.052	8244
806.194	8187
806.336	8389
806.478	8206
806.62	8111
806.762	8244
806.904	8339
807.046	8499
807.188	8434
807.33	8271
807.472	8294
807.614	8282
807.756	8138
807.898	8069
808.04	7921
808.182	7997
808.324	7982
808.465	7955
808.607	8096
808.749	8164
808.891	8233
809.033	8355
809.174	8202
809.316	8065
809.458	8161
809.6	8043
809.741	8046
809.883	8073
810.025	8168
810.166	8199
810.308	8062
810.45	8065
810.591	7864
810.733	7677
810.875	7704
811.016	7529
811.158	7537
811.299	7636
811.441	7772
811.582	7723
811.724	7594
811.865	7632
812.007	7750
812.148	7647
812.29	7708
812.431	7818
812.573	8001
812.714	8119
812.855	8199
812.997	8206
813.138	8339
813.279	8263
813.421	8164
813.562	8073
813.703	7970
813.845	7864
813.986	7578
814.127	7365
814.268	7365
814.41	7251
814.551	7282
814.692	7316
814.833	7110
814.974	7118
815.115	7129
815.256	6981
815.397	6954
815.539	6935
815.68	6829
815.821	6837
815.962	6920
816.103	6935
816.244	6795
816.385	6688
816.526	6662
816.666	6536
816.807	6361
816.948	6471
817.089	6494
817.23	6467
817.371	6399
817.512	6418
817.653	6464
817.793	6410
817.934	6506
818.075	6483
818.216	6471
818.356	6460
818.497	6254
818.638	6152
818.778	6171
818.919	6209
819.06	6171
819.2	6357
819.341	6251
819.481	6372
819.622	6551
819.762	6764
819.903	6760
820.043	6642
820.184	6574
820.324	6559
820.465	6681
820.605	6722
820.746	6658
820.886	6555
821.026	6677
821.167	6802
821.307	6848
821.447	6806
821.588	6677
821.728	6669
821.868	6547
822.008	6334
822.149	6369
822.289	6388
822.429	6232
822.569	6098
822.709	6144
822.849	5870
822.99	5912
823.13	5920
823.27	5954
823.41	5828
823.55	5813
823.69	5836
823.83	5805
823.97	5684
824.11	5596
824.25	5532
824.389	5634
824.529	5623
824.669	5558
824.809	5649
824.949	5695
825.089	5634
825.228	5577
825.368	5368
825.508	5334
825.648	5337
825.787	5368
825.927	5410
826.067	5330
826.206	5303
826.346	5372
826.485	5444
826.625	5455
826.765	5585
826.904	5444
827.044	5265
827.183	5216
827.323	5162
827.462	5315
827.601	5227
827.741	5299
827.88	5212
828.02	5159
828.159	5212
828.298	5303
828.437	5421
828.577	5372
828.716	5524
828.855	5398
828.994	5201
829.134	5178
829.273	5208
829.412	5151
829.551	5178
829.69	5185
829.829	5265
829.968	5444
830.107	5280
830.246	5322
830.385	5258
830.524	5181
830.663	5159
830.802	4980
830.941	4911
831.08	4930
831.219	5018
831.357	5010
831.496	5197
831.635	4987
831.774	4900
831.913	4839
832.051	4740
832.19	4805
832.329	4854
832.467	4702
832.606	4702
832.744	4717
832.883	4729
833.022	4721
833.16	4816
833.299	4885
833.437	4793
833.576	4862
833.714	4885
833.852	4953
833.991	4904
834.129	4995
834.267	4987
834.406	4942
834.544	5014
834.682	4987
834.821	4980
834.959	5223
835.097	5045
835.235	5201
835.373	5083
835.511	5208
835.65	5067
835.788	5067
835.926	4915
836.064	4915
836.202	4923
836.34	5155
836.478	5201
836.615	5124
836.753	5201
836.891	5326
837.029	5284
837.167	5189
837.305	5178
837.443	5201
837.58	5098
837.718	5231
837.856	5231
837.993	5212
838.131	5330
838.269	5235
838.406	5242
838.544	5204
838.681	5048
838.819	4972
838.956	4934
839.094	4911
839.231	5041
839.369	5102
839.506	5417
839.643	5326
839.781	5075
839.918	5056
840.055	5155
840.193	5124
840.33	5117
840.467	5117
840.604	5189
840.742	5497
840.879	5155
841.016	5128
841.153	5151
841.29	5379
841.427	5402
841.564	5315
841.701	5383
841.838	5330
841.975	5258
842.112	5307
842.249	5151
842.385	5170
842.522	5398
842.659	5181
842.796	5258
842.933	5216
843.069	5162
843.206	5147
843.343	5341
843.479	5265
843.616	5322
843.752	5060
843.889	5041
844.025	5242
844.162	5071
844.298	5216
844.435	5094
844.571	5090
844.708	5265
844.844	5303
844.98	5379
845.117	5299
845.253	5166
845.389	5124
845.525	5178
845.661	5128
845.798	5105
845.934	5140
846.07	5124
846.206	5261
846.342	5322
846.478	5216
846.614	5014
846.75	4972
846.886	4965
847.022	5204
847.158	5025
847.294	5079
847.429	5174
847.565	5060
847.701	5360
847.837	4877
847.972	4873
848.108	4972
848.244	4927
848.379	4797
848.515	4736
848.65	4771
848.786	4736
848.921	4797
849.057	4892
849.192	4908
849.328	4866
849.463	4858
849.598	4797
849.734	4755
849.869	4752
850.004	4672
850.14	4710
850.275	4611
850.41	4565
850.545	4577
850.68	4645
850.815	4622
850.95	4668
851.085	4820
851.22	4778
851.355	4710
851.49	4675
851.625	4675
851.76	4656
851.895	4550
852.03	4519
852.165	4660
852.299	4725
852.434	4816
852.569	4755
852.703	4767
852.838	4904
852.973	4972
853.107	4911
853.242	4736
853.376	4710
853.511	4565
853.645	4653
853.78	4820
853.914	4710
854.048	4725
854.183	4641
854.317	4717
854.451	4801
854.585	4714
854.72	4664
854.854	4790
854.988	4626
855.122	4637
855.256	4538
855.39	4645
855.524	4771
855.658	4672
855.792	4710
855.926	4706
856.06	4752
856.194	4809
856.327	4725
856.461	4607
856.595	4653
856.729	4634
856.862	4759
856.996	4736
857.13	4687
857.263	4763
857.397	4790
857.53	4622
857.664	4740
857.797	4771
857.931	4812
858.064	4702
858.197	4801
858.331	4672
858.464	4630
858.597	4538
858.731	4599
858.864	4634
858.997	4649
859.13	4687
859.263	4740
859.396	4698
859.529	4626
859.662	4577
859.795	4573
859.928	4653
860.061	4790
860.194	4824
860.327	4630
860.46	4626
860.592	4649
860.725	4740
860.858	4790
860.99	4599
861.123	4569
861.256	4561
861.388	4641
861.521	5429
861.653	4500
861.786	4462
861.918	4474
862.05	4531
862.183	4508
862.315	4588
862.447	4626
862.58	4573
862.712	4390
862.844	4375
862.976	4459
863.108	4519
863.24	4771
863.372	4375
863.504	4405
863.636	4424
863.768	4569
863.9	4421
864.032	4405
864.164	4394
864.296	4474
864.428	4542
864.559	4569
864.691	4561
864.823	4523
864.954	4512
865.086	4527
865.217	4436
865.349	4390
865.48	4497
865.612	4535
865.743	4656
865.875	4497
866.006	4436
866.137	4474
866.269	4478
866.4	4459
866.531	4440
866.662	4413
866.793	4432
866.924	4447
867.055	4523
867.186	4485
867.317	4424
867.448	4402
867.579	4390
867.71	4367
867.841	4405
867.972	4466
868.103	4493
868.233	4451
868.364	4523
868.495	4523
868.625	4675
868.756	4740
868.886	4573
869.017	4656
869.147	4786
869.278	4805
869.408	4683
869.539	4645
869.669	4683
869.799	4660
869.929	4786
870.06	4759
870.19	4923
870.32	4927
870.45	4923
870.58	5033
870.71	5143
870.84	5102
870.97	4987
871.1	4889
871.23	5136
871.36	5159
871.489	5067
871.619	5037
871.749	5166
871.879	5166
872.008	5174
872.138	5071
872.267	4938
872.397	4858
872.526	4805
872.656	4687
872.785	4778
872.915	4904
873.044	4999
873.173	4934
873.303	4961
873.432	5022
873.561	4980
873.69	4915
873.819	4938
873.948	4919
874.077	4820
874.206	4782
874.335	4847
874.464	4987
874.593	5083
874.722	5010
874.851	5098
874.979	5121
875.108	4980
875.237	4892
875.365	4900
875.494	4877
875.623	4995
875.751	4892
875.88	4858
876.008	4999
876.136	5075
876.265	5204
876.393	5364
876.521	5265
876.65	5258
876.778	5201
876.906	5071
877.034	5052
877.162	5056
877.29	5003
877.418	5067
877.546	5090
877.674	5041
877.802	5060
877.93	5025
878.058	4999
878.185	4900
878.313	4965
878.441	4949
878.568	4847
878.696	4949
878.824	4915
878.951	5029
879.079	5140
879.206	5303
879.333	5090
879.461	5018
879.588	5010
879.715	5121
879.842	5204
879.97	5018
880.097	4809
880.224	4759
880.351	4748
880.478	4854
880.605	4793
880.732	4820
880.859	5052
880.986	4862
881.112	4908
881.239	4778
881.366	4645
881.493	4641
881.619	4603
881.746	4649
881.872	4645
881.999	4672
882.125	4653
882.252	4812
882.378	4850
882.505	4972
882.631	4759
882.757	4672
882.883	4752
883.01	4755
883.136	4687
883.262	4584
883.388	4626
883.514	4805
883.64	4881
883.766	4820
883.892	4637
884.018	4733
884.143	4892
884.269	4991
884.395	4672
884.52	4645
884.646	4664
884.772	4618
884.897	4588
885.023	4656
885.148	4748
885.274	4870
885.399	4816
885.524	4710
885.65	4702
885.775	4710
885.9	4706
886.025	4870
886.15	4805
886.275	4698
886.4	4653
886.525	4691
886.65	4736
886.775	4698
886.9	4938
887.025	5022
887.149	4820
887.274	4706
887.399	4615
887.523	4618
887.648	4569
887.773	4580
887.897	4767
888.021	4782
888.146	4653
888.27	4824
888.395	4919
888.519	4771
888.643	4839
888.767	4835
888.891	4675
889.015	4641
889.139	4683
889.263	4599
889.387	4782
889.511	4919
889.635	4759
889.759	4653
889.883	4622
890.006	4736
890.13	4858
890.254	4603
890.377	4675
890.501	4554
890.624	4519
890.748	4637
890.871	4542
890.995	4417
891.118	4402
891.241	4527
891.364	4580
891.488	4603
891.611	4447
891.734	4500
891.857	4622
891.98	4546
892.103	4634
892.226	4618
892.349	4584
892.471	4451
892.594	4550
892.717	4615
892.839	4611
892.962	4584
893.085	4675
893.207	4641
893.33	4466
893.452	4466
893.575	4683
893.697	4592
893.819	4809
893.941	4816
894.064	4736
894.186	4550
894.308	4558
894.43	4675
894.552	4835
894.674	4774
894.796	4550
894.918	4550
895.04	4573
895.161	4744
895.283	4683
895.405	4577
895.526	4649
895.648	4687
895.769	4668
895.891	4687
896.012	4748
896.134	4774
896.255	4694
896.376	4656
896.498	4603
896.619	4649
896.74	4607
896.861	4687
896.982	4908
897.103	5109
897.224	4831
897.345	4744
897.466	4641
897.587	4782
897.708	4896
897.828	4771
897.949	4687
898.07	4569
898.19	4618
898.311	4896
898.431	4702
898.552	4725
898.672	4835
898.792	4786
898.913	4752
899.033	4622
899.153	4489
899.273	4386
899.393	4504
899.513	4561
899.633	4504
899.753	4542
899.873	4569
899.993	4580
900.113	4516
900.232	4542
900.352	4508
900.472	4489
900.591	4363
900.711	4462
900.83	4424
900.95	4660
901.069	4740
901.189	4550
901.308	4360
901.427	4325
901.546	4409
901.665	4531
901.784	4542
901.904	4367
902.023	4356
902.141	4147
902.26	4173
902.379	4318
902.498	4268
902.617	4287
902.735	4348
902.854	4398
902.973	4333
903.091	4219
903.21	4242
903.328	4265
903.446	4280
903.565	4276
903.683	4352
903.801	4322
903.919	4402
904.038	4470
904.156	4318
904.274	4409
904.392	4409
904.51	4451
904.627	4462
904.745	4592
904.863	4618
904.981	4348
905.098	4318
905.216	4386
905.334	4402
905.451	4478
905.569	4459
905.686	4546
905.803	4592
905.921	4462
906.038	4569
906.155	4561
906.272	4348
906.389	4481
906.506	4337
906.623	4447
906.74	4363
906.857	4272
906.974	4405
907.091	4573
907.208	4710
907.324	4596
907.441	4516
907.557	4344
907.674	4341
907.79	4310
907.907	4394
908.023	4459
908.139	4489
908.256	4440
908.372	4436
908.488	4500
908.604	4379
908.72	4367
908.836	4390
908.952	4360
909.068	4417
909.184	4561
909.3	4535
909.415	4546
909.531	4546
909.647	4352
909.762	4348
909.878	4405
909.993	4443
910.108	4413
910.224	4424
910.339	4474
910.454	4440
910.57	4367
910.685	4306
910.8	4645
910.915	4653
911.03	4474
911.145	4310
911.259	4310
911.374	4318
911.489	4287
911.604	4268
911.718	4242
911.833	4169
911.947	4067
912.062	4013
912.176	4211
912.291	4223
912.405	4223
912.519	4481
912.633	4481
912.748	4322
912.862	4276
912.976	4211
913.09	4082
913.204	4196
913.318	4265
913.431	4371
913.545	4413
913.659	4447
913.772	4394
913.886	4287
914	4211
914.113	4371
914.226	4443
914.34	4390
914.453	4150
914.566	4432
914.68	4306
914.793	4352
914.906	4196
915.019	4128
915.132	4109
915.245	4223
915.358	4154
915.47	4234
915.583	4287
915.696	4284
915.809	4413
915.921	4421
916.034	4276
916.146	4257
916.259	4238
916.371	4371
916.483	4390
916.595	4246
916.708	4344
916.82	4314
916.932	4310
917.044	4356
917.156	4306
917.268	4249
917.38	4303
917.491	4265
917.603	4371
917.715	4455
917.826	4409
917.938	4356
918.049	4246
918.161	4409
918.272	4508
918.384	4538
918.495	4474
918.606	4318
918.717	4257
918.828	4341
918.939	4390
919.05	4257
919.161	4314
919.272	4162
919.383	4196
919.494	4485
919.604	4622
919.715	4417
919.826	4348
919.936	4421
920.047	4462
920.157	4474
920.267	4721
920.378	4538
920.488	4443
920.598	4729
920.708	4877
920.818	4820
920.928	4767
921.038	4930
921.148	4923
921.258	4630
921.368	4523
921.477	4527
921.587	4443
921.697	4333
921.806	4527
921.916	4485
922.025	4276
922.134	4295
922.244	4230
922.353	4356
922.462	4204
922.571	4143
922.68	3987
922.789	3979
922.898	4044
923.007	4013
923.116	4078
923.224	4074
923.333	4071
923.442	4010
923.55	3956
923.659	4017
923.767	4086
923.876	3987
923.984	4128
924.092	3983
924.201	4071
924.309	4059
924.417	4158
924.525	4124
924.633	4101
924.741	5094
924.849	3907
924.956	4143
925.064	4017
925.172	3884
925.279	3968
925.387	4063
925.494	4082
925.602	4211
925.709	4185
925.816	4040
925.924	4135
926.031	4261
926.138	4169
926.245	4242
926.352	4036
926.459	4238
926.566	4375
926.673	4143
926.779	4055
926.886	4093
926.993	3964
927.099	3983
927.206	3926
927.312	3937
927.419	4063
927.525	4055
927.631	4097
927.737	3945
927.843	3911
927.95	3827
928.056	3968
928.162	4013
928.267	4013
928.373	4679
928.479	4139
928.585	3918
928.69	3994
928.796	4101
928.901	4013
929.007	3827
929.112	3987
929.218	3975
929.323	3918
929.428	3911
929.533	4135
929.638	3926
929.743	3953
929.848	4021
929.953	4029
930.058	3964
930.163	3747
930.267	3850
930.372	3934
930.477	3857
930.581	4067
930.685	3979
930.79	3850
930.894	3880
930.998	3869
931.103	4078
931.207	3747
931.311	3698
931.415	3667
931.519	3549
931.623	3557
