Data from test_V78500241_51.txt Node
Date: Fri Mar 25 16:49:21 CST 2022
User: usil
Spectrometer: V785-0024
Trigger mode: 0
Integration Time (sec): 4.000000E-1
Scans to average: 1
Nonlinearity correction enabled: false
Boxcar width: 0
Storing dark spectrum: false
XAxis mode: Wavelengths
Number of Pixels in Spectrum: 1024
>>>>>Begin Spectral Data<<<<<
801.071	8073
801.214	8012
801.356	7917
801.499	7909
801.641	7913
801.783	7894
801.926	8058
802.068	8005
802.211	8065
802.353	8107
802.496	7913
802.638	7928
802.78	8031
802.923	8039
803.065	7928
803.208	7822
803.35	8020
803.492	8100
803.635	8161
803.777	8001
803.919	8123
804.061	8438
804.204	8176
804.346	8081
804.488	7978
804.63	8142
804.773	8054
804.915	8138
805.057	8210
805.199	8100
805.341	8298
805.483	8279
805.626	8267
805.768	8187
805.91	8286
806.052	8229
806.194	8195
806.336	8271
806.478	8123
806.62	8183
806.762	8199
806.904	8309
807.046	8488
807.188	8442
807.33	8434
807.472	8377
807.614	8183
807.756	8240
807.898	8107
808.04	7970
808.182	7951
808.324	7947
808.465	7974
808.607	8107
808.749	8123
808.891	8320
809.033	8393
809.174	8259
809.316	8065
809.458	8103
809.6	7978
809.741	8043
809.883	8054
810.025	8119
810.166	8096
810.308	8145
810.45	8123
810.591	7974
810.733	7864
810.875	7719
811.016	7658
811.158	7613
811.299	7677
811.441	7860
811.582	7799
811.724	7674
811.865	7639
812.007	7670
812.148	7624
812.29	7731
812.431	7807
812.573	7898
812.714	8039
812.855	8187
812.997	8328
813.138	8377
813.279	8336
813.421	8195
813.562	8065
813.703	7932
813.845	7833
813.986	7537
814.127	7301
814.268	7305
814.41	7301
814.551	7209
814.692	7343
814.833	7160
814.974	7164
815.115	7164
815.256	7091
815.397	7012
815.539	6928
815.68	6844
815.821	6882
815.962	6916
816.103	6844
816.244	6787
816.385	6722
816.526	6692
816.666	6540
816.807	6422
816.948	6475
817.089	6555
817.23	6544
817.371	6521
817.512	6448
817.653	6490
817.793	6433
817.934	6403
818.075	6540
818.216	6502
818.356	6517
818.497	6342
818.638	6243
818.778	6239
818.919	6205
819.06	6262
819.2	6410
819.341	6445
819.481	6426
819.622	6639
819.762	6787
819.903	6779
820.043	6700
820.184	6639
820.324	6662
820.465	6810
820.605	6715
820.746	6745
820.886	6566
821.026	6738
821.167	6818
821.307	6818
821.447	6875
821.588	6730
821.728	6681
821.868	6604
822.008	6384
822.149	6414
822.289	6410
822.429	6254
822.569	6129
822.709	6148
822.849	5958
822.99	6038
823.13	5977
823.27	5988
823.41	5790
823.55	5813
823.69	5870
823.83	5809
823.97	5779
824.11	5577
824.25	5604
824.389	5608
824.529	5676
824.669	5562
824.809	5737
824.949	5695
825.089	5710
825.228	5646
825.368	5429
825.508	5436
825.648	5398
825.787	5463
825.927	5490
826.067	5395
826.206	5395
826.346	5440
826.485	5482
826.625	5467
826.765	5634
826.904	5543
827.044	5360
827.183	5258
827.323	5201
827.462	5315
827.601	5246
827.741	5223
827.88	5311
828.02	5170
828.159	5318
828.298	5337
828.437	5425
828.577	5341
828.716	5554
828.855	5376
828.994	5189
829.134	5162
829.273	5239
829.412	5220
829.551	5204
829.69	5239
829.829	5277
829.968	5452
830.107	5318
830.246	5353
830.385	5239
830.524	5178
830.663	5113
830.802	5067
830.941	4991
831.08	4957
831.219	4984
831.357	5067
831.496	5220
831.635	4991
831.774	4976
831.913	4923
832.051	4816
832.19	4812
832.329	4923
832.467	4755
832.606	4714
832.744	4755
832.883	4767
833.022	4805
833.16	4847
833.299	4919
833.437	4938
833.576	4877
833.714	4957
833.852	4953
833.991	4946
834.129	5010
834.267	5045
834.406	4965
834.544	5022
834.682	5003
834.821	5064
834.959	5121
835.097	5056
835.235	5223
835.373	5178
835.511	5159
835.65	5140
835.788	5086
835.926	4980
836.064	4949
836.202	5022
836.34	5201
836.478	5311
836.615	5159
836.753	5307
836.891	5368
837.029	5273
837.167	5223
837.305	5193
837.443	5166
837.58	5166
837.718	5318
837.856	5227
837.993	5162
838.131	5296
838.269	5292
838.406	5258
838.544	5254
838.681	5071
838.819	5022
838.956	4972
839.094	4934
839.231	5083
839.369	5174
839.506	5440
839.643	5322
839.781	5132
839.918	5067
840.055	5113
840.193	5140
840.33	5204
840.467	5197
840.604	5197
840.742	5463
840.879	5174
841.016	5181
841.153	5208
841.29	5436
841.427	5406
841.564	5315
841.701	5421
841.838	5322
841.975	5299
842.112	5337
842.249	5246
842.385	5155
842.522	5357
842.659	5208
842.796	5216
842.933	5269
843.069	5216
843.206	5250
843.343	5368
843.479	5280
843.616	5326
843.752	5136
843.889	5041
844.025	5307
844.162	5048
844.298	5185
844.435	5159
844.571	5128
844.708	5288
844.844	5372
844.98	5440
845.117	5410
845.253	5181
845.389	5147
845.525	5193
845.661	5227
845.798	5102
845.934	5181
846.07	5113
846.206	5212
846.342	5372
846.478	5296
846.614	5083
846.75	5029
846.886	4980
847.022	5216
847.158	5098
847.294	5136
847.429	5201
847.565	5140
847.701	5379
847.837	4892
847.972	4889
848.108	5060
848.244	4995
848.379	4908
848.515	4831
848.65	4710
848.786	4805
848.921	4862
849.057	4934
849.192	4972
849.328	4877
849.463	4858
849.598	4816
849.734	4812
849.869	4733
850.004	4691
850.14	4740
850.275	4664
850.41	4607
850.545	4573
850.68	4672
850.815	4649
850.95	4645
851.085	4896
851.22	4820
851.355	4698
851.49	4660
851.625	4626
851.76	4710
851.895	4561
852.03	4637
852.165	4660
852.299	4793
852.434	4824
852.569	4816
852.703	4805
852.838	4915
852.973	4968
853.107	4919
853.242	4824
853.376	4714
853.511	4599
853.645	4698
853.78	4847
853.914	4786
854.048	4694
854.183	4645
854.317	4782
854.451	4854
854.585	4729
854.72	4706
854.854	4793
854.988	4641
855.122	4706
855.256	4565
855.39	4729
855.524	4824
855.658	4767
855.792	4721
855.926	4812
856.06	4778
856.194	4877
856.327	4714
856.461	4653
856.595	4698
856.729	4691
856.862	4847
856.996	4729
857.13	4729
857.263	4835
857.397	4881
857.53	4710
857.664	4828
857.797	4774
857.931	4809
858.064	4744
858.197	4805
858.331	4668
858.464	4637
858.597	4550
858.731	4645
858.864	4717
858.997	4645
859.13	4649
859.263	4744
859.396	4755
859.529	4599
859.662	4561
859.795	4565
859.928	4672
860.061	4843
860.194	4824
860.327	4668
860.46	4656
860.592	4729
860.725	4797
860.858	4725
860.99	4637
861.123	4542
861.256	4558
861.388	4698
861.521	5330
861.653	4523
861.786	4489
861.918	4527
862.05	4596
862.183	4641
862.315	4607
862.447	4653
862.58	4596
862.712	4474
862.844	4348
862.976	4516
863.108	4470
863.24	4923
863.372	4402
863.504	4531
863.636	4455
863.768	4535
863.9	4481
864.032	4432
864.164	4436
864.296	4504
864.428	4584
864.559	4622
864.691	4622
864.823	4546
864.954	4554
865.086	4565
865.217	4481
865.349	4455
865.48	4516
865.612	4500
865.743	4656
865.875	4550
866.006	4451
866.137	4516
866.269	4474
866.4	4432
866.531	4470
866.662	4459
866.793	4417
866.924	4508
867.055	4489
867.186	4504
867.317	4462
867.448	4451
867.579	4443
867.71	4462
867.841	4455
867.972	4554
868.103	4527
868.233	4489
868.364	4565
868.495	4542
868.625	4687
868.756	4771
868.886	4603
869.017	4664
869.147	4801
869.278	4839
869.408	4729
869.539	4736
869.669	4820
869.799	4721
869.929	4801
870.06	4759
870.19	5010
870.32	4987
870.45	5037
870.58	5025
870.71	5128
870.84	5170
870.97	4961
871.1	4957
871.23	5155
871.36	5208
871.489	5060
871.619	5124
871.749	5174
871.879	5204
872.008	5242
872.138	5083
872.267	5056
872.397	4949
872.526	4877
872.656	4790
872.785	4881
872.915	4987
873.044	5067
873.173	4968
873.303	5022
873.432	5056
873.561	5003
873.69	4949
873.819	4900
873.948	4976
874.077	4885
874.206	4828
874.335	4824
874.464	4946
874.593	5113
874.722	4987
874.851	5174
874.979	5124
875.108	5105
875.237	4991
875.365	4892
875.494	4949
875.623	5045
875.751	4839
875.88	4908
876.008	5037
876.136	5067
876.265	5280
876.393	5383
876.521	5315
876.65	5273
876.778	5227
876.906	5113
877.034	5037
877.162	5117
877.29	5018
877.418	5094
877.546	5083
877.674	5079
877.802	5121
877.93	5060
878.058	4972
878.185	4923
878.313	4991
878.441	5003
878.568	4873
878.696	4911
878.824	4987
878.951	5056
879.079	5162
879.206	5315
879.333	5136
879.461	5033
879.588	5098
879.715	5136
879.842	5235
879.97	5071
880.097	4843
880.224	4793
880.351	4847
880.478	4862
880.605	4854
880.732	4805
880.859	5098
880.986	4930
881.112	4919
881.239	4831
881.366	4752
881.493	4637
881.619	4641
881.746	4664
881.872	4691
881.999	4691
882.125	4729
882.252	4831
882.378	4881
882.505	4980
882.631	4835
882.757	4740
882.883	4801
883.01	4744
883.136	4706
883.262	4679
883.388	4626
883.514	4896
883.64	4930
883.766	4790
883.892	4706
884.018	4801
884.143	4976
884.269	5010
884.395	4759
884.52	4653
884.646	4668
884.772	4626
884.897	4599
885.023	4694
885.148	4790
885.274	4934
885.399	4843
885.524	4733
885.65	4744
885.775	4831
885.9	4740
886.025	4923
886.15	4816
886.275	4797
886.4	4733
886.525	4767
886.65	4740
886.775	4778
886.9	4927
887.025	5060
887.149	4862
887.274	4714
887.399	4634
887.523	4672
887.648	4637
887.773	4630
887.897	4824
888.021	4801
888.146	4755
888.27	4831
888.395	4938
888.519	4873
888.643	4812
888.767	4870
888.891	4725
889.015	4664
889.139	4725
889.263	4626
889.387	4744
889.511	4885
889.635	4854
889.759	4698
889.883	4694
890.006	4793
890.13	4911
890.254	4653
890.377	4710
890.501	4565
890.624	4523
890.748	4660
890.871	4527
890.995	4478
891.118	4481
891.241	4569
891.364	4592
891.488	4683
891.611	4542
891.734	4558
891.857	4683
891.98	4596
892.103	4691
892.226	4626
892.349	4561
892.471	4478
892.594	4588
892.717	4634
892.839	4622
892.962	4603
893.085	4687
893.207	4611
893.33	4527
893.452	4630
893.575	4694
893.697	4599
893.819	4854
893.941	4847
894.064	4748
894.186	4615
894.308	4603
894.43	4816
894.552	4870
894.674	4790
894.796	4565
894.918	4653
895.04	4626
895.161	4740
895.283	4740
895.405	4626
895.526	4622
895.648	4729
895.769	4755
895.891	4710
896.012	4755
896.134	4755
896.255	4717
896.376	4710
896.498	4611
896.619	4725
896.74	4664
896.861	4675
896.982	4957
897.103	5143
897.224	4885
897.345	4809
897.466	4714
897.587	4778
897.708	4850
897.828	4839
897.949	4694
898.07	4603
898.19	4672
898.311	4919
898.431	4744
898.552	4771
898.672	4877
898.792	4850
898.913	4797
899.033	4656
899.153	4516
899.273	4527
899.393	4558
899.513	4561
899.633	4561
899.753	4588
899.873	4531
899.993	4634
900.113	4596
900.232	4645
900.352	4626
900.472	4535
900.591	4443
900.711	4554
900.83	4470
900.95	4656
901.069	4786
901.189	4565
901.308	4409
901.427	4352
901.546	4394
901.665	4516
901.784	4512
901.904	4421
902.023	4386
902.141	4230
902.26	4223
902.379	4356
902.498	4310
902.617	4276
902.735	4447
902.854	4440
902.973	4367
903.091	4246
903.21	4284
903.328	4348
903.446	4280
903.565	4344
903.683	4398
903.801	4295
903.919	4451
904.038	4451
904.156	4356
904.274	4443
904.392	4432
904.51	4462
904.627	4512
904.745	4660
904.863	4656
904.981	4447
905.098	4356
905.216	4447
905.334	4451
905.451	4504
905.569	4447
905.686	4592
905.803	4596
905.921	4421
906.038	4565
906.155	4535
906.272	4455
906.389	4481
906.506	4398
906.623	4451
906.74	4440
906.857	4363
906.974	4436
907.091	4588
907.208	4717
907.324	4607
907.441	4516
907.557	4379
907.674	4394
907.79	4383
907.907	4421
908.023	4561
908.139	4535
908.256	4516
908.372	4466
908.488	4478
908.604	4421
908.72	4344
908.836	4383
908.952	4409
909.068	4451
909.184	4569
909.3	4538
909.415	4653
909.531	4596
909.647	4405
909.762	4478
909.878	4390
909.993	4508
910.108	4489
910.224	4398
910.339	4538
910.454	4447
910.57	4398
910.685	4356
910.8	4698
910.915	4599
911.03	4493
911.145	4333
911.259	4451
911.374	4440
911.489	4329
911.604	4310
911.718	4219
911.833	4234
911.947	4112
912.062	4082
912.176	4291
912.291	4230
912.405	4284
912.519	4500
912.633	4519
912.748	4363
912.862	4306
912.976	4238
913.09	4143
913.204	4173
913.318	4261
913.431	4394
913.545	4409
913.659	4455
913.772	4386
913.886	4318
914	4280
914.113	4398
914.226	4459
914.34	4443
914.453	4284
914.566	4531
914.68	4325
914.793	4405
914.906	4215
915.019	4124
915.132	4131
915.245	4238
915.358	4246
915.47	4291
915.583	4295
915.696	4287
915.809	4390
915.921	4443
916.034	4272
916.146	4284
916.259	4219
916.371	4405
916.483	4375
916.595	4322
916.708	4356
916.82	4379
916.932	4348
917.044	4386
917.156	4386
917.268	4291
917.38	4348
917.491	4314
917.603	4390
917.715	4432
917.826	4485
917.938	4367
918.049	4265
918.161	4421
918.272	4569
918.384	4596
918.495	4485
918.606	4291
918.717	4280
918.828	4402
918.939	4459
919.05	4344
919.161	4367
919.272	4147
919.383	4272
919.494	4466
919.604	4694
919.715	4470
919.826	4413
919.936	4440
920.047	4554
920.157	4542
920.267	4691
920.378	4603
920.488	4542
920.598	4782
920.708	4930
920.818	4809
920.928	4755
921.038	4965
921.148	4957
921.258	4649
921.368	4573
921.477	4546
921.587	4538
921.697	4375
921.806	4561
921.916	4470
922.025	4299
922.134	4299
922.244	4268
922.353	4348
922.462	4181
922.571	4150
922.68	3975
922.789	3994
922.898	4074
923.007	4017
923.116	4101
923.224	4105
923.333	4101
923.442	4021
923.55	4017
923.659	4071
923.767	4097
923.876	4055
923.984	4177
924.092	4021
924.201	4109
924.309	4128
924.417	4139
924.525	4097
924.633	4204
924.741	5117
924.849	3922
924.956	4147
925.064	4010
925.172	3934
925.279	3975
925.387	4105
925.494	4101
925.602	4242
925.709	4230
925.816	4086
925.924	4124
926.031	4310
926.138	4207
926.245	4246
926.352	4135
926.459	4303
926.566	4348
926.673	4177
926.779	4120
926.886	4112
926.993	4002
927.099	4002
927.206	3987
927.312	4002
927.419	4097
927.525	4063
927.631	4135
927.737	4002
927.843	3941
927.95	3869
928.056	3979
928.162	4021
928.267	4097
928.373	4771
928.479	4154
928.585	3926
928.69	4051
928.796	4139
928.901	4017
929.007	3850
929.112	4067
929.218	4006
929.323	3956
929.428	3983
929.533	4150
929.638	3934
929.743	4006
929.848	4063
929.953	3983
930.058	3979
930.163	3816
930.267	3850
930.372	4010
930.477	3857
930.581	4173
930.685	3998
930.79	3850
930.894	3926
930.998	3816
931.103	4063
931.207	3732
931.311	3690
931.415	3663
931.519	3534
931.623	3599
