Data from test_V78500241_2550.txt Node
Date: Fri Mar 25 17:06:44 CST 2022
User: usil
Spectrometer: V785-0024
Trigger mode: 0
Integration Time (sec): 4.000000E-1
Scans to average: 1
Nonlinearity correction enabled: false
Boxcar width: 0
Storing dark spectrum: false
XAxis mode: Wavelengths
Number of Pixels in Spectrum: 1024
>>>>>Begin Spectral Data<<<<<
801.071	8039
801.214	7963
801.356	7849
801.499	7822
801.641	7738
801.783	7830
801.926	8065
802.068	7921
802.211	7986
802.353	7940
802.496	7830
802.638	7837
802.78	7902
802.923	7890
803.065	7936
803.208	7890
803.35	7978
803.492	8043
803.635	8092
803.777	8016
803.919	8096
804.061	8454
804.204	8176
804.346	8050
804.488	7967
804.63	8084
804.773	8065
804.915	8084
805.057	8298
805.199	8138
805.341	8298
805.483	8225
805.626	8237
805.768	8161
805.91	8164
806.052	8218
806.194	8123
806.336	8362
806.478	8100
806.62	8020
806.762	8069
806.904	8271
807.046	8503
807.188	8267
807.33	8275
807.472	8336
807.614	8218
807.756	8103
807.898	8005
808.04	7864
808.182	7837
808.324	7906
808.465	7887
808.607	8024
808.749	8138
808.891	8180
809.033	8396
809.174	8218
809.316	8035
809.458	8069
809.6	7974
809.741	8024
809.883	7955
810.025	8062
810.166	8016
810.308	7993
810.45	7967
810.591	7894
810.733	7734
810.875	7586
811.016	7476
811.158	7464
811.299	7616
811.441	7723
811.582	7670
811.724	7556
811.865	7586
812.007	7556
812.148	7613
812.29	7609
812.431	7799
812.573	7849
812.714	7978
812.855	8103
812.997	8187
813.138	8225
813.279	8202
813.421	8050
813.562	7951
813.703	7875
813.845	7731
813.986	7495
814.127	7282
814.268	7213
814.41	7145
814.551	7175
814.692	7209
814.833	7168
814.974	7129
815.115	7126
815.256	6932
815.397	6985
815.539	6932
815.68	6844
815.821	6829
815.962	6867
816.103	6894
816.244	6703
816.385	6665
816.526	6551
816.666	6471
816.807	6304
816.948	6433
817.089	6448
817.23	6456
817.371	6346
817.512	6391
817.653	6460
817.793	6331
817.934	6437
818.075	6467
818.216	6399
818.356	6445
818.497	6254
818.638	6152
818.778	6163
818.919	6178
819.06	6201
819.2	6300
819.341	6285
819.481	6384
819.622	6536
819.762	6738
819.903	6677
820.043	6608
820.184	6616
820.324	6593
820.465	6696
820.605	6696
820.746	6673
820.886	6525
821.026	6696
821.167	6753
821.307	6791
821.447	6757
821.588	6688
821.728	6582
821.868	6483
822.008	6331
822.149	6365
822.289	6376
822.429	6114
822.569	6106
822.709	6175
822.849	5931
822.99	5916
823.13	5931
823.27	5923
823.41	5794
823.55	5790
823.69	5790
823.83	5733
823.97	5668
824.11	5478
824.25	5516
824.389	5566
824.529	5589
824.669	5509
824.809	5672
824.949	5638
825.089	5577
825.228	5535
825.368	5410
825.508	5353
825.648	5360
825.787	5395
825.927	5383
826.067	5326
826.206	5341
826.346	5353
826.485	5357
826.625	5406
826.765	5543
826.904	5436
827.044	5280
827.183	5166
827.323	5204
827.462	5265
827.601	5162
827.741	5162
827.88	5128
828.02	5098
828.159	5227
828.298	5227
828.437	5311
828.577	5269
828.716	5471
828.855	5360
828.994	5102
829.134	5124
829.273	5201
829.412	5159
829.551	5159
829.69	5204
829.829	5246
829.968	5395
830.107	5227
830.246	5280
830.385	5178
830.524	5143
830.663	5060
830.802	4987
830.941	4858
831.08	4850
831.219	4961
831.357	4972
831.496	5174
831.635	4911
831.774	4862
831.913	4862
832.051	4683
832.19	4729
832.329	4835
832.467	4710
832.606	4641
832.744	4717
832.883	4710
833.022	4793
833.16	4790
833.299	4881
833.437	4858
833.576	4828
833.714	4873
833.852	4858
833.991	4896
834.129	4961
834.267	4930
834.406	4927
834.544	4976
834.682	4927
834.821	5010
834.959	5151
835.097	4980
835.235	5113
835.373	5083
835.511	5117
835.65	5056
835.788	4995
835.926	4919
836.064	4889
836.202	4934
836.34	5159
836.478	5315
836.615	5132
836.753	5201
836.891	5353
837.029	5254
837.167	5178
837.305	5136
837.443	5132
837.58	5083
837.718	5235
837.856	5201
837.993	5132
838.131	5231
838.269	5174
838.406	5235
838.544	5204
838.681	5064
838.819	5014
838.956	4896
839.094	4942
839.231	5003
839.369	5079
839.506	5395
839.643	5284
839.781	5060
839.918	5056
840.055	5056
840.193	5060
840.33	5083
840.467	5098
840.604	5181
840.742	5463
840.879	5124
841.016	5071
841.153	5189
841.29	5307
841.427	5318
841.564	5303
841.701	5334
841.838	5318
841.975	5231
842.112	5269
842.249	5151
842.385	5094
842.522	5334
842.659	5189
842.796	5178
842.933	5201
843.069	5121
843.206	5189
843.343	5334
843.479	5239
843.616	5280
843.752	4995
843.889	5041
844.025	5231
844.162	4995
844.298	5220
844.435	5090
844.571	5029
844.708	5193
844.844	5296
844.98	5379
845.117	5273
845.253	5117
845.389	5067
845.525	5170
845.661	5166
845.798	5018
845.934	5136
846.07	5048
846.206	5231
846.342	5334
846.478	5151
846.614	5041
846.75	4991
846.886	4942
847.022	5166
847.158	5029
847.294	5052
847.429	5037
847.565	5052
847.701	5318
847.837	4854
847.972	4771
848.108	4934
848.244	4904
848.379	4771
848.515	4755
848.65	4748
848.786	4759
848.921	4801
849.057	4892
849.192	4881
849.328	4790
849.463	4877
849.598	4790
849.734	4763
849.869	4679
850.004	4645
850.14	4679
850.275	4618
850.41	4538
850.545	4561
850.68	4626
850.815	4622
850.95	4675
851.085	4858
851.22	4725
851.355	4702
851.49	4626
851.625	4649
851.76	4622
851.895	4558
852.03	4527
852.165	4611
852.299	4694
852.434	4774
852.569	4759
852.703	4793
852.838	4835
852.973	4965
853.107	4904
853.242	4767
853.376	4714
853.511	4592
853.645	4618
853.78	4778
853.914	4736
854.048	4630
854.183	4649
854.317	4687
854.451	4820
854.585	4660
854.72	4653
854.854	4782
854.988	4626
855.122	4694
855.256	4516
855.39	4694
855.524	4740
855.658	4698
855.792	4729
855.926	4702
856.06	4725
856.194	4828
856.327	4683
856.461	4573
856.595	4611
856.729	4656
856.862	4710
856.996	4645
857.13	4714
857.263	4755
857.397	4843
857.53	4577
857.664	4706
857.797	4759
857.931	4755
858.064	4683
858.197	4740
858.331	4653
858.464	4592
858.597	4504
858.731	4618
858.864	4637
858.997	4561
859.13	4641
859.263	4664
859.396	4656
859.529	4615
859.662	4546
859.795	4535
859.928	4618
860.061	4748
860.194	4736
860.327	4580
860.46	4542
860.592	4736
860.725	4714
860.858	4733
860.99	4554
861.123	4523
861.256	4542
861.388	4554
861.521	5181
861.653	4485
861.786	4478
861.918	4470
862.05	4512
862.183	4565
862.315	4622
862.447	4653
862.58	4554
862.712	4409
862.844	4356
862.976	4459
863.108	4432
863.24	4744
863.372	4386
863.504	4390
863.636	4371
863.768	4459
863.9	4428
864.032	4356
864.164	4375
864.296	4470
864.428	4500
864.559	4550
864.691	4569
864.823	4546
864.954	4459
865.086	4512
865.217	4500
865.349	4478
865.48	4481
865.612	4470
865.743	4588
865.875	4455
866.006	4402
866.137	4451
866.269	4405
866.4	4443
866.531	4466
866.662	4470
866.793	4405
866.924	4394
867.055	4519
867.186	4489
867.317	4455
867.448	4375
867.579	4360
867.71	4371
867.841	4348
867.972	4459
868.103	4443
868.233	4459
868.364	4459
868.495	4478
868.625	4664
868.756	4744
868.886	4546
869.017	4645
869.147	4736
869.278	4793
869.408	4630
869.539	4660
869.669	4714
869.799	4615
869.929	4736
870.06	4748
870.19	4991
870.32	4942
870.45	4976
870.58	5033
870.71	5132
870.84	5090
870.97	4946
871.1	4949
871.23	5128
871.36	5086
871.489	4999
871.619	5071
871.749	5083
871.879	5079
872.008	5193
872.138	5014
872.267	4946
872.397	4854
872.526	4797
872.656	4805
872.785	4835
872.915	4968
873.044	5033
873.173	4953
873.303	5018
873.432	4949
873.561	4987
873.69	4904
873.819	4870
873.948	4919
874.077	4885
874.206	4717
874.335	4820
874.464	4911
874.593	5029
874.722	4968
874.851	5098
874.979	5033
875.108	5041
875.237	4900
875.365	4896
875.494	4847
875.623	4953
875.751	4797
875.88	4904
876.008	4961
876.136	5086
876.265	5170
876.393	5364
876.521	5227
876.65	5189
876.778	5201
876.906	5128
877.034	4999
877.162	5048
877.29	4946
877.418	5071
877.546	5048
877.674	5018
877.802	5022
877.93	5041
878.058	4938
878.185	4850
878.313	4957
878.441	4961
878.568	4835
878.696	4850
878.824	4953
878.951	5029
879.079	5201
879.206	5269
879.333	5075
879.461	4995
879.588	5041
879.715	5109
879.842	5227
879.97	5029
880.097	4782
880.224	4748
880.351	4805
880.478	4809
880.605	4854
880.732	4828
880.859	5048
880.986	4889
881.112	4885
881.239	4763
881.366	4721
881.493	4603
881.619	4569
881.746	4630
881.872	4683
881.999	4660
882.125	4679
882.252	4839
882.378	4805
882.505	4965
882.631	4782
882.757	4660
882.883	4733
883.01	4767
883.136	4649
883.262	4580
883.388	4653
883.514	4816
883.64	4839
883.766	4767
883.892	4729
884.018	4733
884.143	4881
884.269	5045
884.395	4683
884.52	4580
884.646	4634
884.772	4577
884.897	4592
885.023	4675
885.148	4809
885.274	4930
885.399	4820
885.524	4763
885.65	4641
885.775	4740
885.9	4687
886.025	4862
886.15	4824
886.275	4702
886.4	4660
886.525	4725
886.65	4622
886.775	4748
886.9	4892
887.025	5105
887.149	4828
887.274	4645
887.399	4599
887.523	4637
887.648	4618
887.773	4592
887.897	4767
888.021	4744
888.146	4660
888.27	4820
888.395	4904
888.519	4820
888.643	4797
888.767	4843
888.891	4660
889.015	4580
889.139	4660
889.263	4596
889.387	4752
889.511	4847
889.635	4816
889.759	4698
889.883	4645
890.006	4752
890.13	4828
890.254	4577
890.377	4649
890.501	4554
890.624	4523
890.748	4660
890.871	4497
890.995	4409
891.118	4402
891.241	4497
891.364	4584
891.488	4622
891.611	4508
891.734	4584
891.857	4618
891.98	4584
892.103	4653
892.226	4580
892.349	4504
892.471	4424
892.594	4516
892.717	4622
892.839	4569
892.962	4580
893.085	4679
893.207	4656
893.33	4443
893.452	4504
893.575	4672
893.697	4561
893.819	4782
893.941	4854
894.064	4725
894.186	4558
894.308	4550
894.43	4744
894.552	4862
894.674	4755
894.796	4577
894.918	4615
895.04	4508
895.161	4717
895.283	4599
895.405	4554
895.526	4603
895.648	4698
895.769	4634
895.891	4714
896.012	4721
896.134	4748
896.255	4683
896.376	4603
896.498	4637
896.619	4622
896.74	4603
896.861	4660
896.982	4934
897.103	5071
897.224	4873
897.345	4714
897.466	4641
897.587	4660
897.708	4850
897.828	4752
897.949	4649
898.07	4531
898.19	4615
898.311	4824
898.431	4653
898.552	4710
898.672	4835
898.792	4816
898.913	4725
899.033	4630
899.153	4523
899.273	4443
899.393	4478
899.513	4512
899.633	4481
899.753	4527
899.873	4512
899.993	4550
900.113	4535
900.232	4599
900.352	4542
900.472	4455
900.591	4443
900.711	4478
900.83	4462
900.95	4645
901.069	4634
901.189	4558
901.308	4337
901.427	4356
901.546	4409
901.665	4542
901.784	4485
901.904	4356
902.023	4318
902.141	4192
902.26	4166
902.379	4333
902.498	4215
902.617	4188
902.735	4344
902.854	4371
902.973	4341
903.091	4242
903.21	4230
903.328	4303
903.446	4291
903.565	4223
903.683	4329
903.801	4284
903.919	4424
904.038	4417
904.156	4310
904.274	4451
904.392	4383
904.51	4409
904.627	4497
904.745	4584
904.863	4641
904.981	4421
905.098	4314
905.216	4356
905.334	4409
905.451	4470
905.569	4447
905.686	4573
905.803	4569
905.921	4390
906.038	4561
906.155	4470
906.272	4360
906.389	4417
906.506	4363
906.623	4424
906.74	4398
906.857	4303
906.974	4402
907.091	4538
907.208	4664
907.324	4569
907.441	4489
907.557	4341
907.674	4356
907.79	4299
907.907	4356
908.023	4478
908.139	4462
908.256	4428
908.372	4466
908.488	4432
908.604	4371
908.72	4310
908.836	4356
908.952	4367
909.068	4443
909.184	4573
909.3	4516
909.415	4569
909.531	4538
909.647	4394
909.762	4344
909.878	4352
909.993	4485
910.108	4424
910.224	4421
910.339	4466
910.454	4409
910.57	4348
910.685	4295
910.8	4656
910.915	4596
911.03	4485
911.145	4337
911.259	4314
911.374	4367
911.489	4310
911.604	4268
911.718	4154
911.833	4188
911.947	4105
912.062	4029
912.176	4227
912.291	4200
912.405	4257
912.519	4500
912.633	4535
912.748	4306
912.862	4348
912.976	4150
913.09	4124
913.204	4181
913.318	4223
913.431	4394
913.545	4360
913.659	4478
913.772	4348
913.886	4192
914	4207
914.113	4371
914.226	4409
914.34	4440
914.453	4207
914.566	4447
914.68	4287
914.793	4341
914.906	4162
915.019	4128
915.132	4059
915.245	4150
915.358	4207
915.47	4177
915.583	4261
915.696	4276
915.809	4459
915.921	4432
916.034	4242
916.146	4268
916.259	4211
916.371	4398
916.483	4329
916.595	4314
916.708	4299
916.82	4287
916.932	4352
917.044	4352
917.156	4348
917.268	4230
917.38	4306
917.491	4230
917.603	4356
917.715	4424
917.826	4455
917.938	4322
918.049	4223
918.161	4390
918.272	4535
918.384	4497
918.495	4489
918.606	4314
918.717	4253
918.828	4356
918.939	4348
919.05	4253
919.161	4314
919.272	4120
919.383	4253
919.494	4405
919.604	4580
919.715	4493
919.826	4379
919.936	4402
920.047	4500
920.157	4421
920.267	4664
920.378	4519
920.488	4519
920.598	4698
920.708	4873
920.818	4748
920.928	4774
921.038	4961
921.148	4892
921.258	4596
921.368	4516
921.477	4519
921.587	4500
921.697	4360
921.806	4512
921.916	4417
922.025	4249
922.134	4227
922.244	4257
922.353	4322
922.462	4166
922.571	4124
922.68	4055
922.789	3941
922.898	4032
923.007	3972
923.116	4154
923.224	4078
923.333	4044
923.442	3964
923.55	4002
923.659	4025
923.767	4112
923.876	3975
923.984	4120
924.092	3972
924.201	4067
924.309	4093
924.417	4124
924.525	4101
924.633	4131
924.741	5079
924.849	3884
924.956	4154
925.064	3949
925.172	3918
925.279	3945
925.387	4074
925.494	4021
925.602	4215
925.709	4185
925.816	4055
925.924	4139
926.031	4242
926.138	4181
926.245	4188
926.352	4067
926.459	4280
926.566	4253
926.673	4154
926.779	4063
926.886	4090
926.993	3937
927.099	3930
927.206	4002
927.312	3922
927.419	4044
927.525	4051
927.631	4128
927.737	3972
927.843	3960
927.95	3850
928.056	3918
928.162	3937
928.267	4040
928.373	4554
928.479	4090
928.585	3865
928.69	4006
928.796	4086
928.901	3987
929.007	3884
929.112	4036
929.218	3956
929.323	3964
929.428	3922
929.533	4116
929.638	3937
929.743	3941
929.848	4029
929.953	3987
930.058	3888
930.163	3747
930.267	3785
930.372	3975
930.477	3827
930.581	4105
930.685	3937
930.79	3812
930.894	3854
930.998	3854
931.103	4059
931.207	3762
931.311	3720
931.415	3671
931.519	3515
931.623	3564
