Data from test_V78500241_2653.txt Node
Date: Fri Mar 25 17:07:26 CST 2022
User: usil
Spectrometer: V785-0024
Trigger mode: 0
Integration Time (sec): 4.000000E-1
Scans to average: 1
Nonlinearity correction enabled: false
Boxcar width: 0
Storing dark spectrum: false
XAxis mode: Wavelengths
Number of Pixels in Spectrum: 1024
>>>>>Begin Spectral Data<<<<<
801.071	8020
801.214	7951
801.356	7944
801.499	7826
801.641	7772
801.783	7852
801.926	7921
802.068	7909
802.211	7936
802.353	7982
802.496	7921
802.638	7932
802.78	7928
802.923	7887
803.065	7826
803.208	7849
803.35	7925
803.492	8107
803.635	8225
803.777	8020
803.919	8123
804.061	8480
804.204	8142
804.346	8024
804.488	7997
804.63	8081
804.773	7982
804.915	8142
805.057	8282
805.199	8065
805.341	8191
805.483	8301
805.626	8176
805.768	8103
805.91	8210
806.052	8157
806.194	8130
806.336	8252
806.478	8119
806.62	8054
806.762	8096
806.904	8233
807.046	8442
807.188	8339
807.33	8305
807.472	8336
807.614	8164
807.756	8100
807.898	8035
808.04	7852
808.182	7898
808.324	7845
808.465	7845
808.607	8100
808.749	8119
808.891	8157
809.033	8343
809.174	8233
809.316	8088
809.458	8035
809.6	7963
809.741	8008
809.883	8031
810.025	8073
810.166	8126
810.308	8081
810.45	7982
810.591	7879
810.733	7772
810.875	7575
811.016	7487
811.158	7480
811.299	7537
811.441	7727
811.582	7750
811.724	7636
811.865	7552
812.007	7567
812.148	7636
812.29	7674
812.431	7685
812.573	7875
812.714	7936
812.855	8164
812.997	8237
813.138	8320
813.279	8157
813.421	8016
813.562	7986
813.703	7830
813.845	7685
813.986	7441
814.127	7266
814.268	7194
814.41	7240
814.551	7160
814.692	7213
814.833	7061
814.974	7114
815.115	7126
815.256	6954
815.397	6962
815.539	6958
815.68	6844
815.821	6802
815.962	6852
816.103	6810
816.244	6719
816.385	6639
816.526	6566
816.666	6509
816.807	6308
816.948	6502
817.089	6506
817.23	6456
817.371	6388
817.512	6414
817.653	6372
817.793	6331
817.934	6441
818.075	6460
818.216	6395
818.356	6380
818.497	6228
818.638	6140
818.778	6152
818.919	6114
819.06	6201
819.2	6315
819.341	6357
819.481	6452
819.622	6547
819.762	6696
819.903	6692
820.043	6642
820.184	6585
820.324	6589
820.465	6738
820.605	6711
820.746	6658
820.886	6544
821.026	6688
821.167	6772
821.307	6749
821.447	6795
821.588	6684
821.728	6601
821.868	6498
822.008	6334
822.149	6391
822.289	6357
822.429	6167
822.569	6144
822.709	6121
822.849	5999
822.99	5893
823.13	5996
823.27	5916
823.41	5840
823.55	5828
823.69	5771
823.83	5809
823.97	5695
824.11	5573
824.25	5493
824.389	5532
824.529	5592
824.669	5558
824.809	5615
824.949	5627
825.089	5634
825.228	5585
825.368	5421
825.508	5360
825.648	5368
825.787	5391
825.927	5395
826.067	5296
826.206	5288
826.346	5425
826.485	5414
826.625	5410
826.765	5497
826.904	5486
827.044	5216
827.183	5258
827.323	5105
827.462	5280
827.601	5193
827.741	5193
827.88	5193
828.02	5132
828.159	5250
828.298	5296
828.437	5402
828.577	5288
828.716	5497
828.855	5326
828.994	5166
829.134	5151
829.273	5147
829.412	5147
829.551	5132
829.69	5140
829.829	5288
829.968	5440
830.107	5284
830.246	5261
830.385	5170
830.524	5140
830.663	5094
830.802	5025
830.941	4873
831.08	4843
831.219	5029
831.357	5006
831.496	5121
831.635	4976
831.774	4858
831.913	4881
832.051	4755
832.19	4778
832.329	4854
832.467	4668
832.606	4649
832.744	4759
832.883	4683
833.022	4698
833.16	4733
833.299	4790
833.437	4820
833.576	4850
833.714	4850
833.852	4873
833.991	4908
834.129	4999
834.267	4923
834.406	4904
834.544	4938
834.682	4984
834.821	4984
834.959	5151
835.097	5018
835.235	5132
835.373	5102
835.511	5117
835.65	5083
835.788	5033
835.926	4908
836.064	4873
836.202	4892
836.34	5181
836.478	5258
836.615	5094
836.753	5197
836.891	5299
837.029	5273
837.167	5227
837.305	5170
837.443	5159
837.58	5079
837.718	5216
837.856	5174
837.993	5143
838.131	5208
838.269	5170
838.406	5193
838.544	5193
838.681	5067
838.819	4987
838.956	4927
839.094	4854
839.231	4942
839.369	5075
839.506	5402
839.643	5280
839.781	5064
839.918	5045
840.055	5094
840.193	5105
840.33	5117
840.467	5121
840.604	5174
840.742	5436
840.879	5056
841.016	5113
841.153	5189
841.29	5376
841.427	5387
841.564	5258
841.701	5349
841.838	5334
841.975	5246
842.112	5254
842.249	5105
842.385	5174
842.522	5364
842.659	5155
842.796	5147
842.933	5216
843.069	5181
843.206	5151
843.343	5315
843.479	5254
843.616	5223
843.752	5045
843.889	4976
844.025	5250
844.162	5029
844.298	5242
844.435	5102
844.571	5010
844.708	5204
844.844	5292
844.98	5311
845.117	5273
845.253	5212
845.389	5048
845.525	5159
845.661	5105
845.798	4976
845.934	5132
846.07	5041
846.206	5181
846.342	5315
846.478	5174
846.614	5037
846.75	4938
846.886	4942
847.022	5105
847.158	4999
847.294	5041
847.429	5094
847.565	5041
847.701	5315
847.837	4839
847.972	4805
848.108	4938
848.244	4904
848.379	4824
848.515	4698
848.65	4752
848.786	4748
848.921	4759
849.057	4904
849.192	4870
849.328	4839
849.463	4812
849.598	4786
849.734	4706
849.869	4725
850.004	4641
850.14	4656
850.275	4592
850.41	4523
850.545	4592
850.68	4588
850.815	4626
850.95	4615
851.085	4858
851.22	4675
851.355	4698
851.49	4649
851.625	4683
851.76	4622
851.895	4523
852.03	4470
852.165	4698
852.299	4740
852.434	4755
852.569	4733
852.703	4782
852.838	4816
852.973	4968
853.107	4949
853.242	4744
853.376	4630
853.511	4523
853.645	4630
853.78	4759
853.914	4649
854.048	4649
854.183	4611
854.317	4702
854.451	4831
854.585	4664
854.72	4656
854.854	4816
854.988	4580
855.122	4618
855.256	4573
855.39	4653
855.524	4759
855.658	4710
855.792	4664
855.926	4755
856.06	4763
856.194	4805
856.327	4683
856.461	4645
856.595	4630
856.729	4622
856.862	4721
856.996	4717
857.13	4691
857.263	4714
857.397	4809
857.53	4622
857.664	4660
857.797	4778
857.931	4759
858.064	4706
858.197	4748
858.331	4664
858.464	4603
858.597	4512
858.731	4656
858.864	4691
858.997	4603
859.13	4675
859.263	4645
859.396	4752
859.529	4558
859.662	4592
859.795	4565
859.928	4588
860.061	4748
860.194	4797
860.327	4569
860.46	4538
860.592	4706
860.725	4698
860.858	4717
860.99	4584
861.123	4569
861.256	4550
861.388	4660
861.521	5429
861.653	4508
861.786	4462
861.918	4451
862.05	4527
862.183	4561
862.315	4656
862.447	4656
862.58	4531
862.712	4409
862.844	4303
862.976	4462
863.108	4432
863.24	4752
863.372	4360
863.504	4432
863.636	4421
863.768	4493
863.9	4447
864.032	4413
864.164	4402
864.296	4508
864.428	4500
864.559	4535
864.691	4512
864.823	4497
864.954	4455
865.086	4497
865.217	4493
865.349	4409
865.48	4432
865.612	4493
865.743	4660
865.875	4516
866.006	4440
866.137	4432
866.269	4436
866.4	4421
866.531	4413
866.662	4436
866.793	4440
866.924	4394
867.055	4481
867.186	4462
867.317	4402
867.448	4379
867.579	4432
867.71	4333
867.841	4409
867.972	4493
868.103	4451
868.233	4466
868.364	4436
868.495	4493
868.625	4687
868.756	4763
868.886	4554
869.017	4660
869.147	4767
869.278	4797
869.408	4664
869.539	4649
869.669	4664
869.799	4668
869.929	4782
870.06	4717
870.19	4976
870.32	4919
870.45	4889
870.58	5056
870.71	5098
870.84	5109
870.97	4965
871.1	4911
871.23	5143
871.36	5124
871.489	5018
871.619	5083
871.749	5094
871.879	5128
872.008	5170
872.138	5056
872.267	4968
872.397	4839
872.526	4831
872.656	4725
872.785	4809
872.915	4991
873.044	5029
873.173	4908
873.303	4957
873.432	4961
873.561	4938
873.69	4850
873.819	4885
873.948	4930
874.077	4850
874.206	4763
874.335	4793
874.464	4942
874.593	5083
874.722	4957
874.851	5079
874.979	5086
875.108	5045
875.237	4927
875.365	4923
875.494	4877
875.623	4942
875.751	4820
875.88	4885
876.008	4968
876.136	5006
876.265	5250
876.393	5334
876.521	5269
876.65	5231
876.778	5162
876.906	5128
877.034	5045
877.162	5003
877.29	5033
877.418	5052
877.546	5025
877.674	5060
877.802	5052
877.93	4984
878.058	4987
878.185	4839
878.313	4949
878.441	4927
878.568	4812
878.696	4870
878.824	4953
878.951	5025
879.079	5136
879.206	5208
879.333	5121
879.461	5003
879.588	5029
879.715	5113
879.842	5189
879.97	4972
880.097	4805
880.224	4767
880.351	4786
880.478	4850
880.605	4820
880.732	4786
880.859	5060
880.986	4870
881.112	4877
881.239	4767
881.366	4611
881.493	4603
881.619	4565
881.746	4611
881.872	4675
881.999	4672
882.125	4630
882.252	4755
882.378	4850
882.505	4965
882.631	4797
882.757	4664
882.883	4736
883.01	4740
883.136	4683
883.262	4611
883.388	4679
883.514	4824
883.64	4831
883.766	4767
883.892	4687
884.018	4687
884.143	4923
884.269	5014
884.395	4656
884.52	4668
884.646	4656
884.772	4596
884.897	4531
885.023	4660
885.148	4801
885.274	4881
885.399	4763
885.524	4736
885.65	4679
885.775	4725
885.9	4691
886.025	4877
886.15	4778
886.275	4706
886.4	4679
886.525	4729
886.65	4691
886.775	4721
886.9	4908
887.025	5018
887.149	4797
887.274	4626
887.399	4577
887.523	4599
887.648	4584
887.773	4599
887.897	4736
888.021	4790
888.146	4656
888.27	4778
888.395	4881
888.519	4816
888.643	4809
888.767	4793
888.891	4668
889.015	4634
889.139	4672
889.263	4580
889.387	4793
889.511	4862
889.635	4797
889.759	4622
889.883	4622
890.006	4706
890.13	4862
890.254	4618
890.377	4649
890.501	4554
890.624	4535
890.748	4588
890.871	4527
890.995	4440
891.118	4390
891.241	4512
891.364	4493
891.488	4637
891.611	4512
891.734	4516
891.857	4558
891.98	4542
892.103	4618
892.226	4592
892.349	4561
892.471	4390
892.594	4577
892.717	4615
892.839	4596
892.962	4611
893.085	4653
893.207	4615
893.33	4481
893.452	4504
893.575	4668
893.697	4558
893.819	4763
893.941	4786
894.064	4748
894.186	4603
894.308	4569
894.43	4752
894.552	4839
894.674	4740
894.796	4565
894.918	4565
895.04	4588
895.161	4672
895.283	4653
895.405	4561
895.526	4630
895.648	4683
895.769	4649
895.891	4721
896.012	4736
896.134	4721
896.255	4649
896.376	4618
896.498	4626
896.619	4706
896.74	4664
896.861	4645
896.982	4923
897.103	5102
897.224	4809
897.345	4755
897.466	4626
897.587	4767
897.708	4839
897.828	4774
897.949	4691
898.07	4622
898.19	4710
898.311	4801
898.431	4615
898.552	4759
898.672	4816
898.792	4786
898.913	4744
899.033	4607
899.153	4527
899.273	4390
899.393	4500
899.513	4523
899.633	4531
899.753	4535
899.873	4523
899.993	4588
900.113	4580
900.232	4683
900.352	4599
900.472	4527
900.591	4375
900.711	4531
900.83	4417
900.95	4607
901.069	4675
901.189	4569
901.308	4371
901.427	4284
901.546	4424
901.665	4504
901.784	4497
901.904	4440
902.023	4287
902.141	4166
902.26	4139
902.379	4352
902.498	4242
902.617	4227
902.735	4341
902.854	4394
902.973	4348
903.091	4230
903.21	4242
903.328	4234
903.446	4295
903.565	4249
903.683	4363
903.801	4268
903.919	4375
904.038	4413
904.156	4310
904.274	4443
904.392	4428
904.51	4421
904.627	4493
904.745	4592
904.863	4641
904.981	4333
905.098	4295
905.216	4375
905.334	4383
905.451	4424
905.569	4432
905.686	4558
905.803	4516
905.921	4428
906.038	4561
906.155	4466
906.272	4405
906.389	4462
906.506	4337
906.623	4402
906.74	4402
906.857	4318
906.974	4394
907.091	4527
907.208	4637
907.324	4577
907.441	4523
907.557	4344
907.674	4310
907.79	4329
907.907	4394
908.023	4481
908.139	4489
908.256	4432
908.372	4489
908.488	4443
908.604	4318
908.72	4299
908.836	4398
908.952	4356
909.068	4436
909.184	4599
909.3	4470
909.415	4630
909.531	4558
909.647	4352
909.762	4375
909.878	4322
909.993	4470
910.108	4440
910.224	4379
910.339	4485
910.454	4413
910.57	4383
910.685	4306
910.8	4630
910.915	4577
911.03	4527
911.145	4337
911.259	4344
911.374	4314
911.489	4268
911.604	4272
911.718	4169
911.833	4200
911.947	4105
912.062	4029
912.176	4211
912.291	4227
912.405	4230
912.519	4436
912.633	4531
912.748	4352
912.862	4280
912.976	4204
913.09	4074
913.204	4185
913.318	4261
913.431	4352
913.545	4352
913.659	4428
913.772	4318
913.886	4234
914	4223
914.113	4386
914.226	4432
914.34	4379
914.453	4261
914.566	4451
914.68	4318
914.793	4344
914.906	4147
915.019	4150
915.132	4101
915.245	4166
915.358	4207
915.47	4192
915.583	4261
915.696	4280
915.809	4398
915.921	4394
916.034	4280
916.146	4223
916.259	4192
916.371	4386
916.483	4379
916.595	4276
916.708	4322
916.82	4280
916.932	4329
917.044	4295
917.156	4310
917.268	4234
917.38	4299
917.491	4299
917.603	4363
917.715	4428
917.826	4421
917.938	4306
918.049	4230
918.161	4432
918.272	4569
918.384	4592
918.495	4455
918.606	4325
918.717	4223
918.828	4325
918.939	4363
919.05	4310
919.161	4253
919.272	4124
919.383	4227
919.494	4402
919.604	4603
919.715	4436
919.826	4390
919.936	4413
920.047	4500
920.157	4554
920.267	4714
920.378	4538
920.488	4481
920.598	4755
920.708	4858
920.818	4740
920.928	4717
921.038	4927
921.148	4881
921.258	4634
921.368	4527
921.477	4493
921.587	4459
921.697	4390
921.806	4523
921.916	4394
922.025	4253
922.134	4219
922.244	4215
922.353	4333
922.462	4177
922.571	4139
922.68	4002
922.789	3994
922.898	4021
923.007	3983
923.116	4086
923.224	4082
923.333	4010
923.442	3930
923.55	4013
923.659	4010
923.767	4112
923.876	4002
923.984	4128
924.092	3987
924.201	4040
924.309	4101
924.417	4143
924.525	4067
924.633	4112
924.741	5037
924.849	3937
924.956	4120
925.064	3945
925.172	3911
925.279	3994
925.387	4059
925.494	4097
925.602	4253
925.709	4150
925.816	4032
925.924	4143
926.031	4219
926.138	4143
926.245	4200
926.352	4139
926.459	4215
926.566	4337
926.673	4158
926.779	4063
926.886	4067
926.993	3934
927.099	3907
927.206	3941
927.312	3945
927.419	4101
927.525	4017
927.631	4074
927.737	3972
927.843	3911
927.95	3854
928.056	3941
928.162	4040
928.267	4055
928.373	4558
928.479	4059
928.585	3857
928.69	3979
928.796	4044
928.901	3949
929.007	3838
929.112	4059
929.218	3949
929.323	3884
929.428	3949
929.533	4135
929.638	3941
929.743	3960
929.848	4059
929.953	3983
930.058	3937
930.163	3732
930.267	3800
930.372	4017
930.477	3846
930.581	4109
930.685	3960
930.79	3800
930.894	3857
930.998	3861
931.103	4032
931.207	3717
931.311	3694
931.415	3701
931.519	3545
931.623	3572
