Data from test_V78500241_81.txt Node
Date: Fri Mar 25 16:49:34 CST 2022
User: usil
Spectrometer: V785-0024
Trigger mode: 0
Integration Time (sec): 4.000000E-1
Scans to average: 1
Nonlinearity correction enabled: false
Boxcar width: 0
Storing dark spectrum: false
XAxis mode: Wavelengths
Number of Pixels in Spectrum: 1024
>>>>>Begin Spectral Data<<<<<
801.071	8043
801.214	7993
801.356	7909
801.499	7875
801.641	7868
801.783	7871
801.926	8043
802.068	7974
802.211	8012
802.353	8031
802.496	7849
802.638	8001
802.78	7951
802.923	7951
803.065	7890
803.208	7955
803.35	7978
803.492	8065
803.635	8107
803.777	7974
803.919	8077
804.061	8385
804.204	8134
804.346	8119
804.488	8001
804.63	8119
804.773	8043
804.915	8008
805.057	8294
805.199	8115
805.341	8202
805.483	8290
805.626	8221
805.768	8100
805.91	8145
806.052	8195
806.194	8111
806.336	8286
806.478	8157
806.62	8081
806.762	8142
806.904	8279
807.046	8457
807.188	8450
807.33	8328
807.472	8370
807.614	8199
807.756	8180
807.898	8043
808.04	7875
808.182	7970
808.324	7826
808.465	7887
808.607	8027
808.749	8073
808.891	8221
809.033	8309
809.174	8195
809.316	8043
809.458	8008
809.6	7974
809.741	8012
809.883	8077
810.025	8145
810.166	8012
810.308	8050
810.45	7986
810.591	7921
810.733	7670
810.875	7651
811.016	7514
811.158	7518
811.299	7662
811.441	7784
811.582	7685
811.724	7700
811.865	7643
812.007	7647
812.148	7647
812.29	7616
812.431	7788
812.573	8016
812.714	8046
812.855	8153
812.997	8183
813.138	8381
813.279	8176
813.421	8168
813.562	8012
813.703	7868
813.845	7647
813.986	7430
814.127	7312
814.268	7263
814.41	7251
814.551	7129
814.692	7160
814.833	7107
814.974	7110
815.115	7099
815.256	6989
815.397	6947
815.539	6901
815.68	6810
815.821	6745
815.962	6913
816.103	6787
816.244	6673
816.385	6665
816.526	6612
816.666	6464
816.807	6350
816.948	6437
817.089	6544
817.23	6498
817.371	6384
817.512	6388
817.653	6448
817.793	6357
817.934	6437
818.075	6426
818.216	6460
818.356	6433
818.497	6346
818.638	6163
818.778	6205
818.919	6155
819.06	6144
819.2	6315
819.341	6289
819.481	6353
819.622	6608
819.762	6856
819.903	6722
820.043	6654
820.184	6623
820.324	6593
820.465	6757
820.605	6677
820.746	6612
820.886	6536
821.026	6665
821.167	6734
821.307	6821
821.447	6806
821.588	6734
821.728	6601
821.868	6448
822.008	6331
822.149	6467
822.289	6365
822.429	6155
822.569	6129
822.709	6155
822.849	5931
822.99	5961
823.13	5935
823.27	5908
823.41	5756
823.55	5840
823.69	5775
823.83	5805
823.97	5695
824.11	5554
824.25	5516
824.389	5581
824.529	5680
824.669	5497
824.809	5638
824.949	5676
825.089	5596
825.228	5592
825.368	5406
825.508	5368
825.648	5330
825.787	5387
825.927	5391
826.067	5383
826.206	5315
826.346	5474
826.485	5376
826.625	5421
826.765	5581
826.904	5471
827.044	5288
827.183	5189
827.323	5181
827.462	5246
827.601	5162
827.741	5231
827.88	5235
828.02	5117
828.159	5334
828.298	5322
828.437	5345
828.577	5280
828.716	5497
828.855	5330
828.994	5170
829.134	5155
829.273	5181
829.412	5162
829.551	5128
829.69	5254
829.829	5273
829.968	5414
830.107	5322
830.246	5296
830.385	5166
830.524	5147
830.663	5102
830.802	4991
830.941	4919
831.08	4885
831.219	5010
831.357	4995
831.496	5189
831.635	4930
831.774	4862
831.913	4919
832.051	4736
832.19	4790
832.329	4877
832.467	4710
832.606	4641
832.744	4717
832.883	4736
833.022	4763
833.16	4805
833.299	4839
833.437	4812
833.576	4809
833.714	4805
833.852	4908
833.991	4911
834.129	4942
834.267	4968
834.406	4930
834.544	4980
834.682	4991
834.821	4961
834.959	5212
835.097	5022
835.235	5166
835.373	5132
835.511	5121
835.65	5056
835.788	4999
835.926	4927
836.064	4862
836.202	4984
836.34	5151
836.478	5212
836.615	5178
836.753	5261
836.891	5315
837.029	5292
837.167	5277
837.305	5151
837.443	5162
837.58	5086
837.718	5185
837.856	5223
837.993	5155
838.131	5201
838.269	5212
838.406	5174
838.544	5204
838.681	5098
838.819	5056
838.956	4915
839.094	4881
839.231	5003
839.369	5151
839.506	5414
839.643	5296
839.781	5109
839.918	4991
840.055	5105
840.193	5098
840.33	5102
840.467	5151
840.604	5223
840.742	5459
840.879	5132
841.016	5094
841.153	5170
841.29	5406
841.427	5330
841.564	5311
841.701	5357
841.838	5280
841.975	5212
842.112	5284
842.249	5140
842.385	5140
842.522	5334
842.659	5155
842.796	5102
842.933	5216
843.069	5212
843.206	5147
843.343	5364
843.479	5216
843.616	5299
843.752	5098
843.889	5060
844.025	5258
844.162	5029
844.298	5239
844.435	5105
844.571	5056
844.708	5212
844.844	5284
844.98	5334
845.117	5265
845.253	5216
845.389	5094
845.525	5204
845.661	5181
845.798	5041
845.934	5181
846.07	5056
846.206	5143
846.342	5311
846.478	5216
846.614	5067
846.75	5067
846.886	4927
847.022	5117
847.158	5045
847.294	5090
847.429	5136
847.565	5124
847.701	5337
847.837	4854
847.972	4824
848.108	4980
848.244	4984
848.379	4797
848.515	4752
848.65	4721
848.786	4797
848.921	4786
849.057	4877
849.192	4942
849.328	4847
849.463	4816
849.598	4790
849.734	4782
849.869	4717
850.004	4668
850.14	4649
850.275	4656
850.41	4531
850.545	4592
850.68	4599
850.815	4622
850.95	4618
851.085	4782
851.22	4786
851.355	4675
851.49	4641
851.625	4649
851.76	4645
851.895	4599
852.03	4523
852.165	4683
852.299	4725
852.434	4824
852.569	4744
852.703	4786
852.838	4873
852.973	4946
853.107	4995
853.242	4717
853.376	4672
853.511	4577
853.645	4630
853.78	4805
853.914	4706
854.048	4717
854.183	4675
854.317	4706
854.451	4866
854.585	4721
854.72	4653
854.854	4755
854.988	4634
855.122	4634
855.256	4538
855.39	4672
855.524	4790
855.658	4733
855.792	4763
855.926	4698
856.06	4793
856.194	4839
856.327	4710
856.461	4599
856.595	4603
856.729	4649
856.862	4774
856.996	4733
857.13	4714
857.263	4759
857.397	4831
857.53	4714
857.664	4782
857.797	4771
857.931	4850
858.064	4714
858.197	4767
858.331	4714
858.464	4672
858.597	4580
858.731	4664
858.864	4653
858.997	4653
859.13	4698
859.263	4755
859.396	4748
859.529	4618
859.662	4603
859.795	4580
859.928	4649
860.061	4824
860.194	4793
860.327	4664
860.46	4664
860.592	4752
860.725	4774
860.858	4786
860.99	4649
861.123	4603
861.256	4630
861.388	4733
861.521	5337
861.653	4580
861.786	4577
861.918	4577
862.05	4596
862.183	4611
862.315	4748
862.447	4714
862.58	4618
862.712	4478
862.844	4440
862.976	4523
863.108	4489
863.24	4938
863.372	4459
863.504	4546
863.636	4451
863.768	4538
863.9	4478
864.032	4409
864.164	4436
864.296	4569
864.428	4637
864.559	4561
864.691	4577
864.823	4565
864.954	4550
865.086	4577
865.217	4481
865.349	4504
865.48	4493
865.612	4596
865.743	4729
865.875	4531
866.006	4493
866.137	4519
866.269	4512
866.4	4459
866.531	4409
866.662	4489
866.793	4447
866.924	4489
867.055	4565
867.186	4573
867.317	4523
867.448	4421
867.579	4440
867.71	4455
867.841	4405
867.972	4596
868.103	4527
868.233	4516
868.364	4504
868.495	4523
868.625	4717
868.756	4820
868.886	4668
869.017	4615
869.147	4828
869.278	4862
869.408	4736
869.539	4717
869.669	4782
869.799	4763
869.929	4790
870.06	4763
870.19	5025
870.32	4984
870.45	4972
870.58	5071
870.71	5140
870.84	5121
870.97	5029
871.1	4984
871.23	5223
871.36	5212
871.489	5128
871.619	5140
871.749	5204
871.879	5159
872.008	5235
872.138	5166
872.267	5037
872.397	4911
872.526	4923
872.656	4793
872.785	4873
872.915	4995
873.044	5109
873.173	4976
873.303	5003
873.432	5037
873.561	5003
873.69	4949
873.819	4938
873.948	4961
874.077	4873
874.206	4854
874.335	4854
874.464	4942
874.593	5140
874.722	5018
874.851	5124
874.979	5109
875.108	5094
875.237	5022
875.365	4927
875.494	4900
875.623	5018
875.751	4904
875.88	4942
876.008	5056
876.136	5124
876.265	5261
876.393	5360
876.521	5307
876.65	5258
876.778	5242
876.906	5128
877.034	5094
877.162	5067
877.29	5014
877.418	5132
877.546	5086
877.674	5060
877.802	5071
877.93	5060
878.058	5037
878.185	4919
878.313	5018
878.441	5029
878.568	4839
878.696	4904
878.824	4999
878.951	5056
879.079	5235
879.206	5296
879.333	5166
879.461	5045
879.588	5022
879.715	5162
879.842	5292
879.97	5098
880.097	4885
880.224	4809
880.351	4889
880.478	4904
880.605	4873
880.732	4854
880.859	5147
880.986	5010
881.112	4957
881.239	4870
881.366	4744
881.493	4691
881.619	4634
881.746	4729
881.872	4672
881.999	4748
882.125	4759
882.252	4831
882.378	4915
882.505	5071
882.631	4889
882.757	4786
882.883	4736
883.01	4824
883.136	4721
883.262	4637
883.388	4687
883.514	4881
883.64	4953
883.766	4866
883.892	4771
884.018	4828
884.143	4942
884.269	5079
884.395	4729
884.52	4698
884.646	4714
884.772	4641
884.897	4607
885.023	4759
885.148	4831
885.274	4927
885.399	4862
885.524	4771
885.65	4805
885.775	4828
885.9	4816
886.025	4930
886.15	4862
886.275	4755
886.4	4740
886.525	4809
886.65	4748
886.775	4774
886.9	4972
887.025	5102
887.149	4889
887.274	4717
887.399	4653
887.523	4675
887.648	4622
887.773	4687
887.897	4809
888.021	4828
888.146	4774
888.27	4843
888.395	4987
888.519	4824
888.643	4877
888.767	4889
888.891	4733
889.015	4714
889.139	4714
889.263	4645
889.387	4797
889.511	4949
889.635	4873
889.759	4721
889.883	4706
890.006	4782
890.13	4900
890.254	4675
890.377	4675
890.501	4630
890.624	4615
890.748	4630
890.871	4538
890.995	4447
891.118	4402
891.241	4577
891.364	4584
891.488	4729
891.611	4569
891.734	4611
891.857	4679
891.98	4637
892.103	4683
892.226	4694
892.349	4565
892.471	4504
892.594	4588
892.717	4618
892.839	4641
892.962	4634
893.085	4721
893.207	4634
893.33	4466
893.452	4550
893.575	4778
893.697	4607
893.819	4847
893.941	4885
894.064	4835
894.186	4649
894.308	4634
894.43	4790
894.552	4873
894.674	4839
894.796	4596
894.918	4645
895.04	4611
895.161	4729
895.283	4729
895.405	4679
895.526	4649
895.648	4778
895.769	4691
895.891	4767
896.012	4820
896.134	4767
896.255	4664
896.376	4694
896.498	4702
896.619	4771
896.74	4653
896.861	4683
896.982	4946
897.103	5155
897.224	4896
897.345	4763
897.466	4725
897.587	4801
897.708	4938
897.828	4763
897.949	4710
898.07	4599
898.19	4706
898.311	4866
898.431	4767
898.552	4797
898.672	4820
898.792	4835
898.913	4801
899.033	4668
899.153	4546
899.273	4497
899.393	4531
899.513	4588
899.633	4538
899.753	4596
899.873	4489
899.993	4641
900.113	4588
900.232	4645
900.352	4596
900.472	4554
900.591	4485
900.711	4535
900.83	4519
900.95	4645
901.069	4752
901.189	4569
901.308	4405
901.427	4356
901.546	4421
901.665	4523
901.784	4588
901.904	4421
902.023	4390
902.141	4242
902.26	4200
902.379	4398
902.498	4295
902.617	4284
902.735	4451
902.854	4409
902.973	4375
903.091	4268
903.21	4310
903.328	4383
903.446	4325
903.565	4295
903.683	4405
903.801	4344
903.919	4443
904.038	4485
904.156	4363
904.274	4481
904.392	4451
904.51	4462
904.627	4523
904.745	4660
904.863	4634
904.981	4409
905.098	4371
905.216	4386
905.334	4436
905.451	4474
905.569	4489
905.686	4649
905.803	4592
905.921	4474
906.038	4607
906.155	4481
906.272	4440
906.389	4508
906.506	4375
906.623	4451
906.74	4451
906.857	4344
906.974	4432
907.091	4622
907.208	4740
907.324	4634
907.441	4542
907.557	4356
907.674	4428
907.79	4337
907.907	4398
908.023	4504
908.139	4523
908.256	4459
908.372	4573
908.488	4474
908.604	4375
908.72	4405
908.836	4390
908.952	4402
909.068	4481
909.184	4668
909.3	4523
909.415	4675
909.531	4630
909.647	4428
909.762	4409
909.878	4360
909.993	4504
910.108	4428
910.224	4462
910.339	4550
910.454	4432
910.57	4394
910.685	4360
910.8	4672
910.915	4668
911.03	4512
911.145	4367
911.259	4398
911.374	4379
911.489	4329
911.604	4333
911.718	4207
911.833	4268
911.947	4147
912.062	4097
912.176	4276
912.291	4295
912.405	4230
912.519	4485
912.633	4588
912.748	4455
912.862	4352
912.976	4230
913.09	4150
913.204	4204
913.318	4310
913.431	4421
913.545	4394
913.659	4478
913.772	4455
913.886	4356
914	4249
914.113	4421
914.226	4443
914.34	4428
914.453	4318
914.566	4443
914.68	4383
914.793	4413
914.906	4207
915.019	4169
915.132	4105
915.245	4215
915.358	4253
915.47	4272
915.583	4295
915.696	4348
915.809	4451
915.921	4474
916.034	4287
916.146	4337
916.259	4242
916.371	4417
916.483	4409
916.595	4333
916.708	4344
916.82	4356
916.932	4367
917.044	4390
917.156	4386
917.268	4272
917.38	4314
917.491	4333
917.603	4413
917.715	4466
917.826	4470
917.938	4432
918.049	4299
918.161	4481
918.272	4637
918.384	4580
918.495	4470
918.606	4341
918.717	4265
918.828	4371
918.939	4455
919.05	4265
919.161	4386
919.272	4227
919.383	4306
919.494	4485
919.604	4679
919.715	4459
919.826	4356
919.936	4432
920.047	4554
920.157	4538
920.267	4725
920.378	4584
920.488	4538
920.598	4793
920.708	4953
920.818	4797
920.928	4793
921.038	4961
921.148	4946
921.258	4679
921.368	4618
921.477	4569
921.587	4489
921.697	4466
921.806	4580
921.916	4485
922.025	4314
922.134	4265
922.244	4284
922.353	4360
922.462	4207
922.571	4173
922.68	4059
922.789	4021
922.898	4074
923.007	4032
923.116	4093
923.224	4101
923.333	4135
923.442	4017
923.55	4010
923.659	4082
923.767	4139
923.876	4010
923.984	4200
924.092	3987
924.201	4101
924.309	4101
924.417	4131
924.525	4063
924.633	4135
924.741	4923
924.849	3979
924.956	4143
925.064	4029
925.172	3964
925.279	3972
925.387	4086
925.494	4021
925.602	4257
925.709	4211
925.816	4116
925.924	4147
926.031	4299
926.138	4261
926.245	4310
926.352	4097
926.459	4325
926.566	4314
926.673	4204
926.779	4158
926.886	4162
926.993	4059
927.099	4044
927.206	4013
927.312	4013
927.419	4090
927.525	4059
927.631	4154
927.737	4044
927.843	4017
927.95	3975
928.056	4002
928.162	4071
928.267	4097
928.373	4748
928.479	4219
928.585	3953
928.69	4124
928.796	4135
928.901	4006
929.007	3945
929.112	4082
929.218	4017
929.323	4025
929.428	4071
929.533	4158
929.638	3991
929.743	3994
929.848	4112
929.953	4097
930.058	4025
930.163	3865
930.267	3896
930.372	4086
930.477	3861
930.581	4200
930.685	4010
930.79	3892
930.894	3975
930.998	3896
931.103	4116
931.207	3797
931.311	3797
931.415	3732
931.519	3625
931.623	3656
