Data from test_V78500241_2630.txt Node
Date: Fri Mar 25 17:07:17 CST 2022
User: usil
Spectrometer: V785-0024
Trigger mode: 0
Integration Time (sec): 4.000000E-1
Scans to average: 1
Nonlinearity correction enabled: false
Boxcar width: 0
Storing dark spectrum: false
XAxis mode: Wavelengths
Number of Pixels in Spectrum: 1024
>>>>>Begin Spectral Data<<<<<
801.071	8100
801.214	8012
801.356	7898
801.499	7837
801.641	7780
801.783	7852
801.926	7993
802.068	7913
802.211	8001
802.353	7921
802.496	7833
802.638	7921
802.78	7879
802.923	7936
803.065	7967
803.208	7875
803.35	7917
803.492	8020
803.635	8202
803.777	8031
803.919	8180
804.061	8442
804.204	8187
804.346	8062
804.488	7989
804.63	8069
804.773	7993
804.915	8187
805.057	8317
805.199	8168
805.341	8248
805.483	8279
805.626	8263
805.768	8115
805.91	8240
806.052	8229
806.194	8069
806.336	8252
806.478	8145
806.62	8073
806.762	8092
806.904	8298
807.046	8461
807.188	8298
807.33	8286
807.472	8263
807.614	8073
807.756	8126
807.898	7997
808.04	7940
808.182	7860
808.324	7814
808.465	7944
808.607	8054
808.749	8164
808.891	8187
809.033	8355
809.174	8218
809.316	8130
809.458	8077
809.6	8027
809.741	8046
809.883	8046
810.025	8138
810.166	8027
810.308	8046
810.45	7997
810.591	7845
810.733	7727
810.875	7655
811.016	7460
811.158	7434
811.299	7597
811.441	7738
811.582	7693
811.724	7590
811.865	7514
812.007	7578
812.148	7616
812.29	7616
812.431	7742
812.573	7890
812.714	7955
812.855	8161
812.997	8172
813.138	8355
813.279	8183
813.421	8050
813.562	7932
813.703	7841
813.845	7738
813.986	7449
814.127	7316
814.268	7240
814.41	7171
814.551	7270
814.692	7183
814.833	7126
814.974	7129
815.115	7149
815.256	7023
815.397	6951
815.539	7000
815.68	6738
815.821	6810
815.962	6852
816.103	6726
816.244	6757
816.385	6597
816.526	6604
816.666	6479
816.807	6228
816.948	6486
817.089	6532
817.23	6433
817.371	6403
817.512	6372
817.653	6357
817.793	6388
817.934	6391
818.075	6517
818.216	6498
818.356	6426
818.497	6251
818.638	6159
818.778	6148
818.919	6163
819.06	6117
819.2	6338
819.341	6331
819.481	6391
819.622	6532
819.762	6741
819.903	6700
820.043	6612
820.184	6646
820.324	6604
820.465	6696
820.605	6673
820.746	6639
820.886	6513
821.026	6604
821.167	6734
821.307	6779
821.447	6711
821.588	6726
821.728	6593
821.868	6532
822.008	6395
822.149	6338
822.289	6429
822.429	6133
822.569	6114
822.709	6102
822.849	5939
822.99	5863
823.13	5980
823.27	5901
823.41	5805
823.55	5813
823.69	5794
823.83	5790
823.97	5691
824.11	5547
824.25	5532
824.389	5570
824.529	5562
824.669	5528
824.809	5680
824.949	5684
825.089	5642
825.228	5570
825.368	5398
825.508	5341
825.648	5429
825.787	5410
825.927	5353
826.067	5299
826.206	5296
826.346	5372
826.485	5372
826.625	5433
826.765	5581
826.904	5474
827.044	5254
827.183	5212
827.323	5143
827.462	5254
827.601	5220
827.741	5162
827.88	5208
828.02	5117
828.159	5258
828.298	5364
828.437	5360
828.577	5307
828.716	5440
828.855	5372
828.994	5140
829.134	5113
829.273	5147
829.412	5121
829.551	5143
829.69	5178
829.829	5261
829.968	5318
830.107	5235
830.246	5292
830.385	5193
830.524	5124
830.663	5052
830.802	5025
830.941	4908
831.08	4847
831.219	4938
831.357	4976
831.496	5162
831.635	4900
831.774	4900
831.913	4866
832.051	4710
832.19	4721
832.329	4816
832.467	4683
832.606	4645
832.744	4698
832.883	4717
833.022	4748
833.16	4759
833.299	4797
833.437	4843
833.576	4828
833.714	4835
833.852	4877
833.991	4900
834.129	4968
834.267	4904
834.406	4900
834.544	5022
834.682	4946
834.821	4991
834.959	5140
835.097	4991
835.235	5124
835.373	5071
835.511	5094
835.65	5033
835.788	5075
835.926	4957
836.064	4877
836.202	4911
836.34	5136
836.478	5280
836.615	5170
836.753	5132
836.891	5322
837.029	5265
837.167	5204
837.305	5185
837.443	5185
837.58	5079
837.718	5284
837.856	5227
837.993	5102
838.131	5254
838.269	5212
838.406	5239
838.544	5155
838.681	5014
838.819	5010
838.956	4889
839.094	4885
839.231	5006
839.369	5064
839.506	5387
839.643	5250
839.781	5079
839.918	5010
840.055	5064
840.193	5102
840.33	5071
840.467	5185
840.604	5193
840.742	5471
840.879	5105
841.016	5113
841.153	5162
841.29	5395
841.427	5368
841.564	5269
841.701	5326
841.838	5296
841.975	5204
842.112	5258
842.249	5109
842.385	5071
842.522	5357
842.659	5147
842.796	5170
842.933	5155
843.069	5185
843.206	5109
843.343	5269
843.479	5239
843.616	5292
843.752	5029
843.889	4999
844.025	5162
844.162	4953
844.298	5193
844.435	5105
844.571	5014
844.708	5227
844.844	5299
844.98	5345
845.117	5239
845.253	5132
845.389	5067
845.525	5189
845.661	5212
845.798	5022
845.934	5105
846.07	5045
846.206	5197
846.342	5227
846.478	5121
846.614	5033
846.75	4961
846.886	4911
847.022	5121
847.158	4980
847.294	5041
847.429	5136
847.565	5086
847.701	5337
847.837	4847
847.972	4828
848.108	4999
848.244	4930
848.379	4793
848.515	4721
848.65	4687
848.786	4725
848.921	4755
849.057	4915
849.192	4900
849.328	4786
849.463	4870
849.598	4790
849.734	4733
849.869	4698
850.004	4611
850.14	4656
850.275	4622
850.41	4558
850.545	4554
850.68	4634
850.815	4611
850.95	4607
851.085	4870
851.22	4755
851.355	4618
851.49	4577
851.625	4580
851.76	4672
851.895	4599
852.03	4538
852.165	4649
852.299	4656
852.434	4812
852.569	4782
852.703	4771
852.838	4805
852.973	4934
853.107	4961
853.242	4729
853.376	4691
853.511	4531
853.645	4607
853.78	4824
853.914	4714
854.048	4664
854.183	4622
854.317	4748
854.451	4835
854.585	4679
854.72	4691
854.854	4805
854.988	4607
855.122	4660
855.256	4512
855.39	4664
855.524	4786
855.658	4691
855.792	4694
855.926	4691
856.06	4748
856.194	4786
856.327	4687
856.461	4561
856.595	4653
856.729	4634
856.862	4752
856.996	4698
857.13	4714
857.263	4763
857.397	4816
857.53	4649
857.664	4725
857.797	4763
857.931	4763
858.064	4675
858.197	4771
858.331	4675
858.464	4630
858.597	4485
858.731	4592
858.864	4687
858.997	4637
859.13	4653
859.263	4649
859.396	4740
859.529	4546
859.662	4546
859.795	4542
859.928	4645
860.061	4771
860.194	4771
860.327	4592
860.46	4611
860.592	4702
860.725	4740
860.858	4702
860.99	4603
861.123	4531
861.256	4527
861.388	4611
861.521	5444
861.653	4504
861.786	4417
861.918	4485
862.05	4504
862.183	4561
862.315	4607
862.447	4596
862.58	4558
862.712	4455
862.844	4348
862.976	4485
863.108	4455
863.24	4763
863.372	4333
863.504	4375
863.636	4402
863.768	4512
863.9	4409
864.032	4390
864.164	4436
864.296	4447
864.428	4580
864.559	4599
864.691	4542
864.823	4489
864.954	4504
865.086	4531
865.217	4470
865.349	4390
865.48	4478
865.612	4451
865.743	4660
865.875	4466
866.006	4428
866.137	4466
866.269	4451
866.4	4455
866.531	4451
866.662	4398
866.793	4417
866.924	4436
867.055	4542
867.186	4447
867.317	4390
867.448	4333
867.579	4363
867.71	4405
867.841	4363
867.972	4478
868.103	4451
868.233	4424
868.364	4440
868.495	4493
868.625	4691
868.756	4763
868.886	4607
869.017	4630
869.147	4710
869.278	4767
869.408	4618
869.539	4630
869.669	4702
869.799	4637
869.929	4755
870.06	4744
870.19	4949
870.32	4930
870.45	4923
870.58	4991
870.71	5124
870.84	5113
870.97	4930
871.1	4915
871.23	5113
871.36	5159
871.489	5037
871.619	5079
871.749	5102
871.879	5140
872.008	5132
872.138	5094
872.267	4991
872.397	4828
872.526	4816
872.656	4729
872.785	4801
872.915	4991
873.044	5037
873.173	4908
873.303	4927
873.432	4946
873.561	4927
873.69	4881
873.819	4866
873.948	4961
874.077	4881
874.206	4748
874.335	4793
874.464	4862
874.593	5102
874.722	5006
874.851	5136
874.979	5113
875.108	5022
875.237	4904
875.365	4900
875.494	4919
875.623	4972
875.751	4877
875.88	4885
876.008	4965
876.136	5094
876.265	5174
876.393	5341
876.521	5212
876.65	5250
876.778	5178
876.906	5045
877.034	5083
877.162	5067
877.29	5018
877.418	5090
877.546	5048
877.674	5098
877.802	4995
877.93	5052
878.058	4915
878.185	4850
878.313	4927
878.441	4976
878.568	4820
878.696	4877
878.824	4930
878.951	5022
879.079	5147
879.206	5277
879.333	5083
879.461	4968
879.588	5071
879.715	5094
879.842	5254
879.97	4991
880.097	4843
880.224	4691
880.351	4824
880.478	4809
880.605	4812
880.732	4847
880.859	5121
880.986	4892
881.112	4930
881.239	4752
881.366	4672
881.493	4622
881.619	4611
881.746	4729
881.872	4660
881.999	4668
882.125	4645
882.252	4816
882.378	4824
882.505	4965
882.631	4774
882.757	4656
882.883	4691
883.01	4721
883.136	4653
883.262	4527
883.388	4649
883.514	4790
883.64	4835
883.766	4767
883.892	4729
884.018	4698
884.143	4858
884.269	5029
884.395	4664
884.52	4618
884.646	4672
884.772	4558
884.897	4550
885.023	4698
885.148	4752
885.274	4854
885.399	4755
885.524	4710
885.65	4672
885.775	4740
885.9	4656
886.025	4866
886.15	4790
886.275	4736
886.4	4649
886.525	4725
886.65	4687
886.775	4706
886.9	4892
887.025	5010
887.149	4828
887.274	4630
887.399	4573
887.523	4634
887.648	4584
887.773	4573
887.897	4744
888.021	4759
888.146	4679
888.27	4801
888.395	4938
888.519	4790
888.643	4797
888.767	4809
888.891	4675
889.015	4584
889.139	4653
889.263	4634
889.387	4744
889.511	4892
889.635	4820
889.759	4649
889.883	4664
890.006	4767
890.13	4820
890.254	4615
890.377	4691
890.501	4550
890.624	4523
890.748	4691
890.871	4516
890.995	4428
891.118	4417
891.241	4478
891.364	4516
891.488	4596
891.611	4493
891.734	4519
891.857	4584
891.98	4500
892.103	4649
892.226	4573
892.349	4550
892.471	4413
892.594	4527
892.717	4603
892.839	4634
892.962	4668
893.085	4630
893.207	4622
893.33	4424
893.452	4516
893.575	4675
893.697	4607
893.819	4790
893.941	4831
894.064	4778
894.186	4584
894.308	4550
894.43	4748
894.552	4866
894.674	4744
894.796	4550
894.918	4607
895.04	4550
895.161	4725
895.283	4675
895.405	4603
895.526	4634
895.648	4653
895.769	4702
895.891	4710
896.012	4752
896.134	4736
896.255	4702
896.376	4641
896.498	4622
896.619	4668
896.74	4599
896.861	4637
896.982	4870
897.103	5094
897.224	4831
897.345	4736
897.466	4653
897.587	4725
897.708	4816
897.828	4763
897.949	4653
898.07	4550
898.19	4645
898.311	4831
898.431	4675
898.552	4706
898.672	4828
898.792	4793
898.913	4710
899.033	4611
899.153	4512
899.273	4462
899.393	4519
899.513	4546
899.633	4550
899.753	4554
899.873	4527
899.993	4565
900.113	4478
900.232	4596
900.352	4554
900.472	4428
900.591	4417
900.711	4455
900.83	4428
900.95	4622
901.069	4672
901.189	4538
901.308	4337
901.427	4375
901.546	4367
901.665	4485
901.784	4550
901.904	4398
902.023	4325
902.141	4192
902.26	4200
902.379	4295
902.498	4246
902.617	4227
902.735	4390
902.854	4402
902.973	4360
903.091	4192
903.21	4188
903.328	4272
903.446	4299
903.565	4249
903.683	4333
903.801	4276
903.919	4428
904.038	4424
904.156	4280
904.274	4379
904.392	4405
904.51	4447
904.627	4459
904.745	4584
904.863	4596
904.981	4363
905.098	4249
905.216	4417
905.334	4451
905.451	4440
905.569	4440
905.686	4554
905.803	4554
905.921	4390
906.038	4516
906.155	4474
906.272	4375
906.389	4436
906.506	4348
906.623	4367
906.74	4363
906.857	4272
906.974	4352
907.091	4584
907.208	4675
907.324	4626
907.441	4451
907.557	4310
907.674	4322
907.79	4295
907.907	4409
908.023	4504
908.139	4436
908.256	4459
908.372	4447
908.488	4436
908.604	4314
908.72	4329
908.836	4344
908.952	4356
909.068	4436
909.184	4626
909.3	4489
909.415	4542
909.531	4569
909.647	4344
909.762	4363
909.878	4352
909.993	4417
910.108	4371
910.224	4428
910.339	4455
910.454	4402
910.57	4333
910.685	4306
910.8	4653
910.915	4569
911.03	4516
911.145	4295
911.259	4375
911.374	4352
911.489	4348
911.604	4257
911.718	4192
911.833	4204
911.947	4090
912.062	4082
912.176	4234
912.291	4238
912.405	4234
912.519	4470
912.633	4474
912.748	4360
912.862	4314
912.976	4192
913.09	4059
913.204	4200
913.318	4238
913.431	4386
913.545	4409
913.659	4443
913.772	4341
913.886	4291
914	4215
914.113	4337
914.226	4417
914.34	4394
914.453	4230
914.566	4417
914.68	4329
914.793	4333
914.906	4128
915.019	4105
915.132	4071
915.245	4139
915.358	4234
915.47	4230
915.583	4287
915.696	4249
915.809	4455
915.921	4440
916.034	4253
916.146	4204
916.259	4200
916.371	4379
916.483	4363
916.595	4306
916.708	4325
916.82	4280
916.932	4314
917.044	4333
917.156	4360
917.268	4227
917.38	4211
917.491	4272
917.603	4322
917.715	4383
917.826	4447
917.938	4341
918.049	4257
918.161	4390
918.272	4554
918.384	4516
918.495	4466
918.606	4287
918.717	4238
918.828	4322
918.939	4348
919.05	4234
919.161	4314
919.272	4131
919.383	4230
919.494	4455
919.604	4596
919.715	4436
919.826	4363
919.936	4402
920.047	4523
920.157	4462
920.267	4679
920.378	4531
920.488	4481
920.598	4672
920.708	4858
920.818	4763
920.928	4790
921.038	4930
921.148	4881
921.258	4653
921.368	4565
921.477	4500
921.587	4504
921.697	4386
921.806	4561
921.916	4451
922.025	4265
922.134	4265
922.244	4238
922.353	4367
922.462	4173
922.571	4112
922.68	3983
922.789	3945
922.898	4048
923.007	3953
923.116	4162
923.224	4063
923.333	4109
923.442	4010
923.55	3975
923.659	4010
923.767	4105
923.876	4021
923.984	4105
924.092	3987
924.201	4051
924.309	4078
924.417	4135
924.525	4074
924.633	4112
924.741	5064
924.849	3941
924.956	4120
925.064	3922
925.172	3911
925.279	3972
925.387	4032
925.494	4025
925.602	4169
925.709	4207
925.816	4071
925.924	4162
926.031	4227
926.138	4166
926.245	4223
926.352	4112
926.459	4249
926.566	4291
926.673	4158
926.779	4063
926.886	4082
926.993	3930
927.099	3915
927.206	3918
927.312	3987
927.419	4032
927.525	3987
927.631	4120
927.737	3911
927.843	3941
927.95	3819
928.056	3972
928.162	3964
928.267	4071
928.373	4588
928.479	4086
928.585	3873
928.69	4006
928.796	4044
928.901	3972
929.007	3816
929.112	3960
929.218	3987
929.323	3937
929.428	3918
929.533	4093
929.638	3907
929.743	3953
929.848	4025
929.953	4002
930.058	3876
930.163	3747
930.267	3869
930.372	3979
930.477	3800
930.581	4078
930.685	3945
930.79	3819
930.894	3876
930.998	3861
931.103	3994
931.207	3743
931.311	3713
931.415	3663
931.519	3507
931.623	3526
