Data from test_V78500241_404.txt Node
Date: Fri Mar 25 16:51:48 CST 2022
User: usil
Spectrometer: V785-0024
Trigger mode: 0
Integration Time (sec): 4.000000E-1
Scans to average: 1
Nonlinearity correction enabled: false
Boxcar width: 0
Storing dark spectrum: false
XAxis mode: Wavelengths
Number of Pixels in Spectrum: 1024
>>>>>Begin Spectral Data<<<<<
801.071	8058
801.214	8092
801.356	7970
801.499	7978
801.641	7864
801.783	7909
801.926	7986
802.068	7978
802.211	7959
802.353	8020
802.496	7875
802.638	7883
802.78	7951
802.923	8012
803.065	7902
803.208	7932
803.35	7989
803.492	8054
803.635	8168
803.777	8031
803.919	8202
804.061	8476
804.204	8088
804.346	8073
804.488	7947
804.63	8119
804.773	7993
804.915	8142
805.057	8336
805.199	8145
805.341	8259
805.483	8328
805.626	8221
805.768	8130
805.91	8164
806.052	8214
806.194	8138
806.336	8298
806.478	8153
806.62	8100
806.762	8145
806.904	8259
807.046	8492
807.188	8355
807.33	8351
807.472	8282
807.614	8161
807.756	8123
807.898	8008
808.04	7921
808.182	8020
808.324	7997
808.465	7944
808.607	8020
808.749	8126
808.891	8225
809.033	8286
809.174	8225
809.316	8054
809.458	8031
809.6	8077
809.741	8031
809.883	8107
810.025	8111
810.166	8172
810.308	8092
810.45	8077
810.591	7909
810.733	7780
810.875	7639
811.016	7533
811.158	7518
811.299	7689
811.441	7799
811.582	7746
811.724	7571
811.865	7590
812.007	7655
812.148	7704
812.29	7639
812.431	7803
812.573	7963
812.714	8039
812.855	8164
812.997	8202
813.138	8374
813.279	8248
813.421	8210
813.562	8084
813.703	7940
813.845	7795
813.986	7537
814.127	7396
814.268	7244
814.41	7209
814.551	7251
814.692	7255
814.833	7133
814.974	7084
815.115	7065
815.256	6966
815.397	6909
815.539	6985
815.68	6844
815.821	6802
815.962	6867
816.103	6833
816.244	6741
816.385	6639
816.526	6700
816.666	6544
816.807	6369
816.948	6467
817.089	6479
817.23	6479
817.371	6380
817.512	6441
817.653	6410
817.793	6361
817.934	6448
818.075	6521
818.216	6460
818.356	6391
818.497	6331
818.638	6159
818.778	6201
818.919	6175
819.06	6186
819.2	6357
819.341	6304
819.481	6391
819.622	6521
819.762	6715
819.903	6688
820.043	6593
820.184	6563
820.324	6620
820.465	6734
820.605	6665
820.746	6688
820.886	6563
821.026	6669
821.167	6783
821.307	6825
821.447	6814
821.588	6631
821.728	6623
821.868	6540
822.008	6338
822.149	6422
822.289	6380
822.429	6213
822.569	6136
822.709	6148
822.849	5961
822.99	5939
823.13	5931
823.27	5904
823.41	5813
823.55	5783
823.69	5790
823.83	5786
823.97	5665
824.11	5570
824.25	5490
824.389	5592
824.529	5619
824.669	5551
824.809	5676
824.949	5615
825.089	5684
825.228	5585
825.368	5410
825.508	5364
825.648	5402
825.787	5372
825.927	5414
826.067	5330
826.206	5357
826.346	5410
826.485	5448
826.625	5452
826.765	5551
826.904	5455
827.044	5239
827.183	5250
827.323	5201
827.462	5223
827.601	5170
827.741	5227
827.88	5201
828.02	5128
828.159	5250
828.298	5330
828.437	5379
828.577	5269
828.716	5482
828.855	5326
828.994	5185
829.134	5220
829.273	5189
829.412	5113
829.551	5174
829.69	5159
829.829	5258
829.968	5368
830.107	5284
830.246	5307
830.385	5261
830.524	5128
830.663	5098
830.802	4965
830.941	4911
831.08	4889
831.219	4965
831.357	4961
831.496	5197
831.635	4934
831.774	4881
831.913	4908
832.051	4752
832.19	4778
832.329	4892
832.467	4687
832.606	4634
832.744	4717
832.883	4752
833.022	4729
833.16	4828
833.299	4790
833.437	4847
833.576	4835
833.714	4908
833.852	4889
833.991	4870
834.129	4942
834.267	5018
834.406	4957
834.544	4991
834.682	5025
834.821	4995
834.959	5178
835.097	4961
835.235	5166
835.373	5109
835.511	5117
835.65	5048
835.788	5025
835.926	4923
836.064	4885
836.202	4972
836.34	5174
836.478	5277
836.615	5174
836.753	5239
836.891	5299
837.029	5227
837.167	5250
837.305	5143
837.443	5147
837.58	5083
837.718	5284
837.856	5280
837.993	5185
838.131	5246
838.269	5235
838.406	5231
838.544	5140
838.681	5041
838.819	5041
838.956	4915
839.094	4968
839.231	5006
839.369	5113
839.506	5474
839.643	5242
839.781	5094
839.918	5022
840.055	5121
840.193	5128
840.33	5189
840.467	5151
840.604	5189
840.742	5532
840.879	5086
841.016	5117
841.153	5189
841.29	5414
841.427	5345
841.564	5334
841.701	5376
841.838	5303
841.975	5254
842.112	5254
842.249	5113
842.385	5109
842.522	5357
842.659	5159
842.796	5181
842.933	5227
843.069	5162
843.206	5170
843.343	5372
843.479	5223
843.616	5258
843.752	5056
843.889	5003
844.025	5201
844.162	5014
844.298	5254
844.435	5075
844.571	5075
844.708	5212
844.844	5311
844.98	5330
845.117	5307
845.253	5197
845.389	5060
845.525	5132
845.661	5189
845.798	5067
845.934	5166
846.07	5079
846.206	5193
846.342	5292
846.478	5223
846.614	4987
846.75	4995
846.886	4972
847.022	5181
847.158	5083
847.294	5136
847.429	5090
847.565	5071
847.701	5353
847.837	4850
847.972	4828
848.108	4930
848.244	4930
848.379	4774
848.515	4748
848.65	4687
848.786	4755
848.921	4782
849.057	4904
849.192	4881
849.328	4816
849.463	4847
849.598	4733
849.734	4759
849.869	4672
850.004	4645
850.14	4687
850.275	4599
850.41	4573
850.545	4599
850.68	4569
850.815	4596
850.95	4653
851.085	4877
851.22	4797
851.355	4710
851.49	4668
851.625	4645
851.76	4664
851.895	4558
852.03	4519
852.165	4618
852.299	4736
852.434	4801
852.569	4767
852.703	4778
852.838	4843
852.973	4953
853.107	4946
853.242	4736
853.376	4702
853.511	4554
853.645	4637
853.78	4771
853.914	4721
854.048	4687
854.183	4664
854.317	4683
854.451	4858
854.585	4702
854.72	4626
854.854	4740
854.988	4588
855.122	4637
855.256	4558
855.39	4656
855.524	4782
855.658	4748
855.792	4725
855.926	4679
856.06	4774
856.194	4835
856.327	4733
856.461	4649
856.595	4626
856.729	4603
856.862	4774
856.996	4687
857.13	4748
857.263	4771
857.397	4847
857.53	4660
857.664	4763
857.797	4771
857.931	4771
858.064	4721
858.197	4778
858.331	4668
858.464	4634
858.597	4512
858.731	4664
858.864	4645
858.997	4634
859.13	4634
859.263	4691
859.396	4717
859.529	4634
859.662	4561
859.795	4535
859.928	4656
860.061	4771
860.194	4752
860.327	4569
860.46	4584
860.592	4755
860.725	4740
860.858	4755
860.99	4607
861.123	4523
861.256	4569
861.388	4599
861.521	5474
861.653	4497
861.786	4455
861.918	4459
862.05	4527
862.183	4558
862.315	4618
862.447	4675
862.58	4558
862.712	4447
862.844	4356
862.976	4500
863.108	4455
863.24	4698
863.372	4333
863.504	4421
863.636	4424
863.768	4451
863.9	4413
864.032	4363
864.164	4390
864.296	4474
864.428	4569
864.559	4565
864.691	4550
864.823	4531
864.954	4481
865.086	4561
865.217	4383
865.349	4478
865.48	4459
865.612	4519
865.743	4596
865.875	4478
866.006	4451
866.137	4470
866.269	4489
866.4	4424
866.531	4462
866.662	4409
866.793	4421
866.924	4424
867.055	4512
867.186	4451
867.317	4390
867.448	4356
867.579	4402
867.71	4390
867.841	4405
867.972	4466
868.103	4485
868.233	4428
868.364	4485
868.495	4523
868.625	4672
868.756	4721
868.886	4577
869.017	4607
869.147	4793
869.278	4744
869.408	4668
869.539	4679
869.669	4710
869.799	4634
869.929	4778
870.06	4740
870.19	4987
870.32	4919
870.45	4938
870.58	5003
870.71	5109
870.84	5090
870.97	4934
871.1	4919
871.23	5189
871.36	5109
871.489	5048
871.619	5086
871.749	5098
871.879	5170
872.008	5178
872.138	5041
872.267	5006
872.397	4828
872.526	4805
872.656	4736
872.785	4831
872.915	4987
873.044	5041
873.173	4953
873.303	5003
873.432	5003
873.561	4987
873.69	4896
873.819	4866
873.948	4968
874.077	4786
874.206	4790
874.335	4835
874.464	4915
874.593	5067
874.722	4957
874.851	5090
874.979	5018
875.108	4980
875.237	4923
875.365	4949
875.494	4873
875.623	5006
875.751	4824
875.88	4908
876.008	4965
876.136	5022
876.265	5220
876.393	5349
876.521	5204
876.65	5261
876.778	5121
876.906	5117
877.034	5083
877.162	5033
877.29	5018
877.418	5045
877.546	5052
877.674	5079
877.802	5064
877.93	5022
878.058	4949
878.185	4854
878.313	4946
878.441	4991
878.568	4828
878.696	4911
878.824	4976
878.951	5033
879.079	5140
879.206	5296
879.333	5166
879.461	4980
879.588	5018
879.715	5140
879.842	5258
879.97	5029
880.097	4736
880.224	4763
880.351	4820
880.478	4824
880.605	4805
880.732	4805
880.859	5064
880.986	4896
881.112	4904
881.239	4843
881.366	4702
881.493	4653
881.619	4645
881.746	4664
881.872	4675
881.999	4649
882.125	4672
882.252	4771
882.378	4835
882.505	4938
882.631	4824
882.757	4672
882.883	4755
883.01	4767
883.136	4706
883.262	4637
883.388	4580
883.514	4816
883.64	4839
883.766	4839
883.892	4668
884.018	4706
884.143	4847
884.269	5022
884.395	4714
884.52	4618
884.646	4622
884.772	4592
884.897	4569
885.023	4683
885.148	4805
885.274	4881
885.399	4782
885.524	4717
885.65	4714
885.775	4740
885.9	4725
886.025	4866
886.15	4828
886.275	4755
886.4	4653
886.525	4706
886.65	4687
886.775	4694
886.9	4961
887.025	5083
887.149	4809
887.274	4706
887.399	4607
887.523	4558
887.648	4607
887.773	4577
887.897	4763
888.021	4790
888.146	4683
888.27	4805
888.395	4877
888.519	4805
888.643	4858
888.767	4820
888.891	4675
889.015	4599
889.139	4637
889.263	4637
889.387	4786
889.511	4908
889.635	4812
889.759	4592
889.883	4683
890.006	4725
890.13	4866
890.254	4634
890.377	4714
890.501	4519
890.624	4512
890.748	4675
890.871	4569
890.995	4436
891.118	4398
891.241	4546
891.364	4546
891.488	4637
891.611	4550
891.734	4588
891.857	4656
891.98	4519
892.103	4645
892.226	4634
892.349	4531
892.471	4417
892.594	4538
892.717	4580
892.839	4599
892.962	4618
893.085	4733
893.207	4561
893.33	4474
893.452	4592
893.575	4653
893.697	4596
893.819	4843
893.941	4847
894.064	4786
894.186	4561
894.308	4558
894.43	4702
894.552	4828
894.674	4740
894.796	4508
894.918	4603
895.04	4573
895.161	4679
895.283	4656
895.405	4584
895.526	4656
895.648	4653
895.769	4725
895.891	4717
896.012	4763
896.134	4736
896.255	4656
896.376	4675
896.498	4630
896.619	4698
896.74	4607
896.861	4668
896.982	4923
897.103	5102
897.224	4835
897.345	4763
897.466	4698
897.587	4706
897.708	4850
897.828	4759
897.949	4675
898.07	4561
898.19	4641
898.311	4870
898.431	4683
898.552	4740
898.672	4847
898.792	4778
898.913	4752
899.033	4599
899.153	4523
899.273	4451
899.393	4485
899.513	4519
899.633	4481
899.753	4546
899.873	4527
899.993	4584
900.113	4512
900.232	4580
900.352	4577
900.472	4481
900.591	4413
900.711	4462
900.83	4409
900.95	4611
901.069	4672
901.189	4527
901.308	4344
901.427	4341
901.546	4390
901.665	4500
901.784	4466
901.904	4360
902.023	4291
902.141	4135
902.26	4196
902.379	4337
902.498	4238
902.617	4211
902.735	4375
902.854	4390
902.973	4360
903.091	4196
903.21	4257
903.328	4363
903.446	4303
903.565	4265
903.683	4386
903.801	4310
903.919	4462
904.038	4485
904.156	4314
904.274	4443
904.392	4413
904.51	4436
904.627	4409
904.745	4577
904.863	4607
904.981	4409
905.098	4341
905.216	4360
905.334	4443
905.451	4455
905.569	4489
905.686	4554
905.803	4577
905.921	4436
906.038	4599
906.155	4516
906.272	4405
906.389	4478
906.506	4329
906.623	4386
906.74	4363
906.857	4303
906.974	4360
907.091	4535
907.208	4656
907.324	4588
907.441	4462
907.557	4344
907.674	4310
907.79	4371
907.907	4383
908.023	4493
908.139	4489
908.256	4413
908.372	4489
908.488	4459
908.604	4360
908.72	4352
908.836	4383
908.952	4386
909.068	4451
909.184	4558
909.3	4440
909.415	4550
909.531	4558
909.647	4390
909.762	4337
909.878	4360
909.993	4417
910.108	4402
910.224	4402
910.339	4447
910.454	4379
910.57	4352
910.685	4344
910.8	4626
910.915	4603
911.03	4462
911.145	4386
911.259	4352
911.374	4386
911.489	4322
911.604	4291
911.718	4204
911.833	4143
911.947	4101
912.062	4040
912.176	4177
912.291	4204
912.405	4291
912.519	4508
912.633	4519
912.748	4348
912.862	4386
912.976	4249
913.09	4101
913.204	4131
913.318	4246
913.431	4402
913.545	4394
913.659	4436
913.772	4390
913.886	4272
914	4265
914.113	4375
914.226	4413
914.34	4436
914.453	4234
914.566	4485
914.68	4268
914.793	4299
914.906	4196
915.019	4074
915.132	4086
915.245	4207
915.358	4234
915.47	4272
915.583	4272
915.696	4310
915.809	4413
915.921	4371
916.034	4257
916.146	4261
916.259	4215
916.371	4360
916.483	4363
916.595	4287
916.708	4310
916.82	4337
916.932	4329
917.044	4363
917.156	4329
917.268	4261
917.38	4257
917.491	4329
917.603	4352
917.715	4428
917.826	4485
917.938	4299
918.049	4284
918.161	4413
918.272	4554
918.384	4607
918.495	4443
918.606	4329
918.717	4246
918.828	4322
918.939	4360
919.05	4249
919.161	4352
919.272	4101
919.383	4234
919.494	4459
919.604	4630
919.715	4440
919.826	4344
919.936	4398
920.047	4546
920.157	4481
920.267	4771
920.378	4565
920.488	4546
920.598	4714
920.708	4904
920.818	4759
920.928	4748
921.038	4904
921.148	4957
921.258	4641
921.368	4588
921.477	4516
921.587	4466
921.697	4398
921.806	4523
921.916	4451
922.025	4322
922.134	4287
922.244	4196
922.353	4348
922.462	4200
922.571	4143
922.68	4021
922.789	3972
922.898	4048
923.007	4017
923.116	4105
923.224	4093
923.333	4090
923.442	4059
923.55	4006
923.659	4002
923.767	4124
923.876	4017
923.984	4154
924.092	3991
924.201	4074
924.309	4105
924.417	4124
924.525	4116
924.633	4112
924.741	5045
924.849	3911
924.956	4135
925.064	3972
925.172	3934
925.279	4002
925.387	4071
925.494	4002
925.602	4242
925.709	4185
925.816	4067
925.924	4116
926.031	4238
926.138	4188
926.245	4234
926.352	4124
926.459	4215
926.566	4287
926.673	4185
926.779	4124
926.886	4067
926.993	3994
927.099	3960
927.206	3892
927.312	3994
927.419	4101
927.525	4044
927.631	4086
927.737	3945
927.843	3972
927.95	3842
928.056	3934
928.162	3975
928.267	4040
928.373	4702
928.479	4071
928.585	3884
928.69	3979
928.796	4055
928.901	4013
929.007	3816
929.112	4010
929.218	3998
929.323	3926
929.428	3972
929.533	4131
929.638	3937
929.743	3975
929.848	4013
929.953	4029
930.058	3953
930.163	3800
930.267	3865
930.372	4013
930.477	3793
930.581	4090
930.685	3896
930.79	3854
930.894	3873
930.998	3907
931.103	4048
931.207	3701
931.311	3701
931.415	3709
931.519	3496
931.623	3564
