Data from test_V78500241_483.txt Node
Date: Fri Mar 25 16:52:21 CST 2022
User: usil
Spectrometer: V785-0024
Trigger mode: 0
Integration Time (sec): 4.000000E-1
Scans to average: 1
Nonlinearity correction enabled: false
Boxcar width: 0
Storing dark spectrum: false
XAxis mode: Wavelengths
Number of Pixels in Spectrum: 1024
>>>>>Begin Spectral Data<<<<<
801.071	8107
801.214	8092
801.356	7906
801.499	7898
801.641	7841
801.783	7875
801.926	8046
802.068	8005
802.211	7993
802.353	8054
802.496	7913
802.638	7890
802.78	7875
802.923	7955
803.065	7811
803.208	7833
803.35	7967
803.492	8092
803.635	8100
803.777	8031
803.919	8103
804.061	8434
804.204	8126
804.346	8012
804.488	8020
804.63	8123
804.773	7989
804.915	8069
805.057	8305
805.199	8111
805.341	8214
805.483	8305
805.626	8119
805.768	8065
805.91	8153
806.052	8168
806.194	8035
806.336	8332
806.478	8157
806.62	8092
806.762	8123
806.904	8263
807.046	8408
807.188	8282
807.33	8317
807.472	8263
807.614	8229
807.756	8176
807.898	7993
808.04	7898
808.182	7982
808.324	7947
808.465	7906
808.607	8107
808.749	8100
808.891	8259
809.033	8244
809.174	8168
809.316	7989
809.458	8031
809.6	8020
809.741	8100
809.883	8001
810.025	8050
810.166	8100
810.308	8039
810.45	8008
810.591	7879
810.733	7761
810.875	7666
811.016	7601
811.158	7510
811.299	7609
811.441	7772
811.582	7719
811.724	7613
811.865	7597
812.007	7693
812.148	7658
812.29	7647
812.431	7772
812.573	7959
812.714	8039
812.855	8126
812.997	8282
813.138	8415
813.279	8240
813.421	8142
813.562	7963
813.703	7936
813.845	7864
813.986	7597
814.127	7346
814.268	7259
814.41	7206
814.551	7171
814.692	7240
814.833	7088
814.974	7061
815.115	7137
815.256	7065
815.397	6962
815.539	6951
815.68	6814
815.821	6818
815.962	6894
816.103	6894
816.244	6772
816.385	6623
816.526	6642
816.666	6517
816.807	6346
816.948	6410
817.089	6540
817.23	6452
817.371	6422
817.512	6418
817.653	6429
817.793	6418
817.934	6445
818.075	6452
818.216	6429
818.356	6414
818.497	6289
818.638	6133
818.778	6129
818.919	6057
819.06	6175
819.2	6311
819.341	6308
819.481	6338
819.622	6475
819.762	6772
819.903	6696
820.043	6612
820.184	6631
820.324	6559
820.465	6665
820.605	6612
820.746	6639
820.886	6509
821.026	6631
821.167	6726
821.307	6779
821.447	6798
821.588	6696
821.728	6601
821.868	6490
822.008	6323
822.149	6429
822.289	6289
822.429	6232
822.569	6095
822.709	6121
822.849	5912
822.99	5844
823.13	5942
823.27	5920
823.41	5809
823.55	5756
823.69	5805
823.83	5809
823.97	5718
824.11	5577
824.25	5528
824.389	5562
824.529	5619
824.669	5497
824.809	5638
824.949	5691
825.089	5657
825.228	5596
825.368	5383
825.508	5303
825.648	5425
825.787	5383
825.927	5395
826.067	5330
826.206	5311
826.346	5402
826.485	5402
826.625	5421
826.765	5547
826.904	5516
827.044	5296
827.183	5216
827.323	5159
827.462	5265
827.601	5132
827.741	5220
827.88	5250
828.02	5113
828.159	5231
828.298	5269
828.437	5429
828.577	5280
828.716	5535
828.855	5318
828.994	5227
829.134	5181
829.273	5185
829.412	5170
829.551	5151
829.69	5170
829.829	5265
829.968	5349
830.107	5250
830.246	5307
830.385	5201
830.524	5136
830.663	5121
830.802	4987
830.941	4938
831.08	4828
831.219	5003
831.357	5033
831.496	5162
831.635	5010
831.774	4858
831.913	4900
832.051	4717
832.19	4736
832.329	4854
832.467	4774
832.606	4679
832.744	4752
832.883	4698
833.022	4744
833.16	4812
833.299	4835
833.437	4850
833.576	4820
833.714	4896
833.852	4877
833.991	4831
834.129	4938
834.267	4961
834.406	4873
834.544	4949
834.682	5033
834.821	4968
834.959	5189
835.097	4968
835.235	5140
835.373	5079
835.511	5151
835.65	5056
835.788	5014
835.926	4873
836.064	4885
836.202	4911
836.34	5185
836.478	5212
836.615	5155
836.753	5250
836.891	5334
837.029	5307
837.167	5227
837.305	5170
837.443	5132
837.58	5033
837.718	5258
837.856	5239
837.993	5105
838.131	5258
838.269	5197
838.406	5216
838.544	5189
838.681	5067
838.819	5045
838.956	4896
839.094	4930
839.231	5041
839.369	5079
839.506	5433
839.643	5235
839.781	5052
839.918	5014
840.055	5151
840.193	5159
840.33	5132
840.467	5159
840.604	5223
840.742	5463
840.879	5109
841.016	5117
841.153	5159
841.29	5334
841.427	5315
841.564	5353
841.701	5299
841.838	5311
841.975	5204
842.112	5261
842.249	5147
842.385	5113
842.522	5334
842.659	5128
842.796	5189
842.933	5193
843.069	5147
843.206	5140
843.343	5322
843.479	5261
843.616	5334
843.752	5003
843.889	4976
844.025	5212
844.162	5090
844.298	5269
844.435	5121
844.571	5098
844.708	5216
844.844	5296
844.98	5368
845.117	5318
845.253	5204
845.389	5090
845.525	5162
845.661	5162
845.798	5052
845.934	5147
846.07	5071
846.206	5212
846.342	5250
846.478	5128
846.614	5018
846.75	4972
846.886	4972
847.022	5140
847.158	5048
847.294	5052
847.429	5056
847.565	5022
847.701	5299
847.837	4828
847.972	4820
848.108	4980
848.244	4991
848.379	4820
848.515	4752
848.65	4736
848.786	4786
848.921	4805
849.057	4911
849.192	4911
849.328	4805
849.463	4828
849.598	4782
849.734	4797
849.869	4744
850.004	4641
850.14	4649
850.275	4607
850.41	4527
850.545	4538
850.68	4626
850.815	4634
850.95	4622
851.085	4793
851.22	4698
851.355	4660
851.49	4596
851.625	4653
851.76	4596
851.895	4546
852.03	4554
852.165	4668
852.299	4774
852.434	4790
852.569	4755
852.703	4774
852.838	4835
852.973	4995
853.107	4995
853.242	4755
853.376	4687
853.511	4512
853.645	4630
853.78	4831
853.914	4736
854.048	4694
854.183	4672
854.317	4717
854.451	4881
854.585	4748
854.72	4637
854.854	4820
854.988	4687
855.122	4683
855.256	4569
855.39	4634
855.524	4835
855.658	4740
855.792	4771
855.926	4752
856.06	4736
856.194	4843
856.327	4733
856.461	4706
856.595	4630
856.729	4698
856.862	4778
856.996	4759
857.13	4740
857.263	4820
857.397	4816
857.53	4683
857.664	4782
857.797	4824
857.931	4831
858.064	4740
858.197	4767
858.331	4672
858.464	4687
858.597	4584
858.731	4694
858.864	4698
858.997	4611
859.13	4687
859.263	4698
859.396	4721
859.529	4626
859.662	4596
859.795	4622
859.928	4687
860.061	4774
860.194	4881
860.327	4656
860.46	4645
860.592	4793
860.725	4801
860.858	4801
860.99	4622
861.123	4516
861.256	4599
861.388	4660
861.521	5383
861.653	4493
861.786	4516
861.918	4508
862.05	4554
862.183	4577
862.315	4664
862.447	4733
862.58	4584
862.712	4500
862.844	4375
862.976	4516
863.108	4500
863.24	4847
863.372	4363
863.504	4489
863.636	4459
863.768	4516
863.9	4470
864.032	4413
864.164	4409
864.296	4550
864.428	4558
864.559	4630
864.691	4565
864.823	4573
864.954	4512
865.086	4546
865.217	4497
865.349	4451
865.48	4504
865.612	4550
865.743	4679
865.875	4538
866.006	4459
866.137	4489
866.269	4443
866.4	4447
866.531	4436
866.662	4386
866.793	4466
866.924	4440
867.055	4535
867.186	4523
867.317	4451
867.448	4337
867.579	4481
867.71	4421
867.841	4394
867.972	4527
868.103	4466
868.233	4474
868.364	4481
868.495	4497
868.625	4706
868.756	4790
868.886	4577
869.017	4607
869.147	4801
869.278	4820
869.408	4736
869.539	4694
869.669	4733
869.799	4698
869.929	4801
870.06	4816
870.19	4980
870.32	4953
870.45	5010
870.58	5117
870.71	5143
870.84	5113
870.97	4999
871.1	4915
871.23	5201
871.36	5128
871.489	5083
871.619	5098
871.749	5109
871.879	5117
872.008	5201
872.138	5045
872.267	5045
872.397	4953
872.526	4877
872.656	4782
872.785	4866
872.915	5029
873.044	5048
873.173	5022
873.303	4987
873.432	5048
873.561	4972
873.69	4938
873.819	4889
873.948	4934
874.077	4908
874.206	4801
874.335	4889
874.464	4927
874.593	5143
874.722	5010
874.851	5216
874.979	5105
875.108	5052
875.237	4984
875.365	4961
875.494	4919
875.623	4991
875.751	4881
875.88	4911
876.008	5006
876.136	5045
876.265	5254
876.393	5417
876.521	5311
876.65	5307
876.778	5147
876.906	5086
877.034	5064
877.162	5102
877.29	5041
877.418	5102
877.546	5083
877.674	5117
877.802	5060
877.93	5037
878.058	4976
878.185	4919
878.313	5018
878.441	5010
878.568	4870
878.696	4961
878.824	5018
878.951	5048
879.079	5178
879.206	5318
879.333	5113
879.461	5033
879.588	5056
879.715	5185
879.842	5299
879.97	5048
880.097	4824
880.224	4809
880.351	4854
880.478	4881
880.605	4793
880.732	4839
880.859	5151
880.986	4953
881.112	4976
881.239	4824
881.366	4748
881.493	4599
881.619	4615
881.746	4668
881.872	4683
881.999	4710
882.125	4714
882.252	4816
882.378	4873
882.505	5014
882.631	4790
882.757	4733
882.883	4771
883.01	4767
883.136	4698
883.262	4615
883.388	4664
883.514	4854
883.64	4900
883.766	4847
883.892	4656
884.018	4790
884.143	4934
884.269	5006
884.395	4714
884.52	4637
884.646	4683
884.772	4653
884.897	4584
885.023	4679
885.148	4793
885.274	4885
885.399	4790
885.524	4752
885.65	4755
885.775	4786
885.9	4744
886.025	4919
886.15	4767
886.275	4755
886.4	4702
886.525	4755
886.65	4721
886.775	4710
886.9	4919
887.025	5056
887.149	4824
887.274	4664
887.399	4611
887.523	4630
887.648	4645
887.773	4664
887.897	4793
888.021	4812
888.146	4721
888.27	4862
888.395	4930
888.519	4862
888.643	4831
888.767	4854
888.891	4725
889.015	4668
889.139	4683
889.263	4645
889.387	4763
889.511	4915
889.635	4850
889.759	4675
889.883	4653
890.006	4790
890.13	4858
890.254	4630
890.377	4714
890.501	4584
890.624	4531
890.748	4675
890.871	4516
890.995	4409
891.118	4447
891.241	4519
891.364	4596
891.488	4691
891.611	4603
891.734	4565
891.857	4599
891.98	4592
892.103	4717
892.226	4649
892.349	4565
892.471	4455
892.594	4611
892.717	4588
892.839	4634
892.962	4618
893.085	4714
893.207	4588
893.33	4508
893.452	4554
893.575	4687
893.697	4618
893.819	4828
893.941	4831
894.064	4763
894.186	4588
894.308	4580
894.43	4733
894.552	4858
894.674	4805
894.796	4641
894.918	4618
895.04	4603
895.161	4767
895.283	4714
895.405	4584
895.526	4683
895.648	4744
895.769	4729
895.891	4736
896.012	4744
896.134	4763
896.255	4683
896.376	4653
896.498	4664
896.619	4683
896.74	4634
896.861	4675
896.982	4965
897.103	5083
897.224	4850
897.345	4778
897.466	4736
897.587	4748
897.708	4889
897.828	4774
897.949	4698
898.07	4592
898.19	4672
898.311	4900
898.431	4660
898.552	4752
898.672	4850
898.792	4831
898.913	4752
899.033	4672
899.153	4538
899.273	4402
899.393	4512
899.513	4546
899.633	4596
899.753	4565
899.873	4519
899.993	4626
900.113	4558
900.232	4641
900.352	4580
900.472	4508
900.591	4470
900.711	4588
900.83	4481
900.95	4656
901.069	4725
901.189	4550
901.308	4367
901.427	4398
901.546	4440
901.665	4466
901.784	4565
901.904	4413
902.023	4409
902.141	4268
902.26	4242
902.379	4360
902.498	4284
902.617	4238
902.735	4356
902.854	4436
902.973	4405
903.091	4257
903.21	4246
903.328	4352
903.446	4295
903.565	4306
903.683	4390
903.801	4314
903.919	4462
904.038	4516
904.156	4325
904.274	4474
904.392	4383
904.51	4478
904.627	4497
904.745	4618
904.863	4694
904.981	4375
905.098	4333
905.216	4451
905.334	4443
905.451	4493
905.569	4413
905.686	4599
905.803	4622
905.921	4459
906.038	4573
906.155	4489
906.272	4432
906.389	4489
906.506	4375
906.623	4402
906.74	4443
906.857	4291
906.974	4367
907.091	4615
907.208	4672
907.324	4618
907.441	4493
907.557	4367
907.674	4379
907.79	4337
907.907	4386
908.023	4485
908.139	4519
908.256	4432
908.372	4451
908.488	4504
908.604	4367
908.72	4310
908.836	4421
908.952	4375
909.068	4481
909.184	4542
909.3	4455
909.415	4641
909.531	4580
909.647	4379
909.762	4371
909.878	4314
909.993	4455
910.108	4470
910.224	4455
910.339	4527
910.454	4417
910.57	4367
910.685	4314
910.8	4645
910.915	4653
911.03	4558
911.145	4329
911.259	4352
911.374	4386
911.489	4322
911.604	4303
911.718	4173
911.833	4257
911.947	4154
912.062	4051
912.176	4234
912.291	4322
912.405	4291
912.519	4489
912.633	4550
912.748	4398
912.862	4356
912.976	4173
913.09	4135
913.204	4188
913.318	4238
913.431	4409
913.545	4405
913.659	4489
913.772	4352
913.886	4234
914	4253
914.113	4386
914.226	4489
914.34	4447
914.453	4257
914.566	4428
914.68	4386
914.793	4306
914.906	4200
915.019	4147
915.132	4082
915.245	4181
915.358	4185
915.47	4261
915.583	4272
915.696	4303
915.809	4466
915.921	4394
916.034	4242
916.146	4280
916.259	4234
916.371	4436
916.483	4344
916.595	4303
916.708	4348
916.82	4348
916.932	4379
917.044	4360
917.156	4390
917.268	4272
917.38	4287
917.491	4234
917.603	4371
917.715	4428
917.826	4474
917.938	4363
918.049	4265
918.161	4451
918.272	4573
918.384	4592
918.495	4527
918.606	4306
918.717	4287
918.828	4344
918.939	4405
919.05	4287
919.161	4306
919.272	4185
919.383	4223
919.494	4459
919.604	4698
919.715	4474
919.826	4371
919.936	4432
920.047	4485
920.157	4523
920.267	4698
920.378	4558
920.488	4519
920.598	4771
920.708	4930
920.818	4748
920.928	4816
921.038	4957
921.148	4965
921.258	4618
921.368	4508
921.477	4527
921.587	4413
921.697	4352
921.806	4523
921.916	4436
922.025	4306
922.134	4291
922.244	4234
922.353	4333
922.462	4192
922.571	4150
922.68	4063
922.789	3960
922.898	4017
923.007	4044
923.116	4120
923.224	4055
923.333	4128
923.442	4021
923.55	3987
923.659	4055
923.767	4101
923.876	4017
923.984	4131
924.092	4010
924.201	4074
924.309	4097
924.417	4185
924.525	4097
924.633	4109
924.741	5105
924.849	3911
924.956	4177
925.064	3949
925.172	3911
925.279	3998
925.387	4128
925.494	4059
925.602	4192
925.709	4238
925.816	4082
925.924	4131
926.031	4227
926.138	4185
926.245	4219
926.352	4166
926.459	4272
926.566	4322
926.673	4169
926.779	4105
926.886	4074
926.993	4025
927.099	3987
927.206	3956
927.312	3991
927.419	4112
927.525	4029
927.631	4090
927.737	4032
927.843	3956
927.95	3903
928.056	3987
928.162	3975
928.267	4078
928.373	4733
928.479	4162
928.585	3861
928.69	4063
928.796	4074
928.901	3998
929.007	3842
929.112	4010
929.218	4006
929.323	3968
929.428	3983
929.533	4097
929.638	3918
929.743	3994
929.848	4036
929.953	3960
930.058	3998
930.163	3797
930.267	3869
930.372	3975
930.477	3835
930.581	4078
930.685	3960
930.79	3812
930.894	3884
930.998	3846
931.103	4086
931.207	3751
931.311	3698
931.415	3663
931.519	3553
931.623	3576
