Data from test_V78500241_1964.txt Node
Date: Fri Mar 25 17:02:39 CST 2022
User: usil
Spectrometer: V785-0024
Trigger mode: 0
Integration Time (sec): 4.000000E-1
Scans to average: 1
Nonlinearity correction enabled: false
Boxcar width: 0
Storing dark spectrum: false
XAxis mode: Wavelengths
Number of Pixels in Spectrum: 1024
>>>>>Begin Spectral Data<<<<<
801.071	8065
801.214	8054
801.356	7902
801.499	7894
801.641	7822
801.783	7849
801.926	7955
802.068	7944
802.211	8024
802.353	7974
802.496	7909
802.638	7879
802.78	7902
802.923	7906
803.065	7947
803.208	7875
803.35	7902
803.492	8077
803.635	8153
803.777	8039
803.919	8119
804.061	8431
804.204	8161
804.346	8084
804.488	7970
804.63	8016
804.773	8054
804.915	8081
805.057	8290
805.199	8187
805.341	8145
805.483	8218
805.626	8225
805.768	8126
805.91	8256
806.052	8191
806.194	8111
806.336	8317
806.478	8126
806.62	8130
806.762	8138
806.904	8210
807.046	8454
807.188	8442
807.33	8339
807.472	8301
807.614	8214
807.756	8176
807.898	7997
808.04	7909
808.182	7894
808.324	7837
808.465	7921
808.607	8138
808.749	8161
808.891	8202
809.033	8290
809.174	8176
809.316	8119
809.458	8126
809.6	8062
809.741	8035
809.883	8058
810.025	8138
810.166	8073
810.308	7982
810.45	8001
810.591	7868
810.733	7731
810.875	7670
811.016	7544
811.158	7514
811.299	7563
811.441	7693
811.582	7662
811.724	7620
811.865	7499
812.007	7662
812.148	7620
812.29	7620
812.431	7731
812.573	7868
812.714	8050
812.855	8168
812.997	8290
813.138	8256
813.279	8172
813.421	8043
813.562	7974
813.703	7803
813.845	7776
813.986	7422
814.127	7251
814.268	7209
814.41	7149
814.551	7179
814.692	7190
814.833	7103
814.974	7126
815.115	7080
815.256	6966
815.397	6958
815.539	7012
815.68	6856
815.821	6760
815.962	6924
816.103	6848
816.244	6749
816.385	6589
816.526	6574
816.666	6498
816.807	6399
816.948	6445
817.089	6433
817.23	6445
817.371	6407
817.512	6418
817.653	6460
817.793	6334
817.934	6490
818.075	6456
818.216	6452
818.356	6403
818.497	6285
818.638	6133
818.778	6224
818.919	6155
819.06	6224
819.2	6350
819.341	6311
819.481	6376
819.622	6555
819.762	6818
819.903	6738
820.043	6608
820.184	6582
820.324	6597
820.465	6749
820.605	6730
820.746	6700
820.886	6540
821.026	6669
821.167	6734
821.307	6818
821.447	6749
821.588	6692
821.728	6578
821.868	6513
822.008	6292
822.149	6346
822.289	6338
822.429	6190
822.569	6083
822.709	6148
822.849	5935
822.99	5927
823.13	5935
823.27	5942
823.41	5824
823.55	5828
823.69	5710
823.83	5783
823.97	5672
824.11	5562
824.25	5455
824.389	5577
824.529	5600
824.669	5463
824.809	5638
824.949	5661
825.089	5611
825.228	5547
825.368	5410
825.508	5357
825.648	5341
825.787	5360
825.927	5391
826.067	5353
826.206	5357
826.346	5376
826.485	5429
826.625	5383
826.765	5570
826.904	5512
827.044	5235
827.183	5235
827.323	5121
827.462	5242
827.601	5185
827.741	5166
827.88	5292
828.02	5147
828.159	5181
828.298	5250
828.437	5341
828.577	5235
828.716	5459
828.855	5318
828.994	5170
829.134	5151
829.273	5170
829.412	5155
829.551	5189
829.69	5166
829.829	5261
829.968	5376
830.107	5296
830.246	5357
830.385	5128
830.524	5220
830.663	5056
830.802	4976
830.941	4873
831.08	4896
831.219	4957
831.357	4965
831.496	5147
831.635	4965
831.774	4828
831.913	4850
832.051	4767
832.19	4797
832.329	4870
832.467	4736
832.606	4645
832.744	4714
832.883	4755
833.022	4714
833.16	4774
833.299	4812
833.437	4828
833.576	4843
833.714	4801
833.852	4923
833.991	4862
834.129	5014
834.267	4991
834.406	4908
834.544	4965
834.682	4995
834.821	4976
834.959	5113
835.097	5006
835.235	5132
835.373	5090
835.511	5155
835.65	5033
835.788	5025
835.926	4858
836.064	4870
836.202	4908
836.34	5189
836.478	5189
836.615	5147
836.753	5220
836.891	5315
837.029	5246
837.167	5151
837.305	5178
837.443	5147
837.58	5094
837.718	5254
837.856	5185
837.993	5151
838.131	5231
838.269	5261
838.406	5223
838.544	5178
838.681	5041
838.819	4991
838.956	4942
839.094	4881
839.231	4915
839.369	5094
839.506	5482
839.643	5280
839.781	5071
839.918	4999
840.055	5117
840.193	5121
840.33	5083
840.467	5128
840.604	5220
840.742	5455
840.879	5041
841.016	5113
841.153	5121
841.29	5395
841.427	5303
841.564	5360
841.701	5357
841.838	5299
841.975	5254
842.112	5242
842.249	5220
842.385	5109
842.522	5337
842.659	5250
842.796	5128
842.933	5185
843.069	5193
843.206	5117
843.343	5353
843.479	5216
843.616	5261
843.752	5022
843.889	4987
844.025	5231
844.162	5003
844.298	5204
844.435	5048
844.571	5048
844.708	5201
844.844	5284
844.98	5322
845.117	5315
845.253	5166
845.389	5056
845.525	5113
845.661	5094
845.798	5037
845.934	5105
846.07	5060
846.206	5181
846.342	5303
846.478	5212
846.614	4953
846.75	4965
846.886	4961
847.022	5079
847.158	5060
847.294	5060
847.429	5090
847.565	5090
847.701	5307
847.837	4835
847.972	4824
848.108	4957
848.244	4930
848.379	4736
848.515	4683
848.65	4717
848.786	4725
848.921	4774
849.057	4847
849.192	4896
849.328	4801
849.463	4870
849.598	4786
849.734	4729
849.869	4725
850.004	4596
850.14	4641
850.275	4626
850.41	4523
850.545	4618
850.68	4592
850.815	4596
850.95	4618
851.085	4793
851.22	4782
851.355	4656
851.49	4675
851.625	4630
851.76	4607
851.895	4558
852.03	4497
852.165	4653
852.299	4740
852.434	4778
852.569	4774
852.703	4790
852.838	4866
852.973	4923
853.107	4946
853.242	4691
853.376	4702
853.511	4546
853.645	4596
853.78	4786
853.914	4694
854.048	4687
854.183	4672
854.317	4698
854.451	4877
854.585	4714
854.72	4596
854.854	4740
854.988	4542
855.122	4649
855.256	4504
855.39	4694
855.524	4786
855.658	4721
855.792	4694
855.926	4748
856.06	4816
856.194	4809
856.327	4664
856.461	4592
856.595	4599
856.729	4668
856.862	4744
856.996	4683
857.13	4759
857.263	4759
857.397	4797
857.53	4656
857.664	4763
857.797	4816
857.931	4812
858.064	4698
858.197	4721
858.331	4656
858.464	4599
858.597	4512
858.731	4611
858.864	4599
858.997	4569
859.13	4694
859.263	4626
859.396	4725
859.529	4558
859.662	4550
859.795	4512
859.928	4618
860.061	4744
860.194	4748
860.327	4603
860.46	4577
860.592	4725
860.725	4668
860.858	4706
860.99	4599
861.123	4497
861.256	4519
861.388	4603
861.521	5235
861.653	4497
861.786	4459
861.918	4428
862.05	4546
862.183	4565
862.315	4577
862.447	4653
862.58	4500
862.712	4413
862.844	4367
862.976	4481
863.108	4451
863.24	4771
863.372	4348
863.504	4417
863.636	4424
863.768	4474
863.9	4443
864.032	4386
864.164	4367
864.296	4466
864.428	4596
864.559	4527
864.691	4535
864.823	4516
864.954	4497
865.086	4489
865.217	4466
865.349	4405
865.48	4459
865.612	4527
865.743	4618
865.875	4474
866.006	4409
866.137	4500
866.269	4447
866.4	4451
866.531	4421
866.662	4405
866.793	4455
866.924	4447
867.055	4485
867.186	4459
867.317	4443
867.448	4356
867.579	4402
867.71	4383
867.841	4436
867.972	4478
868.103	4440
868.233	4462
868.364	4459
868.495	4489
868.625	4694
868.756	4790
868.886	4554
869.017	4656
869.147	4767
869.278	4805
869.408	4668
869.539	4675
869.669	4748
869.799	4687
869.929	4774
870.06	4805
870.19	4949
870.32	4927
870.45	4915
870.58	5037
870.71	5048
870.84	5029
870.97	4934
871.1	4953
871.23	5105
871.36	5151
871.489	5052
871.619	5060
871.749	5079
871.879	5140
872.008	5113
872.138	5105
872.267	4911
872.397	4824
872.526	4801
872.656	4721
872.785	4801
872.915	4911
873.044	4991
873.173	4946
873.303	4965
873.432	4908
873.561	4938
873.69	4919
873.819	4908
873.948	4896
874.077	4793
874.206	4812
874.335	4801
874.464	4900
874.593	5079
874.722	4942
874.851	5098
874.979	5041
875.108	5029
875.237	4908
875.365	4820
875.494	4900
875.623	5037
875.751	4812
875.88	4911
876.008	4976
876.136	4984
876.265	5227
876.393	5372
876.521	5227
876.65	5223
876.778	5151
876.906	5033
877.034	5048
877.162	5048
877.29	5014
877.418	4987
877.546	5022
877.674	5060
877.802	5041
877.93	4999
878.058	4919
878.185	4831
878.313	4892
878.441	4953
878.568	4752
878.696	4862
878.824	4980
878.951	5022
879.079	5109
879.206	5299
879.333	5098
879.461	4972
879.588	5041
879.715	5143
879.842	5220
879.97	4999
880.097	4793
880.224	4736
880.351	4816
880.478	4831
880.605	4755
880.732	4774
880.859	5056
880.986	4911
881.112	4911
881.239	4778
881.366	4687
881.493	4630
881.619	4588
881.746	4653
881.872	4668
881.999	4672
882.125	4706
882.252	4755
882.378	4866
882.505	5003
882.631	4801
882.757	4660
882.883	4733
883.01	4778
883.136	4672
883.262	4603
883.388	4611
883.514	4843
883.64	4870
883.766	4759
883.892	4634
884.018	4694
884.143	4877
884.269	4984
884.395	4694
884.52	4626
884.646	4649
884.772	4512
884.897	4588
885.023	4607
885.148	4790
885.274	4873
885.399	4809
885.524	4714
885.65	4729
885.775	4771
885.9	4694
886.025	4870
886.15	4778
886.275	4687
886.4	4611
886.525	4729
886.65	4660
886.775	4675
886.9	4915
887.025	5033
887.149	4828
887.274	4649
887.399	4603
887.523	4653
887.648	4554
887.773	4550
887.897	4771
888.021	4801
888.146	4649
888.27	4790
888.395	4927
888.519	4812
888.643	4812
888.767	4889
888.891	4672
889.015	4596
889.139	4630
889.263	4561
889.387	4759
889.511	4892
889.635	4786
889.759	4641
889.883	4656
890.006	4694
890.13	4850
890.254	4618
890.377	4721
890.501	4580
890.624	4535
890.748	4577
890.871	4538
890.995	4428
891.118	4379
891.241	4519
891.364	4531
891.488	4660
891.611	4474
891.734	4489
891.857	4531
891.98	4565
892.103	4675
892.226	4580
892.349	4485
892.471	4428
892.594	4558
892.717	4592
892.839	4592
892.962	4546
893.085	4668
893.207	4603
893.33	4447
893.452	4569
893.575	4653
893.697	4565
893.819	4824
893.941	4763
894.064	4752
894.186	4599
894.308	4596
894.43	4755
894.552	4797
894.674	4755
894.796	4577
894.918	4622
895.04	4558
895.161	4710
895.283	4691
895.405	4546
895.526	4634
895.648	4683
895.769	4641
895.891	4725
896.012	4744
896.134	4740
896.255	4683
896.376	4641
896.498	4599
896.619	4672
896.74	4611
896.861	4630
896.982	4923
897.103	5052
897.224	4839
897.345	4752
897.466	4691
897.587	4736
897.708	4843
897.828	4790
897.949	4672
898.07	4569
898.19	4694
898.311	4824
898.431	4653
898.552	4702
898.672	4828
898.792	4835
898.913	4721
899.033	4630
899.153	4478
899.273	4390
899.393	4527
899.513	4489
899.633	4531
899.753	4561
899.873	4504
899.993	4573
900.113	4546
900.232	4599
900.352	4542
900.472	4447
900.591	4417
900.711	4508
900.83	4440
900.95	4573
901.069	4675
901.189	4508
901.308	4333
901.427	4348
901.546	4367
901.665	4504
901.784	4500
901.904	4386
902.023	4348
902.141	4200
902.26	4150
902.379	4291
902.498	4249
902.617	4211
902.735	4379
902.854	4470
902.973	4360
903.091	4211
903.21	4215
903.328	4295
903.446	4246
903.565	4234
903.683	4337
903.801	4306
903.919	4390
904.038	4443
904.156	4310
904.274	4462
904.392	4375
904.51	4398
904.627	4481
904.745	4580
904.863	4626
904.981	4398
905.098	4310
905.216	4371
905.334	4428
905.451	4443
905.569	4443
905.686	4546
905.803	4558
905.921	4379
906.038	4516
906.155	4504
906.272	4394
906.389	4500
906.506	4337
906.623	4383
906.74	4421
906.857	4284
906.974	4322
907.091	4565
907.208	4687
907.324	4538
907.441	4550
907.557	4356
907.674	4371
907.79	4306
907.907	4344
908.023	4443
908.139	4443
908.256	4428
908.372	4478
908.488	4493
908.604	4348
908.72	4306
908.836	4379
908.952	4402
909.068	4421
909.184	4584
909.3	4508
909.415	4588
909.531	4550
909.647	4344
909.762	4363
909.878	4375
909.993	4413
910.108	4417
910.224	4405
910.339	4527
910.454	4386
910.57	4348
910.685	4333
910.8	4649
910.915	4615
911.03	4516
911.145	4303
911.259	4318
911.374	4314
911.489	4265
911.604	4238
911.718	4200
911.833	4219
911.947	4063
912.062	4048
912.176	4200
912.291	4227
912.405	4234
912.519	4462
912.633	4462
912.748	4318
912.862	4360
912.976	4177
913.09	4074
913.204	4154
913.318	4257
913.431	4402
913.545	4360
913.659	4443
913.772	4337
913.886	4246
914	4196
914.113	4405
914.226	4481
914.34	4390
914.453	4223
914.566	4394
914.68	4306
914.793	4287
914.906	4169
915.019	4124
915.132	4055
915.245	4211
915.358	4207
915.47	4230
915.583	4268
915.696	4257
915.809	4413
915.921	4459
916.034	4242
916.146	4257
916.259	4230
916.371	4367
916.483	4337
916.595	4272
916.708	4348
916.82	4310
916.932	4348
917.044	4310
917.156	4318
917.268	4246
917.38	4299
917.491	4261
917.603	4306
917.715	4421
917.826	4413
917.938	4398
918.049	4196
918.161	4337
918.272	4558
918.384	4474
918.495	4432
918.606	4268
918.717	4287
918.828	4356
918.939	4360
919.05	4261
919.161	4367
919.272	4109
919.383	4238
919.494	4394
919.604	4561
919.715	4428
919.826	4360
919.936	4440
920.047	4508
920.157	4485
920.267	4702
920.378	4512
920.488	4516
920.598	4740
920.708	4862
920.818	4752
920.928	4774
921.038	4949
921.148	4896
921.258	4649
921.368	4580
921.477	4481
921.587	4413
921.697	4383
921.806	4527
921.916	4451
922.025	4261
922.134	4204
922.244	4211
922.353	4310
922.462	4181
922.571	4097
922.68	4048
922.789	3975
922.898	4063
923.007	4006
923.116	4124
923.224	4036
923.333	4071
923.442	4010
923.55	3998
923.659	4029
923.767	4063
923.876	3975
923.984	4112
924.092	3991
924.201	4120
924.309	4086
924.417	4082
924.525	4013
924.633	4071
924.741	5037
924.849	3937
924.956	4150
925.064	3975
925.172	3903
925.279	3941
925.387	4036
925.494	4032
925.602	4192
925.709	4169
925.816	4071
925.924	4116
926.031	4185
926.138	4188
926.245	4185
926.352	4051
926.459	4261
926.566	4310
926.673	4185
926.779	4071
926.886	4101
926.993	3991
927.099	3987
927.206	3945
927.312	3922
927.419	4032
927.525	4044
927.631	4105
927.737	3975
927.843	3949
927.95	3896
928.056	3941
928.162	4029
928.267	4063
928.373	4554
928.479	4135
928.585	3846
928.69	4010
928.796	4086
928.901	3975
929.007	3865
929.112	4013
929.218	3941
929.323	3941
929.428	3937
929.533	4112
929.638	3903
929.743	3964
929.848	4086
929.953	4029
930.058	3934
930.163	3778
930.267	3793
930.372	3949
930.477	3755
930.581	4116
930.685	3930
930.79	3831
930.894	3888
930.998	3865
931.103	4090
931.207	3724
931.311	3690
931.415	3648
931.519	3530
931.623	3561
