Data from test_V78500241_2204.txt Node
Date: Fri Mar 25 17:04:19 CST 2022
User: usil
Spectrometer: V785-0024
Trigger mode: 0
Integration Time (sec): 4.000000E-1
Scans to average: 1
Nonlinearity correction enabled: false
Boxcar width: 0
Storing dark spectrum: false
XAxis mode: Wavelengths
Number of Pixels in Spectrum: 1024
>>>>>Begin Spectral Data<<<<<
801.071	7982
801.214	8008
801.356	7784
801.499	7898
801.641	7860
801.783	7830
801.926	7940
802.068	7989
802.211	7944
802.353	7970
802.496	7803
802.638	7830
802.78	7860
802.923	7921
803.065	7841
803.208	7799
803.35	8008
803.492	8142
803.635	8218
803.777	8069
803.919	8115
804.061	8370
804.204	8168
804.346	8058
804.488	8016
804.63	8103
804.773	7955
804.915	8138
805.057	8263
805.199	8176
805.341	8237
805.483	8263
805.626	8161
805.768	8172
805.91	8199
806.052	8157
806.194	8138
806.336	8324
806.478	8069
806.62	8100
806.762	8164
806.904	8259
807.046	8457
807.188	8320
807.33	8313
807.472	8305
807.614	8237
807.756	8100
807.898	8035
808.04	7913
808.182	7875
808.324	7845
808.465	7951
808.607	8092
808.749	8123
808.891	8195
809.033	8332
809.174	8191
809.316	8054
809.458	8134
809.6	8050
809.741	7947
809.883	8043
810.025	8119
810.166	8130
810.308	8012
810.45	8054
810.591	7852
810.733	7734
810.875	7670
811.016	7525
811.158	7453
811.299	7590
811.441	7696
811.582	7670
811.724	7556
811.865	7525
812.007	7643
812.148	7601
812.29	7696
812.431	7700
812.573	7898
812.714	8043
812.855	8100
812.997	8240
813.138	8248
813.279	8153
813.421	8065
813.562	7959
813.703	7814
813.845	7738
813.986	7491
814.127	7255
814.268	7202
814.41	7232
814.551	7149
814.692	7152
814.833	7095
814.974	7122
815.115	7099
815.256	7027
815.397	6913
815.539	6943
815.68	6787
815.821	6764
815.962	6875
816.103	6825
816.244	6677
816.385	6597
816.526	6616
816.666	6445
816.807	6315
816.948	6437
817.089	6426
817.23	6403
817.371	6418
817.512	6399
817.653	6433
817.793	6384
817.934	6414
818.075	6483
818.216	6483
818.356	6369
818.497	6262
818.638	6167
818.778	6167
818.919	6136
819.06	6159
819.2	6365
819.341	6361
819.481	6285
819.622	6551
819.762	6726
819.903	6616
820.043	6627
820.184	6570
820.324	6547
820.465	6749
820.605	6669
820.746	6669
820.886	6532
821.026	6673
821.167	6730
821.307	6791
821.447	6768
821.588	6662
821.728	6555
821.868	6486
822.008	6334
822.149	6338
822.289	6380
822.429	6163
822.569	6129
822.709	6098
822.849	5977
822.99	5939
823.13	5958
823.27	5916
823.41	5790
823.55	5760
823.69	5802
823.83	5737
823.97	5653
824.11	5554
824.25	5463
824.389	5554
824.529	5570
824.669	5512
824.809	5566
824.949	5672
825.089	5623
825.228	5558
825.368	5406
825.508	5337
825.648	5303
825.787	5398
825.927	5387
826.067	5288
826.206	5322
826.346	5391
826.485	5372
826.625	5402
826.765	5554
826.904	5486
827.044	5258
827.183	5181
827.323	5140
827.462	5231
827.601	5147
827.741	5220
827.88	5261
828.02	5060
828.159	5292
828.298	5311
828.437	5372
828.577	5280
828.716	5425
828.855	5299
828.994	5166
829.134	5102
829.273	5201
829.412	5124
829.551	5117
829.69	5170
829.829	5239
829.968	5357
830.107	5261
830.246	5254
830.385	5166
830.524	5132
830.663	5067
830.802	4957
830.941	4850
831.08	4934
831.219	4995
831.357	4999
831.496	5121
831.635	4938
831.774	4854
831.913	4850
832.051	4771
832.19	4755
832.329	4812
832.467	4664
832.606	4615
832.744	4748
832.883	4710
833.022	4698
833.16	4805
833.299	4828
833.437	4820
833.576	4797
833.714	4839
833.852	4892
833.991	4904
834.129	4961
834.267	4938
834.406	4930
834.544	4942
834.682	4980
834.821	4953
834.959	5201
835.097	5014
835.235	5132
835.373	5113
835.511	5037
835.65	5048
835.788	5018
835.926	4915
836.064	4919
836.202	4911
836.34	5155
836.478	5166
836.615	5105
836.753	5140
836.891	5277
837.029	5189
837.167	5201
837.305	5181
837.443	5113
837.58	5083
837.718	5223
837.856	5189
837.993	5162
838.131	5220
838.269	5212
838.406	5201
838.544	5147
838.681	5022
838.819	4995
838.956	4870
839.094	4949
839.231	4987
839.369	5113
839.506	5349
839.643	5258
839.781	5075
839.918	5003
840.055	5109
840.193	5064
840.33	5105
840.467	5143
840.604	5189
840.742	5452
840.879	5067
841.016	5121
841.153	5124
841.29	5345
841.427	5345
841.564	5318
841.701	5345
841.838	5265
841.975	5235
842.112	5239
842.249	5098
842.385	5113
842.522	5330
842.659	5132
842.796	5140
842.933	5231
843.069	5086
843.206	5151
843.343	5284
843.479	5204
843.616	5299
843.752	4991
843.889	5029
844.025	5216
844.162	5041
844.298	5223
844.435	5071
844.571	5121
844.708	5204
844.844	5299
844.98	5322
845.117	5284
845.253	5155
845.389	5124
845.525	5140
845.661	5117
845.798	4987
845.934	5105
846.07	5064
846.206	5185
846.342	5231
846.478	5174
846.614	4946
846.75	4957
846.886	4919
847.022	5132
847.158	5052
847.294	5086
847.429	5083
847.565	5052
847.701	5296
847.837	4877
847.972	4843
848.108	4972
848.244	4911
848.379	4790
848.515	4717
848.65	4729
848.786	4733
848.921	4774
849.057	4850
849.192	4885
849.328	4809
849.463	4850
849.598	4759
849.734	4736
849.869	4664
850.004	4622
850.14	4634
850.275	4588
850.41	4542
850.545	4580
850.68	4580
850.815	4641
850.95	4660
851.085	4862
851.22	4752
851.355	4691
851.49	4649
851.625	4622
851.76	4622
851.895	4645
852.03	4565
852.165	4637
852.299	4675
852.434	4771
852.569	4698
852.703	4755
852.838	4831
852.973	4930
853.107	4854
853.242	4717
853.376	4645
853.511	4508
853.645	4603
853.78	4801
853.914	4679
854.048	4694
854.183	4660
854.317	4721
854.451	4877
854.585	4645
854.72	4664
854.854	4774
854.988	4573
855.122	4645
855.256	4531
855.39	4660
855.524	4786
855.658	4729
855.792	4714
855.926	4679
856.06	4778
856.194	4793
856.327	4668
856.461	4615
856.595	4622
856.729	4630
856.862	4812
856.996	4664
857.13	4672
857.263	4809
857.397	4782
857.53	4668
857.664	4721
857.797	4733
857.931	4733
858.064	4694
858.197	4725
858.331	4656
858.464	4607
858.597	4523
858.731	4641
858.864	4653
858.997	4580
859.13	4672
859.263	4702
859.396	4626
859.529	4588
859.662	4504
859.795	4527
859.928	4588
860.061	4721
860.194	4729
860.327	4580
860.46	4565
860.592	4698
860.725	4683
860.858	4706
860.99	4573
861.123	4489
861.256	4481
861.388	4645
861.521	5296
861.653	4417
861.786	4443
861.918	4462
862.05	4531
862.183	4546
862.315	4607
862.447	4706
862.58	4508
862.712	4398
862.844	4295
862.976	4459
863.108	4417
863.24	4816
863.372	4337
863.504	4421
863.636	4383
863.768	4508
863.9	4405
864.032	4367
864.164	4405
864.296	4493
864.428	4561
864.559	4542
864.691	4580
864.823	4535
864.954	4451
865.086	4527
865.217	4466
865.349	4390
865.48	4481
865.612	4466
865.743	4611
865.875	4451
866.006	4451
866.137	4497
866.269	4451
866.4	4440
866.531	4405
866.662	4455
866.793	4383
866.924	4405
867.055	4478
867.186	4459
867.317	4398
867.448	4333
867.579	4398
867.71	4363
867.841	4360
867.972	4474
868.103	4432
868.233	4459
868.364	4478
868.495	4485
868.625	4675
868.756	4706
868.886	4580
869.017	4607
869.147	4778
869.278	4774
869.408	4694
869.539	4641
869.669	4748
869.799	4626
869.929	4778
870.06	4717
870.19	4972
870.32	4896
870.45	4919
870.58	5018
870.71	5136
870.84	5113
870.97	4930
871.1	4953
871.23	5132
871.36	5086
871.489	5037
871.619	5060
871.749	5067
871.879	5147
872.008	5143
872.138	5083
872.267	4995
872.397	4862
872.526	4797
872.656	4710
872.785	4809
872.915	4927
873.044	5045
873.173	4934
873.303	4984
873.432	4915
873.561	4942
873.69	4870
873.819	4831
873.948	4892
874.077	4809
874.206	4759
874.335	4774
874.464	4915
874.593	5060
874.722	4957
874.851	5117
874.979	5098
875.108	4972
875.237	4908
875.365	4847
875.494	4900
875.623	4965
875.751	4847
875.88	4881
876.008	4965
876.136	5029
876.265	5185
876.393	5288
876.521	5280
876.65	5201
876.778	5151
876.906	5018
877.034	5003
877.162	5075
877.29	5003
877.418	5083
877.546	5010
877.674	5025
877.802	5029
877.93	5041
878.058	4911
878.185	4889
878.313	4942
878.441	4927
878.568	4816
878.696	4839
878.824	4946
878.951	4999
879.079	5075
879.206	5246
879.333	5079
879.461	5003
879.588	5022
879.715	5075
879.842	5223
879.97	5083
880.097	4740
880.224	4744
880.351	4736
880.478	4797
880.605	4835
880.732	4767
880.859	5121
880.986	4904
881.112	4854
881.239	4729
881.366	4645
881.493	4622
881.619	4588
881.746	4622
881.872	4660
881.999	4679
882.125	4717
882.252	4790
882.378	4820
882.505	4976
882.631	4858
882.757	4653
882.883	4714
883.01	4714
883.136	4683
883.262	4645
883.388	4580
883.514	4858
883.64	4873
883.766	4774
883.892	4603
884.018	4717
884.143	4915
884.269	5056
884.395	4656
884.52	4615
884.646	4634
884.772	4565
884.897	4599
885.023	4664
885.148	4767
885.274	4850
885.399	4812
885.524	4706
885.65	4694
885.775	4691
885.9	4672
886.025	4843
886.15	4725
886.275	4729
886.4	4611
886.525	4755
886.65	4679
886.775	4725
886.9	4881
887.025	5071
887.149	4839
887.274	4668
887.399	4577
887.523	4607
887.648	4584
887.773	4588
887.897	4733
888.021	4809
888.146	4660
888.27	4797
888.395	4873
888.519	4774
888.643	4816
888.767	4801
888.891	4672
889.015	4603
889.139	4611
889.263	4615
889.387	4759
889.511	4885
889.635	4824
889.759	4691
889.883	4592
890.006	4702
890.13	4854
890.254	4637
890.377	4637
890.501	4588
890.624	4535
890.748	4607
890.871	4512
890.995	4493
891.118	4402
891.241	4474
891.364	4573
891.488	4611
891.611	4508
891.734	4493
891.857	4558
891.98	4531
892.103	4607
892.226	4569
892.349	4519
892.471	4405
892.594	4550
892.717	4599
892.839	4580
892.962	4569
893.085	4656
893.207	4596
893.33	4424
893.452	4538
893.575	4664
893.697	4573
893.819	4847
893.941	4839
894.064	4774
894.186	4565
894.308	4577
894.43	4714
894.552	4763
894.674	4733
894.796	4546
894.918	4577
895.04	4508
895.161	4664
895.283	4615
895.405	4573
895.526	4660
895.648	4702
895.769	4683
895.891	4714
896.012	4702
896.134	4679
896.255	4668
896.376	4592
896.498	4596
896.619	4691
896.74	4672
896.861	4626
896.982	4923
897.103	5052
897.224	4801
897.345	4771
897.466	4679
897.587	4706
897.708	4828
897.828	4729
897.949	4710
898.07	4554
898.19	4660
898.311	4820
898.431	4679
898.552	4717
898.672	4805
898.792	4797
898.913	4755
899.033	4649
899.153	4531
899.273	4440
899.393	4493
899.513	4512
899.633	4516
899.753	4565
899.873	4516
899.993	4569
900.113	4527
900.232	4603
900.352	4558
900.472	4481
900.591	4405
900.711	4504
900.83	4394
900.95	4649
901.069	4626
901.189	4569
901.308	4394
901.427	4325
901.546	4299
901.665	4443
901.784	4497
901.904	4402
902.023	4299
902.141	4227
902.26	4162
902.379	4303
902.498	4181
902.617	4242
902.735	4375
902.854	4394
902.973	4352
903.091	4223
903.21	4234
903.328	4303
903.446	4284
903.565	4249
903.683	4360
903.801	4253
903.919	4379
904.038	4424
904.156	4291
904.274	4440
904.392	4421
904.51	4409
904.627	4470
904.745	4558
904.863	4622
904.981	4394
905.098	4325
905.216	4409
905.334	4440
905.451	4398
905.569	4413
905.686	4592
905.803	4523
905.921	4451
906.038	4561
906.155	4500
906.272	4417
906.389	4436
906.506	4398
906.623	4424
906.74	4386
906.857	4318
906.974	4363
907.091	4538
907.208	4683
907.324	4599
907.441	4531
907.557	4325
907.674	4322
907.79	4325
907.907	4383
908.023	4489
908.139	4478
908.256	4424
908.372	4424
908.488	4428
908.604	4360
908.72	4322
908.836	4371
908.952	4363
909.068	4436
909.184	4538
909.3	4462
909.415	4580
909.531	4550
909.647	4318
909.762	4371
909.878	4337
909.993	4459
910.108	4409
910.224	4402
910.339	4447
910.454	4394
910.57	4360
910.685	4303
910.8	4630
910.915	4569
911.03	4474
911.145	4303
911.259	4246
911.374	4394
911.489	4287
911.604	4284
911.718	4204
911.833	4196
911.947	4059
912.062	4021
912.176	4200
912.291	4261
912.405	4234
912.519	4417
912.633	4462
912.748	4333
912.862	4333
912.976	4234
913.09	4086
913.204	4211
913.318	4200
913.431	4379
913.545	4379
913.659	4424
913.772	4386
913.886	4253
914	4219
914.113	4360
914.226	4424
914.34	4402
914.453	4230
914.566	4466
914.68	4287
914.793	4337
914.906	4128
915.019	4139
915.132	4063
915.245	4196
915.358	4185
915.47	4249
915.583	4261
915.696	4314
915.809	4348
915.921	4417
916.034	4246
916.146	4257
916.259	4242
916.371	4386
916.483	4337
916.595	4291
916.708	4310
916.82	4333
916.932	4310
917.044	4322
917.156	4383
917.268	4265
917.38	4299
917.491	4230
917.603	4314
917.715	4402
917.826	4421
917.938	4325
918.049	4215
918.161	4409
918.272	4523
918.384	4565
918.495	4481
918.606	4268
918.717	4227
918.828	4322
918.939	4322
919.05	4246
919.161	4299
919.272	4135
919.383	4219
919.494	4462
919.604	4554
919.715	4455
919.826	4386
919.936	4386
920.047	4531
920.157	4538
920.267	4668
920.378	4603
920.488	4447
920.598	4675
920.708	4843
920.818	4759
920.928	4767
921.038	4957
921.148	4892
921.258	4611
921.368	4538
921.477	4462
921.587	4455
921.697	4367
921.806	4512
921.916	4413
922.025	4268
922.134	4246
922.244	4188
922.353	4318
922.462	4124
922.571	4105
922.68	4006
922.789	4021
922.898	4032
923.007	3998
923.116	4086
923.224	4051
923.333	4067
923.442	3937
923.55	3964
923.659	4021
923.767	4097
923.876	3983
923.984	4131
924.092	3979
924.201	4093
924.309	4063
924.417	4112
924.525	4055
924.633	4105
924.741	5022
924.849	3911
924.956	4090
925.064	3945
925.172	3903
925.279	3979
925.387	4010
925.494	4059
925.602	4196
925.709	4158
925.816	4055
925.924	4139
926.031	4227
926.138	4166
926.245	4166
926.352	4090
926.459	4253
926.566	4314
926.673	4131
926.779	4055
926.886	4071
926.993	4029
927.099	3945
927.206	3926
927.312	3926
927.419	4036
927.525	3998
927.631	4112
927.737	3953
927.843	3907
927.95	3850
928.056	3945
928.162	3937
928.267	4048
928.373	4668
928.479	4120
928.585	3861
928.69	4010
928.796	4059
928.901	3956
929.007	3846
929.112	3987
929.218	3956
929.323	3945
929.428	3922
929.533	4109
929.638	3953
929.743	3945
929.848	4044
929.953	4029
930.058	3892
930.163	3747
930.267	3827
930.372	3964
930.477	3797
930.581	4086
930.685	3915
930.79	3819
930.894	3880
930.998	3835
931.103	4025
931.207	3736
931.311	3652
931.415	3671
931.519	3492
931.623	3568
