Data from test_V78500241_552.txt Node
Date: Fri Mar 25 16:52:50 CST 2022
User: usil
Spectrometer: V785-0024
Trigger mode: 0
Integration Time (sec): 4.000000E-1
Scans to average: 1
Nonlinearity correction enabled: false
Boxcar width: 0
Storing dark spectrum: false
XAxis mode: Wavelengths
Number of Pixels in Spectrum: 1024
>>>>>Begin Spectral Data<<<<<
801.071	8027
801.214	7982
801.356	7852
801.499	7822
801.641	7795
801.783	7837
801.926	7986
802.068	7986
802.211	7932
802.353	7955
802.496	7906
802.638	7906
802.78	7875
802.923	7898
803.065	7769
803.208	7826
803.35	7989
803.492	8043
803.635	8153
803.777	8027
803.919	8046
804.061	8385
804.204	8115
804.346	8008
804.488	7921
804.63	8096
804.773	7986
804.915	8092
805.057	8282
805.199	8218
805.341	8202
805.483	8275
805.626	8142
805.768	8065
805.91	8168
806.052	8130
806.194	8100
806.336	8320
806.478	8115
806.62	8100
806.762	8138
806.904	8275
807.046	8446
807.188	8279
807.33	8225
807.472	8294
807.614	8103
807.756	8145
807.898	8035
808.04	7875
808.182	7902
808.324	7913
808.465	7925
808.607	8008
808.749	8206
808.891	8206
809.033	8210
809.174	8206
809.316	8050
809.458	8035
809.6	7970
809.741	8043
809.883	7982
810.025	8069
810.166	8039
810.308	8058
810.45	7944
810.591	7822
810.733	7753
810.875	7670
811.016	7506
811.158	7487
811.299	7624
811.441	7769
811.582	7670
811.724	7537
811.865	7548
812.007	7571
812.148	7624
812.29	7639
812.431	7731
812.573	7898
812.714	8016
812.855	8199
812.997	8225
813.138	8381
813.279	8176
813.421	8157
813.562	8062
813.703	7845
813.845	7887
813.986	7460
814.127	7419
814.268	7263
814.41	7202
814.551	7168
814.692	7206
814.833	7129
814.974	7057
815.115	7118
815.256	6981
815.397	6932
815.539	6962
815.68	6863
815.821	6734
815.962	6867
816.103	6844
816.244	6791
816.385	6631
816.526	6589
816.666	6502
816.807	6308
816.948	6429
817.089	6502
817.23	6361
817.371	6395
817.512	6353
817.653	6399
817.793	6426
817.934	6486
818.075	6475
818.216	6437
818.356	6414
818.497	6239
818.638	6114
818.778	6144
818.919	6064
819.06	6102
819.2	6296
819.341	6296
819.481	6357
819.622	6502
819.762	6700
819.903	6677
820.043	6631
820.184	6627
820.324	6570
820.465	6669
820.605	6601
820.746	6585
820.886	6483
821.026	6654
821.167	6703
821.307	6787
821.447	6719
821.588	6616
821.728	6547
821.868	6418
822.008	6296
822.149	6353
822.289	6361
822.429	6114
822.569	6068
822.709	6003
822.849	5961
822.99	5870
823.13	5878
823.27	5912
823.41	5733
823.55	5794
823.69	5783
823.83	5756
823.97	5661
824.11	5512
824.25	5516
824.389	5547
824.529	5623
824.669	5551
824.809	5573
824.949	5600
825.089	5627
825.228	5619
825.368	5474
825.508	5337
825.648	5395
825.787	5368
825.927	5360
826.067	5322
826.206	5318
826.346	5410
826.485	5395
826.625	5364
826.765	5570
826.904	5383
827.044	5227
827.183	5189
827.323	5151
827.462	5246
827.601	5178
827.741	5140
827.88	5178
828.02	5094
828.159	5265
828.298	5299
828.437	5299
828.577	5311
828.716	5467
828.855	5303
828.994	5109
829.134	5117
829.273	5178
829.412	5159
829.551	5113
829.69	5185
829.829	5258
829.968	5368
830.107	5265
830.246	5258
830.385	5155
830.524	5155
830.663	5113
830.802	4999
830.941	4908
831.08	4881
831.219	4999
831.357	4953
831.496	5113
831.635	4923
831.774	4839
831.913	4835
832.051	4721
832.19	4759
832.329	4870
832.467	4694
832.606	4626
832.744	4721
832.883	4744
833.022	4691
833.16	4790
833.299	4847
833.437	4774
833.576	4816
833.714	4774
833.852	4850
833.991	4904
834.129	4976
834.267	4999
834.406	4858
834.544	4965
834.682	4949
834.821	4984
834.959	5151
835.097	5010
835.235	5140
835.373	5105
835.511	5041
835.65	4980
835.788	5010
835.926	4949
836.064	4828
836.202	4911
836.34	5174
836.478	5250
836.615	5083
836.753	5185
836.891	5280
837.029	5277
837.167	5166
837.305	5174
837.443	5128
837.58	5128
837.718	5265
837.856	5170
837.993	5113
838.131	5223
838.269	5204
838.406	5170
838.544	5174
838.681	5033
838.819	4995
838.956	4915
839.094	4938
839.231	5025
839.369	5041
839.506	5444
839.643	5250
839.781	5045
839.918	5029
840.055	5102
840.193	5121
840.33	5117
840.467	5147
840.604	5204
840.742	5433
840.879	5048
841.016	5045
841.153	5098
841.29	5353
841.427	5353
841.564	5318
841.701	5322
841.838	5265
841.975	5231
842.112	5273
842.249	5117
842.385	5086
842.522	5345
842.659	5227
842.796	5117
842.933	5185
843.069	5151
843.206	5136
843.343	5292
843.479	5208
843.616	5265
843.752	5006
843.889	5006
844.025	5231
844.162	5006
844.298	5231
844.435	5117
844.571	5083
844.708	5201
844.844	5326
844.98	5299
845.117	5265
845.253	5132
845.389	5025
845.525	5162
845.661	5140
845.798	5006
845.934	5128
846.07	5025
846.206	5189
846.342	5277
846.478	5147
846.614	5014
846.75	4999
846.886	4961
847.022	5132
847.158	5045
847.294	5048
847.429	5045
847.565	5006
847.701	5296
847.837	4858
847.972	4782
848.108	4927
848.244	4938
848.379	4774
848.515	4729
848.65	4698
848.786	4752
848.921	4797
849.057	4835
849.192	4938
849.328	4793
849.463	4866
849.598	4778
849.734	4698
849.869	4706
850.004	4653
850.14	4698
850.275	4618
850.41	4508
850.545	4592
850.68	4592
850.815	4634
850.95	4599
851.085	4820
851.22	4706
851.355	4656
851.49	4599
851.625	4599
851.76	4656
851.895	4516
852.03	4497
852.165	4641
852.299	4675
852.434	4744
852.569	4782
852.703	4786
852.838	4801
852.973	4934
853.107	4900
853.242	4740
853.376	4634
853.511	4516
853.645	4596
853.78	4835
853.914	4710
854.048	4691
854.183	4675
854.317	4702
854.451	4809
854.585	4653
854.72	4641
854.854	4714
854.988	4618
855.122	4626
855.256	4519
855.39	4672
855.524	4752
855.658	4740
855.792	4710
855.926	4721
856.06	4725
856.194	4771
856.327	4649
856.461	4592
856.595	4622
856.729	4630
856.862	4752
856.996	4710
857.13	4733
857.263	4755
857.397	4793
857.53	4645
857.664	4744
857.797	4771
857.931	4782
858.064	4668
858.197	4736
858.331	4653
858.464	4577
858.597	4542
858.731	4592
858.864	4630
858.997	4538
859.13	4645
859.263	4702
859.396	4683
859.529	4573
859.662	4603
859.795	4565
859.928	4592
860.061	4812
860.194	4717
860.327	4653
860.46	4561
860.592	4740
860.725	4687
860.858	4687
860.99	4569
861.123	4519
861.256	4519
861.388	4558
861.521	5463
861.653	4489
861.786	4481
861.918	4424
862.05	4512
862.183	4493
862.315	4611
862.447	4660
862.58	4504
862.712	4436
862.844	4325
862.976	4523
863.108	4436
863.24	4911
863.372	4371
863.504	4470
863.636	4428
863.768	4443
863.9	4428
864.032	4375
864.164	4379
864.296	4493
864.428	4508
864.559	4599
864.691	4470
864.823	4542
864.954	4519
865.086	4523
865.217	4432
865.349	4421
865.48	4409
865.612	4523
865.743	4626
865.875	4508
866.006	4470
866.137	4443
866.269	4447
866.4	4432
866.531	4413
866.662	4352
866.793	4413
866.924	4405
867.055	4512
867.186	4398
867.317	4504
867.448	4325
867.579	4413
867.71	4344
867.841	4386
867.972	4451
868.103	4447
868.233	4421
868.364	4451
868.495	4455
868.625	4687
868.756	4729
868.886	4550
869.017	4611
869.147	4740
869.278	4767
869.408	4641
869.539	4679
869.669	4668
869.799	4675
869.929	4714
870.06	4725
870.19	4942
870.32	4915
870.45	4949
870.58	5014
870.71	5060
870.84	5109
870.97	4949
871.1	4927
871.23	5117
871.36	5090
871.489	4987
871.619	5098
871.749	5033
871.879	5124
872.008	5136
872.138	5052
872.267	4942
872.397	4835
872.526	4854
872.656	4717
872.785	4786
872.915	4908
873.044	4987
873.173	4930
873.303	4949
873.432	4946
873.561	4949
873.69	4873
873.819	4850
873.948	4923
874.077	4820
874.206	4763
874.335	4778
874.464	4915
874.593	5083
874.722	4984
874.851	5155
874.979	5064
875.108	5037
875.237	4946
875.365	4877
875.494	4862
875.623	4976
875.751	4820
875.88	4866
876.008	4930
876.136	5060
876.265	5189
876.393	5425
876.521	5258
876.65	5235
876.778	5155
876.906	5098
877.034	5003
877.162	5045
877.29	4927
877.418	5071
877.546	5041
877.674	5067
877.802	5029
877.93	5029
878.058	4908
878.185	4862
878.313	4965
878.441	4915
878.568	4793
878.696	4877
878.824	4987
878.951	4991
879.079	5105
879.206	5246
879.333	5102
879.461	4999
879.588	5018
879.715	5113
879.842	5197
879.97	5056
880.097	4793
880.224	4763
880.351	4812
880.478	4839
880.605	4812
880.732	4790
880.859	5048
880.986	4873
881.112	4919
881.239	4744
881.366	4668
881.493	4592
881.619	4603
881.746	4637
881.872	4653
881.999	4618
882.125	4717
882.252	4771
882.378	4801
882.505	4930
882.631	4797
882.757	4668
882.883	4729
883.01	4744
883.136	4668
883.262	4649
883.388	4622
883.514	4839
883.64	4854
883.766	4786
883.892	4641
884.018	4729
884.143	4892
884.269	4980
884.395	4717
884.52	4599
884.646	4668
884.772	4569
884.897	4516
885.023	4653
885.148	4809
885.274	4858
885.399	4809
885.524	4710
885.65	4687
885.775	4790
885.9	4725
886.025	4847
886.15	4778
886.275	4717
886.4	4637
886.525	4752
886.65	4691
886.775	4702
886.9	4919
887.025	5052
887.149	4771
887.274	4626
887.399	4599
887.523	4603
887.648	4554
887.773	4618
887.897	4736
888.021	4774
888.146	4672
888.27	4793
888.395	4923
888.519	4778
888.643	4824
888.767	4786
888.891	4694
889.015	4550
889.139	4687
889.263	4603
889.387	4733
889.511	4896
889.635	4786
889.759	4630
889.883	4637
890.006	4740
890.13	4919
890.254	4630
890.377	4725
890.501	4546
890.624	4478
890.748	4641
890.871	4474
890.995	4466
891.118	4386
891.241	4516
891.364	4550
891.488	4660
891.611	4546
891.734	4519
891.857	4611
891.98	4542
892.103	4660
892.226	4592
892.349	4569
892.471	4413
892.594	4573
892.717	4580
892.839	4588
892.962	4641
893.085	4660
893.207	4577
893.33	4436
893.452	4542
893.575	4637
893.697	4603
893.819	4771
893.941	4786
894.064	4744
894.186	4565
894.308	4565
894.43	4702
894.552	4862
894.674	4714
894.796	4538
894.918	4584
895.04	4596
895.161	4672
895.283	4668
895.405	4519
895.526	4649
895.648	4683
895.769	4710
895.891	4733
896.012	4736
896.134	4744
896.255	4641
896.376	4599
896.498	4596
896.619	4691
896.74	4637
896.861	4675
896.982	4919
897.103	5056
897.224	4786
897.345	4744
897.466	4721
897.587	4698
897.708	4911
897.828	4774
897.949	4618
898.07	4626
898.19	4702
898.311	4847
898.431	4618
898.552	4752
898.672	4797
898.792	4828
898.913	4774
899.033	4618
899.153	4550
899.273	4447
899.393	4474
899.513	4554
899.633	4527
899.753	4516
899.873	4500
899.993	4554
900.113	4516
900.232	4622
900.352	4527
900.472	4497
900.591	4371
900.711	4523
900.83	4402
900.95	4573
901.069	4672
901.189	4527
901.308	4344
901.427	4314
901.546	4383
901.665	4497
901.784	4546
901.904	4424
902.023	4303
902.141	4204
902.26	4196
902.379	4310
902.498	4196
902.617	4223
902.735	4306
902.854	4409
902.973	4348
903.091	4211
903.21	4249
903.328	4249
903.446	4329
903.565	4207
903.683	4390
903.801	4265
903.919	4432
904.038	4398
904.156	4322
904.274	4424
904.392	4386
904.51	4459
904.627	4485
904.745	4584
904.863	4649
904.981	4394
905.098	4348
905.216	4375
905.334	4424
905.451	4455
905.569	4508
905.686	4512
905.803	4565
905.921	4424
906.038	4554
906.155	4497
906.272	4409
906.389	4466
906.506	4386
906.623	4367
906.74	4405
906.857	4276
906.974	4386
907.091	4596
907.208	4656
907.324	4569
907.441	4504
907.557	4367
907.674	4367
907.79	4341
907.907	4386
908.023	4478
908.139	4485
908.256	4383
908.372	4459
908.488	4462
908.604	4348
908.72	4360
908.836	4402
908.952	4413
909.068	4481
909.184	4611
909.3	4455
909.415	4611
909.531	4500
909.647	4371
909.762	4386
909.878	4318
909.993	4470
910.108	4394
910.224	4413
910.339	4474
910.454	4333
910.57	4379
910.685	4360
910.8	4687
910.915	4558
911.03	4516
911.145	4287
911.259	4325
911.374	4325
911.489	4295
911.604	4261
911.718	4196
911.833	4211
911.947	4067
912.062	4036
912.176	4227
912.291	4188
912.405	4204
912.519	4455
912.633	4493
912.748	4344
912.862	4280
912.976	4185
913.09	4067
913.204	4185
913.318	4238
913.431	4367
913.545	4363
913.659	4413
913.772	4348
913.886	4249
914	4230
914.113	4360
914.226	4428
914.34	4333
914.453	4211
914.566	4478
914.68	4276
914.793	4310
914.906	4135
915.019	4124
915.132	4093
915.245	4177
915.358	4265
915.47	4192
915.583	4257
915.696	4314
915.809	4394
915.921	4379
916.034	4268
916.146	4238
916.259	4215
916.371	4409
916.483	4360
916.595	4246
916.708	4303
916.82	4383
916.932	4314
917.044	4344
917.156	4341
917.268	4238
917.38	4280
917.491	4276
917.603	4344
917.715	4398
917.826	4447
917.938	4348
918.049	4257
918.161	4383
918.272	4550
918.384	4538
918.495	4459
918.606	4280
918.717	4230
918.828	4341
918.939	4356
919.05	4234
919.161	4344
919.272	4116
919.383	4253
919.494	4455
919.604	4615
919.715	4428
919.826	4405
919.936	4409
920.047	4542
920.157	4497
920.267	4679
920.378	4573
920.488	4485
920.598	4714
920.708	4915
920.818	4733
920.928	4744
921.038	4976
921.148	4892
921.258	4622
921.368	4554
921.477	4531
921.587	4466
921.697	4386
921.806	4550
921.916	4470
922.025	4291
922.134	4265
922.244	4242
922.353	4329
922.462	4169
922.571	4135
922.68	4002
922.789	3979
922.898	4036
923.007	4002
923.116	4074
923.224	4071
923.333	4025
923.442	3987
923.55	3979
923.659	4002
923.767	4135
923.876	4044
923.984	4166
924.092	3968
924.201	4124
924.309	4059
924.417	4116
924.525	4010
924.633	4093
924.741	5079
924.849	3918
924.956	4131
925.064	3949
925.172	3869
925.279	3991
925.387	4036
925.494	4105
925.602	4211
925.709	4166
925.816	4044
925.924	4131
926.031	4265
926.138	4162
926.245	4230
926.352	4074
926.459	4265
926.566	4329
926.673	4169
926.779	4059
926.886	4044
926.993	4006
927.099	3907
927.206	3945
927.312	3953
927.419	4093
927.525	3991
927.631	4101
927.737	3953
927.843	3964
927.95	3819
928.056	3949
928.162	4036
928.267	4059
928.373	4702
928.479	4074
928.585	3869
928.69	4021
928.796	4044
928.901	3975
929.007	3808
929.112	4036
929.218	3983
929.323	3926
929.428	3960
929.533	4093
929.638	3918
929.743	3991
929.848	4021
929.953	3934
930.058	3945
930.163	3800
930.267	3846
930.372	4025
930.477	3804
930.581	4139
930.685	3953
930.79	3812
930.894	3876
930.998	3846
931.103	3998
931.207	3732
931.311	3694
931.415	3694
931.519	3500
931.623	3549
