Data from test_V78500241_1537.txt Node
Date: Fri Mar 25 16:59:41 CST 2022
User: usil
Spectrometer: V785-0024
Trigger mode: 0
Integration Time (sec): 4.000000E-1
Scans to average: 1
Nonlinearity correction enabled: false
Boxcar width: 0
Storing dark spectrum: false
XAxis mode: Wavelengths
Number of Pixels in Spectrum: 1024
>>>>>Begin Spectral Data<<<<<
801.071	7978
801.214	7932
801.356	7864
801.499	7822
801.641	7780
801.783	7788
801.926	7925
802.068	7963
802.211	7955
802.353	8024
802.496	7826
802.638	7860
802.78	7871
802.923	7868
803.065	7849
803.208	7860
803.35	7917
803.492	8103
803.635	8145
803.777	7986
803.919	8100
804.061	8362
804.204	8107
804.346	8024
804.488	7989
804.63	8092
804.773	8046
804.915	8058
805.057	8271
805.199	8081
805.341	8126
805.483	8248
805.626	8145
805.768	8100
805.91	8164
806.052	8153
806.194	8123
806.336	8199
806.478	8111
806.62	8005
806.762	8115
806.904	8256
807.046	8454
807.188	8377
807.33	8355
807.472	8225
807.614	8115
807.756	8164
807.898	7982
808.04	7875
808.182	7883
808.324	7856
808.465	7940
808.607	8103
808.749	8130
808.891	8240
809.033	8256
809.174	8187
809.316	8039
809.458	8050
809.6	7967
809.741	8103
809.883	8024
810.025	8062
810.166	8065
810.308	7997
810.45	8012
810.591	7833
810.733	7731
810.875	7696
811.016	7552
811.158	7499
811.299	7624
811.441	7712
811.582	7628
811.724	7559
811.865	7495
812.007	7480
812.148	7472
812.29	7597
812.431	7715
812.573	7986
812.714	7932
812.855	8073
812.997	8218
813.138	8279
813.279	8161
813.421	8138
813.562	7917
813.703	7830
813.845	7742
813.986	7400
814.127	7213
814.268	7202
814.41	7187
814.551	7175
814.692	7179
814.833	7065
814.974	7069
815.115	7129
815.256	6981
815.397	6939
815.539	6905
815.68	6795
815.821	6810
815.962	6837
816.103	6753
816.244	6722
816.385	6692
816.526	6597
816.666	6479
816.807	6311
816.948	6490
817.089	6441
817.23	6426
817.371	6353
817.512	6384
817.653	6365
817.793	6304
817.934	6391
818.075	6513
818.216	6452
818.356	6407
818.497	6201
818.638	6068
818.778	6117
818.919	6083
819.06	6117
819.2	6342
819.341	6331
819.481	6357
819.622	6525
819.762	6688
819.903	6757
820.043	6563
820.184	6585
820.324	6502
820.465	6677
820.605	6696
820.746	6631
820.886	6532
821.026	6608
821.167	6684
821.307	6821
821.447	6738
821.588	6696
821.728	6498
821.868	6498
822.008	6338
822.149	6323
822.289	6369
822.429	6167
822.569	6114
822.709	6136
822.849	5893
822.99	5874
823.13	5863
823.27	5836
823.41	5809
823.55	5710
823.69	5733
823.83	5771
823.97	5680
824.11	5474
824.25	5463
824.389	5577
824.529	5539
824.669	5512
824.809	5585
824.949	5638
825.089	5566
825.228	5509
825.368	5357
825.508	5330
825.648	5334
825.787	5353
825.927	5372
826.067	5337
826.206	5292
826.346	5376
826.485	5398
826.625	5429
826.765	5535
826.904	5467
827.044	5201
827.183	5204
827.323	5102
827.462	5235
827.601	5181
827.741	5181
827.88	5170
828.02	5109
828.159	5250
828.298	5273
828.437	5299
828.577	5299
828.716	5478
828.855	5280
828.994	5124
829.134	5178
829.273	5178
829.412	5151
829.551	5109
829.69	5136
829.829	5223
829.968	5345
830.107	5254
830.246	5273
830.385	5231
830.524	5098
830.663	5060
830.802	4980
830.941	4885
831.08	4850
831.219	4965
831.357	5006
831.496	5155
831.635	4904
831.774	4847
831.913	4843
832.051	4748
832.19	4725
832.329	4839
832.467	4694
832.606	4653
832.744	4714
832.883	4710
833.022	4710
833.16	4790
833.299	4767
833.437	4774
833.576	4801
833.714	4835
833.852	4824
833.991	4904
834.129	4934
834.267	4976
834.406	4915
834.544	4957
834.682	4949
834.821	4995
834.959	5117
835.097	4911
835.235	5151
835.373	5083
835.511	5121
835.65	5014
835.788	5018
835.926	4892
836.064	4854
836.202	4870
836.34	5117
836.478	5239
836.615	5136
836.753	5151
836.891	5261
837.029	5181
837.167	5204
837.305	5193
837.443	5140
837.58	5067
837.718	5208
837.856	5178
837.993	5128
838.131	5242
838.269	5204
838.406	5162
838.544	5204
838.681	5010
838.819	5006
838.956	4877
839.094	4911
839.231	4938
839.369	5060
839.506	5429
839.643	5235
839.781	5037
839.918	5022
840.055	5086
840.193	5067
840.33	5048
840.467	5083
840.604	5159
840.742	5429
840.879	5132
841.016	5033
841.153	5109
841.29	5334
841.427	5265
841.564	5292
841.701	5337
841.838	5296
841.975	5258
842.112	5254
842.249	5117
842.385	5090
842.522	5288
842.659	5162
842.796	5193
842.933	5235
843.069	5124
843.206	5162
843.343	5254
843.479	5185
843.616	5254
843.752	4980
843.889	4995
844.025	5223
844.162	4991
844.298	5151
844.435	5048
844.571	5033
844.708	5181
844.844	5265
844.98	5337
845.117	5250
845.253	5086
845.389	5045
845.525	5155
845.661	5121
845.798	5033
845.934	5117
846.07	5022
846.206	5181
846.342	5239
846.478	5121
846.614	5018
846.75	4976
846.886	4949
847.022	5094
847.158	5037
847.294	5025
847.429	5098
847.565	5014
847.701	5261
847.837	4847
847.972	4805
848.108	4919
848.244	4942
848.379	4717
848.515	4710
848.65	4710
848.786	4706
848.921	4729
849.057	4786
849.192	4858
849.328	4805
849.463	4782
849.598	4778
849.734	4748
849.869	4653
850.004	4626
850.14	4656
850.275	4565
850.41	4512
850.545	4546
850.68	4561
850.815	4637
850.95	4630
851.085	4854
851.22	4740
851.355	4634
851.49	4630
851.625	4618
851.76	4641
851.895	4558
852.03	4531
852.165	4683
852.299	4702
852.434	4809
852.569	4714
852.703	4748
852.838	4812
852.973	4923
853.107	4881
853.242	4744
853.376	4714
853.511	4508
853.645	4634
853.78	4782
853.914	4691
854.048	4634
854.183	4577
854.317	4714
854.451	4820
854.585	4626
854.72	4622
854.854	4790
854.988	4584
855.122	4603
855.256	4554
855.39	4630
855.524	4767
855.658	4706
855.792	4668
855.926	4683
856.06	4801
856.194	4752
856.327	4660
856.461	4599
856.595	4596
856.729	4672
856.862	4767
856.996	4664
857.13	4687
857.263	4771
857.397	4816
857.53	4634
857.664	4714
857.797	4755
857.931	4763
858.064	4634
858.197	4763
858.331	4649
858.464	4569
858.597	4519
858.731	4618
858.864	4641
858.997	4618
859.13	4618
859.263	4664
859.396	4687
859.529	4542
859.662	4538
859.795	4538
859.928	4660
860.061	4744
860.194	4763
860.327	4569
860.46	4535
860.592	4717
860.725	4717
860.858	4717
860.99	4546
861.123	4481
861.256	4455
861.388	4615
861.521	5269
861.653	4459
861.786	4447
861.918	4462
862.05	4497
862.183	4504
862.315	4573
862.447	4645
862.58	4527
862.712	4428
862.844	4329
862.976	4440
863.108	4447
863.24	4717
863.372	4348
863.504	4375
863.636	4394
863.768	4478
863.9	4443
864.032	4394
864.164	4386
864.296	4493
864.428	4550
864.559	4588
864.691	4531
864.823	4493
864.954	4447
865.086	4493
865.217	4462
865.349	4443
865.48	4424
865.612	4470
865.743	4569
865.875	4424
866.006	4481
866.137	4405
866.269	4447
866.4	4402
866.531	4413
866.662	4386
866.793	4417
866.924	4360
867.055	4413
867.186	4470
867.317	4394
867.448	4386
867.579	4394
867.71	4318
867.841	4352
867.972	4409
868.103	4455
868.233	4409
868.364	4428
868.495	4424
868.625	4679
868.756	4714
868.886	4558
869.017	4626
869.147	4729
869.278	4774
869.408	4637
869.539	4592
869.669	4702
869.799	4592
869.929	4706
870.06	4702
870.19	4919
870.32	4900
870.45	4904
870.58	5006
870.71	5029
870.84	5079
870.97	4927
871.1	4843
871.23	5136
871.36	5075
871.489	4968
871.619	5037
871.749	5075
871.879	5136
872.008	5117
872.138	5025
872.267	5003
872.397	4885
872.526	4782
872.656	4645
872.785	4786
872.915	4927
873.044	4972
873.173	4908
873.303	4923
873.432	4953
873.561	4949
873.69	4866
873.819	4858
873.948	4873
874.077	4831
874.206	4740
874.335	4759
874.464	4934
874.593	5083
874.722	4968
874.851	5102
874.979	5102
875.108	5029
875.237	4930
875.365	4854
875.494	4854
875.623	4972
875.751	4805
875.88	4896
876.008	4949
876.136	5060
876.265	5181
876.393	5376
876.521	5284
876.65	5227
876.778	5189
876.906	5056
877.034	5041
877.162	5071
877.29	4984
877.418	5064
877.546	5045
877.674	5048
877.802	5041
877.93	5071
878.058	4976
878.185	4934
878.313	4972
878.441	4972
878.568	4820
878.696	4919
878.824	4999
878.951	5025
879.079	5197
879.206	5303
879.333	5143
879.461	5045
879.588	5006
879.715	5174
879.842	5246
879.97	5079
880.097	4831
880.224	4774
880.351	4900
880.478	4866
880.605	4774
880.732	4873
880.859	5064
880.986	4900
881.112	4919
881.239	4790
881.366	4641
881.493	4649
881.619	4634
881.746	4714
881.872	4714
881.999	4645
882.125	4706
882.252	4820
882.378	4881
882.505	4946
882.631	4805
882.757	4675
882.883	4767
883.01	4733
883.136	4675
883.262	4679
883.388	4622
883.514	4824
883.64	4824
883.766	4824
883.892	4710
884.018	4767
884.143	4930
884.269	5018
884.395	4725
884.52	4687
884.646	4656
884.772	4622
884.897	4546
885.023	4660
885.148	4774
885.274	4854
885.399	4809
885.524	4774
885.65	4755
885.775	4763
885.9	4721
886.025	4870
886.15	4847
886.275	4752
886.4	4683
886.525	4748
886.65	4706
886.775	4736
886.9	4965
887.025	5045
887.149	4809
887.274	4679
887.399	4573
887.523	4653
887.648	4550
887.773	4637
887.897	4717
888.021	4816
888.146	4683
888.27	4862
888.395	4972
888.519	4858
888.643	4873
888.767	4896
888.891	4736
889.015	4637
889.139	4668
889.263	4611
889.387	4782
889.511	4881
889.635	4816
889.759	4660
889.883	4691
890.006	4744
890.13	4824
890.254	4645
890.377	4755
890.501	4577
890.624	4462
890.748	4634
890.871	4519
890.995	4459
891.118	4455
891.241	4554
891.364	4592
891.488	4675
891.611	4512
891.734	4531
891.857	4618
891.98	4542
892.103	4702
892.226	4573
892.349	4535
892.471	4443
892.594	4573
892.717	4607
892.839	4653
892.962	4653
893.085	4675
893.207	4626
893.33	4462
893.452	4531
893.575	4691
893.697	4573
893.819	4786
893.941	4816
894.064	4748
894.186	4596
894.308	4596
894.43	4759
894.552	4850
894.674	4744
894.796	4565
894.918	4649
895.04	4645
895.161	4691
895.283	4668
895.405	4615
895.526	4653
895.648	4694
895.769	4706
895.891	4774
896.012	4774
896.134	4759
896.255	4714
896.376	4641
896.498	4675
896.619	4752
896.74	4615
896.861	4694
896.982	4965
897.103	5113
897.224	4900
897.345	4759
897.466	4687
897.587	4771
897.708	4870
897.828	4793
897.949	4710
898.07	4603
898.19	4660
898.311	4854
898.431	4717
898.552	4748
898.672	4831
898.792	4797
898.913	4805
899.033	4649
899.153	4580
899.273	4485
899.393	4485
899.513	4550
899.633	4546
899.753	4550
899.873	4504
899.993	4603
900.113	4565
900.232	4645
900.352	4611
900.472	4519
900.591	4443
900.711	4531
900.83	4493
900.95	4649
901.069	4729
901.189	4588
901.308	4402
901.427	4333
901.546	4413
901.665	4519
901.784	4538
901.904	4413
902.023	4333
902.141	4215
902.26	4173
902.379	4318
902.498	4272
902.617	4253
902.735	4386
902.854	4413
902.973	4371
903.091	4173
903.21	4265
903.328	4333
903.446	4306
903.565	4261
903.683	4394
903.801	4306
903.919	4451
904.038	4462
904.156	4341
904.274	4470
904.392	4447
904.51	4500
904.627	4478
904.745	4626
904.863	4645
904.981	4405
905.098	4303
905.216	4394
905.334	4405
905.451	4405
905.569	4455
905.686	4607
905.803	4611
905.921	4459
906.038	4569
906.155	4500
906.272	4413
906.389	4493
906.506	4363
906.623	4428
906.74	4443
906.857	4371
906.974	4402
907.091	4569
907.208	4649
907.324	4615
907.441	4497
907.557	4363
907.674	4405
907.79	4379
907.907	4352
908.023	4523
908.139	4512
908.256	4462
908.372	4493
908.488	4485
908.604	4375
908.72	4352
908.836	4398
908.952	4375
909.068	4485
909.184	4550
909.3	4519
909.415	4596
909.531	4561
909.647	4375
909.762	4394
909.878	4360
909.993	4455
910.108	4451
910.224	4466
910.339	4538
910.454	4489
910.57	4413
910.685	4318
910.8	4653
910.915	4577
911.03	4497
911.145	4306
911.259	4360
911.374	4379
911.489	4276
911.604	4333
911.718	4227
911.833	4204
911.947	4116
912.062	4025
912.176	4249
912.291	4261
912.405	4291
912.519	4478
912.633	4577
912.748	4398
912.862	4329
912.976	4230
913.09	4162
913.204	4192
913.318	4265
913.431	4383
913.545	4375
913.659	4421
913.772	4386
913.886	4238
914	4227
914.113	4363
914.226	4413
914.34	4386
914.453	4284
914.566	4474
914.68	4348
914.793	4341
914.906	4211
915.019	4109
915.132	4093
915.245	4177
915.358	4257
915.47	4249
915.583	4265
915.696	4295
915.809	4432
915.921	4424
916.034	4253
916.146	4253
916.259	4268
916.371	4367
916.483	4379
916.595	4265
916.708	4356
916.82	4322
916.932	4329
917.044	4329
917.156	4348
917.268	4230
917.38	4287
917.491	4303
917.603	4352
917.715	4383
917.826	4424
917.938	4405
918.049	4253
918.161	4402
918.272	4542
918.384	4546
918.495	4493
918.606	4352
918.717	4276
918.828	4356
918.939	4421
919.05	4291
919.161	4329
919.272	4169
919.383	4223
919.494	4443
919.604	4630
919.715	4470
919.826	4360
919.936	4470
920.047	4531
920.157	4531
920.267	4725
920.378	4596
920.488	4516
920.598	4782
920.708	4892
920.818	4767
920.928	4786
921.038	4961
921.148	4938
921.258	4573
921.368	4554
921.477	4474
921.587	4459
921.697	4405
921.806	4588
921.916	4459
922.025	4341
922.134	4280
922.244	4227
922.353	4386
922.462	4173
922.571	4158
922.68	4021
922.789	4002
922.898	4048
923.007	4032
923.116	4139
923.224	4101
923.333	4078
923.442	4025
923.55	3994
923.659	4071
923.767	4169
923.876	3975
923.984	4109
924.092	4025
924.201	4101
924.309	4147
924.417	4147
924.525	4078
924.633	4143
924.741	4873
924.849	3968
924.956	4143
925.064	3975
925.172	3907
925.279	3975
925.387	4097
925.494	4074
925.602	4192
925.709	4173
925.816	4036
925.924	4154
926.031	4238
926.138	4154
926.245	4192
926.352	4139
926.459	4272
926.566	4299
926.673	4177
926.779	4093
926.886	4090
926.993	3998
927.099	4006
927.206	3960
927.312	3926
927.419	4067
927.525	4048
927.631	4116
927.737	4013
927.843	3949
927.95	3861
928.056	3968
928.162	3979
928.267	4135
928.373	4542
928.479	4090
928.585	3880
928.69	4010
928.796	4105
928.901	3979
929.007	3831
929.112	4044
929.218	3975
929.323	3975
929.428	3934
929.533	4162
929.638	3896
929.743	3987
929.848	4059
929.953	3994
930.058	3953
930.163	3804
930.267	3846
930.372	3979
930.477	3827
930.581	4128
930.685	3949
930.79	3850
930.894	3873
930.998	3888
931.103	4048
931.207	3717
931.311	3728
931.415	3667
931.519	3561
931.623	3545
