Data from test_V78500241_1378.txt Node
Date: Fri Mar 25 16:58:34 CST 2022
User: usil
Spectrometer: V785-0024
Trigger mode: 0
Integration Time (sec): 4.000000E-1
Scans to average: 1
Nonlinearity correction enabled: false
Boxcar width: 0
Storing dark spectrum: false
XAxis mode: Wavelengths
Number of Pixels in Spectrum: 1024
>>>>>Begin Spectral Data<<<<<
801.071	7932
801.214	8024
801.356	7845
801.499	7890
801.641	7879
801.783	7795
801.926	7928
802.068	7906
802.211	8016
802.353	7951
802.496	7792
802.638	7833
802.78	7883
802.923	7921
803.065	7917
803.208	7860
803.35	7967
803.492	8054
803.635	8069
803.777	8027
803.919	8088
804.061	8446
804.204	8157
804.346	8077
804.488	8008
804.63	8107
804.773	8005
804.915	8126
805.057	8248
805.199	8180
805.341	8206
805.483	8176
805.626	8180
805.768	8058
805.91	8225
806.052	8233
806.194	8153
806.336	8317
806.478	8096
806.62	8062
806.762	8149
806.904	8343
807.046	8511
807.188	8328
807.33	8271
807.472	8362
807.614	8183
807.756	8153
807.898	7993
808.04	7868
808.182	7898
808.324	7947
808.465	7879
808.607	8084
808.749	8157
808.891	8176
809.033	8328
809.174	8248
809.316	8081
809.458	8084
809.6	8012
809.741	7963
809.883	7967
810.025	8096
810.166	8016
810.308	8046
810.45	7982
810.591	7856
810.733	7757
810.875	7613
811.016	7533
811.158	7476
811.299	7609
811.441	7723
811.582	7731
811.724	7556
811.865	7518
812.007	7609
812.148	7563
812.29	7605
812.431	7845
812.573	7852
812.714	7936
812.855	8134
812.997	8210
813.138	8377
813.279	8138
813.421	8103
813.562	7925
813.703	7822
813.845	7727
813.986	7373
814.127	7270
814.268	7206
814.41	7228
814.551	7156
814.692	7206
814.833	7027
814.974	7110
815.115	7129
815.256	6973
815.397	6951
815.539	7000
815.68	6878
815.821	6818
815.962	6825
816.103	6856
816.244	6760
816.385	6601
816.526	6620
816.666	6513
816.807	6300
816.948	6407
817.089	6460
817.23	6403
817.371	6372
817.512	6376
817.653	6372
817.793	6342
817.934	6395
818.075	6479
818.216	6460
818.356	6414
818.497	6216
818.638	6152
818.778	6205
818.919	6152
819.06	6216
819.2	6350
819.341	6315
819.481	6410
819.622	6509
819.762	6692
819.903	6593
820.043	6570
820.184	6528
820.324	6566
820.465	6707
820.605	6642
820.746	6620
820.886	6479
821.026	6635
821.167	6688
821.307	6802
821.447	6722
821.588	6642
821.728	6506
821.868	6502
822.008	6308
822.149	6372
822.289	6323
822.429	6117
822.569	6038
822.709	6068
822.849	5923
822.99	5927
823.13	5882
823.27	5923
823.41	5760
823.55	5767
823.69	5824
823.83	5805
823.97	5642
824.11	5512
824.25	5482
824.389	5543
824.529	5562
824.669	5493
824.809	5585
824.949	5577
825.089	5638
825.228	5551
825.368	5364
825.508	5318
825.648	5341
825.787	5395
825.927	5391
826.067	5277
826.206	5235
826.346	5357
826.485	5414
826.625	5341
826.765	5524
826.904	5429
827.044	5170
827.183	5220
827.323	5147
827.462	5181
827.601	5151
827.741	5136
827.88	5212
828.02	5048
828.159	5265
828.298	5280
828.437	5318
828.577	5239
828.716	5448
828.855	5261
828.994	5109
829.134	5105
829.273	5128
829.412	5147
829.551	5143
829.69	5140
829.829	5197
829.968	5357
830.107	5265
830.246	5227
830.385	5128
830.524	5117
830.663	5041
830.802	4987
830.941	4881
831.08	4892
831.219	4949
831.357	4946
831.496	5151
831.635	4957
831.774	4847
831.913	4835
832.051	4740
832.19	4698
832.329	4805
832.467	4733
832.606	4599
832.744	4755
832.883	4683
833.022	4694
833.16	4778
833.299	4793
833.437	4816
833.576	4843
833.714	4828
833.852	4889
833.991	4889
834.129	4972
834.267	4946
834.406	4870
834.544	5025
834.682	5003
834.821	4984
834.959	5151
835.097	4999
835.235	5105
835.373	5056
835.511	5079
835.65	4991
835.788	5033
835.926	4835
836.064	4824
836.202	4873
836.34	5178
836.478	5185
836.615	5132
836.753	5212
836.891	5307
837.029	5201
837.167	5189
837.305	5155
837.443	5174
837.58	5052
837.718	5220
837.856	5185
837.993	5117
838.131	5189
838.269	5193
838.406	5216
838.544	5159
838.681	5006
838.819	4980
838.956	4911
839.094	4873
839.231	4995
839.369	5086
839.506	5421
839.643	5280
839.781	5113
839.918	5003
840.055	5067
840.193	5067
840.33	5037
840.467	5094
840.604	5258
840.742	5459
840.879	5086
841.016	5090
841.153	5113
841.29	5357
841.427	5315
841.564	5288
841.701	5364
841.838	5254
841.975	5261
842.112	5258
842.249	5162
842.385	5102
842.522	5341
842.659	5151
842.796	5136
842.933	5231
843.069	5181
843.206	5159
843.343	5345
843.479	5227
843.616	5254
843.752	5010
843.889	4965
844.025	5208
844.162	5029
844.298	5193
844.435	5052
844.571	5064
844.708	5208
844.844	5242
844.98	5349
845.117	5220
845.253	5162
845.389	5098
845.525	5136
845.661	5143
845.798	5003
845.934	5094
846.07	5090
846.206	5201
846.342	5284
846.478	5170
846.614	5041
846.75	4976
846.886	4965
847.022	5090
847.158	5010
847.294	5067
847.429	5124
847.565	5033
847.701	5288
847.837	4870
847.972	4805
848.108	4949
848.244	4915
848.379	4824
848.515	4679
848.65	4687
848.786	4736
848.921	4759
849.057	4816
849.192	4896
849.328	4797
849.463	4843
849.598	4752
849.734	4736
849.869	4706
850.004	4634
850.14	4687
850.275	4577
850.41	4512
850.545	4527
850.68	4603
850.815	4558
850.95	4580
851.085	4820
851.22	4767
851.355	4641
851.49	4577
851.625	4634
851.76	4603
851.895	4607
852.03	4538
852.165	4626
852.299	4694
852.434	4786
852.569	4691
852.703	4752
852.838	4809
852.973	4900
853.107	4953
853.242	4702
853.376	4653
853.511	4497
853.645	4618
853.78	4782
853.914	4679
854.048	4641
854.183	4580
854.317	4668
854.451	4801
854.585	4649
854.72	4599
854.854	4714
854.988	4580
855.122	4618
855.256	4527
855.39	4626
855.524	4797
855.658	4698
855.792	4675
855.926	4717
856.06	4736
856.194	4759
856.327	4637
856.461	4615
856.595	4649
856.729	4611
856.862	4733
856.996	4656
857.13	4710
857.263	4729
857.397	4767
857.53	4607
857.664	4710
857.797	4786
857.931	4763
858.064	4660
858.197	4744
858.331	4641
858.464	4565
858.597	4565
858.731	4599
858.864	4653
858.997	4535
859.13	4649
859.263	4637
859.396	4679
859.529	4588
859.662	4554
859.795	4527
859.928	4618
860.061	4759
860.194	4725
860.327	4599
860.46	4531
860.592	4672
860.725	4675
860.858	4694
860.99	4580
861.123	4485
861.256	4470
861.388	4569
861.521	5368
861.653	4481
861.786	4459
861.918	4405
862.05	4493
862.183	4508
862.315	4630
862.447	4649
862.58	4569
862.712	4379
862.844	4306
862.976	4481
863.108	4489
863.24	4847
863.372	4333
863.504	4402
863.636	4405
863.768	4478
863.9	4421
864.032	4402
864.164	4405
864.296	4443
864.428	4580
864.559	4546
864.691	4493
864.823	4497
864.954	4535
865.086	4481
865.217	4481
865.349	4375
865.48	4398
865.612	4478
865.743	4641
865.875	4447
866.006	4432
866.137	4417
866.269	4413
866.4	4436
866.531	4379
866.662	4383
866.793	4386
866.924	4394
867.055	4447
867.186	4474
867.317	4436
867.448	4360
867.579	4405
867.71	4424
867.841	4344
867.972	4466
868.103	4459
868.233	4440
868.364	4462
868.495	4443
868.625	4660
868.756	4771
868.886	4558
869.017	4580
869.147	4759
869.278	4767
869.408	4656
869.539	4596
869.669	4706
869.799	4599
869.929	4725
870.06	4679
870.19	4892
870.32	4904
870.45	4915
870.58	5018
870.71	5124
870.84	5067
870.97	4938
871.1	4877
871.23	5113
871.36	5098
871.489	4976
871.619	5064
871.749	5037
871.879	5128
872.008	5189
872.138	5037
872.267	4957
872.397	4862
872.526	4801
872.656	4725
872.785	4824
872.915	4942
873.044	5010
873.173	4892
873.303	4915
873.432	4938
873.561	4938
873.69	4858
873.819	4889
873.948	4915
874.077	4812
874.206	4736
874.335	4805
874.464	4927
874.593	5075
874.722	4953
874.851	5064
874.979	5064
875.108	4987
875.237	4923
875.365	4854
875.494	4896
875.623	5010
875.751	4805
875.88	4911
876.008	4949
876.136	5014
876.265	5231
876.393	5315
876.521	5208
876.65	5159
876.778	5170
876.906	5079
877.034	4999
877.162	5064
877.29	4957
877.418	5083
877.546	5010
877.674	5064
877.802	4999
877.93	5014
878.058	4946
878.185	4805
878.313	4968
878.441	4972
878.568	4801
878.696	4843
878.824	4881
878.951	5037
879.079	5155
879.206	5239
879.333	5060
879.461	4919
879.588	4995
879.715	5151
879.842	5227
879.97	4976
880.097	4812
880.224	4759
880.351	4812
880.478	4805
880.605	4805
880.732	4755
880.859	5052
880.986	4866
881.112	4862
881.239	4774
881.366	4664
881.493	4603
881.619	4599
881.746	4630
881.872	4607
881.999	4626
882.125	4664
882.252	4816
882.378	4782
882.505	4961
882.631	4816
882.757	4694
882.883	4736
883.01	4733
883.136	4675
883.262	4580
883.388	4599
883.514	4759
883.64	4843
883.766	4809
883.892	4645
884.018	4675
884.143	4911
884.269	4991
884.395	4687
884.52	4569
884.646	4596
884.772	4607
884.897	4519
885.023	4626
885.148	4748
885.274	4816
885.399	4790
885.524	4717
885.65	4672
885.775	4790
885.9	4679
886.025	4809
886.15	4809
886.275	4717
886.4	4615
886.525	4691
886.65	4752
886.775	4691
886.9	4900
887.025	5018
887.149	4824
887.274	4618
887.399	4546
887.523	4569
887.648	4596
887.773	4573
887.897	4778
888.021	4774
888.146	4687
888.27	4812
888.395	4908
888.519	4812
888.643	4778
888.767	4831
888.891	4649
889.015	4603
889.139	4615
889.263	4622
889.387	4733
889.511	4854
889.635	4797
889.759	4626
889.883	4656
890.006	4733
890.13	4839
890.254	4618
890.377	4694
890.501	4565
890.624	4523
890.748	4634
890.871	4508
890.995	4402
891.118	4367
891.241	4493
891.364	4538
891.488	4660
891.611	4478
891.734	4531
891.857	4569
891.98	4569
892.103	4641
892.226	4615
892.349	4527
892.471	4436
892.594	4512
892.717	4649
892.839	4588
892.962	4565
893.085	4637
893.207	4554
893.33	4447
893.452	4470
893.575	4694
893.697	4523
893.819	4721
893.941	4843
894.064	4778
894.186	4569
894.308	4573
894.43	4748
894.552	4820
894.674	4790
894.796	4500
894.918	4573
895.04	4558
895.161	4714
895.283	4649
895.405	4577
895.526	4645
895.648	4672
895.769	4664
895.891	4710
896.012	4721
896.134	4687
896.255	4691
896.376	4634
896.498	4577
896.619	4611
896.74	4580
896.861	4706
896.982	4919
897.103	5083
897.224	4771
897.345	4740
897.466	4675
897.587	4721
897.708	4858
897.828	4793
897.949	4675
898.07	4538
898.19	4630
898.311	4858
898.431	4694
898.552	4694
898.672	4793
898.792	4782
898.913	4740
899.033	4649
899.153	4489
899.273	4421
899.393	4508
899.513	4489
899.633	4481
899.753	4512
899.873	4531
899.993	4611
900.113	4542
900.232	4573
900.352	4569
900.472	4500
900.591	4440
900.711	4489
900.83	4383
900.95	4584
901.069	4656
901.189	4538
901.308	4329
901.427	4318
901.546	4398
901.665	4451
901.784	4451
901.904	4367
902.023	4375
902.141	4223
902.26	4192
902.379	4318
902.498	4204
902.617	4242
902.735	4348
902.854	4379
902.973	4375
903.091	4223
903.21	4154
903.328	4314
903.446	4265
903.565	4291
903.683	4348
903.801	4242
903.919	4428
904.038	4432
904.156	4276
904.274	4432
904.392	4383
904.51	4417
904.627	4474
904.745	4538
904.863	4660
904.981	4428
905.098	4291
905.216	4363
905.334	4405
905.451	4436
905.569	4443
905.686	4538
905.803	4527
905.921	4424
906.038	4519
906.155	4493
906.272	4390
906.389	4421
906.506	4352
906.623	4341
906.74	4352
906.857	4314
906.974	4322
907.091	4535
907.208	4634
907.324	4580
907.441	4485
907.557	4344
907.674	4325
907.79	4333
907.907	4371
908.023	4500
908.139	4459
908.256	4398
908.372	4478
908.488	4447
908.604	4333
908.72	4291
908.836	4379
908.952	4318
909.068	4398
909.184	4554
909.3	4417
909.415	4607
909.531	4580
909.647	4379
909.762	4394
909.878	4352
909.993	4432
910.108	4390
910.224	4421
910.339	4424
910.454	4371
910.57	4352
910.685	4280
910.8	4611
910.915	4588
911.03	4508
911.145	4303
911.259	4280
911.374	4402
911.489	4295
911.604	4265
911.718	4158
911.833	4188
911.947	4013
912.062	3998
912.176	4139
912.291	4227
912.405	4299
912.519	4424
912.633	4538
912.748	4371
912.862	4329
912.976	4185
913.09	4059
913.204	4162
913.318	4227
913.431	4329
913.545	4318
913.659	4409
913.772	4371
913.886	4223
914	4196
914.113	4398
914.226	4424
914.34	4390
914.453	4196
914.566	4470
914.68	4295
914.793	4329
914.906	4150
915.019	4128
915.132	4063
915.245	4162
915.358	4223
915.47	4200
915.583	4249
915.696	4306
915.809	4443
915.921	4386
916.034	4265
916.146	4227
916.259	4223
916.371	4409
916.483	4344
916.595	4242
916.708	4280
916.82	4322
916.932	4341
917.044	4314
917.156	4348
917.268	4246
917.38	4291
917.491	4322
917.603	4322
917.715	4436
917.826	4428
917.938	4398
918.049	4230
918.161	4421
918.272	4493
918.384	4497
918.495	4470
918.606	4284
918.717	4246
918.828	4329
918.939	4398
919.05	4284
919.161	4314
919.272	4093
919.383	4219
919.494	4459
919.604	4615
919.715	4405
919.826	4329
919.936	4386
920.047	4478
920.157	4470
920.267	4641
920.378	4531
920.488	4447
920.598	4687
920.708	4835
920.818	4733
920.928	4725
921.038	4927
921.148	4904
921.258	4637
921.368	4577
921.477	4470
921.587	4474
921.697	4363
921.806	4546
921.916	4447
922.025	4318
922.134	4276
922.244	4238
922.353	4337
922.462	4147
922.571	4116
922.68	4013
922.789	3991
922.898	4082
923.007	3956
923.116	4048
923.224	4051
923.333	4105
923.442	4002
923.55	3949
923.659	3991
923.767	4086
923.876	3991
923.984	4120
924.092	3945
924.201	4067
924.309	4086
924.417	4093
924.525	4021
924.633	4090
924.741	5056
924.849	3880
924.956	4120
925.064	3979
925.172	3911
925.279	3960
925.387	4044
925.494	3998
925.602	4219
925.709	4116
925.816	4051
925.924	4086
926.031	4234
926.138	4147
926.245	4196
926.352	4067
926.459	4265
926.566	4322
926.673	4162
926.779	4078
926.886	4051
926.993	3975
927.099	3983
927.206	3926
927.312	3934
927.419	4032
927.525	3991
927.631	4063
927.737	3937
927.843	3941
927.95	3838
928.056	3953
928.162	3987
928.267	4097
928.373	4691
928.479	4021
928.585	3876
928.69	4002
928.796	4086
928.901	3892
929.007	3827
929.112	4010
929.218	3983
929.323	3968
929.428	3907
929.533	4097
929.638	3941
929.743	3941
929.848	4029
929.953	4010
930.058	3930
930.163	3770
930.267	3808
930.372	3975
930.477	3838
930.581	4101
930.685	3956
930.79	3819
930.894	3922
930.998	3884
931.103	4029
931.207	3698
931.311	3663
931.415	3618
931.519	3530
931.623	3557
