Data from test_V78500241_1930.txt Node
Date: Fri Mar 25 17:02:25 CST 2022
User: usil
Spectrometer: V785-0024
Trigger mode: 0
Integration Time (sec): 4.000000E-1
Scans to average: 1
Nonlinearity correction enabled: false
Boxcar width: 0
Storing dark spectrum: false
XAxis mode: Wavelengths
Number of Pixels in Spectrum: 1024
>>>>>Begin Spectral Data<<<<<
801.071	8016
801.214	8039
801.356	7830
801.499	7841
801.641	7784
801.783	7746
801.926	7963
802.068	7894
802.211	7909
802.353	7963
802.496	7837
802.638	7849
802.78	7864
802.923	7925
803.065	7875
803.208	7833
803.35	7974
803.492	8050
803.635	8138
803.777	8008
803.919	8115
804.061	8457
804.204	8149
804.346	8081
804.488	7970
804.63	8092
804.773	8020
804.915	8077
805.057	8313
805.199	8183
805.341	8168
805.483	8252
805.626	8168
805.768	8149
805.91	8240
806.052	8183
806.194	8065
806.336	8259
806.478	8031
806.62	7997
806.762	8172
806.904	8336
807.046	8469
807.188	8366
807.33	8320
807.472	8259
807.614	8119
807.756	8081
807.898	7986
808.04	7932
808.182	7925
808.324	7849
808.465	7883
808.607	8005
808.749	8084
808.891	8221
809.033	8244
809.174	8221
809.316	8081
809.458	8111
809.6	7932
809.741	8062
809.883	8054
810.025	8077
810.166	8012
810.308	8069
810.45	7978
810.591	7830
810.733	7746
810.875	7674
811.016	7476
811.158	7434
811.299	7518
811.441	7670
811.582	7616
811.724	7559
811.865	7518
812.007	7540
812.148	7655
812.29	7590
812.431	7811
812.573	7830
812.714	8035
812.855	8183
812.997	8142
813.138	8229
813.279	8168
813.421	8050
813.562	7932
813.703	7780
813.845	7723
813.986	7381
814.127	7129
814.268	7240
814.41	7221
814.551	7175
814.692	7209
814.833	7114
814.974	7069
815.115	7107
815.256	7012
815.397	6875
815.539	6966
815.68	6852
815.821	6757
815.962	6802
816.103	6829
816.244	6692
816.385	6620
816.526	6623
816.666	6452
816.807	6327
816.948	6437
817.089	6456
817.23	6422
817.371	6361
817.512	6365
817.653	6357
817.793	6300
817.934	6391
818.075	6426
818.216	6490
818.356	6376
818.497	6273
818.638	6133
818.778	6163
818.919	6117
819.06	6190
819.2	6300
819.341	6357
819.481	6323
819.622	6589
819.762	6700
819.903	6722
820.043	6604
820.184	6563
820.324	6559
820.465	6719
820.605	6711
820.746	6612
820.886	6460
821.026	6654
821.167	6662
821.307	6818
821.447	6738
821.588	6662
821.728	6627
821.868	6544
822.008	6289
822.149	6319
822.289	6315
822.429	6159
822.569	6140
822.709	6110
822.849	5939
822.99	5859
823.13	5904
823.27	5878
823.41	5824
823.55	5802
823.69	5775
823.83	5786
823.97	5646
824.11	5604
824.25	5501
824.389	5512
824.529	5551
824.669	5497
824.809	5585
824.949	5699
825.089	5615
825.228	5535
825.368	5372
825.508	5326
825.648	5360
825.787	5353
825.927	5379
826.067	5311
826.206	5334
826.346	5387
826.485	5395
826.625	5391
826.765	5573
826.904	5471
827.044	5254
827.183	5140
827.323	5166
827.462	5201
827.601	5140
827.741	5189
827.88	5212
828.02	5117
828.159	5220
828.298	5322
828.437	5330
828.577	5254
828.716	5452
828.855	5311
828.994	5143
829.134	5197
829.273	5170
829.412	5178
829.551	5159
829.69	5159
829.829	5242
829.968	5357
830.107	5261
830.246	5292
830.385	5235
830.524	5151
830.663	5098
830.802	4942
830.941	4873
831.08	4870
831.219	4976
831.357	4976
831.496	5124
831.635	4942
831.774	4854
831.913	4843
832.051	4687
832.19	4717
832.329	4854
832.467	4710
832.606	4588
832.744	4736
832.883	4702
833.022	4717
833.16	4786
833.299	4835
833.437	4828
833.576	4809
833.714	4843
833.852	4862
833.991	4889
834.129	4946
834.267	4934
834.406	4870
834.544	4957
834.682	4946
834.821	4953
834.959	5159
835.097	4961
835.235	5151
835.373	5067
835.511	5067
835.65	5037
835.788	5029
835.926	4900
836.064	4843
836.202	4923
836.34	5132
836.478	5212
836.615	5090
836.753	5212
836.891	5273
837.029	5231
837.167	5128
837.305	5181
837.443	5178
837.58	5060
837.718	5242
837.856	5204
837.993	5113
838.131	5254
838.269	5159
838.406	5159
838.544	5212
838.681	5003
838.819	5045
838.956	4847
839.094	4877
839.231	4968
839.369	5048
839.506	5383
839.643	5284
839.781	5060
839.918	4965
840.055	5071
840.193	5075
840.33	5132
840.467	5185
840.604	5265
840.742	5383
840.879	5094
841.016	5086
841.153	5136
841.29	5406
841.427	5318
841.564	5265
841.701	5360
841.838	5277
841.975	5239
842.112	5299
842.249	5132
842.385	5117
842.522	5345
842.659	5174
842.796	5170
842.933	5193
843.069	5166
843.206	5151
843.343	5277
843.479	5258
843.616	5292
843.752	5067
843.889	5014
844.025	5235
844.162	4984
844.298	5189
844.435	5086
844.571	5048
844.708	5174
844.844	5258
844.98	5315
845.117	5273
845.253	5140
845.389	5094
845.525	5170
845.661	5079
845.798	5003
845.934	5071
846.07	5105
846.206	5193
846.342	5292
846.478	5132
846.614	5029
846.75	4995
846.886	4942
847.022	5132
847.158	4995
847.294	5037
847.429	5075
847.565	5037
847.701	5288
847.837	4812
847.972	4790
848.108	4984
848.244	4870
848.379	4771
848.515	4767
848.65	4744
848.786	4733
848.921	4763
849.057	4847
849.192	4908
849.328	4824
849.463	4771
849.598	4797
849.734	4702
849.869	4664
850.004	4569
850.14	4698
850.275	4630
850.41	4535
850.545	4584
850.68	4577
850.815	4599
850.95	4672
851.085	4831
851.22	4755
851.355	4645
851.49	4672
851.625	4596
851.76	4645
851.895	4550
852.03	4478
852.165	4603
852.299	4736
852.434	4763
852.569	4736
852.703	4809
852.838	4797
852.973	4930
853.107	4896
853.242	4752
853.376	4603
853.511	4573
853.645	4569
853.78	4774
853.914	4596
854.048	4611
854.183	4588
854.317	4717
854.451	4858
854.585	4653
854.72	4607
854.854	4740
854.988	4538
855.122	4630
855.256	4504
855.39	4634
855.524	4805
855.658	4733
855.792	4694
855.926	4744
856.06	4706
856.194	4805
856.327	4687
856.461	4615
856.595	4596
856.729	4607
856.862	4771
856.996	4691
857.13	4736
857.263	4740
857.397	4816
857.53	4660
857.664	4714
857.797	4748
857.931	4759
858.064	4733
858.197	4710
858.331	4645
858.464	4630
858.597	4489
858.731	4588
858.864	4618
858.997	4584
859.13	4656
859.263	4641
859.396	4649
859.529	4584
859.662	4554
859.795	4535
859.928	4580
860.061	4736
860.194	4733
860.327	4596
860.46	4550
860.592	4710
860.725	4687
860.858	4683
860.99	4596
861.123	4485
861.256	4538
861.388	4672
861.521	5265
861.653	4443
861.786	4432
861.918	4443
862.05	4481
862.183	4588
862.315	4615
862.447	4637
862.58	4550
862.712	4398
862.844	4318
862.976	4470
863.108	4436
863.24	4736
863.372	4318
863.504	4447
863.636	4394
863.768	4504
863.9	4447
864.032	4371
864.164	4371
864.296	4485
864.428	4542
864.559	4565
864.691	4546
864.823	4550
864.954	4481
865.086	4493
865.217	4462
865.349	4443
865.48	4478
865.612	4512
865.743	4649
865.875	4455
866.006	4394
866.137	4470
866.269	4466
866.4	4413
866.531	4447
866.662	4386
866.793	4409
866.924	4383
867.055	4493
867.186	4466
867.317	4424
867.448	4329
867.579	4341
867.71	4394
867.841	4348
867.972	4443
868.103	4451
868.233	4436
868.364	4409
868.495	4459
868.625	4637
868.756	4733
868.886	4554
869.017	4622
869.147	4752
869.278	4782
869.408	4656
869.539	4618
869.669	4714
869.799	4698
869.929	4755
870.06	4752
870.19	4949
870.32	4923
870.45	4911
870.58	5037
870.71	5075
870.84	5048
870.97	4881
871.1	4930
871.23	5143
871.36	5113
871.489	5033
871.619	5075
871.749	5079
871.879	5117
872.008	5235
872.138	5067
872.267	5025
872.397	4858
872.526	4805
872.656	4744
872.785	4767
872.915	4968
873.044	5060
873.173	4942
873.303	5018
873.432	4953
873.561	4923
873.69	4870
873.819	4843
873.948	4908
874.077	4847
874.206	4725
874.335	4759
874.464	4942
874.593	5022
874.722	5033
874.851	5052
874.979	5052
875.108	5014
875.237	4911
875.365	4946
875.494	4900
875.623	5003
875.751	4816
875.88	4858
876.008	4980
876.136	4999
876.265	5201
876.393	5364
876.521	5212
876.65	5242
876.778	5105
876.906	5041
877.034	4987
877.162	4991
877.29	5022
877.418	5086
877.546	5052
877.674	5022
877.802	5022
877.93	4957
878.058	4870
878.185	4881
878.313	4953
878.441	4923
878.568	4774
878.696	4908
878.824	4961
878.951	5045
879.079	5151
879.206	5246
879.333	5090
879.461	4968
879.588	5014
879.715	5105
879.842	5250
879.97	4976
880.097	4782
880.224	4721
880.351	4793
880.478	4835
880.605	4793
880.732	4763
880.859	5060
880.986	4911
881.112	4866
881.239	4790
881.366	4637
881.493	4668
881.619	4535
881.746	4672
881.872	4660
881.999	4634
882.125	4694
882.252	4759
882.378	4850
882.505	4987
882.631	4778
882.757	4645
882.883	4717
883.01	4721
883.136	4660
883.262	4607
883.388	4569
883.514	4801
883.64	4877
883.766	4790
883.892	4668
884.018	4664
884.143	4938
884.269	4968
884.395	4752
884.52	4607
884.646	4653
884.772	4607
884.897	4504
885.023	4683
885.148	4782
885.274	4881
885.399	4774
885.524	4725
885.65	4725
885.775	4740
885.9	4721
886.025	4862
886.15	4793
886.275	4733
886.4	4664
886.525	4717
886.65	4656
886.775	4679
886.9	4881
887.025	5048
887.149	4778
887.274	4653
887.399	4531
887.523	4558
887.648	4573
887.773	4596
887.897	4778
888.021	4725
888.146	4698
888.27	4809
888.395	4904
888.519	4786
888.643	4774
888.767	4820
888.891	4588
889.015	4607
889.139	4645
889.263	4634
889.387	4774
889.511	4870
889.635	4793
889.759	4626
889.883	4641
890.006	4736
890.13	4881
890.254	4596
890.377	4664
890.501	4519
890.624	4523
890.748	4691
890.871	4497
890.995	4493
891.118	4417
891.241	4535
891.364	4554
891.488	4645
891.611	4478
891.734	4538
891.857	4596
891.98	4519
892.103	4637
892.226	4569
892.349	4519
892.471	4390
892.594	4592
892.717	4588
892.839	4546
892.962	4531
893.085	4630
893.207	4592
893.33	4432
893.452	4481
893.575	4687
893.697	4577
893.819	4752
893.941	4805
894.064	4786
894.186	4561
894.308	4519
894.43	4767
894.552	4774
894.674	4748
894.796	4504
894.918	4588
895.04	4577
895.161	4725
895.283	4626
895.405	4516
895.526	4645
895.648	4706
895.769	4672
895.891	4706
896.012	4714
896.134	4755
896.255	4698
896.376	4634
896.498	4618
896.619	4672
896.74	4607
896.861	4664
896.982	4934
897.103	5041
897.224	4820
897.345	4771
897.466	4668
897.587	4729
897.708	4862
897.828	4793
897.949	4656
898.07	4618
898.19	4641
898.311	4831
898.431	4694
898.552	4767
898.672	4771
898.792	4778
898.913	4736
899.033	4615
899.153	4535
899.273	4428
899.393	4519
899.513	4493
899.633	4466
899.753	4516
899.873	4527
899.993	4546
900.113	4523
900.232	4599
900.352	4538
900.472	4500
900.591	4375
900.711	4527
900.83	4485
900.95	4588
901.069	4672
901.189	4573
901.308	4363
901.427	4356
901.546	4386
901.665	4421
901.784	4466
901.904	4375
902.023	4322
902.141	4177
902.26	4204
902.379	4261
902.498	4234
902.617	4207
902.735	4409
902.854	4325
902.973	4325
903.091	4200
903.21	4238
903.328	4306
903.446	4238
903.565	4318
903.683	4318
903.801	4325
903.919	4383
904.038	4447
904.156	4314
904.274	4421
904.392	4379
904.51	4413
904.627	4459
904.745	4592
904.863	4577
904.981	4367
905.098	4287
905.216	4341
905.334	4383
905.451	4432
905.569	4421
905.686	4584
905.803	4538
905.921	4432
906.038	4516
906.155	4497
906.272	4424
906.389	4462
906.506	4348
906.623	4375
906.74	4390
906.857	4287
906.974	4329
907.091	4493
907.208	4687
907.324	4592
907.441	4565
907.557	4383
907.674	4344
907.79	4318
907.907	4390
908.023	4481
908.139	4478
908.256	4447
908.372	4527
908.488	4443
908.604	4299
908.72	4314
908.836	4375
908.952	4386
909.068	4409
909.184	4573
909.3	4489
909.415	4550
909.531	4554
909.647	4409
909.762	4310
909.878	4322
909.993	4432
910.108	4383
910.224	4394
910.339	4443
910.454	4398
910.57	4383
910.685	4276
910.8	4622
910.915	4622
911.03	4497
911.145	4284
911.259	4337
911.374	4333
911.489	4276
911.604	4268
911.718	4177
911.833	4162
911.947	4055
912.062	4036
912.176	4154
912.291	4261
912.405	4234
912.519	4443
912.633	4512
912.748	4375
912.862	4322
912.976	4173
913.09	4109
913.204	4150
913.318	4211
913.431	4325
913.545	4367
913.659	4447
913.772	4337
913.886	4272
914	4207
914.113	4337
914.226	4428
914.34	4398
914.453	4249
914.566	4402
914.68	4287
914.793	4333
914.906	4128
915.019	4097
915.132	4109
915.245	4112
915.358	4238
915.47	4253
915.583	4276
915.696	4303
915.809	4356
915.921	4455
916.034	4246
916.146	4234
916.259	4249
916.371	4363
916.483	4356
916.595	4230
916.708	4295
916.82	4306
916.932	4303
917.044	4287
917.156	4329
917.268	4219
917.38	4276
917.491	4257
917.603	4333
917.715	4432
917.826	4432
917.938	4367
918.049	4223
918.161	4356
918.272	4535
918.384	4497
918.495	4413
918.606	4234
918.717	4257
918.828	4352
918.939	4363
919.05	4249
919.161	4310
919.272	4158
919.383	4242
919.494	4428
919.604	4607
919.715	4390
919.826	4360
919.936	4375
920.047	4470
920.157	4493
920.267	4687
920.378	4512
920.488	4516
920.598	4755
920.708	4870
920.818	4782
920.928	4763
921.038	4919
921.148	4919
921.258	4588
921.368	4561
921.477	4451
921.587	4481
921.697	4402
921.806	4516
921.916	4409
922.025	4276
922.134	4227
922.244	4211
922.353	4329
922.462	4173
922.571	4139
922.68	3968
922.789	3975
922.898	4059
923.007	3998
923.116	4067
923.224	4097
923.333	4131
923.442	3987
923.55	3979
923.659	4040
923.767	4116
923.876	3953
923.984	4116
924.092	4002
924.201	4097
924.309	4051
924.417	4078
924.525	4097
924.633	4090
924.741	5056
924.849	3903
924.956	4109
925.064	3998
925.172	3930
925.279	3979
925.387	4097
925.494	4055
925.602	4215
925.709	4139
925.816	4093
925.924	4116
926.031	4188
926.138	4219
926.245	4162
926.352	4078
926.459	4215
926.566	4318
926.673	4150
926.779	4074
926.886	4124
926.993	3964
927.099	3934
927.206	3937
927.312	3953
927.419	4036
927.525	4059
927.631	4097
927.737	3983
927.843	3991
927.95	3846
928.056	3987
928.162	3968
928.267	4063
928.373	4592
928.479	4105
928.585	3876
928.69	4002
928.796	4067
928.901	4002
929.007	3831
929.112	4017
929.218	3934
929.323	3945
929.428	3899
929.533	4131
929.638	3926
929.743	3926
929.848	4059
929.953	3968
930.058	3937
930.163	3789
930.267	3827
930.372	3994
930.477	3808
930.581	4048
930.685	3956
930.79	3842
930.894	3869
930.998	3857
931.103	4010
931.207	3736
931.311	3701
931.415	3637
931.519	3488
931.623	3564
