Data from test_V78500241_308.txt Node
Date: Fri Mar 25 16:51:08 CST 2022
User: usil
Spectrometer: V785-0024
Trigger mode: 0
Integration Time (sec): 4.000000E-1
Scans to average: 1
Nonlinearity correction enabled: false
Boxcar width: 0
Storing dark spectrum: false
XAxis mode: Wavelengths
Number of Pixels in Spectrum: 1024
>>>>>Begin Spectral Data<<<<<
801.071	8058
801.214	8054
801.356	7875
801.499	7833
801.641	7849
801.783	7947
801.926	7993
802.068	7955
802.211	8001
802.353	8027
802.496	7875
802.638	7932
802.78	7974
802.923	8005
803.065	7887
803.208	7875
803.35	7997
803.492	8111
803.635	8191
803.777	8062
803.919	8172
804.061	8480
804.204	8229
804.346	8092
804.488	7955
804.63	8107
804.773	8043
804.915	8092
805.057	8343
805.199	8195
805.341	8248
805.483	8358
805.626	8248
805.768	8103
805.91	8248
806.052	8172
806.194	8142
806.336	8385
806.478	8123
806.62	8103
806.762	8195
806.904	8343
807.046	8503
807.188	8404
807.33	8286
807.472	8336
807.614	8229
807.756	8161
807.898	8008
808.04	7887
808.182	7955
808.324	7951
808.465	7947
808.607	8176
808.749	8142
808.891	8279
809.033	8305
809.174	8229
809.316	8054
809.458	8001
809.6	8031
809.741	8073
809.883	8065
810.025	8157
810.166	8168
810.308	8024
810.45	7967
810.591	7925
810.733	7772
810.875	7647
811.016	7476
811.158	7476
811.299	7605
811.441	7757
811.582	7780
811.724	7632
811.865	7601
812.007	7704
812.148	7632
812.29	7658
812.431	7784
812.573	7936
812.714	7986
812.855	8142
812.997	8176
813.138	8275
813.279	8218
813.421	8111
813.562	7936
813.703	7860
813.845	7807
813.986	7518
814.127	7247
814.268	7263
814.41	7274
814.551	7183
814.692	7251
814.833	7129
814.974	7129
815.115	7118
815.256	6947
815.397	6935
815.539	6905
815.68	6810
815.821	6833
815.962	6882
816.103	6802
816.244	6745
816.385	6654
816.526	6692
816.666	6570
816.807	6304
816.948	6441
817.089	6525
817.23	6445
817.371	6433
817.512	6395
817.653	6407
817.793	6353
817.934	6422
818.075	6517
818.216	6448
818.356	6422
818.497	6262
818.638	6144
818.778	6232
818.919	6106
819.06	6148
819.2	6357
819.341	6353
819.481	6369
819.622	6498
819.762	6795
819.903	6700
820.043	6620
820.184	6620
820.324	6616
820.465	6681
820.605	6631
820.746	6593
820.886	6506
821.026	6673
821.167	6772
821.307	6798
821.447	6844
821.588	6703
821.728	6616
821.868	6517
822.008	6327
822.149	6376
822.289	6369
822.429	6228
822.569	6098
822.709	6140
822.849	5954
822.99	5977
823.13	5927
823.27	5923
823.41	5836
823.55	5783
823.69	5771
823.83	5783
823.97	5657
824.11	5524
824.25	5611
824.389	5577
824.529	5581
824.669	5524
824.809	5604
824.949	5672
825.089	5665
825.228	5577
825.368	5417
825.508	5398
825.648	5395
825.787	5379
825.927	5436
826.067	5337
826.206	5299
826.346	5341
826.485	5429
826.625	5406
826.765	5558
826.904	5459
827.044	5299
827.183	5193
827.323	5212
827.462	5250
827.601	5231
827.741	5197
827.88	5277
828.02	5128
828.159	5235
828.298	5330
828.437	5349
828.577	5299
828.716	5501
828.855	5292
828.994	5185
829.134	5201
829.273	5220
829.412	5121
829.551	5117
829.69	5185
829.829	5250
829.968	5452
830.107	5246
830.246	5349
830.385	5162
830.524	5147
830.663	5143
830.802	5022
830.941	4911
831.08	4915
831.219	4980
831.357	4984
831.496	5155
831.635	4923
831.774	4862
831.913	4892
832.051	4736
832.19	4793
832.329	4831
832.467	4679
832.606	4664
832.744	4683
832.883	4721
833.022	4721
833.16	4870
833.299	4828
833.437	4843
833.576	4828
833.714	4835
833.852	4881
833.991	4885
834.129	4919
834.267	4968
834.406	4889
834.544	4995
834.682	5025
834.821	5003
834.959	5170
835.097	5006
835.235	5140
835.373	5113
835.511	5109
835.65	5048
835.788	5029
835.926	4904
836.064	4885
836.202	4949
836.34	5235
836.478	5242
836.615	5132
836.753	5212
836.891	5303
837.029	5318
837.167	5212
837.305	5159
837.443	5155
837.58	5094
837.718	5292
837.856	5159
837.993	5185
838.131	5299
838.269	5235
838.406	5223
838.544	5273
838.681	5094
838.819	5048
838.956	4915
839.094	4934
839.231	4957
839.369	5121
839.506	5406
839.643	5288
839.781	5041
839.918	5052
840.055	5056
840.193	5159
840.33	5136
840.467	5189
840.604	5178
840.742	5471
840.879	5102
841.016	5060
841.153	5124
841.29	5406
841.427	5334
841.564	5330
841.701	5326
841.838	5326
841.975	5261
842.112	5239
842.249	5143
842.385	5124
842.522	5349
842.659	5140
842.796	5162
842.933	5185
843.069	5189
843.206	5193
843.343	5353
843.479	5303
843.616	5273
843.752	5052
843.889	5041
844.025	5208
844.162	5048
844.298	5254
844.435	5105
844.571	5041
844.708	5185
844.844	5337
844.98	5360
845.117	5337
845.253	5151
845.389	5117
845.525	5159
845.661	5113
845.798	5083
845.934	5162
846.07	5079
846.206	5185
846.342	5284
846.478	5197
846.614	5010
846.75	4999
846.886	4911
847.022	5143
847.158	5010
847.294	5117
847.429	5124
847.565	5029
847.701	5353
847.837	4881
847.972	4835
848.108	4930
848.244	4946
848.379	4809
848.515	4740
848.65	4759
848.786	4714
848.921	4778
849.057	4889
849.192	4873
849.328	4828
849.463	4873
849.598	4812
849.734	4816
849.869	4740
850.004	4634
850.14	4691
850.275	4592
850.41	4535
850.545	4580
850.68	4645
850.815	4630
850.95	4630
851.085	4870
851.22	4714
851.355	4702
851.49	4641
851.625	4698
851.76	4729
851.895	4565
852.03	4546
852.165	4649
852.299	4702
852.434	4870
852.569	4797
852.703	4759
852.838	4839
852.973	4946
853.107	4858
853.242	4771
853.376	4675
853.511	4508
853.645	4637
853.78	4797
853.914	4687
854.048	4660
854.183	4622
854.317	4714
854.451	4881
854.585	4668
854.72	4634
854.854	4733
854.988	4603
855.122	4653
855.256	4523
855.39	4637
855.524	4805
855.658	4694
855.792	4725
855.926	4740
856.06	4767
856.194	4790
856.327	4698
856.461	4675
856.595	4615
856.729	4622
856.862	4774
856.996	4668
857.13	4714
857.263	4778
857.397	4805
857.53	4691
857.664	4672
857.797	4778
857.931	4778
858.064	4698
858.197	4778
858.331	4615
858.464	4618
858.597	4565
858.731	4637
858.864	4687
858.997	4618
859.13	4637
859.263	4683
859.396	4736
859.529	4531
859.662	4618
859.795	4538
859.928	4618
860.061	4771
860.194	4771
860.327	4645
860.46	4584
860.592	4725
860.725	4687
860.858	4710
860.99	4603
861.123	4535
861.256	4538
861.388	4649
861.521	5277
861.653	4462
861.786	4466
861.918	4500
862.05	4538
862.183	4519
862.315	4615
862.447	4672
862.58	4561
862.712	4432
862.844	4341
862.976	4466
863.108	4443
863.24	4870
863.372	4303
863.504	4443
863.636	4436
863.768	4478
863.9	4424
864.032	4363
864.164	4375
864.296	4504
864.428	4569
864.559	4561
864.691	4542
864.823	4554
864.954	4489
865.086	4500
865.217	4455
865.349	4440
865.48	4481
865.612	4573
865.743	4634
865.875	4462
866.006	4432
866.137	4443
866.269	4428
866.4	4436
866.531	4440
866.662	4417
866.793	4383
866.924	4451
867.055	4523
867.186	4451
867.317	4405
867.448	4363
867.579	4402
867.71	4428
867.841	4398
867.972	4409
868.103	4485
868.233	4428
868.364	4417
868.495	4504
868.625	4660
868.756	4752
868.886	4535
869.017	4592
869.147	4812
869.278	4740
869.408	4691
869.539	4630
869.669	4736
869.799	4634
869.929	4816
870.06	4714
870.19	4957
870.32	4915
870.45	4946
870.58	4968
870.71	5136
870.84	5086
870.97	4984
871.1	4900
871.23	5166
871.36	5151
871.489	5033
871.619	5124
871.749	5094
871.879	5159
872.008	5212
872.138	5102
872.267	4984
872.397	4881
872.526	4839
872.656	4740
872.785	4752
872.915	4942
873.044	5033
873.173	4919
873.303	4976
873.432	4938
873.561	4938
873.69	4927
873.819	4900
873.948	4953
874.077	4820
874.206	4763
874.335	4809
874.464	4923
874.593	5048
874.722	4949
874.851	5128
874.979	5083
875.108	5045
875.237	4987
875.365	4881
875.494	4923
875.623	4942
875.751	4824
875.88	4896
876.008	4965
876.136	5048
876.265	5204
876.393	5372
876.521	5273
876.65	5254
876.778	5143
876.906	5045
877.034	5006
877.162	5098
877.29	4995
877.418	5071
877.546	5018
877.674	5010
877.802	5064
877.93	5037
878.058	4892
878.185	4896
878.313	4953
878.441	4946
878.568	4786
878.696	4896
878.824	4953
878.951	4984
879.079	5121
879.206	5299
879.333	5083
879.461	4999
879.588	5048
879.715	5109
879.842	5223
879.97	4984
880.097	4797
880.224	4740
880.351	4805
880.478	4858
880.605	4862
880.732	4801
880.859	5052
880.986	4915
881.112	4923
881.239	4767
881.366	4714
881.493	4603
881.619	4603
881.746	4637
881.872	4641
881.999	4649
882.125	4687
882.252	4824
882.378	4854
882.505	4980
882.631	4809
882.757	4660
882.883	4729
883.01	4706
883.136	4694
883.262	4626
883.388	4580
883.514	4786
883.64	4854
883.766	4763
883.892	4672
884.018	4729
884.143	4839
884.269	5006
884.395	4702
884.52	4596
884.646	4630
884.772	4615
884.897	4607
885.023	4634
885.148	4782
885.274	4850
885.399	4778
885.524	4725
885.65	4733
885.775	4744
885.9	4714
886.025	4843
886.15	4797
886.275	4778
886.4	4660
886.525	4702
886.65	4694
886.775	4706
886.9	4896
887.025	5045
887.149	4847
887.274	4664
887.399	4596
887.523	4630
887.648	4679
887.773	4615
887.897	4748
888.021	4801
888.146	4683
888.27	4782
888.395	4892
888.519	4782
888.643	4839
888.767	4850
888.891	4679
889.015	4626
889.139	4656
889.263	4645
889.387	4755
889.511	4858
889.635	4809
889.759	4634
889.883	4664
890.006	4694
890.13	4858
890.254	4622
890.377	4675
890.501	4558
890.624	4516
890.748	4645
890.871	4500
890.995	4474
891.118	4333
891.241	4508
891.364	4500
891.488	4656
891.611	4474
891.734	4558
891.857	4584
891.98	4592
892.103	4645
892.226	4569
892.349	4542
892.471	4455
892.594	4546
892.717	4588
892.839	4558
892.962	4615
893.085	4615
893.207	4630
893.33	4466
893.452	4542
893.575	4721
893.697	4554
893.819	4763
893.941	4870
894.064	4809
894.186	4584
894.308	4596
894.43	4694
894.552	4812
894.674	4774
894.796	4550
894.918	4641
895.04	4573
895.161	4702
895.283	4664
895.405	4538
895.526	4660
895.648	4668
895.769	4668
895.891	4782
896.012	4706
896.134	4729
896.255	4630
896.376	4622
896.498	4599
896.619	4656
896.74	4649
896.861	4668
896.982	4976
897.103	5109
897.224	4847
897.345	4805
897.466	4668
897.587	4683
897.708	4858
897.828	4809
897.949	4679
898.07	4546
898.19	4645
898.311	4828
898.431	4679
898.552	4778
898.672	4812
898.792	4752
898.913	4744
899.033	4607
899.153	4508
899.273	4481
899.393	4500
899.513	4538
899.633	4497
899.753	4512
899.873	4512
899.993	4592
900.113	4531
900.232	4607
900.352	4565
900.472	4481
900.591	4413
900.711	4474
900.83	4459
900.95	4634
901.069	4679
901.189	4542
901.308	4383
901.427	4386
901.546	4413
901.665	4519
901.784	4497
901.904	4424
902.023	4306
902.141	4196
902.26	4131
902.379	4348
902.498	4257
902.617	4268
902.735	4341
902.854	4402
902.973	4344
903.091	4219
903.21	4211
903.328	4299
903.446	4287
903.565	4238
903.683	4371
903.801	4265
903.919	4398
904.038	4459
904.156	4375
904.274	4481
904.392	4424
904.51	4421
904.627	4462
904.745	4577
904.863	4668
904.981	4447
905.098	4299
905.216	4386
905.334	4440
905.451	4447
905.569	4455
905.686	4531
905.803	4580
905.921	4421
906.038	4554
906.155	4459
906.272	4398
906.389	4462
906.506	4383
906.623	4386
906.74	4432
906.857	4287
906.974	4363
907.091	4584
907.208	4694
907.324	4573
907.441	4485
907.557	4379
907.674	4287
907.79	4333
907.907	4405
908.023	4497
908.139	4470
908.256	4485
908.372	4516
908.488	4478
908.604	4383
908.72	4371
908.836	4402
908.952	4344
909.068	4455
909.184	4584
909.3	4455
909.415	4580
909.531	4550
909.647	4295
909.762	4405
909.878	4352
909.993	4447
910.108	4375
910.224	4424
910.339	4500
910.454	4421
910.57	4363
910.685	4310
910.8	4622
910.915	4588
911.03	4489
911.145	4379
911.259	4352
911.374	4341
911.489	4322
911.604	4287
911.718	4181
911.833	4246
911.947	4112
912.062	4040
912.176	4223
912.291	4253
912.405	4261
912.519	4466
912.633	4519
912.748	4375
912.862	4367
912.976	4181
913.09	4059
913.204	4177
913.318	4261
913.431	4379
913.545	4375
913.659	4417
913.772	4417
913.886	4249
914	4230
914.113	4363
914.226	4447
914.34	4386
914.453	4238
914.566	4432
914.68	4280
914.793	4367
914.906	4147
915.019	4105
915.132	4067
915.245	4177
915.358	4219
915.47	4207
915.583	4303
915.696	4348
915.809	4417
915.921	4417
916.034	4257
916.146	4238
916.259	4238
916.371	4367
916.483	4363
916.595	4261
916.708	4360
916.82	4356
916.932	4371
917.044	4363
917.156	4329
917.268	4234
917.38	4280
917.491	4329
917.603	4356
917.715	4421
917.826	4424
917.938	4367
918.049	4249
918.161	4390
918.272	4569
918.384	4554
918.495	4447
918.606	4284
918.717	4276
918.828	4356
918.939	4390
919.05	4268
919.161	4318
919.272	4128
919.383	4223
919.494	4428
919.604	4618
919.715	4440
919.826	4424
919.936	4413
920.047	4561
920.157	4535
920.267	4714
920.378	4546
920.488	4523
920.598	4744
920.708	4915
920.818	4767
920.928	4755
921.038	4995
921.148	4911
921.258	4626
921.368	4550
921.477	4508
921.587	4462
921.697	4379
921.806	4580
921.916	4451
922.025	4261
922.134	4268
922.244	4268
922.353	4337
922.462	4196
922.571	4135
922.68	4040
922.789	3964
922.898	4055
923.007	4021
923.116	4074
923.224	4124
923.333	4086
923.442	3998
923.55	3964
923.659	4017
923.767	4093
923.876	3975
923.984	4116
924.092	3998
924.201	4051
924.309	4078
924.417	4124
924.525	4101
924.633	4135
924.741	5033
924.849	3892
924.956	4147
925.064	3949
925.172	3949
925.279	3975
925.387	4074
925.494	4040
925.602	4223
925.709	4181
925.816	4040
925.924	4128
926.031	4219
926.138	4169
926.245	4215
926.352	4120
926.459	4276
926.566	4295
926.673	4169
926.779	4109
926.886	4097
926.993	4044
927.099	4006
927.206	3930
927.312	3956
927.419	4090
927.525	4059
927.631	4112
927.737	3960
927.843	4002
927.95	3869
928.056	3953
928.162	3949
928.267	4029
928.373	4698
928.479	4067
928.585	3911
928.69	4010
928.796	4067
928.901	3998
929.007	3827
929.112	3987
929.218	4021
929.323	3930
929.428	3918
929.533	4154
929.638	3896
929.743	3953
929.848	4040
929.953	4013
930.058	3934
930.163	3736
930.267	3816
930.372	3975
930.477	3842
930.581	4082
930.685	3949
930.79	3846
930.894	3888
930.998	3865
931.103	4063
931.207	3781
931.311	3728
931.415	3682
931.519	3504
931.623	3515
