Data from test_V78500241_1796.txt Node
Date: Fri Mar 25 17:01:29 CST 2022
User: usil
Spectrometer: V785-0024
Trigger mode: 0
Integration Time (sec): 4.000000E-1
Scans to average: 1
Nonlinearity correction enabled: false
Boxcar width: 0
Storing dark spectrum: false
XAxis mode: Wavelengths
Number of Pixels in Spectrum: 1024
>>>>>Begin Spectral Data<<<<<
801.071	7959
801.214	7944
801.356	7879
801.499	7887
801.641	7799
801.783	7788
801.926	7970
802.068	7913
802.211	8012
802.353	7959
802.496	7822
802.638	7830
802.78	7852
802.923	7932
803.065	7814
803.208	7833
803.35	7947
803.492	8115
803.635	8119
803.777	8012
803.919	8081
804.061	8499
804.204	8123
804.346	8043
804.488	7967
804.63	8103
804.773	7974
804.915	8058
805.057	8279
805.199	8161
805.341	8286
805.483	8259
805.626	8279
805.768	8180
805.91	8187
806.052	8199
806.194	8111
806.336	8317
806.478	8069
806.62	8069
806.762	8111
806.904	8313
807.046	8473
807.188	8370
807.33	8298
807.472	8275
807.614	8191
807.756	8157
807.898	7947
808.04	7906
808.182	7868
808.324	7890
808.465	7982
808.607	8084
808.749	8149
808.891	8161
809.033	8320
809.174	8206
809.316	8096
809.458	8039
809.6	7974
809.741	8027
809.883	7989
810.025	8103
810.166	8073
810.308	7986
810.45	7925
810.591	7894
810.733	7750
810.875	7685
811.016	7529
811.158	7426
811.299	7616
811.441	7681
811.582	7643
811.724	7601
811.865	7537
812.007	7556
812.148	7567
812.29	7597
812.431	7753
812.573	7864
812.714	7913
812.855	8096
812.997	8199
813.138	8339
813.279	8138
813.421	8107
813.562	7932
813.703	7841
813.845	7738
813.986	7396
814.127	7213
814.268	7232
814.41	7171
814.551	7171
814.692	7236
814.833	7095
814.974	7149
815.115	7114
815.256	6954
815.397	6863
815.539	6916
815.68	6837
815.821	6719
815.962	6833
816.103	6806
816.244	6730
816.385	6623
816.526	6574
816.666	6475
816.807	6327
816.948	6456
817.089	6456
817.23	6410
817.371	6277
817.512	6418
817.653	6403
817.793	6388
817.934	6391
818.075	6471
818.216	6452
818.356	6388
818.497	6220
818.638	6121
818.778	6125
818.919	6163
819.06	6114
819.2	6285
819.341	6327
819.481	6365
819.622	6528
819.762	6707
819.903	6650
820.043	6604
820.184	6528
820.324	6593
820.465	6726
820.605	6738
820.746	6597
820.886	6452
821.026	6650
821.167	6684
821.307	6749
821.447	6757
821.588	6604
821.728	6551
821.868	6506
822.008	6289
822.149	6327
822.289	6372
822.429	6159
822.569	6064
822.709	6140
822.849	5904
822.99	5889
823.13	5904
823.27	5882
823.41	5798
823.55	5790
823.69	5779
823.83	5771
823.97	5638
824.11	5520
824.25	5520
824.389	5547
824.529	5562
824.669	5497
824.809	5589
824.949	5642
825.089	5573
825.228	5562
825.368	5337
825.508	5318
825.648	5334
825.787	5372
825.927	5357
826.067	5258
826.206	5284
826.346	5417
826.485	5364
826.625	5391
826.765	5551
826.904	5463
827.044	5265
827.183	5189
827.323	5109
827.462	5220
827.601	5201
827.741	5216
827.88	5189
828.02	5094
828.159	5185
828.298	5334
828.437	5368
828.577	5250
828.716	5478
828.855	5330
828.994	5181
829.134	5083
829.273	5124
829.412	5098
829.551	5102
829.69	5143
829.829	5258
829.968	5322
830.107	5250
830.246	5311
830.385	5223
830.524	5121
830.663	5056
830.802	4991
830.941	4843
831.08	4835
831.219	4980
831.357	4961
831.496	5159
831.635	4961
831.774	4866
831.913	4854
832.051	4702
832.19	4736
832.329	4831
832.467	4683
832.606	4611
832.744	4763
832.883	4710
833.022	4683
833.16	4752
833.299	4812
833.437	4850
833.576	4843
833.714	4877
833.852	4831
833.991	4850
834.129	4915
834.267	4961
834.406	4911
834.544	4961
834.682	5018
834.821	4976
834.959	5136
835.097	4980
835.235	5105
835.373	5079
835.511	5136
835.65	5056
835.788	5025
835.926	4915
836.064	4824
836.202	4949
836.34	5147
836.478	5208
836.615	5094
836.753	5170
836.891	5258
837.029	5280
837.167	5185
837.305	5121
837.443	5121
837.58	5094
837.718	5242
837.856	5162
837.993	5178
838.131	5216
838.269	5189
838.406	5174
838.544	5170
838.681	5018
838.819	4976
838.956	4877
839.094	4858
839.231	4911
839.369	5094
839.506	5383
839.643	5258
839.781	5067
839.918	4991
840.055	5052
840.193	5109
840.33	5083
840.467	5075
840.604	5189
840.742	5501
840.879	5048
841.016	5067
841.153	5147
841.29	5402
841.427	5318
841.564	5307
841.701	5341
841.838	5250
841.975	5208
842.112	5284
842.249	5109
842.385	5098
842.522	5318
842.659	5151
842.796	5170
842.933	5155
843.069	5098
843.206	5105
843.343	5296
843.479	5216
843.616	5239
843.752	4980
843.889	5033
844.025	5197
844.162	5037
844.298	5151
844.435	5140
844.571	5033
844.708	5155
844.844	5303
844.98	5368
845.117	5307
845.253	5132
845.389	5071
845.525	5159
845.661	5159
845.798	5010
845.934	5124
846.07	5041
846.206	5220
846.342	5246
846.478	5128
846.614	5003
846.75	4908
846.886	4927
847.022	5143
847.158	5037
847.294	5014
847.429	5090
847.565	4995
847.701	5239
847.837	4877
847.972	4744
848.108	4934
848.244	4953
848.379	4744
848.515	4656
848.65	4660
848.786	4755
848.921	4755
849.057	4850
849.192	4896
849.328	4809
849.463	4850
849.598	4763
849.734	4771
849.869	4645
850.004	4649
850.14	4656
850.275	4634
850.41	4500
850.545	4558
850.68	4561
850.815	4584
850.95	4596
851.085	4828
851.22	4729
851.355	4645
851.49	4573
851.625	4607
851.76	4683
851.895	4569
852.03	4535
852.165	4599
852.299	4698
852.434	4752
852.569	4729
852.703	4790
852.838	4843
852.973	4930
853.107	4873
853.242	4763
853.376	4664
853.511	4512
853.645	4618
853.78	4801
853.914	4698
854.048	4679
854.183	4618
854.317	4698
854.451	4816
854.585	4645
854.72	4641
854.854	4736
854.988	4596
855.122	4634
855.256	4531
855.39	4634
855.524	4786
855.658	4664
855.792	4733
855.926	4740
856.06	4782
856.194	4778
856.327	4653
856.461	4565
856.595	4615
856.729	4687
856.862	4721
856.996	4687
857.13	4710
857.263	4714
857.397	4740
857.53	4615
857.664	4714
857.797	4748
857.931	4771
858.064	4687
858.197	4774
858.331	4611
858.464	4558
858.597	4538
858.731	4626
858.864	4573
858.997	4584
859.13	4634
859.263	4698
859.396	4656
859.529	4588
859.662	4531
859.795	4538
859.928	4596
860.061	4767
860.194	4744
860.327	4580
860.46	4573
860.592	4694
860.725	4683
860.858	4679
860.99	4577
861.123	4497
861.256	4493
861.388	4596
861.521	5307
861.653	4504
861.786	4421
861.918	4413
862.05	4512
862.183	4599
862.315	4550
862.447	4611
862.58	4561
862.712	4371
862.844	4337
862.976	4417
863.108	4421
863.24	4847
863.372	4280
863.504	4356
863.636	4390
863.768	4451
863.9	4398
864.032	4371
864.164	4352
864.296	4455
864.428	4470
864.559	4565
864.691	4489
864.823	4527
864.954	4451
865.086	4504
865.217	4466
865.349	4390
865.48	4413
865.612	4493
865.743	4599
865.875	4402
866.006	4371
866.137	4451
866.269	4417
866.4	4417
866.531	4413
866.662	4386
866.793	4421
866.924	4455
867.055	4497
867.186	4421
867.317	4413
867.448	4352
867.579	4421
867.71	4402
867.841	4344
867.972	4481
868.103	4470
868.233	4485
868.364	4508
868.495	4489
868.625	4626
868.756	4740
868.886	4584
869.017	4626
869.147	4797
869.278	4812
869.408	4672
869.539	4599
869.669	4721
869.799	4649
869.929	4786
870.06	4740
870.19	4942
870.32	4976
870.45	4987
870.58	5041
870.71	5079
870.84	5159
870.97	4972
871.1	4885
871.23	5128
871.36	5102
871.489	5052
871.619	5067
871.749	5056
871.879	5185
872.008	5227
872.138	5067
872.267	5006
872.397	4889
872.526	4892
872.656	4774
872.785	4847
872.915	4999
873.044	5022
873.173	4949
873.303	4987
873.432	4972
873.561	5025
873.69	4873
873.819	4885
873.948	4957
874.077	4873
874.206	4786
874.335	4790
874.464	4991
874.593	5086
874.722	5025
874.851	5151
874.979	5094
875.108	5041
875.237	4938
875.365	4923
875.494	4835
875.623	5006
875.751	4824
875.88	4904
876.008	5045
876.136	5056
876.265	5208
876.393	5440
876.521	5280
876.65	5269
876.778	5216
876.906	5117
877.034	5052
877.162	5075
877.29	4991
877.418	5090
877.546	5071
877.674	5128
877.802	5029
877.93	5052
878.058	4972
878.185	4915
878.313	5029
878.441	5018
878.568	4858
878.696	4892
878.824	4995
878.951	5052
879.079	5208
879.206	5345
879.333	5105
879.461	5041
879.588	4999
879.715	5178
879.842	5246
879.97	5025
880.097	4805
880.224	4786
880.351	4843
880.478	4911
880.605	4854
880.732	4843
880.859	5117
880.986	4938
881.112	4972
881.239	4820
881.366	4710
881.493	4683
881.619	4618
881.746	4611
881.872	4679
881.999	4618
882.125	4752
882.252	4824
882.378	4889
882.505	5022
882.631	4835
882.757	4668
882.883	4767
883.01	4729
883.136	4672
883.262	4656
883.388	4660
883.514	4881
883.64	4870
883.766	4790
883.892	4683
884.018	4683
884.143	4816
884.269	5067
884.395	4691
884.52	4660
884.646	4702
884.772	4607
884.897	4588
885.023	4679
885.148	4778
885.274	4870
885.399	4862
885.524	4733
885.65	4691
885.775	4752
885.9	4740
886.025	4854
886.15	4877
886.275	4740
886.4	4660
886.525	4744
886.65	4710
886.775	4733
886.9	4896
887.025	5022
887.149	4812
887.274	4653
887.399	4569
887.523	4634
887.648	4622
887.773	4649
887.897	4721
888.021	4797
888.146	4714
888.27	4847
888.395	4870
888.519	4850
888.643	4877
888.767	4892
888.891	4694
889.015	4626
889.139	4672
889.263	4637
889.387	4782
889.511	4919
889.635	4858
889.759	4714
889.883	4664
890.006	4752
890.13	4843
890.254	4675
890.377	4767
890.501	4577
890.624	4531
890.748	4672
890.871	4516
890.995	4428
891.118	4421
891.241	4550
891.364	4558
891.488	4687
891.611	4516
891.734	4596
891.857	4687
891.98	4588
892.103	4618
892.226	4611
892.349	4546
892.471	4436
892.594	4592
892.717	4649
892.839	4588
892.962	4615
893.085	4615
893.207	4622
893.33	4455
893.452	4558
893.575	4672
893.697	4630
893.819	4850
893.941	4835
894.064	4797
894.186	4596
894.308	4577
894.43	4763
894.552	4866
894.674	4793
894.796	4542
894.918	4637
895.04	4603
895.161	4740
895.283	4615
895.405	4569
895.526	4626
895.648	4664
895.769	4683
895.891	4721
896.012	4801
896.134	4698
896.255	4714
896.376	4694
896.498	4664
896.619	4706
896.74	4679
896.861	4698
896.982	4942
897.103	5102
897.224	4824
897.345	4759
897.466	4717
897.587	4767
897.708	4847
897.828	4805
897.949	4694
898.07	4577
898.19	4679
898.311	4831
898.431	4721
898.552	4759
898.672	4847
898.792	4797
898.913	4786
899.033	4675
899.153	4523
899.273	4466
899.393	4546
899.513	4607
899.633	4565
899.753	4573
899.873	4512
899.993	4611
900.113	4558
900.232	4584
900.352	4542
900.472	4535
900.591	4417
900.711	4474
900.83	4398
900.95	4611
901.069	4717
901.189	4580
901.308	4409
901.427	4356
901.546	4356
901.665	4470
901.784	4565
901.904	4375
902.023	4341
902.141	4188
902.26	4211
902.379	4314
902.498	4280
902.617	4211
902.735	4402
902.854	4409
902.973	4386
903.091	4249
903.21	4234
903.328	4306
903.446	4295
903.565	4272
903.683	4360
903.801	4257
903.919	4421
904.038	4489
904.156	4322
904.274	4394
904.392	4409
904.51	4443
904.627	4512
904.745	4599
904.863	4592
904.981	4508
905.098	4341
905.216	4383
905.334	4489
905.451	4451
905.569	4508
905.686	4569
905.803	4607
905.921	4413
906.038	4599
906.155	4558
906.272	4432
906.389	4466
906.506	4356
906.623	4363
906.74	4383
906.857	4341
906.974	4394
907.091	4573
907.208	4706
907.324	4588
907.441	4466
907.557	4413
907.674	4367
907.79	4344
907.907	4436
908.023	4516
908.139	4527
908.256	4470
908.372	4455
908.488	4478
908.604	4379
908.72	4386
908.836	4383
908.952	4402
909.068	4447
909.184	4569
909.3	4462
909.415	4573
909.531	4569
909.647	4344
909.762	4402
909.878	4329
909.993	4481
910.108	4443
910.224	4459
910.339	4516
910.454	4459
910.57	4375
910.685	4344
910.8	4653
910.915	4660
911.03	4508
911.145	4329
911.259	4344
911.374	4360
911.489	4325
911.604	4276
911.718	4207
911.833	4196
911.947	4071
912.062	4109
912.176	4238
912.291	4238
912.405	4257
912.519	4516
912.633	4508
912.748	4447
912.862	4303
912.976	4192
913.09	4112
913.204	4192
913.318	4276
913.431	4390
913.545	4367
913.659	4462
913.772	4402
913.886	4257
914	4268
914.113	4424
914.226	4455
914.34	4390
914.453	4249
914.566	4379
914.68	4390
914.793	4337
914.906	4215
915.019	4116
915.132	4124
915.245	4162
915.358	4253
915.47	4227
915.583	4276
915.696	4310
915.809	4432
915.921	4447
916.034	4234
916.146	4253
916.259	4265
916.371	4360
916.483	4390
916.595	4291
916.708	4322
916.82	4295
916.932	4322
917.044	4333
917.156	4379
917.268	4223
917.38	4333
917.491	4268
917.603	4341
917.715	4451
917.826	4474
917.938	4371
918.049	4246
918.161	4421
918.272	4584
918.384	4588
918.495	4447
918.606	4329
918.717	4276
918.828	4337
918.939	4405
919.05	4287
919.161	4333
919.272	4196
919.383	4253
919.494	4440
919.604	4584
919.715	4432
919.826	4329
919.936	4424
920.047	4577
920.157	4462
920.267	4763
920.378	4538
920.488	4558
920.598	4691
920.708	4850
920.818	4771
920.928	4774
921.038	4942
921.148	4965
921.258	4653
921.368	4580
921.477	4535
921.587	4462
921.697	4443
921.806	4577
921.916	4428
922.025	4303
922.134	4314
922.244	4284
922.353	4363
922.462	4173
922.571	4135
922.68	4093
922.789	4059
922.898	4029
923.007	3979
923.116	4101
923.224	4021
923.333	4116
923.442	4029
923.55	3987
923.659	4051
923.767	4097
923.876	3991
923.984	4158
924.092	3964
924.201	4097
924.309	4074
924.417	4135
924.525	4105
924.633	4090
924.741	5086
924.849	3926
924.956	4112
925.064	3972
925.172	3922
925.279	3979
925.387	4112
925.494	4051
925.602	4211
925.709	4158
925.816	4051
925.924	4112
926.031	4261
926.138	4173
926.245	4200
926.352	4090
926.459	4253
926.566	4310
926.673	4173
926.779	4086
926.886	4112
926.993	3968
927.099	3979
927.206	3934
927.312	3998
927.419	4040
927.525	4040
927.631	4131
927.737	3994
927.843	3934
927.95	3861
928.056	3979
928.162	4010
928.267	4032
928.373	4599
928.479	4139
928.585	3903
928.69	4051
928.796	4116
928.901	3987
929.007	3819
929.112	3975
929.218	4013
929.323	3991
929.428	3975
929.533	4109
929.638	3915
929.743	3956
929.848	4071
929.953	3960
930.058	3896
930.163	3793
930.267	3789
930.372	3968
930.477	3797
930.581	4090
930.685	3991
930.79	3808
930.894	3876
930.998	3899
931.103	4055
931.207	3679
931.311	3720
931.415	3679
931.519	3542
931.623	3545
