Data from test_V78500241_2668.txt Node
Date: Fri Mar 25 17:07:33 CST 2022
User: usil
Spectrometer: V785-0024
Trigger mode: 0
Integration Time (sec): 4.000000E-1
Scans to average: 1
Nonlinearity correction enabled: false
Boxcar width: 0
Storing dark spectrum: false
XAxis mode: Wavelengths
Number of Pixels in Spectrum: 1024
>>>>>Begin Spectral Data<<<<<
801.071	7978
801.214	8043
801.356	7864
801.499	7822
801.641	7875
801.783	7833
801.926	8005
802.068	7928
802.211	8012
802.353	7955
802.496	7860
802.638	7841
802.78	7879
802.923	7932
803.065	7875
803.208	7826
803.35	7917
803.492	8088
803.635	8195
803.777	8050
803.919	8168
804.061	8446
804.204	8202
804.346	8088
804.488	8050
804.63	8149
804.773	8012
804.915	8069
805.057	8271
805.199	8115
805.341	8157
805.483	8320
805.626	8202
805.768	8168
805.91	8240
806.052	8275
806.194	8058
806.336	8267
806.478	8126
806.62	8050
806.762	8115
806.904	8275
807.046	8396
807.188	8305
807.33	8271
807.472	8332
807.614	8119
807.756	8229
807.898	7978
808.04	7906
808.182	7879
808.324	7928
808.465	7989
808.607	8103
808.749	8054
808.891	8244
809.033	8362
809.174	8214
809.316	8054
809.458	8050
809.6	7986
809.741	8054
809.883	8043
810.025	8149
810.166	8100
810.308	8046
810.45	8073
810.591	7883
810.733	7681
810.875	7700
811.016	7514
811.158	7510
811.299	7647
811.441	7757
811.582	7700
811.724	7609
811.865	7533
812.007	7639
812.148	7597
812.29	7601
812.431	7712
812.573	7811
812.714	8005
812.855	8206
812.997	8221
813.138	8377
813.279	8237
813.421	8081
813.562	7993
813.703	7830
813.845	7799
813.986	7426
814.127	7320
814.268	7228
814.41	7263
814.551	7149
814.692	7289
814.833	7053
814.974	7114
815.115	7164
815.256	7015
815.397	6939
815.539	6977
815.68	6848
815.821	6779
815.962	6882
816.103	6833
816.244	6677
816.385	6642
816.526	6623
816.666	6486
816.807	6334
816.948	6464
817.089	6547
817.23	6483
817.371	6342
817.512	6426
817.653	6372
817.793	6353
817.934	6437
818.075	6429
818.216	6441
818.356	6380
818.497	6243
818.638	6068
818.778	6140
818.919	6148
819.06	6194
819.2	6292
819.341	6315
819.481	6376
819.622	6517
819.762	6711
819.903	6665
820.043	6631
820.184	6566
820.324	6612
820.465	6738
820.605	6677
820.746	6715
820.886	6490
821.026	6677
821.167	6776
821.307	6829
821.447	6791
821.588	6662
821.728	6582
821.868	6521
822.008	6323
822.149	6350
822.289	6365
822.429	6163
822.569	6019
822.709	6140
822.849	5912
822.99	5893
823.13	5984
823.27	5912
823.41	5821
823.55	5821
823.69	5805
823.83	5802
823.97	5680
824.11	5512
824.25	5520
824.389	5516
824.529	5535
824.669	5516
824.809	5684
824.949	5627
825.089	5577
825.228	5611
825.368	5406
825.508	5395
825.648	5398
825.787	5372
825.927	5402
826.067	5337
826.206	5284
826.346	5406
826.485	5368
826.625	5440
826.765	5547
826.904	5433
827.044	5337
827.183	5212
827.323	5162
827.462	5231
827.601	5181
827.741	5147
827.88	5212
828.02	5094
828.159	5227
828.298	5326
828.437	5322
828.577	5345
828.716	5501
828.855	5345
828.994	5174
829.134	5151
829.273	5204
829.412	5121
829.551	5185
829.69	5124
829.829	5181
829.968	5311
830.107	5250
830.246	5311
830.385	5174
830.524	5159
830.663	5048
830.802	4984
830.941	4900
831.08	4900
831.219	4995
831.357	4968
831.496	5155
831.635	4946
831.774	4881
831.913	4805
832.051	4763
832.19	4710
832.329	4908
832.467	4706
832.606	4691
832.744	4702
832.883	4721
833.022	4706
833.16	4767
833.299	4805
833.437	4854
833.576	4809
833.714	4850
833.852	4835
833.991	4820
834.129	4942
834.267	4889
834.406	4908
834.544	4980
834.682	4999
834.821	4965
834.959	5151
835.097	4976
835.235	5117
835.373	5086
835.511	5121
835.65	5006
835.788	5006
835.926	4847
836.064	4892
836.202	4927
836.34	5170
836.478	5235
836.615	5136
836.753	5185
836.891	5292
837.029	5250
837.167	5178
837.305	5155
837.443	5189
837.58	5064
837.718	5246
837.856	5208
837.993	5174
838.131	5231
838.269	5216
838.406	5143
838.544	5170
838.681	5025
838.819	5033
838.956	4885
839.094	4915
839.231	4942
839.369	5083
839.506	5429
839.643	5258
839.781	5060
839.918	5033
840.055	5071
840.193	5109
840.33	5136
840.467	5140
840.604	5174
840.742	5414
840.879	5098
841.016	5060
841.153	5124
841.29	5337
841.427	5318
841.564	5273
841.701	5376
841.838	5261
841.975	5216
842.112	5269
842.249	5155
842.385	5064
842.522	5379
842.659	5174
842.796	5094
842.933	5201
843.069	5201
843.206	5159
843.343	5273
843.479	5250
843.616	5254
843.752	5006
843.889	5037
844.025	5174
844.162	5045
844.298	5193
844.435	5075
844.571	5003
844.708	5201
844.844	5322
844.98	5337
845.117	5349
845.253	5117
845.389	5098
845.525	5155
845.661	5143
845.798	5056
845.934	5147
846.07	5025
846.206	5181
846.342	5273
846.478	5223
846.614	4999
846.75	4923
846.886	4927
847.022	5128
847.158	5025
847.294	5075
847.429	5117
847.565	5056
847.701	5337
847.837	4870
847.972	4850
848.108	4972
848.244	4965
848.379	4729
848.515	4729
848.65	4702
848.786	4748
848.921	4790
849.057	4866
849.192	4904
849.328	4858
849.463	4797
849.598	4759
849.734	4752
849.869	4698
850.004	4637
850.14	4630
850.275	4611
850.41	4512
850.545	4558
850.68	4626
850.815	4637
850.95	4607
851.085	4824
851.22	4721
851.355	4675
851.49	4637
851.625	4569
851.76	4615
851.895	4554
852.03	4554
852.165	4649
852.299	4778
852.434	4763
852.569	4702
852.703	4778
852.838	4835
852.973	4919
853.107	4911
853.242	4733
853.376	4649
853.511	4550
853.645	4660
853.78	4786
853.914	4637
854.048	4649
854.183	4626
854.317	4725
854.451	4858
854.585	4706
854.72	4641
854.854	4748
854.988	4626
855.122	4653
855.256	4519
855.39	4653
855.524	4782
855.658	4729
855.792	4706
855.926	4691
856.06	4774
856.194	4774
856.327	4672
856.461	4630
856.595	4645
856.729	4603
856.862	4774
856.996	4702
857.13	4740
857.263	4786
857.397	4763
857.53	4626
857.664	4744
857.797	4771
857.931	4748
858.064	4698
858.197	4736
858.331	4675
858.464	4656
858.597	4519
858.731	4645
858.864	4630
858.997	4611
859.13	4618
859.263	4706
859.396	4691
859.529	4558
859.662	4565
859.795	4546
859.928	4664
860.061	4759
860.194	4752
860.327	4584
860.46	4584
860.592	4706
860.725	4729
860.858	4725
860.99	4550
861.123	4546
861.256	4542
861.388	4615
861.521	5372
861.653	4451
861.786	4440
861.918	4466
862.05	4531
862.183	4535
862.315	4611
862.447	4630
862.58	4531
862.712	4436
862.844	4322
862.976	4451
863.108	4512
863.24	4782
863.372	4322
863.504	4390
863.636	4409
863.768	4527
863.9	4428
864.032	4360
864.164	4436
864.296	4462
864.428	4542
864.559	4580
864.691	4512
864.823	4531
864.954	4497
865.086	4497
865.217	4474
865.349	4402
865.48	4485
865.612	4504
865.743	4637
865.875	4489
866.006	4474
866.137	4443
866.269	4424
866.4	4466
866.531	4421
866.662	4379
866.793	4417
866.924	4421
867.055	4462
867.186	4466
867.317	4428
867.448	4421
867.579	4432
867.71	4386
867.841	4379
867.972	4455
868.103	4512
868.233	4451
868.364	4405
868.495	4470
868.625	4679
868.756	4801
868.886	4596
869.017	4641
869.147	4736
869.278	4816
869.408	4656
869.539	4653
869.669	4694
869.799	4679
869.929	4763
870.06	4752
870.19	4976
870.32	4923
870.45	4900
870.58	5033
870.71	5124
870.84	5094
870.97	4980
871.1	4896
871.23	5136
871.36	5075
871.489	5018
871.619	5083
871.749	5086
871.879	5102
872.008	5193
872.138	5025
872.267	4972
872.397	4805
872.526	4816
872.656	4725
872.785	4816
872.915	4938
873.044	5041
873.173	4949
873.303	4987
873.432	4908
873.561	4934
873.69	4896
873.819	4866
873.948	4858
874.077	4793
874.206	4725
874.335	4809
874.464	4946
874.593	5083
874.722	4984
874.851	5090
874.979	5075
875.108	5022
875.237	4942
875.365	4911
875.494	4877
875.623	5006
875.751	4843
875.88	4911
876.008	5025
876.136	5025
876.265	5220
876.393	5402
876.521	5223
876.65	5265
876.778	5151
876.906	5083
877.034	5067
877.162	5067
877.29	4999
877.418	5090
877.546	5083
877.674	5025
877.802	5041
877.93	5010
878.058	4915
878.185	4850
878.313	5029
878.441	4923
878.568	4816
878.696	4896
878.824	4934
878.951	5048
879.079	5166
879.206	5250
879.333	5071
879.461	5006
879.588	4972
879.715	5166
879.842	5212
879.97	5037
880.097	4774
880.224	4759
880.351	4809
880.478	4866
880.605	4850
880.732	4790
880.859	5109
880.986	4900
881.112	4927
881.239	4763
881.366	4664
881.493	4618
881.619	4592
881.746	4584
881.872	4687
881.999	4653
882.125	4653
882.252	4812
882.378	4771
882.505	4938
882.631	4793
882.757	4683
882.883	4717
883.01	4763
883.136	4656
883.262	4607
883.388	4603
883.514	4805
883.64	4866
883.766	4755
883.892	4691
884.018	4759
884.143	4911
884.269	4987
884.395	4687
884.52	4637
884.646	4668
884.772	4577
884.897	4584
885.023	4649
885.148	4782
885.274	4896
885.399	4835
885.524	4675
885.65	4710
885.775	4748
885.9	4683
886.025	4850
886.15	4824
886.275	4679
886.4	4660
886.525	4733
886.65	4683
886.775	4710
886.9	4911
887.025	5003
887.149	4831
887.274	4668
887.399	4630
887.523	4611
887.648	4592
887.773	4603
887.897	4721
888.021	4778
888.146	4698
888.27	4824
888.395	4908
888.519	4790
888.643	4812
888.767	4866
888.891	4664
889.015	4615
889.139	4656
889.263	4596
889.387	4820
889.511	4854
889.635	4752
889.759	4603
889.883	4672
890.006	4725
890.13	4843
890.254	4622
890.377	4679
890.501	4531
890.624	4500
890.748	4634
890.871	4527
890.995	4432
891.118	4348
891.241	4538
891.364	4569
891.488	4603
891.611	4508
891.734	4542
891.857	4584
891.98	4577
892.103	4683
892.226	4596
892.349	4485
892.471	4402
892.594	4565
892.717	4603
892.839	4599
892.962	4626
893.085	4679
893.207	4607
893.33	4466
893.452	4493
893.575	4675
893.697	4565
893.819	4729
893.941	4820
894.064	4748
894.186	4596
894.308	4565
894.43	4710
894.552	4839
894.674	4767
894.796	4573
894.918	4596
895.04	4592
895.161	4694
895.283	4626
895.405	4592
895.526	4656
895.648	4637
895.769	4729
895.891	4725
896.012	4755
896.134	4706
896.255	4641
896.376	4634
896.498	4615
896.619	4672
896.74	4546
896.861	4615
896.982	4923
897.103	5102
897.224	4854
897.345	4752
897.466	4637
897.587	4721
897.708	4850
897.828	4774
897.949	4714
898.07	4577
898.19	4694
898.311	4870
898.431	4660
898.552	4698
898.672	4831
898.792	4858
898.913	4706
899.033	4675
899.153	4538
899.273	4409
899.393	4485
899.513	4516
899.633	4577
899.753	4512
899.873	4542
899.993	4607
900.113	4569
900.232	4588
900.352	4577
900.472	4493
900.591	4436
900.711	4489
900.83	4432
900.95	4603
901.069	4683
901.189	4516
901.308	4375
901.427	4303
901.546	4367
901.665	4478
901.784	4508
901.904	4363
902.023	4325
902.141	4215
902.26	4181
902.379	4306
902.498	4276
902.617	4204
902.735	4390
902.854	4432
902.973	4348
903.091	4223
903.21	4230
903.328	4295
903.446	4234
903.565	4238
903.683	4409
903.801	4295
903.919	4402
904.038	4413
904.156	4322
904.274	4432
904.392	4440
904.51	4436
904.627	4500
904.745	4531
904.863	4542
904.981	4394
905.098	4291
905.216	4360
905.334	4390
905.451	4466
905.569	4440
905.686	4535
905.803	4542
905.921	4375
906.038	4584
906.155	4462
906.272	4432
906.389	4500
906.506	4322
906.623	4367
906.74	4398
906.857	4310
906.974	4375
907.091	4573
907.208	4656
907.324	4550
907.441	4474
907.557	4341
907.674	4352
907.79	4318
907.907	4428
908.023	4512
908.139	4489
908.256	4440
908.372	4489
908.488	4493
908.604	4333
908.72	4272
908.836	4371
908.952	4356
909.068	4379
909.184	4550
909.3	4485
909.415	4630
909.531	4565
909.647	4337
909.762	4360
909.878	4325
909.993	4367
910.108	4413
910.224	4440
910.339	4489
910.454	4363
910.57	4371
910.685	4310
910.8	4694
910.915	4573
911.03	4462
911.145	4299
911.259	4322
911.374	4375
911.489	4265
911.604	4268
911.718	4173
911.833	4215
911.947	4112
912.062	4002
912.176	4215
912.291	4246
912.405	4257
912.519	4459
912.633	4462
912.748	4367
912.862	4314
912.976	4223
913.09	4120
913.204	4139
913.318	4257
913.431	4367
913.545	4360
913.659	4436
913.772	4356
913.886	4253
914	4230
914.113	4337
914.226	4443
914.34	4432
914.453	4246
914.566	4390
914.68	4276
914.793	4314
914.906	4185
915.019	4109
915.132	4071
915.245	4185
915.358	4246
915.47	4192
915.583	4249
915.696	4337
915.809	4409
915.921	4413
916.034	4276
916.146	4249
916.259	4211
916.371	4390
916.483	4360
916.595	4272
916.708	4318
916.82	4299
916.932	4352
917.044	4379
917.156	4329
917.268	4219
917.38	4242
917.491	4268
917.603	4333
917.715	4417
917.826	4417
917.938	4371
918.049	4238
918.161	4428
918.272	4550
918.384	4588
918.495	4432
918.606	4325
918.717	4280
918.828	4325
918.939	4367
919.05	4272
919.161	4314
919.272	4128
919.383	4204
919.494	4417
919.604	4592
919.715	4432
919.826	4383
919.936	4379
920.047	4542
920.157	4500
920.267	4714
920.378	4497
920.488	4500
920.598	4710
920.708	4908
920.818	4740
920.928	4759
921.038	4957
921.148	4896
921.258	4603
921.368	4573
921.477	4554
921.587	4455
921.697	4360
921.806	4565
921.916	4466
922.025	4287
922.134	4257
922.244	4204
922.353	4306
922.462	4177
922.571	4166
922.68	3998
922.789	3991
922.898	4025
923.007	3994
923.116	4158
923.224	4006
923.333	4044
923.442	3964
923.55	3998
923.659	3998
923.767	4055
923.876	4013
923.984	4044
924.092	4021
924.201	4048
924.309	4090
924.417	4173
924.525	4097
924.633	4105
924.741	5075
924.849	3873
924.956	4120
925.064	3972
925.172	3896
925.279	3949
925.387	4055
925.494	4029
925.602	4188
925.709	4227
925.816	4036
925.924	4143
926.031	4223
926.138	4219
926.245	4234
926.352	4090
926.459	4227
926.566	4299
926.673	4135
926.779	4086
926.886	4071
926.993	3983
927.099	3915
927.206	3926
927.312	3956
927.419	4048
927.525	4025
927.631	4109
927.737	3949
927.843	3930
927.95	3812
928.056	3922
928.162	3964
928.267	4044
928.373	4592
928.479	4128
928.585	3876
928.69	4002
928.796	4078
928.901	3975
929.007	3789
929.112	3983
929.218	3987
929.323	3975
929.428	3960
929.533	4078
929.638	3899
929.743	3937
929.848	4074
929.953	3937
930.058	4006
930.163	3770
930.267	3778
930.372	3979
930.477	3804
930.581	4090
930.685	3960
930.79	3835
930.894	3899
930.998	3865
931.103	4086
931.207	3751
931.311	3701
931.415	3641
931.519	3504
931.623	3557
