Data from test_V78500241_151.txt Node
Date: Fri Mar 25 16:50:03 CST 2022
User: usil
Spectrometer: V785-0024
Trigger mode: 0
Integration Time (sec): 4.000000E-1
Scans to average: 1
Nonlinearity correction enabled: false
Boxcar width: 0
Storing dark spectrum: false
XAxis mode: Wavelengths
Number of Pixels in Spectrum: 1024
>>>>>Begin Spectral Data<<<<<
801.071	8027
801.214	8005
801.356	7917
801.499	7784
801.641	7845
801.783	7837
801.926	8005
802.068	8050
802.211	8001
802.353	7982
802.496	7940
802.638	7967
802.78	7928
802.923	8020
803.065	7852
803.208	7841
803.35	7993
803.492	8153
803.635	8206
803.777	7951
803.919	8073
804.061	8396
804.204	8096
804.346	8039
804.488	7917
804.63	8035
804.773	8012
804.915	8046
805.057	8244
805.199	8134
805.341	8248
805.483	8233
805.626	8290
805.768	8103
805.91	8176
806.052	8172
806.194	8172
806.336	8252
806.478	8130
806.62	8092
806.762	8199
806.904	8263
807.046	8381
807.188	8374
807.33	8320
807.472	8282
807.614	8191
807.756	8161
807.898	8039
808.04	7913
808.182	7906
808.324	7894
808.465	7887
808.607	7978
808.749	8172
808.891	8290
809.033	8309
809.174	8267
809.316	8073
809.458	8100
809.6	7993
809.741	8012
809.883	8046
810.025	8149
810.166	8081
810.308	8039
810.45	8050
810.591	7940
810.733	7734
810.875	7677
811.016	7533
811.158	7540
811.299	7643
811.441	7784
811.582	7681
811.724	7620
811.865	7567
812.007	7685
812.148	7674
812.29	7696
812.431	7841
812.573	7967
812.714	8031
812.855	8210
812.997	8328
813.138	8442
813.279	8271
813.421	8183
813.562	8043
813.703	7871
813.845	7761
813.986	7468
814.127	7331
814.268	7331
814.41	7217
814.551	7209
814.692	7259
814.833	7179
814.974	7198
815.115	7194
815.256	7053
815.397	7053
815.539	6962
815.68	6856
815.821	6787
815.962	6829
816.103	6806
816.244	6776
816.385	6707
816.526	6620
816.666	6585
816.807	6331
816.948	6429
817.089	6479
817.23	6502
817.371	6426
817.512	6437
817.653	6388
817.793	6407
817.934	6448
818.075	6422
818.216	6494
818.356	6479
818.497	6258
818.638	6110
818.778	6171
818.919	6114
819.06	6171
819.2	6311
819.341	6350
819.481	6407
819.622	6597
819.762	6764
819.903	6719
820.043	6570
820.184	6623
820.324	6582
820.465	6703
820.605	6696
820.746	6665
820.886	6517
821.026	6726
821.167	6738
821.307	6856
821.447	6791
821.588	6734
821.728	6642
821.868	6525
822.008	6334
822.149	6384
822.289	6380
822.429	6228
822.569	6091
822.709	6182
822.849	5984
822.99	5931
823.13	5958
823.27	5977
823.41	5828
823.55	5859
823.69	5832
823.83	5798
823.97	5756
824.11	5566
824.25	5532
824.389	5653
824.529	5646
824.669	5592
824.809	5707
824.949	5665
825.089	5665
825.228	5600
825.368	5463
825.508	5383
825.648	5410
825.787	5452
825.927	5474
826.067	5277
826.206	5334
826.346	5436
826.485	5478
826.625	5493
826.765	5562
826.904	5543
827.044	5345
827.183	5288
827.323	5216
827.462	5322
827.601	5239
827.741	5235
827.88	5303
828.02	5181
828.159	5258
828.298	5372
828.437	5383
828.577	5334
828.716	5524
828.855	5383
828.994	5220
829.134	5212
829.273	5330
829.412	5204
829.551	5197
829.69	5231
829.829	5246
829.968	5482
830.107	5357
830.246	5330
830.385	5212
830.524	5212
830.663	5140
830.802	5025
830.941	4980
831.08	4953
831.219	4995
831.357	5014
831.496	5178
831.635	4999
831.774	4942
831.913	4904
832.051	4740
832.19	4790
832.329	4831
832.467	4767
832.606	4668
832.744	4736
832.883	4752
833.022	4805
833.16	4870
833.299	4896
833.437	4843
833.576	4847
833.714	4908
833.852	4889
833.991	5006
834.129	5022
834.267	5010
834.406	4949
834.544	5025
834.682	5025
834.821	5033
834.959	5201
835.097	4995
835.235	5193
835.373	5121
835.511	5113
835.65	5064
835.788	5083
835.926	4957
836.064	4934
836.202	4946
836.34	5212
836.478	5288
836.615	5132
836.753	5273
836.891	5376
837.029	5311
837.167	5269
837.305	5212
837.443	5223
837.58	5090
837.718	5254
837.856	5242
837.993	5242
838.131	5265
838.269	5242
838.406	5288
838.544	5258
838.681	5079
838.819	5083
838.956	4953
839.094	4961
839.231	5060
839.369	5140
839.506	5497
839.643	5307
839.781	5113
839.918	5064
840.055	5181
840.193	5147
840.33	5151
840.467	5181
840.604	5265
840.742	5516
840.879	5121
841.016	5121
841.153	5220
841.29	5436
841.427	5376
841.564	5391
841.701	5414
841.838	5311
841.975	5280
842.112	5337
842.249	5178
842.385	5140
842.522	5372
842.659	5239
842.796	5181
842.933	5231
843.069	5193
843.206	5159
843.343	5307
843.479	5235
843.616	5391
843.752	5102
843.889	5079
844.025	5326
844.162	5064
844.298	5254
844.435	5121
844.571	5105
844.708	5277
844.844	5368
844.98	5387
845.117	5357
845.253	5193
845.389	5086
845.525	5204
845.661	5193
845.798	5056
845.934	5174
846.07	5056
846.206	5261
846.342	5318
846.478	5212
846.614	5045
846.75	4999
846.886	4938
847.022	5216
847.158	5067
847.294	5098
847.429	5117
847.565	5075
847.701	5337
847.837	4915
847.972	4862
848.108	4999
848.244	4999
848.379	4831
848.515	4790
848.65	4748
848.786	4752
848.921	4843
849.057	4904
849.192	4980
849.328	4862
849.463	4900
849.598	4805
849.734	4828
849.869	4725
850.004	4683
850.14	4687
850.275	4649
850.41	4561
850.545	4569
850.68	4626
850.815	4721
850.95	4645
851.085	4866
851.22	4763
851.355	4698
851.49	4668
851.625	4675
851.76	4691
851.895	4611
852.03	4592
852.165	4691
852.299	4763
852.434	4843
852.569	4816
852.703	4828
852.838	4831
852.973	4980
853.107	4919
853.242	4755
853.376	4698
853.511	4615
853.645	4687
853.78	4843
853.914	4725
854.048	4694
854.183	4679
854.317	4694
854.451	4896
854.585	4725
854.72	4717
854.854	4805
854.988	4637
855.122	4714
855.256	4603
855.39	4710
855.524	4778
855.658	4729
855.792	4767
855.926	4736
856.06	4752
856.194	4858
856.327	4759
856.461	4656
856.595	4675
856.729	4687
856.862	4839
856.996	4664
857.13	4824
857.263	4793
857.397	4831
857.53	4691
857.664	4748
857.797	4786
857.931	4889
858.064	4714
858.197	4771
858.331	4649
858.464	4653
858.597	4500
858.731	4664
858.864	4672
858.997	4675
859.13	4733
859.263	4702
859.396	4771
859.529	4660
859.662	4611
859.795	4550
859.928	4656
860.061	4797
860.194	4744
860.327	4664
860.46	4656
860.592	4748
860.725	4809
860.858	4782
860.99	4645
861.123	4603
861.256	4554
861.388	4615
861.521	5436
861.653	4523
861.786	4474
861.918	4451
862.05	4641
862.183	4550
862.315	4645
862.447	4729
862.58	4535
862.712	4474
862.844	4398
862.976	4516
863.108	4493
863.24	4892
863.372	4337
863.504	4519
863.636	4424
863.768	4493
863.9	4428
864.032	4455
864.164	4485
864.296	4519
864.428	4538
864.559	4558
864.691	4527
864.823	4588
864.954	4527
865.086	4584
865.217	4504
865.349	4459
865.48	4455
865.612	4569
865.743	4653
865.875	4516
866.006	4451
866.137	4504
866.269	4478
866.4	4462
866.531	4527
866.662	4424
866.793	4413
866.924	4462
867.055	4550
867.186	4538
867.317	4470
867.448	4413
867.579	4421
867.71	4500
867.841	4390
867.972	4500
868.103	4462
868.233	4497
868.364	4504
868.495	4478
868.625	4714
868.756	4812
868.886	4611
869.017	4687
869.147	4755
869.278	4759
869.408	4694
869.539	4714
869.669	4717
869.799	4679
869.929	4816
870.06	4748
870.19	5033
870.32	4938
870.45	4976
870.58	5006
870.71	5094
870.84	5174
870.97	5006
871.1	4930
871.23	5162
871.36	5159
871.489	5033
871.619	5147
871.749	5094
871.879	5151
872.008	5292
872.138	5094
872.267	5045
872.397	4866
872.526	4839
872.656	4767
872.785	4824
872.915	4938
873.044	5025
873.173	4991
873.303	5014
873.432	5010
873.561	5006
873.69	4858
873.819	4896
873.948	4968
874.077	4843
874.206	4831
874.335	4809
874.464	4949
874.593	5098
874.722	4972
874.851	5151
874.979	5117
875.108	5090
875.237	4930
875.365	4885
875.494	4904
875.623	4987
875.751	4892
875.88	4923
876.008	5045
876.136	5029
876.265	5288
876.393	5368
876.521	5292
876.65	5277
876.778	5212
876.906	5117
877.034	5022
877.162	5067
877.29	4987
877.418	5083
877.546	5060
877.674	5090
877.802	5022
877.93	5025
878.058	4976
878.185	4877
878.313	5010
878.441	5014
878.568	4892
878.696	4904
878.824	5003
878.951	5018
879.079	5140
879.206	5330
879.333	5159
879.461	5052
879.588	5045
879.715	5181
879.842	5246
879.97	5022
880.097	4812
880.224	4721
880.351	4862
880.478	4873
880.605	4816
880.732	4850
880.859	5109
880.986	4934
881.112	4949
881.239	4828
881.366	4664
881.493	4599
881.619	4649
881.746	4672
881.872	4675
881.999	4660
882.125	4778
882.252	4831
882.378	4904
882.505	4968
882.631	4835
882.757	4706
882.883	4774
883.01	4771
883.136	4698
883.262	4649
883.388	4630
883.514	4797
883.64	4881
883.766	4812
883.892	4702
884.018	4778
884.143	4919
884.269	5048
884.395	4721
884.52	4656
884.646	4691
884.772	4618
884.897	4603
885.023	4717
885.148	4816
885.274	4927
885.399	4828
885.524	4767
885.65	4752
885.775	4797
885.9	4793
886.025	4934
886.15	4812
886.275	4679
886.4	4729
886.525	4698
886.65	4748
886.775	4748
886.9	4911
887.025	5075
887.149	4835
887.274	4717
887.399	4577
887.523	4630
887.648	4569
887.773	4630
887.897	4805
888.021	4805
888.146	4736
888.27	4858
888.395	4934
888.519	4839
888.643	4816
888.767	4854
888.891	4717
889.015	4607
889.139	4691
889.263	4660
889.387	4797
889.511	4847
889.635	4812
889.759	4660
889.883	4664
890.006	4771
890.13	4824
890.254	4653
890.377	4698
890.501	4535
890.624	4569
890.748	4717
890.871	4535
890.995	4481
891.118	4436
891.241	4550
891.364	4596
891.488	4668
891.611	4462
891.734	4599
891.857	4668
891.98	4592
892.103	4694
892.226	4603
892.349	4577
892.471	4466
892.594	4550
892.717	4599
892.839	4607
892.962	4607
893.085	4687
893.207	4615
893.33	4504
893.452	4519
893.575	4744
893.697	4611
893.819	4809
893.941	4847
894.064	4774
894.186	4622
894.308	4630
894.43	4793
894.552	4870
894.674	4812
894.796	4573
894.918	4645
895.04	4630
895.161	4744
895.283	4664
895.405	4615
895.526	4668
895.648	4767
895.769	4748
895.891	4736
896.012	4793
896.134	4801
896.255	4683
896.376	4710
896.498	4645
896.619	4694
896.74	4611
896.861	4675
896.982	4927
897.103	5102
897.224	4801
897.345	4740
897.466	4630
897.587	4767
897.708	4866
897.828	4797
897.949	4660
898.07	4645
898.19	4687
898.311	4858
898.431	4748
898.552	4782
898.672	4850
898.792	4828
898.913	4774
899.033	4691
899.153	4512
899.273	4451
899.393	4523
899.513	4569
899.633	4554
899.753	4565
899.873	4538
899.993	4588
900.113	4561
900.232	4649
900.352	4573
900.472	4523
900.591	4405
900.711	4497
900.83	4474
900.95	4645
901.069	4702
901.189	4538
901.308	4440
901.427	4352
901.546	4383
901.665	4500
901.784	4565
901.904	4413
902.023	4314
902.141	4204
902.26	4219
902.379	4303
902.498	4272
902.617	4242
902.735	4409
902.854	4421
902.973	4440
903.091	4265
903.21	4276
903.328	4371
903.446	4284
903.565	4276
903.683	4405
903.801	4276
903.919	4478
904.038	4443
904.156	4337
904.274	4443
904.392	4405
904.51	4470
904.627	4474
904.745	4615
904.863	4672
904.981	4424
905.098	4284
905.216	4360
905.334	4424
905.451	4383
905.569	4466
905.686	4516
905.803	4584
905.921	4421
906.038	4569
906.155	4531
906.272	4417
906.389	4519
906.506	4421
906.623	4402
906.74	4432
906.857	4329
906.974	4413
907.091	4596
907.208	4698
907.324	4637
907.441	4485
907.557	4375
907.674	4386
907.79	4325
907.907	4383
908.023	4512
908.139	4512
908.256	4440
908.372	4508
908.488	4466
908.604	4386
908.72	4337
908.836	4432
908.952	4386
909.068	4440
909.184	4611
909.3	4500
909.415	4618
909.531	4554
909.647	4379
909.762	4402
909.878	4329
909.993	4459
910.108	4451
910.224	4417
910.339	4512
910.454	4432
910.57	4352
910.685	4360
910.8	4668
910.915	4645
911.03	4558
911.145	4375
911.259	4390
911.374	4383
911.489	4318
911.604	4265
911.718	4188
911.833	4230
911.947	4093
912.062	4055
912.176	4196
912.291	4268
912.405	4291
912.519	4519
912.633	4535
912.748	4443
912.862	4333
912.976	4265
913.09	4101
913.204	4223
913.318	4257
913.431	4398
913.545	4367
913.659	4428
913.772	4371
913.886	4265
914	4268
914.113	4398
914.226	4478
914.34	4402
914.453	4242
914.566	4470
914.68	4363
914.793	4333
914.906	4162
915.019	4147
915.132	4109
915.245	4211
915.358	4227
915.47	4280
915.583	4325
915.696	4363
915.809	4440
915.921	4462
916.034	4249
916.146	4249
916.259	4299
916.371	4371
916.483	4371
916.595	4306
916.708	4394
916.82	4352
916.932	4325
917.044	4367
917.156	4356
917.268	4253
917.38	4310
917.491	4268
917.603	4375
917.715	4459
917.826	4481
917.938	4360
918.049	4261
918.161	4440
918.272	4527
918.384	4584
918.495	4504
918.606	4314
918.717	4246
918.828	4341
918.939	4363
919.05	4215
919.161	4337
919.272	4166
919.383	4276
919.494	4466
919.604	4634
919.715	4478
919.826	4352
919.936	4432
920.047	4569
920.157	4504
920.267	4710
920.378	4603
920.488	4504
920.598	4733
920.708	4877
920.818	4805
920.928	4801
921.038	4972
921.148	4942
921.258	4641
921.368	4546
921.477	4516
921.587	4497
921.697	4383
921.806	4546
921.916	4443
922.025	4242
922.134	4284
922.244	4253
922.353	4341
922.462	4207
922.571	4181
922.68	4025
922.789	3983
922.898	4021
923.007	4048
923.116	4105
923.224	4074
923.333	4116
923.442	4048
923.55	3987
923.659	4086
923.767	4147
923.876	4006
923.984	4223
924.092	4006
924.201	4105
924.309	4139
924.417	4128
924.525	4143
924.633	4097
924.741	4885
924.849	3945
924.956	4139
925.064	3956
925.172	3937
925.279	4010
925.387	4074
925.494	4051
925.602	4238
925.709	4192
925.816	4059
925.924	4143
926.031	4242
926.138	4158
926.245	4234
926.352	4101
926.459	4268
926.566	4352
926.673	4150
926.779	4139
926.886	4139
926.993	3975
927.099	3983
927.206	3972
927.312	3956
927.419	4105
927.525	4078
927.631	4105
927.737	3953
927.843	3956
927.95	3857
928.056	3930
928.162	4013
928.267	4090
928.373	4740
928.479	4112
928.585	3899
928.69	4097
928.796	4112
928.901	3975
929.007	3861
929.112	3987
929.218	3941
929.323	3937
929.428	3983
929.533	4154
929.638	3937
929.743	3987
929.848	4093
929.953	4059
930.058	3960
930.163	3808
930.267	3873
930.372	3994
930.477	3854
930.581	4067
930.685	3991
930.79	3842
930.894	3922
930.998	3918
931.103	4090
931.207	3736
931.311	3728
931.415	3686
931.519	3538
931.623	3584
