Data from test_V78500241_128.txt Node
Date: Fri Mar 25 16:49:53 CST 2022
User: usil
Spectrometer: V785-0024
Trigger mode: 0
Integration Time (sec): 4.000000E-1
Scans to average: 1
Nonlinearity correction enabled: false
Boxcar width: 0
Storing dark spectrum: false
XAxis mode: Wavelengths
Number of Pixels in Spectrum: 1024
>>>>>Begin Spectral Data<<<<<
801.071	8027
801.214	7993
801.356	7982
801.499	7879
801.641	7883
801.783	7921
801.926	8054
802.068	8020
802.211	8062
802.353	8062
802.496	7925
802.638	7963
802.78	8065
802.923	7921
803.065	7947
803.208	7830
803.35	8020
803.492	8081
803.635	8134
803.777	8024
803.919	8134
804.061	8389
804.204	8092
804.346	8012
804.488	7902
804.63	8088
804.773	8016
804.915	8084
805.057	8320
805.199	8103
805.341	8233
805.483	8362
805.626	8298
805.768	8130
805.91	8153
806.052	8157
806.194	8092
806.336	8275
806.478	8096
806.62	8073
806.762	8259
806.904	8324
807.046	8484
807.188	8446
807.33	8366
807.472	8381
807.614	8210
807.756	8202
807.898	8020
808.04	8043
808.182	7921
808.324	7894
808.465	7883
808.607	8100
808.749	8157
808.891	8267
809.033	8351
809.174	8183
809.316	8103
809.458	8142
809.6	7978
809.741	8119
809.883	8054
810.025	8145
810.166	8153
810.308	8161
810.45	8062
810.591	7955
810.733	7811
810.875	7712
811.016	7548
811.158	7540
811.299	7639
811.441	7738
811.582	7765
811.724	7666
811.865	7590
812.007	7620
812.148	7616
812.29	7723
812.431	7811
812.573	7902
812.714	8058
812.855	8225
812.997	8309
813.138	8408
813.279	8259
813.421	8161
813.562	8043
813.703	7967
813.845	7818
813.986	7559
814.127	7339
814.268	7259
814.41	7308
814.551	7137
814.692	7206
814.833	7149
814.974	7206
815.115	7259
815.256	6993
815.397	7012
815.539	6943
815.68	6825
815.821	6806
815.962	6901
816.103	6863
816.244	6741
816.385	6639
816.526	6719
816.666	6582
816.807	6403
816.948	6521
817.089	6513
817.23	6521
817.371	6464
817.512	6460
817.653	6410
817.793	6391
817.934	6445
818.075	6464
818.216	6471
818.356	6460
818.497	6273
818.638	6209
818.778	6194
818.919	6171
819.06	6232
819.2	6334
819.341	6414
819.481	6456
819.622	6574
819.762	6749
819.903	6757
820.043	6673
820.184	6635
820.324	6597
820.465	6681
820.605	6749
820.746	6673
820.886	6521
821.026	6696
821.167	6783
821.307	6875
821.447	6741
821.588	6760
821.728	6623
821.868	6555
822.008	6395
822.149	6369
822.289	6422
822.429	6159
822.569	6163
822.709	6186
822.849	5942
822.99	5996
823.13	5980
823.27	5961
823.41	5855
823.55	5836
823.69	5832
823.83	5832
823.97	5703
824.11	5570
824.25	5497
824.389	5611
824.529	5562
824.669	5520
824.809	5710
824.949	5665
825.089	5623
825.228	5604
825.368	5440
825.508	5379
825.648	5387
825.787	5433
825.927	5452
826.067	5372
826.206	5360
826.346	5398
826.485	5501
826.625	5459
826.765	5543
826.904	5486
827.044	5284
827.183	5254
827.323	5204
827.462	5239
827.601	5208
827.741	5193
827.88	5235
828.02	5170
828.159	5261
828.298	5303
828.437	5440
828.577	5261
828.716	5543
828.855	5387
828.994	5166
829.134	5178
829.273	5239
829.412	5185
829.551	5147
829.69	5201
829.829	5261
829.968	5406
830.107	5360
830.246	5284
830.385	5208
830.524	5102
830.663	5079
830.802	5048
830.941	4915
831.08	4949
831.219	5029
831.357	5018
831.496	5185
831.635	5022
831.774	4892
831.913	4915
832.051	4812
832.19	4771
832.329	4854
832.467	4736
832.606	4668
832.744	4740
832.883	4767
833.022	4752
833.16	4862
833.299	4835
833.437	4854
833.576	4930
833.714	4896
833.852	4938
833.991	4949
834.129	5033
834.267	4995
834.406	4930
834.544	5018
834.682	5022
834.821	5029
834.959	5227
835.097	5052
835.235	5162
835.373	5124
835.511	5159
835.65	5094
835.788	5166
835.926	4976
836.064	4892
836.202	4911
836.34	5189
836.478	5227
836.615	5151
836.753	5231
836.891	5273
837.029	5296
837.167	5273
837.305	5204
837.443	5201
837.58	5094
837.718	5273
837.856	5216
837.993	5170
838.131	5227
838.269	5261
838.406	5204
838.544	5220
838.681	5033
838.819	5010
838.956	4949
839.094	4927
839.231	5010
839.369	5060
839.506	5444
839.643	5322
839.781	5102
839.918	5045
840.055	5128
840.193	5159
840.33	5094
840.467	5155
840.604	5216
840.742	5486
840.879	5113
841.016	5155
841.153	5220
841.29	5387
841.427	5391
841.564	5318
841.701	5414
841.838	5296
841.975	5273
842.112	5246
842.249	5189
842.385	5094
842.522	5364
842.659	5166
842.796	5223
842.933	5185
843.069	5223
843.206	5174
843.343	5326
843.479	5280
843.616	5254
843.752	5048
843.889	5045
844.025	5204
844.162	5025
844.298	5220
844.435	5136
844.571	5052
844.708	5269
844.844	5387
844.98	5364
845.117	5357
845.253	5181
845.389	5079
845.525	5193
845.661	5143
845.798	5064
845.934	5201
846.07	5098
846.206	5185
846.342	5303
846.478	5261
846.614	5086
846.75	4980
846.886	5022
847.022	5181
847.158	4987
847.294	5075
847.429	5140
847.565	5060
847.701	5376
847.837	4904
847.972	4870
848.108	4942
848.244	4961
848.379	4790
848.515	4759
848.65	4752
848.786	4786
848.921	4824
849.057	4873
849.192	4953
849.328	4862
849.463	4877
849.598	4805
849.734	4771
849.869	4691
850.004	4672
850.14	4733
850.275	4641
850.41	4558
850.545	4573
850.68	4618
850.815	4645
850.95	4649
851.085	4828
851.22	4793
851.355	4691
851.49	4615
851.625	4649
851.76	4683
851.895	4618
852.03	4561
852.165	4660
852.299	4729
852.434	4774
852.569	4774
852.703	4763
852.838	4873
852.973	4946
853.107	4957
853.242	4790
853.376	4755
853.511	4519
853.645	4660
853.78	4824
853.914	4725
854.048	4668
854.183	4694
854.317	4748
854.451	4904
854.585	4714
854.72	4645
854.854	4740
854.988	4615
855.122	4645
855.256	4558
855.39	4660
855.524	4725
855.658	4774
855.792	4755
855.926	4824
856.06	4816
856.194	4786
856.327	4679
856.461	4637
856.595	4645
856.729	4653
856.862	4782
856.996	4706
857.13	4771
857.263	4752
857.397	4816
857.53	4664
857.664	4759
857.797	4793
857.931	4835
858.064	4759
858.197	4778
858.331	4702
858.464	4611
858.597	4554
858.731	4653
858.864	4653
858.997	4645
859.13	4717
859.263	4683
859.396	4725
859.529	4596
859.662	4542
859.795	4573
859.928	4664
860.061	4847
860.194	4847
860.327	4622
860.46	4607
860.592	4679
860.725	4740
860.858	4767
860.99	4603
861.123	4569
861.256	4535
861.388	4618
861.521	5444
861.653	4489
861.786	4462
861.918	4535
862.05	4588
862.183	4577
862.315	4603
862.447	4691
862.58	4512
862.712	4413
862.844	4314
862.976	4481
863.108	4508
863.24	4881
863.372	4390
863.504	4409
863.636	4466
863.768	4493
863.9	4489
864.032	4394
864.164	4379
864.296	4478
864.428	4592
864.559	4569
864.691	4573
864.823	4538
864.954	4523
865.086	4542
865.217	4550
865.349	4459
865.48	4504
865.612	4481
865.743	4668
865.875	4516
866.006	4459
866.137	4535
866.269	4474
866.4	4459
866.531	4428
866.662	4432
866.793	4436
866.924	4443
867.055	4519
867.186	4497
867.317	4443
867.448	4375
867.579	4409
867.71	4386
867.841	4421
867.972	4485
868.103	4527
868.233	4493
868.364	4478
868.495	4493
868.625	4687
868.756	4816
868.886	4599
869.017	4611
869.147	4816
869.278	4790
869.408	4706
869.539	4626
869.669	4767
869.799	4694
869.929	4805
870.06	4759
870.19	4961
870.32	4995
870.45	4953
870.58	5014
870.71	5094
870.84	5075
870.97	5018
871.1	4892
871.23	5143
871.36	5143
871.489	5037
871.619	5162
871.749	5166
871.879	5128
872.008	5231
872.138	5064
872.267	4984
872.397	4896
872.526	4782
872.656	4786
872.785	4862
872.915	4938
873.044	5045
873.173	4942
873.303	4972
873.432	4930
873.561	4968
873.69	4870
873.819	4877
873.948	4976
874.077	4809
874.206	4839
874.335	4778
874.464	4915
874.593	5067
874.722	4980
874.851	5174
874.979	5067
875.108	5132
875.237	4923
875.365	4934
875.494	4900
875.623	5025
875.751	4862
875.88	4862
876.008	5033
876.136	5014
876.265	5223
876.393	5341
876.521	5296
876.65	5216
876.778	5185
876.906	5124
877.034	5052
877.162	5060
877.29	4984
877.418	5029
877.546	5006
877.674	5060
877.802	5029
877.93	4999
878.058	4949
878.185	4919
878.313	4915
878.441	4991
878.568	4812
878.696	4870
878.824	4946
878.951	5006
879.079	5174
879.206	5288
879.333	5151
879.461	4999
879.588	5064
879.715	5155
879.842	5208
879.97	5056
880.097	4816
880.224	4755
880.351	4797
880.478	4847
880.605	4824
880.732	4820
880.859	5094
880.986	4930
881.112	4961
881.239	4782
881.366	4706
881.493	4592
881.619	4611
881.746	4641
881.872	4717
881.999	4691
882.125	4706
882.252	4771
882.378	4847
882.505	4984
882.631	4820
882.757	4710
882.883	4763
883.01	4733
883.136	4702
883.262	4592
883.388	4611
883.514	4820
883.64	4870
883.766	4881
883.892	4668
884.018	4755
884.143	4961
884.269	5052
884.395	4721
884.52	4641
884.646	4691
884.772	4653
884.897	4527
885.023	4672
885.148	4786
885.274	4847
885.399	4862
885.524	4714
885.65	4668
885.775	4729
885.9	4702
886.025	4828
886.15	4820
886.275	4740
886.4	4702
886.525	4752
886.65	4687
886.775	4717
886.9	4870
887.025	5045
887.149	4805
887.274	4649
887.399	4596
887.523	4630
887.648	4630
887.773	4637
887.897	4778
888.021	4782
888.146	4691
888.27	4839
888.395	4923
888.519	4809
888.643	4820
888.767	4858
888.891	4668
889.015	4645
889.139	4698
889.263	4672
889.387	4767
889.511	4862
889.635	4809
889.759	4645
889.883	4622
890.006	4736
890.13	4870
890.254	4668
890.377	4637
890.501	4592
890.624	4538
890.748	4649
890.871	4542
890.995	4451
891.118	4383
891.241	4508
891.364	4592
891.488	4706
891.611	4538
891.734	4558
891.857	4599
891.98	4596
892.103	4672
892.226	4584
892.349	4546
892.471	4436
892.594	4577
892.717	4672
892.839	4577
892.962	4611
893.085	4725
893.207	4645
893.33	4497
893.452	4561
893.575	4675
893.697	4580
893.819	4812
893.941	4850
894.064	4805
894.186	4592
894.308	4565
894.43	4774
894.552	4854
894.674	4778
894.796	4561
894.918	4599
895.04	4584
895.161	4733
895.283	4691
895.405	4607
895.526	4649
895.648	4672
895.769	4683
895.891	4748
896.012	4801
896.134	4733
896.255	4706
896.376	4672
896.498	4641
896.619	4687
896.74	4607
896.861	4675
896.982	4938
897.103	5060
897.224	4843
897.345	4752
897.466	4634
897.587	4744
897.708	4866
897.828	4790
897.949	4698
898.07	4550
898.19	4615
898.311	4896
898.431	4717
898.552	4771
898.672	4835
898.792	4816
898.913	4774
899.033	4630
899.153	4531
899.273	4459
899.393	4527
899.513	4546
899.633	4558
899.753	4535
899.873	4497
899.993	4603
900.113	4550
900.232	4630
900.352	4481
900.472	4493
900.591	4394
900.711	4508
900.83	4497
900.95	4649
901.069	4721
901.189	4592
901.308	4337
901.427	4344
901.546	4367
901.665	4459
901.784	4508
901.904	4405
902.023	4341
902.141	4219
902.26	4169
902.379	4322
902.498	4249
902.617	4265
902.735	4432
902.854	4390
902.973	4379
903.091	4234
903.21	4261
903.328	4314
903.446	4295
903.565	4261
903.683	4356
903.801	4337
903.919	4398
904.038	4470
904.156	4360
904.274	4440
904.392	4421
904.51	4478
904.627	4531
904.745	4580
904.863	4622
904.981	4405
905.098	4318
905.216	4413
905.334	4440
905.451	4440
905.569	4485
905.686	4637
905.803	4675
905.921	4398
906.038	4592
906.155	4512
906.272	4436
906.389	4440
906.506	4390
906.623	4443
906.74	4417
906.857	4341
906.974	4394
907.091	4554
907.208	4714
907.324	4584
907.441	4561
907.557	4333
907.674	4352
907.79	4348
907.907	4417
908.023	4478
908.139	4485
908.256	4470
908.372	4497
908.488	4436
908.604	4383
908.72	4386
908.836	4379
908.952	4424
909.068	4481
909.184	4611
909.3	4512
909.415	4565
909.531	4607
909.647	4356
909.762	4390
909.878	4375
909.993	4523
910.108	4417
910.224	4428
910.339	4512
910.454	4417
910.57	4383
910.685	4348
910.8	4691
910.915	4634
911.03	4542
911.145	4352
911.259	4363
911.374	4360
911.489	4303
911.604	4268
911.718	4181
911.833	4200
911.947	4109
912.062	4017
912.176	4215
912.291	4268
912.405	4223
912.519	4516
912.633	4493
912.748	4360
912.862	4291
912.976	4238
913.09	4071
913.204	4158
913.318	4253
913.431	4413
913.545	4398
913.659	4470
913.772	4405
913.886	4280
914	4272
914.113	4428
914.226	4478
914.34	4436
914.453	4253
914.566	4443
914.68	4348
914.793	4341
914.906	4166
915.019	4150
915.132	4051
915.245	4227
915.358	4234
915.47	4238
915.583	4268
915.696	4329
915.809	4367
915.921	4455
916.034	4329
916.146	4284
916.259	4207
916.371	4386
916.483	4379
916.595	4306
916.708	4314
916.82	4310
916.932	4333
917.044	4363
917.156	4356
917.268	4238
917.38	4276
917.491	4318
917.603	4402
917.715	4424
917.826	4432
917.938	4333
918.049	4261
918.161	4405
918.272	4599
918.384	4550
918.495	4478
918.606	4291
918.717	4276
918.828	4363
918.939	4398
919.05	4272
919.161	4322
919.272	4169
919.383	4272
919.494	4466
919.604	4653
919.715	4432
919.826	4371
919.936	4440
920.047	4497
920.157	4546
920.267	4691
920.378	4580
920.488	4542
920.598	4774
920.708	4892
920.818	4793
920.928	4793
921.038	4942
921.148	4972
921.258	4656
921.368	4584
921.477	4500
921.587	4542
921.697	4360
921.806	4531
921.916	4470
922.025	4306
922.134	4280
922.244	4234
922.353	4405
922.462	4177
922.571	4128
922.68	4002
922.789	3960
922.898	4048
923.007	3953
923.116	4128
923.224	4074
923.333	4021
923.442	4002
923.55	4021
923.659	4048
923.767	4082
923.876	4048
923.984	4105
924.092	3987
924.201	4112
924.309	4101
924.417	4150
924.525	4063
924.633	4147
924.741	4870
924.849	3945
924.956	4131
925.064	3972
925.172	3918
925.279	4006
925.387	4013
925.494	4055
925.602	4196
925.709	4196
925.816	4105
925.924	4150
926.031	4215
926.138	4207
926.245	4162
926.352	4124
926.459	4303
926.566	4280
926.673	4158
926.779	4074
926.886	4086
926.993	3968
927.099	4002
927.206	3987
927.312	3968
927.419	4059
927.525	4055
927.631	4128
927.737	3937
927.843	3945
927.95	3842
928.056	3972
928.162	4002
928.267	4048
928.373	4607
928.479	4131
928.585	3876
928.69	3991
928.796	4120
928.901	3888
929.007	3854
929.112	3994
929.218	3983
929.323	3960
929.428	3949
929.533	4135
929.638	3934
929.743	3979
929.848	4071
929.953	4048
930.058	3941
930.163	3797
930.267	3846
930.372	3979
930.477	3831
930.581	4086
930.685	3964
930.79	3816
930.894	3899
930.998	3880
931.103	4025
931.207	3717
931.311	3701
931.415	3740
931.519	3553
931.623	3561
