Data from test_V78500241_2795.txt Node
Date: Fri Mar 25 17:08:26 CST 2022
User: usil
Spectrometer: V785-0024
Trigger mode: 0
Integration Time (sec): 4.000000E-1
Scans to average: 1
Nonlinearity correction enabled: false
Boxcar width: 0
Storing dark spectrum: false
XAxis mode: Wavelengths
Number of Pixels in Spectrum: 1024
>>>>>Begin Spectral Data<<<<<
801.071	8024
801.214	7982
801.356	7784
801.499	7906
801.641	7860
801.783	7708
801.926	7940
802.068	7902
802.211	8016
802.353	7993
802.496	7887
802.638	7898
802.78	7837
802.923	7871
803.065	7864
803.208	7803
803.35	7963
803.492	8126
803.635	8176
803.777	8027
803.919	8191
804.061	8480
804.204	8145
804.346	8050
804.488	8062
804.63	8058
804.773	8016
804.915	8016
805.057	8263
805.199	8149
805.341	8161
805.483	8282
805.626	8313
805.768	8134
805.91	8271
806.052	8271
806.194	8027
806.336	8225
806.478	8111
806.62	8020
806.762	8088
806.904	8229
807.046	8469
807.188	8286
807.33	8336
807.472	8381
807.614	8142
807.756	8107
807.898	8008
808.04	7894
808.182	7917
808.324	7864
808.465	7936
808.607	8073
808.749	8168
808.891	8256
809.033	8351
809.174	8172
809.316	8039
809.458	8043
809.6	8001
809.741	8043
809.883	8020
810.025	8145
810.166	7997
810.308	8031
810.45	8020
810.591	7864
810.733	7822
810.875	7616
811.016	7571
811.158	7556
811.299	7605
811.441	7700
811.582	7655
811.724	7590
811.865	7571
812.007	7567
812.148	7609
812.29	7636
812.431	7746
812.573	7879
812.714	8016
812.855	8134
812.997	8248
813.138	8256
813.279	8221
813.421	8107
813.562	8024
813.703	7887
813.845	7757
813.986	7400
814.127	7335
814.268	7221
814.41	7168
814.551	7122
814.692	7168
814.833	6996
814.974	7137
815.115	7084
815.256	6970
815.397	6928
815.539	6966
815.68	6810
815.821	6848
815.962	6909
816.103	6821
816.244	6734
816.385	6623
816.526	6608
816.666	6521
816.807	6289
816.948	6494
817.089	6506
817.23	6464
817.371	6399
817.512	6338
817.653	6384
817.793	6334
817.934	6388
818.075	6380
818.216	6445
818.356	6395
818.497	6270
818.638	6148
818.778	6148
818.919	6136
819.06	6125
819.2	6334
819.341	6304
819.481	6308
819.622	6498
819.762	6791
819.903	6711
820.043	6597
820.184	6646
820.324	6620
820.465	6692
820.605	6642
820.746	6662
820.886	6471
821.026	6635
821.167	6677
821.307	6795
821.447	6787
821.588	6658
821.728	6578
821.868	6441
822.008	6315
822.149	6445
822.289	6331
822.429	6163
822.569	6057
822.709	6106
822.849	5942
822.99	5946
823.13	5912
823.27	5920
823.41	5794
823.55	5813
823.69	5737
823.83	5779
823.97	5627
824.11	5535
824.25	5516
824.389	5547
824.529	5551
824.669	5589
824.809	5646
824.949	5577
825.089	5581
825.228	5570
825.368	5372
825.508	5379
825.648	5372
825.787	5391
825.927	5326
826.067	5337
826.206	5280
826.346	5414
826.485	5414
826.625	5368
826.765	5585
826.904	5455
827.044	5299
827.183	5193
827.323	5174
827.462	5258
827.601	5204
827.741	5235
827.88	5204
828.02	5121
828.159	5250
828.298	5349
828.437	5357
828.577	5235
828.716	5459
828.855	5341
828.994	5166
829.134	5174
829.273	5143
829.412	5132
829.551	5121
829.69	5140
829.829	5284
829.968	5349
830.107	5296
830.246	5204
830.385	5132
830.524	5121
830.663	5025
830.802	4938
830.941	4885
831.08	4820
831.219	5010
831.357	4938
831.496	5136
831.635	4930
831.774	4809
831.913	4870
832.051	4729
832.19	4755
832.329	4809
832.467	4664
832.606	4630
832.744	4759
832.883	4725
833.022	4721
833.16	4793
833.299	4820
833.437	4805
833.576	4828
833.714	4896
833.852	4885
833.991	4900
834.129	4949
834.267	4942
834.406	4866
834.544	4949
834.682	5006
834.821	4968
834.959	5098
835.097	4961
835.235	5128
835.373	5067
835.511	5064
835.65	4968
835.788	4976
835.926	4911
836.064	4839
836.202	4987
836.34	5159
836.478	5220
836.615	5140
836.753	5220
836.891	5299
837.029	5227
837.167	5212
837.305	5155
837.443	5143
837.58	5124
837.718	5235
837.856	5227
837.993	5147
838.131	5269
838.269	5204
838.406	5189
838.544	5136
838.681	4991
838.819	5014
838.956	4927
839.094	4915
839.231	4976
839.369	5075
839.506	5402
839.643	5231
839.781	5037
839.918	4968
840.055	5086
840.193	5090
840.33	5086
840.467	5086
840.604	5117
840.742	5425
840.879	5102
841.016	5071
841.153	5132
841.29	5345
841.427	5273
841.564	5318
841.701	5315
841.838	5296
841.975	5231
842.112	5178
842.249	5193
842.385	5052
842.522	5360
842.659	5189
842.796	5136
842.933	5143
843.069	5147
843.206	5140
843.343	5330
843.479	5235
843.616	5277
843.752	5067
843.889	5010
844.025	5216
844.162	5018
844.298	5258
844.435	5086
844.571	5003
844.708	5174
844.844	5307
844.98	5345
845.117	5269
845.253	5132
845.389	5105
845.525	5159
845.661	5174
845.798	5041
845.934	5159
846.07	5075
846.206	5185
846.342	5345
846.478	5143
846.614	5003
846.75	4976
846.886	4942
847.022	5132
847.158	5025
847.294	5090
847.429	5083
847.565	5079
847.701	5280
847.837	4858
847.972	4824
848.108	4942
848.244	4923
848.379	4763
848.515	4752
848.65	4717
848.786	4771
848.921	4748
849.057	4835
849.192	4892
849.328	4824
849.463	4850
849.598	4774
849.734	4786
849.869	4755
850.004	4630
850.14	4596
850.275	4569
850.41	4535
850.545	4577
850.68	4512
850.815	4618
850.95	4634
851.085	4870
851.22	4725
851.355	4645
851.49	4660
851.625	4634
851.76	4637
851.895	4500
852.03	4542
852.165	4630
852.299	4736
852.434	4828
852.569	4755
852.703	4767
852.838	4812
852.973	4965
853.107	4866
853.242	4706
853.376	4653
853.511	4542
853.645	4672
853.78	4786
853.914	4717
854.048	4634
854.183	4645
854.317	4687
854.451	4870
854.585	4672
854.72	4683
854.854	4706
854.988	4607
855.122	4660
855.256	4535
855.39	4664
855.524	4790
855.658	4721
855.792	4668
855.926	4736
856.06	4801
856.194	4793
856.327	4664
856.461	4565
856.595	4596
856.729	4599
856.862	4717
856.996	4687
857.13	4702
857.263	4736
857.397	4790
857.53	4668
857.664	4679
857.797	4752
857.931	4786
858.064	4668
858.197	4740
858.331	4660
858.464	4637
858.597	4565
858.731	4588
858.864	4615
858.997	4607
859.13	4637
859.263	4660
859.396	4706
859.529	4527
859.662	4577
859.795	4542
859.928	4588
860.061	4816
860.194	4733
860.327	4611
860.46	4569
860.592	4694
860.725	4653
860.858	4698
860.99	4561
861.123	4550
861.256	4535
861.388	4630
861.521	5288
861.653	4531
861.786	4402
861.918	4474
862.05	4489
862.183	4519
862.315	4607
862.447	4683
862.58	4569
862.712	4375
862.844	4306
862.976	4459
863.108	4440
863.24	4733
863.372	4344
863.504	4489
863.636	4371
863.768	4508
863.9	4447
864.032	4363
864.164	4348
864.296	4451
864.428	4546
864.559	4554
864.691	4565
864.823	4546
864.954	4459
865.086	4531
865.217	4459
865.349	4360
865.48	4481
865.612	4481
865.743	4580
865.875	4459
866.006	4440
866.137	4474
866.269	4474
866.4	4462
866.531	4440
866.662	4413
866.793	4413
866.924	4459
867.055	4447
867.186	4459
867.317	4421
867.448	4371
867.579	4348
867.71	4383
867.841	4398
867.972	4485
868.103	4455
868.233	4474
868.364	4447
868.495	4474
868.625	4687
868.756	4721
868.886	4546
869.017	4615
869.147	4717
869.278	4763
869.408	4691
869.539	4645
869.669	4706
869.799	4672
869.929	4733
870.06	4748
870.19	4923
870.32	4930
870.45	4934
870.58	4972
870.71	5083
870.84	5098
870.97	4965
871.1	4904
871.23	5128
871.36	5098
871.489	5041
871.619	5033
871.749	5045
871.879	5124
872.008	5185
872.138	5022
872.267	4980
872.397	4843
872.526	4820
872.656	4736
872.785	4873
872.915	4915
873.044	5025
873.173	4908
873.303	4965
873.432	5014
873.561	4953
873.69	4892
873.819	4839
873.948	4881
874.077	4786
874.206	4752
874.335	4748
874.464	4991
874.593	5041
874.722	4984
874.851	5086
874.979	5098
875.108	5006
875.237	4854
875.365	4881
875.494	4900
875.623	4953
875.751	4850
875.88	4892
876.008	5006
876.136	4980
876.265	5223
876.393	5368
876.521	5273
876.65	5231
876.778	5143
876.906	5090
877.034	5014
877.162	5006
877.29	4995
877.418	5018
877.546	5056
877.674	5006
877.802	5041
877.93	5029
878.058	4965
878.185	4858
878.313	4984
878.441	4965
878.568	4820
878.696	4896
878.824	4953
878.951	5041
879.079	5140
879.206	5299
879.333	5064
879.461	4984
879.588	4995
879.715	5098
879.842	5212
879.97	5041
880.097	4797
880.224	4725
880.351	4835
880.478	4828
880.605	4759
880.732	4824
880.859	5064
880.986	4854
881.112	4927
881.239	4782
881.366	4702
881.493	4641
881.619	4611
881.746	4607
881.872	4618
881.999	4679
882.125	4641
882.252	4778
882.378	4786
882.505	5025
882.631	4786
882.757	4656
882.883	4717
883.01	4733
883.136	4717
883.262	4573
883.388	4607
883.514	4843
883.64	4843
883.766	4771
883.892	4706
884.018	4733
884.143	4892
884.269	4984
884.395	4717
884.52	4660
884.646	4649
884.772	4615
884.897	4531
885.023	4679
885.148	4752
885.274	4843
885.399	4835
885.524	4733
885.65	4672
885.775	4733
885.9	4729
886.025	4839
886.15	4752
886.275	4725
886.4	4649
886.525	4706
886.65	4698
886.775	4687
886.9	4885
887.025	5025
887.149	4839
887.274	4615
887.399	4588
887.523	4603
887.648	4603
887.773	4569
887.897	4793
888.021	4744
888.146	4710
888.27	4809
888.395	4915
888.519	4812
888.643	4812
888.767	4850
888.891	4679
889.015	4603
889.139	4622
889.263	4599
889.387	4748
889.511	4904
889.635	4809
889.759	4626
889.883	4630
890.006	4717
890.13	4816
890.254	4611
890.377	4653
890.501	4546
890.624	4512
890.748	4630
890.871	4455
890.995	4451
891.118	4383
891.241	4531
891.364	4535
891.488	4618
891.611	4481
891.734	4569
891.857	4611
891.98	4538
892.103	4660
892.226	4569
892.349	4500
892.471	4398
892.594	4538
892.717	4588
892.839	4558
892.962	4588
893.085	4603
893.207	4592
893.33	4443
893.452	4519
893.575	4668
893.697	4592
893.819	4763
893.941	4839
894.064	4733
894.186	4580
894.308	4554
894.43	4782
894.552	4774
894.674	4774
894.796	4577
894.918	4618
895.04	4542
895.161	4660
895.283	4622
895.405	4554
895.526	4679
895.648	4679
895.769	4660
895.891	4733
896.012	4752
896.134	4706
896.255	4672
896.376	4630
896.498	4615
896.619	4668
896.74	4569
896.861	4694
896.982	4900
897.103	5022
897.224	4809
897.345	4698
897.466	4668
897.587	4740
897.708	4831
897.828	4729
897.949	4641
898.07	4603
898.19	4592
898.311	4778
898.431	4672
898.552	4736
898.672	4786
898.792	4748
898.913	4744
899.033	4584
899.153	4527
899.273	4409
899.393	4451
899.513	4462
899.633	4485
899.753	4542
899.873	4523
899.993	4565
900.113	4527
900.232	4592
900.352	4577
900.472	4485
900.591	4383
900.711	4455
900.83	4459
900.95	4656
901.069	4694
901.189	4542
901.308	4337
901.427	4276
901.546	4375
901.665	4485
901.784	4512
901.904	4375
902.023	4363
902.141	4169
902.26	4162
902.379	4310
902.498	4284
902.617	4200
902.735	4398
902.854	4379
902.973	4318
903.091	4200
903.21	4227
903.328	4314
903.446	4318
903.565	4318
903.683	4337
903.801	4272
903.919	4405
904.038	4447
904.156	4356
904.274	4447
904.392	4432
904.51	4459
904.627	4481
904.745	4596
904.863	4626
904.981	4409
905.098	4333
905.216	4424
905.334	4451
905.451	4470
905.569	4440
905.686	4603
905.803	4607
905.921	4485
906.038	4596
906.155	4523
906.272	4421
906.389	4535
906.506	4409
906.623	4333
906.74	4451
906.857	4341
906.974	4421
907.091	4580
907.208	4767
907.324	4599
907.441	4527
907.557	4363
907.674	4375
907.79	4352
907.907	4409
908.023	4516
908.139	4504
908.256	4489
908.372	4546
908.488	4523
908.604	4409
908.72	4413
908.836	4424
908.952	4367
909.068	4478
909.184	4622
909.3	4508
909.415	4603
909.531	4630
909.647	4402
909.762	4440
909.878	4428
909.993	4485
910.108	4485
910.224	4440
910.339	4550
910.454	4440
910.57	4424
910.685	4341
910.8	4714
910.915	4679
911.03	4569
911.145	4352
911.259	4367
911.374	4428
911.489	4394
911.604	4276
911.718	4238
911.833	4249
911.947	4109
912.062	4071
912.176	4238
912.291	4265
912.405	4310
912.519	4504
912.633	4569
912.748	4413
912.862	4337
912.976	4257
913.09	4166
913.204	4234
913.318	4272
913.431	4440
913.545	4386
913.659	4504
913.772	4413
913.886	4253
914	4230
914.113	4402
914.226	4462
914.34	4432
914.453	4242
914.566	4462
914.68	4344
914.793	4329
914.906	4166
915.019	4154
915.132	4109
915.245	4223
915.358	4219
915.47	4314
915.583	4280
915.696	4344
915.809	4462
915.921	4497
916.034	4284
916.146	4268
916.259	4272
916.371	4440
916.483	4398
916.595	4291
916.708	4386
916.82	4383
916.932	4398
917.044	4390
917.156	4394
917.268	4223
917.38	4329
917.491	4299
917.603	4348
917.715	4462
917.826	4443
917.938	4363
918.049	4261
918.161	4462
918.272	4558
918.384	4580
918.495	4470
918.606	4348
918.717	4276
918.828	4409
918.939	4405
919.05	4253
919.161	4363
919.272	4204
919.383	4246
919.494	4455
919.604	4653
919.715	4462
919.826	4402
919.936	4459
920.047	4561
920.157	4493
920.267	4729
920.378	4599
920.488	4512
920.598	4782
920.708	4949
920.818	4748
920.928	4748
921.038	4987
921.148	4976
921.258	4653
921.368	4596
921.477	4550
921.587	4512
921.697	4432
921.806	4565
921.916	4447
922.025	4341
922.134	4287
922.244	4291
922.353	4371
922.462	4192
922.571	4223
922.68	4063
922.789	4021
922.898	4074
923.007	3998
923.116	4166
923.224	4116
923.333	4147
923.442	4048
923.55	4071
923.659	4109
923.767	4135
923.876	4051
923.984	4158
924.092	4029
924.201	4101
924.309	4105
924.417	4150
924.525	4135
924.633	4150
924.741	4923
924.849	3983
924.956	4196
925.064	3964
925.172	3941
925.279	3987
925.387	4086
925.494	4090
925.602	4268
925.709	4246
925.816	4128
925.924	4139
926.031	4299
926.138	4227
926.245	4253
926.352	4147
926.459	4295
926.566	4318
926.673	4215
926.779	4116
926.886	4150
926.993	4025
927.099	3983
927.206	3979
927.312	4006
927.419	4112
927.525	4093
927.631	4143
927.737	4017
927.843	3972
927.95	3873
928.056	3979
928.162	4048
928.267	4086
928.373	4717
928.479	4147
928.585	3911
928.69	4082
928.796	4082
928.901	3998
929.007	3861
929.112	4036
929.218	4051
929.323	3968
929.428	3998
929.533	4147
929.638	3941
929.743	4006
929.848	4105
929.953	4017
930.058	3979
930.163	3880
930.267	3865
930.372	4044
930.477	3850
930.581	4078
930.685	4013
930.79	3846
930.894	3922
930.998	3884
931.103	4090
931.207	3724
931.311	3762
931.415	3709
931.519	3580
931.623	3549
