Data from test_V78500241_1422.txt Node
Date: Fri Mar 25 16:58:53 CST 2022
User: usil
Spectrometer: V785-0024
Trigger mode: 0
Integration Time (sec): 4.000000E-1
Scans to average: 1
Nonlinearity correction enabled: false
Boxcar width: 0
Storing dark spectrum: false
XAxis mode: Wavelengths
Number of Pixels in Spectrum: 1024
>>>>>Begin Spectral Data<<<<<
801.071	7913
801.214	8043
801.356	7860
801.499	7845
801.641	7765
801.783	7811
801.926	7932
802.068	7925
802.211	7913
802.353	8027
802.496	7898
802.638	7852
802.78	7906
802.923	7913
803.065	7906
803.208	7917
803.35	7947
803.492	8126
803.635	8168
803.777	7974
803.919	8084
804.061	8434
804.204	8153
804.346	8031
804.488	7974
804.63	8111
804.773	7982
804.915	8142
805.057	8305
805.199	8153
805.341	8187
805.483	8290
805.626	8164
805.768	8111
805.91	8176
806.052	8240
806.194	8111
806.336	8259
806.478	8024
806.62	8001
806.762	8149
806.904	8301
807.046	8389
807.188	8385
807.33	8279
807.472	8339
807.614	8195
807.756	8073
807.898	7986
808.04	7841
808.182	7921
808.324	7894
808.465	7921
808.607	8119
808.749	8180
808.891	8206
809.033	8290
809.174	8252
809.316	8046
809.458	8039
809.6	7978
809.741	8054
809.883	8005
810.025	8069
810.166	8043
810.308	7997
810.45	7955
810.591	7860
810.733	7757
810.875	7643
811.016	7491
811.158	7510
811.299	7643
811.441	7723
811.582	7704
811.724	7529
811.865	7544
812.007	7518
812.148	7548
812.29	7575
812.431	7746
812.573	7890
812.714	7993
812.855	8134
812.997	8282
813.138	8324
813.279	8199
813.421	8115
813.562	7982
813.703	7818
813.845	7723
813.986	7407
814.127	7202
814.268	7274
814.41	7247
814.551	7183
814.692	7225
814.833	7080
814.974	7114
815.115	7072
815.256	6913
815.397	6897
815.539	6970
815.68	6798
815.821	6776
815.962	6837
816.103	6825
816.244	6692
816.385	6574
816.526	6601
816.666	6441
816.807	6254
816.948	6437
817.089	6456
817.23	6422
817.371	6403
817.512	6384
817.653	6403
817.793	6338
817.934	6350
818.075	6433
818.216	6350
818.356	6403
818.497	6273
818.638	6136
818.778	6163
818.919	6098
819.06	6167
819.2	6292
819.341	6300
819.481	6384
819.622	6536
819.762	6749
819.903	6658
820.043	6559
820.184	6555
820.324	6582
820.465	6741
820.605	6681
820.746	6692
820.886	6490
821.026	6627
821.167	6749
821.307	6825
821.447	6719
821.588	6700
821.728	6536
821.868	6437
822.008	6369
822.149	6365
822.289	6323
822.429	6098
822.569	6098
822.709	6110
822.849	5912
822.99	5904
823.13	5920
823.27	5923
823.41	5786
823.55	5805
823.69	5779
823.83	5703
823.97	5623
824.11	5474
824.25	5490
824.389	5608
824.529	5570
824.669	5478
824.809	5592
824.949	5729
825.089	5600
825.228	5562
825.368	5402
825.508	5322
825.648	5334
825.787	5387
825.927	5410
826.067	5292
826.206	5269
826.346	5364
826.485	5379
826.625	5410
826.765	5532
826.904	5448
827.044	5303
827.183	5143
827.323	5094
827.462	5223
827.601	5128
827.741	5162
827.88	5170
828.02	5128
828.159	5193
828.298	5315
828.437	5353
828.577	5269
828.716	5478
828.855	5299
828.994	5174
829.134	5136
829.273	5189
829.412	5136
829.551	5094
829.69	5189
829.829	5239
829.968	5360
830.107	5201
830.246	5220
830.385	5231
830.524	5147
830.663	5029
830.802	4942
830.941	4854
831.08	4866
831.219	4938
831.357	4930
831.496	5109
831.635	4892
831.774	4850
831.913	4774
832.051	4717
832.19	4710
832.329	4812
832.467	4744
832.606	4645
832.744	4717
832.883	4702
833.022	4710
833.16	4790
833.299	4782
833.437	4828
833.576	4877
833.714	4839
833.852	4805
833.991	4847
834.129	4980
834.267	4927
834.406	4854
834.544	5041
834.682	4938
834.821	4972
834.959	5132
835.097	4976
835.235	5147
835.373	5075
835.511	5045
835.65	4968
835.788	4987
835.926	4904
836.064	4889
836.202	4915
836.34	5185
836.478	5246
836.615	5143
836.753	5201
836.891	5273
837.029	5227
837.167	5117
837.305	5162
837.443	5147
837.58	5124
837.718	5231
837.856	5204
837.993	5105
838.131	5231
838.269	5170
838.406	5212
838.544	5174
838.681	5037
838.819	5006
838.956	4900
839.094	4877
839.231	4930
839.369	5025
839.506	5410
839.643	5284
839.781	5033
839.918	5014
840.055	5071
840.193	5086
840.33	5090
840.467	5140
840.604	5159
840.742	5433
840.879	5113
841.016	5121
841.153	5155
841.29	5322
841.427	5311
841.564	5239
841.701	5345
841.838	5265
841.975	5227
842.112	5223
842.249	5151
842.385	5117
842.522	5292
842.659	5124
842.796	5136
842.933	5208
843.069	5109
843.206	5166
843.343	5273
843.479	5185
843.616	5208
843.752	5052
843.889	4999
844.025	5181
844.162	5041
844.298	5136
844.435	5052
844.571	5010
844.708	5197
844.844	5246
844.98	5280
845.117	5284
845.253	5121
845.389	5006
845.525	5105
845.661	5151
845.798	5086
845.934	5113
846.07	5045
846.206	5178
846.342	5280
846.478	5197
846.614	5014
846.75	4968
846.886	4942
847.022	5124
847.158	5041
847.294	5029
847.429	5037
847.565	5029
847.701	5307
847.837	4839
847.972	4797
848.108	4965
848.244	4934
848.379	4782
848.515	4721
848.65	4714
848.786	4771
848.921	4774
849.057	4809
849.192	4900
849.328	4824
849.463	4793
849.598	4763
849.734	4733
849.869	4656
850.004	4550
850.14	4675
850.275	4573
850.41	4493
850.545	4565
850.68	4588
850.815	4611
850.95	4634
851.085	4816
851.22	4759
851.355	4675
851.49	4637
851.625	4592
851.76	4611
851.895	4565
852.03	4535
852.165	4679
852.299	4744
852.434	4816
852.569	4759
852.703	4755
852.838	4812
852.973	4919
853.107	4915
853.242	4748
853.376	4675
853.511	4569
853.645	4577
853.78	4778
853.914	4634
854.048	4672
854.183	4607
854.317	4687
854.451	4793
854.585	4702
854.72	4615
854.854	4736
854.988	4535
855.122	4561
855.256	4500
855.39	4615
855.524	4733
855.658	4717
855.792	4675
855.926	4759
856.06	4839
856.194	4793
856.327	4672
856.461	4592
856.595	4626
856.729	4626
856.862	4786
856.996	4683
857.13	4683
857.263	4755
857.397	4774
857.53	4656
857.664	4725
857.797	4740
857.931	4755
858.064	4759
858.197	4714
858.331	4653
858.464	4607
858.597	4561
858.731	4656
858.864	4596
858.997	4645
859.13	4641
859.263	4664
859.396	4656
859.529	4607
859.662	4599
859.795	4558
859.928	4573
860.061	4729
860.194	4774
860.327	4618
860.46	4588
860.592	4675
860.725	4675
860.858	4771
860.99	4573
861.123	4508
861.256	4535
861.388	4577
861.521	5444
861.653	4493
861.786	4455
861.918	4459
862.05	4493
862.183	4542
862.315	4588
862.447	4649
862.58	4504
862.712	4409
862.844	4299
862.976	4474
863.108	4466
863.24	4908
863.372	4318
863.504	4386
863.636	4375
863.768	4451
863.9	4424
864.032	4375
864.164	4421
864.296	4405
864.428	4527
864.559	4558
864.691	4516
864.823	4569
864.954	4523
865.086	4485
865.217	4405
865.349	4383
865.48	4478
865.612	4565
865.743	4653
865.875	4424
866.006	4379
866.137	4459
866.269	4481
866.4	4386
866.531	4409
866.662	4405
866.793	4363
866.924	4390
867.055	4497
867.186	4436
867.317	4466
867.448	4341
867.579	4367
867.71	4352
867.841	4310
867.972	4432
868.103	4436
868.233	4440
868.364	4428
868.495	4508
868.625	4641
868.756	4744
868.886	4493
869.017	4630
869.147	4816
869.278	4767
869.408	4656
869.539	4622
869.669	4702
869.799	4691
869.929	4748
870.06	4702
870.19	4976
870.32	4919
870.45	4870
870.58	4946
870.71	5045
870.84	5071
870.97	4908
871.1	4911
871.23	5109
871.36	5086
871.489	5014
871.619	5090
871.749	5121
871.879	5105
872.008	5178
872.138	4987
872.267	4984
872.397	4809
872.526	4778
872.656	4694
872.785	4805
872.915	4915
873.044	5064
873.173	4930
873.303	4927
873.432	4900
873.561	4976
873.69	4881
873.819	4835
873.948	4900
874.077	4797
874.206	4755
874.335	4854
874.464	4904
874.593	5113
874.722	4930
874.851	5079
874.979	5067
875.108	5018
875.237	4850
875.365	4873
875.494	4889
875.623	4927
875.751	4885
875.88	4862
876.008	5018
876.136	5003
876.265	5181
876.393	5315
876.521	5208
876.65	5204
876.778	5117
876.906	5071
877.034	5014
877.162	5067
877.29	5006
877.418	5022
877.546	4984
877.674	5071
877.802	5022
877.93	5037
878.058	4927
878.185	4850
878.313	4904
878.441	4923
878.568	4805
878.696	4866
878.824	4930
878.951	5006
879.079	5147
879.206	5296
879.333	5098
879.461	4965
879.588	4965
879.715	5162
879.842	5189
879.97	5006
880.097	4786
880.224	4714
880.351	4790
880.478	4778
880.605	4778
880.732	4763
880.859	5079
880.986	4904
881.112	4889
881.239	4801
881.366	4702
881.493	4634
881.619	4573
881.746	4656
881.872	4584
881.999	4634
882.125	4721
882.252	4812
882.378	4801
882.505	4991
882.631	4759
882.757	4702
882.883	4740
883.01	4721
883.136	4653
883.262	4592
883.388	4607
883.514	4824
883.64	4870
883.766	4809
883.892	4687
884.018	4702
884.143	4889
884.269	4995
884.395	4687
884.52	4630
884.646	4645
884.772	4603
884.897	4577
885.023	4675
885.148	4767
885.274	4820
885.399	4831
885.524	4714
885.65	4630
885.775	4736
885.9	4721
886.025	4816
886.15	4816
886.275	4725
886.4	4660
886.525	4656
886.65	4675
886.775	4615
886.9	4949
887.025	5006
887.149	4809
887.274	4714
887.399	4554
887.523	4637
887.648	4558
887.773	4554
887.897	4706
888.021	4759
888.146	4668
888.27	4797
888.395	4885
888.519	4774
888.643	4805
888.767	4786
888.891	4660
889.015	4626
889.139	4660
889.263	4615
889.387	4748
889.511	4831
889.635	4816
889.759	4645
889.883	4656
890.006	4729
890.13	4820
890.254	4637
890.377	4683
890.501	4493
890.624	4508
890.748	4653
890.871	4504
890.995	4402
891.118	4394
891.241	4504
891.364	4550
891.488	4630
891.611	4497
891.734	4531
891.857	4596
891.98	4599
892.103	4637
892.226	4580
892.349	4512
892.471	4440
892.594	4538
892.717	4584
892.839	4599
892.962	4592
893.085	4683
893.207	4565
893.33	4428
893.452	4516
893.575	4622
893.697	4542
893.819	4748
893.941	4824
894.064	4748
894.186	4554
894.308	4550
894.43	4679
894.552	4805
894.674	4710
894.796	4550
894.918	4626
895.04	4596
895.161	4755
895.283	4714
895.405	4592
895.526	4630
895.648	4679
895.769	4660
895.891	4683
896.012	4725
896.134	4717
896.255	4645
896.376	4645
896.498	4611
896.619	4656
896.74	4615
896.861	4664
896.982	4881
897.103	5048
897.224	4824
897.345	4767
897.466	4645
897.587	4748
897.708	4923
897.828	4797
897.949	4664
898.07	4531
898.19	4634
898.311	4820
898.431	4694
898.552	4694
898.672	4816
898.792	4786
898.913	4714
899.033	4607
899.153	4485
899.273	4440
899.393	4497
899.513	4516
899.633	4508
899.753	4554
899.873	4546
899.993	4542
900.113	4527
900.232	4561
900.352	4535
900.472	4436
900.591	4394
900.711	4493
900.83	4413
900.95	4611
901.069	4660
901.189	4523
901.308	4310
901.427	4356
901.546	4363
901.665	4459
901.784	4531
901.904	4402
902.023	4325
902.141	4150
902.26	4185
902.379	4303
902.498	4211
902.617	4265
902.735	4390
902.854	4367
902.973	4344
903.091	4215
903.21	4177
903.328	4272
903.446	4284
903.565	4261
903.683	4383
903.801	4303
903.919	4398
904.038	4413
904.156	4303
904.274	4428
904.392	4409
904.51	4443
904.627	4470
904.745	4584
904.863	4660
904.981	4398
905.098	4295
905.216	4390
905.334	4413
905.451	4367
905.569	4421
905.686	4588
905.803	4569
905.921	4409
906.038	4611
906.155	4478
906.272	4383
906.389	4459
906.506	4352
906.623	4371
906.74	4386
906.857	4306
906.974	4325
907.091	4535
907.208	4603
907.324	4535
907.441	4489
907.557	4356
907.674	4363
907.79	4295
907.907	4322
908.023	4451
908.139	4455
908.256	4417
908.372	4470
908.488	4462
908.604	4356
908.72	4276
908.836	4379
908.952	4398
909.068	4417
909.184	4592
909.3	4489
909.415	4535
909.531	4535
909.647	4379
909.762	4352
909.878	4303
909.993	4413
910.108	4405
910.224	4447
910.339	4462
910.454	4383
910.57	4333
910.685	4280
910.8	4645
910.915	4649
911.03	4504
911.145	4322
911.259	4341
911.374	4390
911.489	4299
911.604	4268
911.718	4128
911.833	4204
911.947	4082
912.062	4036
912.176	4192
912.291	4242
912.405	4276
912.519	4432
912.633	4512
912.748	4363
912.862	4329
912.976	4192
913.09	4093
913.204	4223
913.318	4177
913.431	4333
913.545	4337
913.659	4424
913.772	4356
913.886	4204
914	4188
914.113	4371
914.226	4402
914.34	4413
914.453	4223
914.566	4421
914.68	4299
914.793	4306
914.906	4109
915.019	4120
915.132	4086
915.245	4188
915.358	4192
915.47	4246
915.583	4261
915.696	4242
915.809	4363
915.921	4428
916.034	4276
916.146	4261
916.259	4200
916.371	4402
916.483	4356
916.595	4242
916.708	4291
916.82	4268
916.932	4249
917.044	4318
917.156	4333
917.268	4227
917.38	4318
917.491	4257
917.603	4337
917.715	4409
917.826	4394
917.938	4409
918.049	4242
918.161	4383
918.272	4523
918.384	4535
918.495	4497
918.606	4265
918.717	4185
918.828	4303
918.939	4341
919.05	4299
919.161	4322
919.272	4120
919.383	4227
919.494	4478
919.604	4588
919.715	4421
919.826	4360
919.936	4402
920.047	4519
920.157	4462
920.267	4691
920.378	4500
920.488	4470
920.598	4721
920.708	4858
920.818	4782
920.928	4729
921.038	4972
921.148	4885
921.258	4618
921.368	4554
921.477	4500
921.587	4421
921.697	4402
921.806	4493
921.916	4497
922.025	4227
922.134	4253
922.244	4215
922.353	4325
922.462	4192
922.571	4162
922.68	4017
922.789	3956
922.898	4010
923.007	3979
923.116	4109
923.224	4051
923.333	4074
923.442	4032
923.55	3964
923.659	4048
923.767	4067
923.876	4010
923.984	4139
924.092	4017
924.201	4112
924.309	4112
924.417	4097
924.525	4040
924.633	4112
924.741	5064
924.849	3865
924.956	4105
925.064	3960
925.172	3857
925.279	3987
925.387	4048
925.494	4048
925.602	4211
925.709	4173
925.816	4010
925.924	4131
926.031	4207
926.138	4181
926.245	4192
926.352	4120
926.459	4257
926.566	4287
926.673	4135
926.779	4074
926.886	4048
926.993	3953
927.099	3953
927.206	3953
927.312	3937
927.419	4048
927.525	4044
927.631	4071
927.737	3987
927.843	3945
927.95	3854
928.056	3949
928.162	3968
928.267	4059
928.373	4596
928.479	4116
928.585	3884
928.69	4029
928.796	4090
928.901	3911
929.007	3884
929.112	3964
929.218	3968
929.323	3949
929.428	3934
929.533	4044
929.638	3918
929.743	4010
929.848	4044
929.953	3987
930.058	3903
930.163	3732
930.267	3800
930.372	3941
930.477	3797
930.581	4131
930.685	3922
930.79	3804
930.894	3903
930.998	3857
931.103	4051
931.207	3720
931.311	3690
931.415	3656
931.519	3545
931.623	3511
