Data from test_V78500241_1748.txt Node
Date: Fri Mar 25 17:01:09 CST 2022
User: usil
Spectrometer: V785-0024
Trigger mode: 0
Integration Time (sec): 4.000000E-1
Scans to average: 1
Nonlinearity correction enabled: false
Boxcar width: 0
Storing dark spectrum: false
XAxis mode: Wavelengths
Number of Pixels in Spectrum: 1024
>>>>>Begin Spectral Data<<<<<
801.071	7955
801.214	7967
801.356	7875
801.499	7879
801.641	7795
801.783	7811
801.926	7925
802.068	7845
802.211	7982
802.353	8039
802.496	7818
802.638	7803
802.78	7871
802.923	7852
803.065	7830
803.208	7852
803.35	7982
803.492	8062
803.635	8164
803.777	7993
803.919	8115
804.061	8362
804.204	8145
804.346	8100
804.488	8027
804.63	8115
804.773	7993
804.915	8103
805.057	8233
805.199	8126
805.341	8138
805.483	8221
805.626	8168
805.768	8134
805.91	8195
806.052	8214
806.194	8096
806.336	8259
806.478	8088
806.62	8046
806.762	8123
806.904	8271
807.046	8514
807.188	8370
807.33	8298
807.472	8328
807.614	8221
807.756	8138
807.898	7947
808.04	7928
808.182	7830
808.324	7864
808.465	7928
808.607	8039
808.749	8081
808.891	8138
809.033	8221
809.174	8153
809.316	8100
809.458	8020
809.6	8046
809.741	8073
809.883	7997
810.025	8031
810.166	8008
810.308	7978
810.45	7974
810.591	7875
810.733	7731
810.875	7651
811.016	7597
811.158	7438
811.299	7518
811.441	7742
811.582	7628
811.724	7529
811.865	7556
812.007	7476
812.148	7597
812.29	7677
812.431	7723
812.573	7944
812.714	7986
812.855	8107
812.997	8210
813.138	8393
813.279	8115
813.421	8073
813.562	7921
813.703	7784
813.845	7662
813.986	7415
814.127	7232
814.268	7217
814.41	7110
814.551	7183
814.692	7187
814.833	7080
814.974	7107
815.115	7053
815.256	6962
815.397	6886
815.539	6928
815.68	6791
815.821	6753
815.962	6871
816.103	6795
816.244	6696
816.385	6582
816.526	6551
816.666	6471
816.807	6247
816.948	6422
817.089	6414
817.23	6418
817.371	6338
817.512	6342
817.653	6410
817.793	6334
817.934	6388
818.075	6467
818.216	6437
818.356	6399
818.497	6232
818.638	6095
818.778	6121
818.919	6114
819.06	6091
819.2	6292
819.341	6289
819.481	6319
819.622	6513
819.762	6696
819.903	6700
820.043	6593
820.184	6559
820.324	6566
820.465	6722
820.605	6677
820.746	6616
820.886	6540
821.026	6627
821.167	6677
821.307	6833
821.447	6791
821.588	6620
821.728	6566
821.868	6506
822.008	6289
822.149	6331
822.289	6350
822.429	6167
822.569	6079
822.709	6152
822.849	5923
822.99	5885
823.13	5904
823.27	5923
823.41	5786
823.55	5809
823.69	5752
823.83	5805
823.97	5657
824.11	5547
824.25	5497
824.389	5551
824.529	5600
824.669	5532
824.809	5665
824.949	5691
825.089	5672
825.228	5562
825.368	5391
825.508	5406
825.648	5421
825.787	5376
825.927	5395
826.067	5345
826.206	5258
826.346	5391
826.485	5360
826.625	5440
826.765	5543
826.904	5490
827.044	5284
827.183	5284
827.323	5155
827.462	5299
827.601	5220
827.741	5185
827.88	5261
828.02	5098
828.159	5273
828.298	5311
828.437	5406
828.577	5299
828.716	5478
828.855	5337
828.994	5204
829.134	5136
829.273	5223
829.412	5136
829.551	5151
829.69	5185
829.829	5318
829.968	5406
830.107	5307
830.246	5349
830.385	5212
830.524	5181
830.663	5128
830.802	4984
830.941	4957
831.08	4919
831.219	5033
831.357	5025
831.496	5201
831.635	4961
831.774	4900
831.913	4892
832.051	4790
832.19	4790
832.329	4850
832.467	4763
832.606	4687
832.744	4752
832.883	4774
833.022	4755
833.16	4790
833.299	4889
833.437	4854
833.576	4866
833.714	4824
833.852	4881
833.991	4968
834.129	4976
834.267	4991
834.406	4938
834.544	5006
834.682	5006
834.821	5064
834.959	5162
835.097	5033
835.235	5216
835.373	5090
835.511	5075
835.65	5117
835.788	5079
835.926	4896
836.064	4911
836.202	4949
836.34	5170
836.478	5284
836.615	5155
836.753	5227
836.891	5261
837.029	5296
837.167	5258
837.305	5227
837.443	5208
837.58	5136
837.718	5208
837.856	5239
837.993	5212
838.131	5254
838.269	5239
838.406	5250
838.544	5265
838.681	5075
838.819	5014
838.956	4938
839.094	4949
839.231	5010
839.369	5121
839.506	5429
839.643	5299
839.781	5048
839.918	5014
840.055	5132
840.193	5117
840.33	5086
840.467	5124
840.604	5208
840.742	5440
840.879	5079
841.016	5083
841.153	5155
841.29	5368
841.427	5334
841.564	5360
841.701	5368
841.838	5296
841.975	5292
842.112	5326
842.249	5162
842.385	5124
842.522	5383
842.659	5235
842.796	5181
842.933	5212
843.069	5181
843.206	5174
843.343	5364
843.479	5288
843.616	5269
843.752	5033
843.889	5037
844.025	5189
844.162	5079
844.298	5235
844.435	5147
844.571	5140
844.708	5250
844.844	5330
844.98	5379
845.117	5269
845.253	5189
845.389	5121
845.525	5174
845.661	5109
845.798	5056
845.934	5159
846.07	5045
846.206	5223
846.342	5311
846.478	5193
846.614	5014
846.75	4976
846.886	4984
847.022	5155
847.158	5041
847.294	5105
847.429	5113
847.565	5102
847.701	5360
847.837	4885
847.972	4862
848.108	5029
848.244	4896
848.379	4812
848.515	4729
848.65	4748
848.786	4790
848.921	4843
849.057	4930
849.192	4911
849.328	4847
849.463	4892
849.598	4820
849.734	4774
849.869	4710
850.004	4653
850.14	4706
850.275	4618
850.41	4565
850.545	4603
850.68	4626
850.815	4607
850.95	4645
851.085	4892
851.22	4828
851.355	4706
851.49	4668
851.625	4641
851.76	4653
851.895	4554
852.03	4569
852.165	4672
852.299	4740
852.434	4793
852.569	4748
852.703	4771
852.838	4915
852.973	4949
853.107	4927
853.242	4786
853.376	4668
853.511	4603
853.645	4672
853.78	4812
853.914	4729
854.048	4687
854.183	4660
854.317	4721
854.451	4892
854.585	4717
854.72	4637
854.854	4797
854.988	4603
855.122	4645
855.256	4535
855.39	4660
855.524	4835
855.658	4748
855.792	4755
855.926	4714
856.06	4782
856.194	4812
856.327	4691
856.461	4588
856.595	4649
856.729	4615
856.862	4725
856.996	4721
857.13	4774
857.263	4786
857.397	4790
857.53	4672
857.664	4717
857.797	4763
857.931	4797
858.064	4725
858.197	4767
858.331	4653
858.464	4622
858.597	4569
858.731	4668
858.864	4649
858.997	4649
859.13	4660
859.263	4660
859.396	4710
859.529	4634
859.662	4573
859.795	4588
859.928	4653
860.061	4752
860.194	4774
860.327	4634
860.46	4573
860.592	4759
860.725	4733
860.858	4694
860.99	4630
861.123	4580
861.256	4550
861.388	4645
861.521	5345
861.653	4470
861.786	4474
861.918	4455
862.05	4512
862.183	4561
862.315	4664
862.447	4668
862.58	4531
862.712	4447
862.844	4352
862.976	4516
863.108	4531
863.24	4881
863.372	4348
863.504	4478
863.636	4455
863.768	4478
863.9	4474
864.032	4379
864.164	4470
864.296	4519
864.428	4588
864.559	4535
864.691	4516
864.823	4542
864.954	4500
865.086	4531
865.217	4512
865.349	4398
865.48	4451
865.612	4474
865.743	4641
865.875	4550
866.006	4413
866.137	4459
866.269	4409
866.4	4481
866.531	4421
866.662	4383
866.793	4383
866.924	4386
867.055	4489
867.186	4508
867.317	4409
867.448	4466
867.579	4402
867.71	4394
867.841	4375
867.972	4504
868.103	4481
868.233	4474
868.364	4474
868.495	4500
868.625	4645
868.756	4744
868.886	4573
869.017	4656
869.147	4797
869.278	4812
869.408	4687
869.539	4653
869.669	4721
869.799	4626
869.929	4774
870.06	4717
870.19	4949
870.32	4908
870.45	4934
870.58	4953
870.71	5121
870.84	5128
870.97	4972
871.1	4927
871.23	5121
871.36	5155
871.489	5064
871.619	5086
871.749	5117
871.879	5159
872.008	5193
872.138	5086
872.267	5006
872.397	4900
872.526	4828
872.656	4740
872.785	4858
872.915	4953
873.044	5090
873.173	4961
873.303	4946
873.432	4965
873.561	4938
873.69	4881
873.819	4927
873.948	4877
874.077	4828
874.206	4809
874.335	4828
874.464	4953
874.593	5056
874.722	4995
874.851	5094
874.979	5033
875.108	5075
875.237	4885
875.365	4881
875.494	4892
875.623	5014
875.751	4847
875.88	4919
876.008	5025
876.136	5033
876.265	5201
876.393	5360
876.521	5273
876.65	5201
876.778	5212
876.906	5094
877.034	5064
877.162	5056
877.29	5006
877.418	5022
877.546	5060
877.674	5041
877.802	5025
877.93	5006
878.058	4908
878.185	4885
878.313	5006
878.441	5003
878.568	4835
878.696	4904
878.824	4987
878.951	5014
879.079	5140
879.206	5326
879.333	5136
879.461	4965
879.588	5056
879.715	5136
879.842	5242
879.97	5006
880.097	4786
880.224	4805
880.351	4797
880.478	4824
880.605	4831
880.732	4824
880.859	5090
880.986	4961
881.112	4953
881.239	4786
881.366	4691
881.493	4615
881.619	4603
881.746	4641
881.872	4710
881.999	4706
882.125	4698
882.252	4771
882.378	4824
882.505	4987
882.631	4801
882.757	4694
882.883	4729
883.01	4721
883.136	4672
883.262	4626
883.388	4607
883.514	4835
883.64	4831
883.766	4805
883.892	4733
884.018	4706
884.143	4885
884.269	5037
884.395	4691
884.52	4615
884.646	4656
884.772	4622
884.897	4584
885.023	4687
885.148	4755
885.274	4911
885.399	4854
885.524	4782
885.65	4717
885.775	4774
885.9	4752
886.025	4850
886.15	4847
886.275	4721
886.4	4626
886.525	4740
886.65	4744
886.775	4721
886.9	4896
887.025	5064
887.149	4881
887.274	4687
887.399	4599
887.523	4565
887.648	4561
887.773	4561
887.897	4790
888.021	4820
888.146	4683
888.27	4824
888.395	4900
888.519	4839
888.643	4816
888.767	4870
888.891	4736
889.015	4634
889.139	4622
889.263	4599
889.387	4774
889.511	4877
889.635	4763
889.759	4683
889.883	4668
890.006	4740
890.13	4843
890.254	4615
890.377	4664
890.501	4588
890.624	4519
890.748	4641
890.871	4519
890.995	4455
891.118	4398
891.241	4508
891.364	4573
891.488	4626
891.611	4504
891.734	4573
891.857	4577
891.98	4573
892.103	4672
892.226	4611
892.349	4538
892.471	4432
892.594	4565
892.717	4569
892.839	4569
892.962	4634
893.085	4691
893.207	4618
893.33	4485
893.452	4550
893.575	4675
893.697	4618
893.819	4824
893.941	4881
894.064	4793
894.186	4561
894.308	4596
894.43	4771
894.552	4839
894.674	4752
894.796	4531
894.918	4592
895.04	4569
895.161	4717
895.283	4672
895.405	4554
895.526	4637
895.648	4698
895.769	4702
895.891	4733
896.012	4759
896.134	4710
896.255	4626
896.376	4637
896.498	4630
896.619	4675
896.74	4626
896.861	4660
896.982	4927
897.103	5113
897.224	4896
897.345	4782
897.466	4694
897.587	4714
897.708	4900
897.828	4771
897.949	4675
898.07	4569
898.19	4683
898.311	4786
898.431	4733
898.552	4736
898.672	4824
898.792	4824
898.913	4771
899.033	4687
899.153	4512
899.273	4470
899.393	4546
899.513	4535
899.633	4512
899.753	4550
899.873	4535
899.993	4592
900.113	4558
900.232	4573
900.352	4519
900.472	4527
900.591	4421
900.711	4447
900.83	4459
900.95	4634
901.069	4725
901.189	4542
901.308	4379
901.427	4276
901.546	4367
901.665	4497
901.784	4523
901.904	4409
902.023	4318
902.141	4223
902.26	4150
902.379	4325
902.498	4280
902.617	4204
902.735	4379
902.854	4402
902.973	4333
903.091	4227
903.21	4227
903.328	4287
903.446	4287
903.565	4219
903.683	4341
903.801	4276
903.919	4360
904.038	4413
904.156	4325
904.274	4455
904.392	4379
904.51	4428
904.627	4481
904.745	4599
904.863	4615
904.981	4405
905.098	4287
905.216	4379
905.334	4428
905.451	4466
905.569	4497
905.686	4577
905.803	4607
905.921	4470
906.038	4569
906.155	4497
906.272	4390
906.389	4440
906.506	4363
906.623	4367
906.74	4402
906.857	4325
906.974	4398
907.091	4561
907.208	4740
907.324	4603
907.441	4478
907.557	4344
907.674	4371
907.79	4299
907.907	4390
908.023	4497
908.139	4478
908.256	4455
908.372	4481
908.488	4478
908.604	4344
908.72	4333
908.836	4375
908.952	4405
909.068	4455
909.184	4569
909.3	4500
909.415	4596
909.531	4615
909.647	4375
909.762	4413
909.878	4314
909.993	4386
910.108	4432
910.224	4440
910.339	4500
910.454	4341
910.57	4303
910.685	4291
910.8	4679
910.915	4599
911.03	4462
911.145	4303
911.259	4367
911.374	4432
911.489	4249
911.604	4287
911.718	4150
911.833	4207
911.947	4093
912.062	4044
912.176	4207
912.291	4249
912.405	4284
912.519	4474
912.633	4516
912.748	4409
912.862	4295
912.976	4196
913.09	4109
913.204	4105
913.318	4265
913.431	4306
913.545	4333
913.659	4409
913.772	4341
913.886	4280
914	4238
914.113	4383
914.226	4424
914.34	4371
914.453	4249
914.566	4436
914.68	4325
914.793	4371
914.906	4166
915.019	4143
915.132	4090
915.245	4215
915.358	4204
915.47	4280
915.583	4223
915.696	4306
915.809	4367
915.921	4440
916.034	4227
916.146	4268
916.259	4188
916.371	4367
916.483	4333
916.595	4318
916.708	4341
916.82	4261
916.932	4310
917.044	4367
917.156	4314
917.268	4253
917.38	4257
917.491	4291
917.603	4344
917.715	4443
917.826	4470
917.938	4352
918.049	4192
918.161	4413
918.272	4592
918.384	4527
918.495	4451
918.606	4329
918.717	4230
918.828	4325
918.939	4402
919.05	4246
919.161	4333
919.272	4143
919.383	4280
919.494	4443
919.604	4599
919.715	4436
919.826	4344
919.936	4421
920.047	4535
920.157	4504
920.267	4672
920.378	4542
920.488	4493
920.598	4725
920.708	4911
920.818	4725
920.928	4714
921.038	4938
921.148	4919
921.258	4607
921.368	4535
921.477	4470
921.587	4440
921.697	4367
921.806	4554
921.916	4447
922.025	4287
922.134	4299
922.244	4261
922.353	4337
922.462	4169
922.571	4143
922.68	4002
922.789	3968
922.898	4029
923.007	4017
923.116	4128
923.224	4048
923.333	4067
923.442	3991
923.55	3945
923.659	4029
923.767	4120
923.876	3998
923.984	4147
924.092	4002
924.201	4025
924.309	4093
924.417	4143
924.525	4067
924.633	4116
924.741	4835
924.849	3907
924.956	4090
925.064	3941
925.172	3899
925.279	3922
925.387	4071
925.494	4040
925.602	4242
925.709	4223
925.816	4032
925.924	4112
926.031	4238
926.138	4162
926.245	4230
926.352	4101
926.459	4227
926.566	4299
926.673	4139
926.779	4059
926.886	4116
926.993	4002
927.099	3949
927.206	3896
927.312	3937
927.419	3994
927.525	4017
927.631	4143
927.737	3972
927.843	3979
927.95	3827
928.056	3964
928.162	4021
928.267	4021
928.373	4702
928.479	4097
928.585	3831
928.69	4059
928.796	4055
928.901	3915
929.007	3831
929.112	3987
929.218	3991
929.323	3953
929.428	3937
929.533	4109
929.638	3937
929.743	3968
929.848	4059
929.953	3994
930.058	3903
930.163	3808
930.267	3819
930.372	3975
930.477	3781
930.581	4097
930.685	3979
930.79	3827
930.894	3884
930.998	3846
931.103	4044
931.207	3736
931.311	3713
931.415	3660
931.519	3526
931.623	3568
