Data from test_V78500241_1346.txt Node
Date: Fri Mar 25 16:58:21 CST 2022
User: usil
Spectrometer: V785-0024
Trigger mode: 0
Integration Time (sec): 4.000000E-1
Scans to average: 1
Nonlinearity correction enabled: false
Boxcar width: 0
Storing dark spectrum: false
XAxis mode: Wavelengths
Number of Pixels in Spectrum: 1024
>>>>>Begin Spectral Data<<<<<
801.071	7940
801.214	8008
801.356	7864
801.499	7788
801.641	7788
801.783	7860
801.926	7917
802.068	7852
802.211	8020
802.353	8027
802.496	7818
802.638	7902
802.78	7875
802.923	7890
803.065	7928
803.208	7864
803.35	7993
803.492	8069
803.635	8149
803.777	8065
803.919	8081
804.061	8434
804.204	8145
804.346	8100
804.488	8046
804.63	8088
804.773	8001
804.915	8123
805.057	8305
805.199	8187
805.341	8218
805.483	8271
805.626	8214
805.768	8134
805.91	8252
806.052	8225
806.194	8092
806.336	8351
806.478	8073
806.62	8016
806.762	8123
806.904	8298
807.046	8488
807.188	8370
807.33	8343
807.472	8400
807.614	8210
807.756	8142
807.898	8031
808.04	7864
808.182	7921
808.324	7925
808.465	7974
808.607	8115
808.749	8092
808.891	8214
809.033	8343
809.174	8206
809.316	8081
809.458	8134
809.6	8012
809.741	8050
809.883	8050
810.025	8062
810.166	8065
810.308	8039
810.45	7944
810.591	7879
810.733	7727
810.875	7689
811.016	7483
811.158	7502
811.299	7616
811.441	7719
811.582	7670
811.724	7575
811.865	7510
812.007	7552
812.148	7563
812.29	7567
812.431	7746
812.573	7830
812.714	8001
812.855	8046
812.997	8168
813.138	8267
813.279	8183
813.421	8084
813.562	8012
813.703	7947
813.845	7769
813.986	7506
814.127	7278
814.268	7236
814.41	7187
814.551	7149
814.692	7225
814.833	6996
814.974	7107
815.115	7069
815.256	6951
815.397	6943
815.539	6890
815.68	6810
815.821	6821
815.962	6848
816.103	6806
816.244	6719
816.385	6620
816.526	6604
816.666	6471
816.807	6300
816.948	6395
817.089	6506
817.23	6433
817.371	6338
817.512	6388
817.653	6403
817.793	6346
817.934	6433
818.075	6433
818.216	6460
818.356	6331
818.497	6220
818.638	6209
818.778	6148
818.919	6087
819.06	6190
819.2	6281
819.341	6300
819.481	6319
819.622	6536
819.762	6719
819.903	6681
820.043	6620
820.184	6612
820.324	6593
820.465	6673
820.605	6719
820.746	6585
820.886	6536
821.026	6662
821.167	6665
821.307	6734
821.447	6719
821.588	6677
821.728	6578
821.868	6418
822.008	6361
822.149	6365
822.289	6365
822.429	6163
822.569	6079
822.709	6095
822.849	5870
822.99	5844
823.13	5855
823.27	5882
823.41	5771
823.55	5794
823.69	5794
823.83	5718
823.97	5596
824.11	5562
824.25	5528
824.389	5532
824.529	5551
824.669	5547
824.809	5623
824.949	5634
825.089	5577
825.228	5566
825.368	5357
825.508	5360
825.648	5322
825.787	5303
825.927	5341
826.067	5307
826.206	5254
826.346	5391
826.485	5398
826.625	5455
826.765	5524
826.904	5429
827.044	5220
827.183	5174
827.323	5151
827.462	5242
827.601	5193
827.741	5147
827.88	5204
828.02	5117
828.159	5258
828.298	5303
828.437	5326
828.577	5299
828.716	5463
828.855	5322
828.994	5227
829.134	5132
829.273	5155
829.412	5159
829.551	5147
829.69	5151
829.829	5216
829.968	5414
830.107	5258
830.246	5265
830.385	5178
830.524	5128
830.663	5048
830.802	4972
830.941	4843
831.08	4858
831.219	4930
831.357	4934
831.496	5105
831.635	4892
831.774	4801
831.913	4782
832.051	4740
832.19	4729
832.329	4858
832.467	4668
832.606	4672
832.744	4736
832.883	4675
833.022	4679
833.16	4790
833.299	4778
833.437	4812
833.576	4854
833.714	4854
833.852	4885
833.991	4885
834.129	4953
834.267	4946
834.406	4889
834.544	4953
834.682	4991
834.821	4968
834.959	5102
835.097	4987
835.235	5174
835.373	5098
835.511	5075
835.65	4987
835.788	5014
835.926	4911
836.064	4900
836.202	4911
836.34	5170
836.478	5223
836.615	5098
836.753	5170
836.891	5299
837.029	5254
837.167	5181
837.305	5151
837.443	5201
837.58	5041
837.718	5170
837.856	5216
837.993	5132
838.131	5201
838.269	5185
838.406	5178
838.544	5201
838.681	5037
838.819	5006
838.956	4862
839.094	4911
839.231	4930
839.369	5071
839.506	5364
839.643	5223
839.781	5048
839.918	4999
840.055	5121
840.193	5086
840.33	5105
840.467	5140
840.604	5159
840.742	5417
840.879	5121
841.016	5083
841.153	5178
841.29	5387
841.427	5345
841.564	5288
841.701	5322
841.838	5227
841.975	5212
842.112	5216
842.249	5151
842.385	5147
842.522	5269
842.659	5166
842.796	5121
842.933	5162
843.069	5162
843.206	5155
843.343	5269
843.479	5231
843.616	5307
843.752	5056
843.889	4965
844.025	5223
844.162	5010
844.298	5220
844.435	5037
844.571	4995
844.708	5162
844.844	5239
844.98	5303
845.117	5273
845.253	5166
845.389	5105
845.525	5140
845.661	5147
845.798	4980
845.934	5128
846.07	5045
846.206	5181
846.342	5269
846.478	5216
846.614	5014
846.75	4919
846.886	4934
847.022	5121
847.158	5029
847.294	5037
847.429	5022
847.565	5045
847.701	5334
847.837	4854
847.972	4812
848.108	4915
848.244	4942
848.379	4748
848.515	4717
848.65	4733
848.786	4683
848.921	4786
849.057	4885
849.192	4847
849.328	4812
849.463	4809
849.598	4763
849.734	4736
849.869	4691
850.004	4592
850.14	4698
850.275	4645
850.41	4455
850.545	4603
850.68	4569
850.815	4634
850.95	4653
851.085	4862
851.22	4714
851.355	4653
851.49	4592
851.625	4569
851.76	4615
851.895	4565
852.03	4573
852.165	4611
852.299	4740
852.434	4790
852.569	4698
852.703	4778
852.838	4824
852.973	4930
853.107	4896
853.242	4698
853.376	4702
853.511	4493
853.645	4637
853.78	4755
853.914	4710
854.048	4721
854.183	4664
854.317	4698
854.451	4797
854.585	4656
854.72	4592
854.854	4752
854.988	4561
855.122	4596
855.256	4474
855.39	4637
855.524	4763
855.658	4725
855.792	4717
855.926	4675
856.06	4748
856.194	4767
856.327	4660
856.461	4584
856.595	4626
856.729	4577
856.862	4729
856.996	4675
857.13	4675
857.263	4763
857.397	4740
857.53	4637
857.664	4691
857.797	4755
857.931	4786
858.064	4634
858.197	4744
858.331	4611
858.464	4607
858.597	4497
858.731	4622
858.864	4607
858.997	4607
859.13	4626
859.263	4607
859.396	4675
859.529	4558
859.662	4573
859.795	4512
859.928	4607
860.061	4755
860.194	4767
860.327	4596
860.46	4599
860.592	4668
860.725	4786
860.858	4691
860.99	4558
861.123	4504
861.256	4516
861.388	4580
861.521	5303
861.653	4481
861.786	4489
861.918	4417
862.05	4493
862.183	4508
862.315	4618
862.447	4641
862.58	4554
862.712	4363
862.844	4318
862.976	4436
863.108	4428
863.24	4847
863.372	4360
863.504	4398
863.636	4363
863.768	4447
863.9	4432
864.032	4394
864.164	4367
864.296	4474
864.428	4542
864.559	4538
864.691	4497
864.823	4542
864.954	4466
865.086	4512
865.217	4455
865.349	4417
865.48	4440
865.612	4447
865.743	4622
865.875	4478
866.006	4371
866.137	4440
866.269	4424
866.4	4383
866.531	4409
866.662	4394
866.793	4379
866.924	4428
867.055	4478
867.186	4455
867.317	4413
867.448	4348
867.579	4398
867.71	4348
867.841	4344
867.972	4421
868.103	4466
868.233	4451
868.364	4459
868.495	4455
868.625	4668
868.756	4786
868.886	4523
869.017	4630
869.147	4763
869.278	4782
869.408	4675
869.539	4637
869.669	4710
869.799	4664
869.929	4714
870.06	4721
870.19	4927
870.32	4881
870.45	4892
870.58	5014
870.71	5105
870.84	5071
870.97	4892
871.1	4870
871.23	5094
871.36	5102
871.489	4968
871.619	5041
871.749	5071
871.879	5075
872.008	5124
872.138	5033
872.267	5014
872.397	4850
872.526	4809
872.656	4744
872.785	4820
872.915	4949
873.044	4991
873.173	4930
873.303	4957
873.432	4949
873.561	4949
873.69	4831
873.819	4850
873.948	4900
874.077	4774
874.206	4759
874.335	4793
874.464	4885
874.593	5041
874.722	4942
874.851	5060
874.979	4987
875.108	5025
875.237	4889
875.365	4854
875.494	4892
875.623	4934
875.751	4816
875.88	4839
876.008	4961
876.136	5041
876.265	5132
876.393	5345
876.521	5239
876.65	5258
876.778	5128
876.906	5086
877.034	4984
877.162	5025
877.29	5025
877.418	5056
877.546	5052
877.674	5010
877.802	4972
877.93	4987
878.058	4987
878.185	4839
878.313	4972
878.441	4934
878.568	4778
878.696	4820
878.824	4953
878.951	5041
879.079	5124
879.206	5288
879.333	5075
879.461	5018
879.588	4965
879.715	5098
879.842	5231
879.97	4965
880.097	4763
880.224	4752
880.351	4812
880.478	4778
880.605	4755
880.732	4801
880.859	5102
880.986	4870
881.112	4896
881.239	4809
881.366	4641
881.493	4599
881.619	4538
881.746	4580
881.872	4603
881.999	4603
882.125	4683
882.252	4740
882.378	4763
882.505	4976
882.631	4816
882.757	4656
882.883	4721
883.01	4725
883.136	4649
883.262	4569
883.388	4596
883.514	4854
883.64	4831
883.766	4790
883.892	4675
884.018	4668
884.143	4889
884.269	4995
884.395	4698
884.52	4630
884.646	4637
884.772	4588
884.897	4535
885.023	4577
885.148	4752
885.274	4854
885.399	4816
885.524	4748
885.65	4668
885.775	4736
885.9	4717
886.025	4866
886.15	4828
886.275	4714
886.4	4660
886.525	4660
886.65	4630
886.775	4710
886.9	4915
887.025	5022
887.149	4793
887.274	4668
887.399	4573
887.523	4569
887.648	4554
887.773	4596
887.897	4786
888.021	4771
888.146	4683
888.27	4786
888.395	4843
888.519	4763
888.643	4820
888.767	4809
888.891	4668
889.015	4607
889.139	4645
889.263	4626
889.387	4714
889.511	4908
889.635	4774
889.759	4698
889.883	4573
890.006	4702
890.13	4797
890.254	4615
890.377	4645
890.501	4527
890.624	4577
890.748	4656
890.871	4523
890.995	4470
891.118	4428
891.241	4512
891.364	4497
891.488	4622
891.611	4497
891.734	4535
891.857	4626
891.98	4561
892.103	4645
892.226	4538
892.349	4565
892.471	4443
892.594	4489
892.717	4592
892.839	4519
892.962	4535
893.085	4649
893.207	4554
893.33	4440
893.452	4538
893.575	4645
893.697	4580
893.819	4801
893.941	4831
894.064	4729
894.186	4546
894.308	4584
894.43	4717
894.552	4797
894.674	4767
894.796	4554
894.918	4615
895.04	4561
895.161	4740
895.283	4626
895.405	4592
895.526	4626
895.648	4664
895.769	4759
895.891	4698
896.012	4710
896.134	4672
896.255	4694
896.376	4618
896.498	4569
896.619	4645
896.74	4656
896.861	4630
896.982	4885
897.103	5090
897.224	4812
897.345	4767
897.466	4653
897.587	4729
897.708	4820
897.828	4790
897.949	4668
898.07	4573
898.19	4664
898.311	4805
898.431	4725
898.552	4702
898.672	4831
898.792	4759
898.913	4717
899.033	4618
899.153	4478
899.273	4417
899.393	4508
899.513	4527
899.633	4478
899.753	4523
899.873	4558
899.993	4618
900.113	4531
900.232	4558
900.352	4493
900.472	4466
900.591	4348
900.711	4451
900.83	4428
900.95	4622
901.069	4664
901.189	4516
901.308	4383
901.427	4257
901.546	4413
901.665	4500
901.784	4474
901.904	4413
902.023	4306
902.141	4192
902.26	4169
902.379	4363
902.498	4230
902.617	4215
902.735	4352
902.854	4379
902.973	4299
903.091	4223
903.21	4215
903.328	4249
903.446	4253
903.565	4261
903.683	4367
903.801	4299
903.919	4341
904.038	4436
904.156	4318
904.274	4398
904.392	4383
904.51	4428
904.627	4443
904.745	4599
904.863	4607
904.981	4386
905.098	4303
905.216	4367
905.334	4394
905.451	4436
905.569	4417
905.686	4538
905.803	4569
905.921	4390
906.038	4497
906.155	4459
906.272	4383
906.389	4424
906.506	4417
906.623	4390
906.74	4344
906.857	4284
906.974	4367
907.091	4512
907.208	4694
907.324	4603
907.441	4474
907.557	4333
907.674	4344
907.79	4344
907.907	4390
908.023	4451
908.139	4443
908.256	4367
908.372	4489
908.488	4451
908.604	4337
908.72	4348
908.836	4386
908.952	4322
909.068	4402
909.184	4535
909.3	4474
909.415	4569
909.531	4538
909.647	4383
909.762	4363
909.878	4318
909.993	4474
910.108	4417
910.224	4375
910.339	4481
910.454	4421
910.57	4367
910.685	4352
910.8	4645
910.915	4603
911.03	4489
911.145	4280
911.259	4329
911.374	4360
911.489	4287
911.604	4253
911.718	4188
911.833	4204
911.947	4063
912.062	4006
912.176	4185
912.291	4211
912.405	4223
912.519	4493
912.633	4493
912.748	4367
912.862	4314
912.976	4227
913.09	4086
913.204	4143
913.318	4200
913.431	4341
913.545	4383
913.659	4409
913.772	4371
913.886	4234
914	4223
914.113	4352
914.226	4440
914.34	4405
914.453	4249
914.566	4447
914.68	4306
914.793	4306
914.906	4139
915.019	4124
915.132	4105
915.245	4207
915.358	4188
915.47	4287
915.583	4223
915.696	4322
915.809	4417
915.921	4417
916.034	4261
916.146	4211
916.259	4227
916.371	4337
916.483	4333
916.595	4280
916.708	4303
916.82	4299
916.932	4348
917.044	4306
917.156	4306
917.268	4234
917.38	4314
917.491	4291
917.603	4314
917.715	4379
917.826	4447
917.938	4344
918.049	4219
918.161	4375
918.272	4535
918.384	4516
918.495	4402
918.606	4303
918.717	4230
918.828	4314
918.939	4394
919.05	4257
919.161	4329
919.272	4128
919.383	4238
919.494	4424
919.604	4649
919.715	4466
919.826	4314
919.936	4409
920.047	4554
920.157	4462
920.267	4694
920.378	4531
920.488	4523
920.598	4710
920.708	4866
920.818	4706
920.928	4771
921.038	4957
921.148	4904
921.258	4634
921.368	4535
921.477	4447
921.587	4443
921.697	4333
921.806	4554
921.916	4447
922.025	4295
922.134	4276
922.244	4223
922.353	4371
922.462	4147
922.571	4120
922.68	4010
922.789	3960
922.898	4029
923.007	3972
923.116	4101
923.224	4059
923.333	4071
923.442	4002
923.55	3972
923.659	3953
923.767	4048
923.876	3968
923.984	4139
924.092	3972
924.201	4048
924.309	4082
924.417	4101
924.525	4017
924.633	4097
924.741	5052
924.849	3899
924.956	4109
925.064	3941
925.172	3915
925.279	3956
925.387	4048
925.494	4071
925.602	4207
925.709	4162
925.816	4059
925.924	4135
926.031	4196
926.138	4131
926.245	4215
926.352	4101
926.459	4261
926.566	4325
926.673	4158
926.779	4082
926.886	4036
926.993	3972
927.099	3960
927.206	3937
927.312	3926
927.419	4055
927.525	4032
927.631	4032
927.737	3934
927.843	3930
927.95	3850
928.056	3934
928.162	3998
928.267	4086
928.373	4668
928.479	4147
928.585	3831
928.69	4040
928.796	4051
928.901	3972
929.007	3850
929.112	4032
929.218	3960
929.323	3956
929.428	3949
929.533	4147
929.638	3945
929.743	3991
929.848	4055
929.953	4010
930.058	3907
930.163	3762
930.267	3819
930.372	3964
930.477	3835
930.581	4082
930.685	3934
930.79	3846
930.894	3869
930.998	3838
931.103	4029
931.207	3698
931.311	3713
931.415	3671
931.519	3473
931.623	3553
