Data from test_V78500241_985.txt Node
Date: Fri Mar 25 16:55:51 CST 2022
User: usil
Spectrometer: V785-0024
Trigger mode: 0
Integration Time (sec): 4.000000E-1
Scans to average: 1
Nonlinearity correction enabled: false
Boxcar width: 0
Storing dark spectrum: false
XAxis mode: Wavelengths
Number of Pixels in Spectrum: 1024
>>>>>Begin Spectral Data<<<<<
801.071	7997
801.214	8054
801.356	7898
801.499	7841
801.641	7803
801.783	7852
801.926	7951
802.068	7852
802.211	7967
802.353	7978
802.496	7784
802.638	7894
802.78	7902
802.923	7898
803.065	7822
803.208	7883
803.35	7951
803.492	8077
803.635	8103
803.777	8001
803.919	8149
804.061	8476
804.204	8081
804.346	7944
804.488	7947
804.63	8046
804.773	8001
804.915	8050
805.057	8218
805.199	8126
805.341	8218
805.483	8290
805.626	8168
805.768	8065
805.91	8164
806.052	8199
806.194	8088
806.336	8233
806.478	8081
806.62	7993
806.762	8123
806.904	8305
807.046	8438
807.188	8343
807.33	8301
807.472	8358
807.614	8134
807.756	8092
807.898	8050
808.04	7841
808.182	7871
808.324	7898
808.465	7883
808.607	8001
808.749	8096
808.891	8183
809.033	8244
809.174	8267
809.316	8065
809.458	8073
809.6	7997
809.741	8024
809.883	8031
810.025	7989
810.166	8024
810.308	7951
810.45	8008
810.591	7875
810.733	7727
810.875	7670
811.016	7518
811.158	7514
811.299	7552
811.441	7715
811.582	7704
811.724	7533
811.865	7529
812.007	7518
812.148	7662
812.29	7594
812.431	7700
812.573	7928
812.714	8001
812.855	8077
812.997	8187
813.138	8305
813.279	8195
813.421	8016
813.562	7978
813.703	7868
813.845	7833
813.986	7476
814.127	7221
814.268	7266
814.41	7209
814.551	7095
814.692	7110
814.833	7080
814.974	7110
815.115	7088
815.256	6947
815.397	6924
815.539	6920
815.68	6894
815.821	6753
815.962	6878
816.103	6791
816.244	6715
816.385	6673
816.526	6665
816.666	6502
816.807	6304
816.948	6380
817.089	6452
817.23	6422
817.371	6407
817.512	6399
817.653	6342
817.793	6429
817.934	6410
818.075	6460
818.216	6399
818.356	6395
818.497	6194
818.638	6117
818.778	6167
818.919	6148
819.06	6186
819.2	6296
819.341	6311
819.481	6342
819.622	6498
819.762	6715
819.903	6730
820.043	6589
820.184	6585
820.324	6517
820.465	6623
820.605	6722
820.746	6563
820.886	6494
821.026	6646
821.167	6688
821.307	6795
821.447	6757
821.588	6700
821.728	6532
821.868	6486
822.008	6346
822.149	6369
822.289	6315
822.429	6155
822.569	6076
822.709	6121
822.849	5973
822.99	5916
823.13	5889
823.27	5935
823.41	5805
823.55	5779
823.69	5722
823.83	5767
823.97	5737
824.11	5520
824.25	5512
824.389	5558
824.529	5619
824.669	5493
824.809	5592
824.949	5653
825.089	5596
825.228	5528
825.368	5349
825.508	5372
825.648	5330
825.787	5398
825.927	5376
826.067	5284
826.206	5299
826.346	5425
826.485	5410
826.625	5368
826.765	5551
826.904	5463
827.044	5208
827.183	5166
827.323	5124
827.462	5181
827.601	5155
827.741	5181
827.88	5223
828.02	5105
828.159	5235
828.298	5288
828.437	5341
828.577	5250
828.716	5482
828.855	5303
828.994	5159
829.134	5147
829.273	5242
829.412	5124
829.551	5105
829.69	5140
829.829	5261
829.968	5364
830.107	5239
830.246	5345
830.385	5162
830.524	5124
830.663	5014
830.802	4980
830.941	4938
831.08	4847
831.219	4980
831.357	4911
831.496	5151
831.635	4949
831.774	4774
831.913	4843
832.051	4729
832.19	4721
832.329	4866
832.467	4672
832.606	4599
832.744	4702
832.883	4725
833.022	4710
833.16	4801
833.299	4778
833.437	4820
833.576	4847
833.714	4809
833.852	4839
833.991	4866
834.129	4987
834.267	4930
834.406	4900
834.544	4915
834.682	4968
834.821	4938
834.959	5162
835.097	4984
835.235	5174
835.373	5064
835.511	5045
835.65	5033
835.788	5071
835.926	4847
836.064	4881
836.202	4866
836.34	5155
836.478	5235
836.615	5117
836.753	5235
836.891	5258
837.029	5258
837.167	5124
837.305	5151
837.443	5136
837.58	5071
837.718	5220
837.856	5147
837.993	5109
838.131	5174
838.269	5227
838.406	5212
838.544	5178
838.681	4965
838.819	5037
838.956	4870
839.094	4930
839.231	4938
839.369	5079
839.506	5387
839.643	5216
839.781	5010
839.918	4980
840.055	5090
840.193	5094
840.33	5102
840.467	5109
840.604	5201
840.742	5406
840.879	5064
841.016	5052
841.153	5105
841.29	5368
841.427	5334
841.564	5284
841.701	5330
841.838	5280
841.975	5227
842.112	5227
842.249	5117
842.385	5102
842.522	5307
842.659	5105
842.796	5117
842.933	5220
843.069	5136
843.206	5193
843.343	5254
843.479	5261
843.616	5318
843.752	5029
843.889	5014
844.025	5231
844.162	4999
844.298	5162
844.435	5094
844.571	5037
844.708	5189
844.844	5280
844.98	5353
845.117	5288
845.253	5109
845.389	5086
845.525	5143
845.661	5113
845.798	4965
845.934	5124
846.07	5086
846.206	5166
846.342	5246
846.478	5174
846.614	5052
846.75	4980
846.886	4904
847.022	5079
847.158	4991
847.294	5090
847.429	5075
847.565	5010
847.701	5292
847.837	4854
847.972	4824
848.108	4995
848.244	4919
848.379	4774
848.515	4744
848.65	4744
848.786	4740
848.921	4763
849.057	4835
849.192	4908
849.328	4797
849.463	4793
849.598	4740
849.734	4744
849.869	4683
850.004	4675
850.14	4649
850.275	4584
850.41	4485
850.545	4558
850.68	4573
850.815	4577
850.95	4641
851.085	4831
851.22	4759
851.355	4664
851.49	4580
851.625	4618
851.76	4580
851.895	4538
852.03	4546
852.165	4630
852.299	4687
852.434	4744
852.569	4717
852.703	4755
852.838	4797
852.973	4927
853.107	4900
853.242	4714
853.376	4580
853.511	4565
853.645	4592
853.78	4759
853.914	4694
854.048	4683
854.183	4626
854.317	4668
854.451	4858
854.585	4653
854.72	4622
854.854	4755
854.988	4607
855.122	4584
855.256	4535
855.39	4641
855.524	4763
855.658	4672
855.792	4630
855.926	4710
856.06	4763
856.194	4812
856.327	4694
856.461	4622
856.595	4577
856.729	4645
856.862	4698
856.996	4672
857.13	4744
857.263	4744
857.397	4778
857.53	4641
857.664	4706
857.797	4736
857.931	4786
858.064	4668
858.197	4748
858.331	4607
858.464	4630
858.597	4512
858.731	4622
858.864	4618
858.997	4565
859.13	4626
859.263	4645
859.396	4645
859.529	4561
859.662	4611
859.795	4493
859.928	4634
860.061	4797
860.194	4725
860.327	4588
860.46	4512
860.592	4725
860.725	4653
860.858	4691
860.99	4588
861.123	4535
861.256	4516
861.388	4637
861.521	5223
861.653	4535
861.786	4451
861.918	4462
862.05	4481
862.183	4550
862.315	4577
862.447	4637
862.58	4546
862.712	4409
862.844	4299
862.976	4451
863.108	4409
863.24	4885
863.372	4344
863.504	4421
863.636	4379
863.768	4481
863.9	4447
864.032	4344
864.164	4390
864.296	4462
864.428	4565
864.559	4493
864.691	4474
864.823	4538
864.954	4504
865.086	4466
865.217	4451
865.349	4375
865.48	4428
865.612	4470
865.743	4603
865.875	4470
866.006	4409
866.137	4424
866.269	4417
866.4	4478
866.531	4443
866.662	4363
866.793	4375
866.924	4386
867.055	4493
867.186	4481
867.317	4417
867.448	4367
867.579	4360
867.71	4363
867.841	4348
867.972	4478
868.103	4436
868.233	4443
868.364	4455
868.495	4504
868.625	4622
868.756	4790
868.886	4558
869.017	4554
869.147	4820
869.278	4672
869.408	4649
869.539	4630
869.669	4668
869.799	4664
869.929	4706
870.06	4733
870.19	4946
870.32	4870
870.45	4892
870.58	4999
870.71	5048
870.84	5083
870.97	4961
871.1	4870
871.23	5140
871.36	5102
871.489	4999
871.619	5056
871.749	5102
871.879	5105
872.008	5174
872.138	5056
872.267	4995
872.397	4892
872.526	4767
872.656	4725
872.785	4778
872.915	4919
873.044	4991
873.173	4942
873.303	4972
873.432	4946
873.561	4927
873.69	4873
873.819	4805
873.948	4885
874.077	4805
874.206	4801
874.335	4793
874.464	4915
874.593	5060
874.722	4968
874.851	5090
874.979	5067
875.108	5010
875.237	4927
875.365	4919
875.494	4862
875.623	4965
875.751	4809
875.88	4892
876.008	4965
876.136	5014
876.265	5159
876.393	5330
876.521	5220
876.65	5185
876.778	5128
876.906	5075
877.034	5010
877.162	5045
877.29	4984
877.418	5025
877.546	4968
877.674	5056
877.802	5003
877.93	4999
878.058	4927
878.185	4858
878.313	4953
878.441	4927
878.568	4809
878.696	4885
878.824	4957
878.951	4961
879.079	5151
879.206	5261
879.333	5052
879.461	4942
879.588	5018
879.715	5117
879.842	5193
879.97	5003
880.097	4752
880.224	4740
880.351	4759
880.478	4797
880.605	4797
880.732	4767
880.859	5060
880.986	4831
881.112	4854
881.239	4736
881.366	4660
881.493	4599
881.619	4615
881.746	4584
881.872	4634
881.999	4675
882.125	4675
882.252	4744
882.378	4835
882.505	4953
882.631	4786
882.757	4622
882.883	4740
883.01	4691
883.136	4660
883.262	4588
883.388	4603
883.514	4790
883.64	4847
883.766	4755
883.892	4637
884.018	4710
884.143	4873
884.269	4968
884.395	4694
884.52	4607
884.646	4641
884.772	4599
884.897	4584
885.023	4637
885.148	4748
885.274	4839
885.399	4850
885.524	4729
885.65	4691
885.775	4752
885.9	4698
886.025	4850
886.15	4752
886.275	4744
886.4	4630
886.525	4736
886.65	4721
886.775	4744
886.9	4885
887.025	5037
887.149	4733
887.274	4668
887.399	4554
887.523	4599
887.648	4546
887.773	4592
887.897	4771
888.021	4748
888.146	4710
888.27	4729
888.395	4915
888.519	4752
888.643	4816
888.767	4748
888.891	4672
889.015	4641
889.139	4691
889.263	4565
889.387	4755
889.511	4858
889.635	4793
889.759	4618
889.883	4622
890.006	4755
890.13	4801
890.254	4592
890.377	4698
890.501	4546
890.624	4466
890.748	4618
890.871	4497
890.995	4409
891.118	4325
891.241	4531
891.364	4554
891.488	4672
891.611	4443
891.734	4554
891.857	4615
891.98	4538
892.103	4607
892.226	4622
892.349	4485
892.471	4360
892.594	4531
892.717	4645
892.839	4542
892.962	4580
893.085	4649
893.207	4569
893.33	4436
893.452	4481
893.575	4660
893.697	4542
893.819	4771
893.941	4782
894.064	4710
894.186	4561
894.308	4622
894.43	4740
894.552	4767
894.674	4736
894.796	4535
894.918	4561
895.04	4535
895.161	4679
895.283	4710
895.405	4561
895.526	4603
895.648	4683
895.769	4679
895.891	4721
896.012	4752
896.134	4759
896.255	4683
896.376	4698
896.498	4611
896.619	4717
896.74	4615
896.861	4664
896.982	4930
897.103	5056
897.224	4843
897.345	4725
897.466	4660
897.587	4729
897.708	4870
897.828	4801
897.949	4710
898.07	4580
898.19	4603
898.311	4778
898.431	4653
898.552	4733
898.672	4812
898.792	4790
898.913	4771
899.033	4615
899.153	4478
899.273	4413
899.393	4451
899.513	4508
899.633	4535
899.753	4516
899.873	4531
899.993	4626
900.113	4497
900.232	4588
900.352	4523
900.472	4493
900.591	4402
900.711	4478
900.83	4424
900.95	4580
901.069	4653
901.189	4489
901.308	4352
901.427	4295
901.546	4367
901.665	4447
901.784	4478
901.904	4371
902.023	4287
902.141	4215
902.26	4162
902.379	4265
902.498	4246
902.617	4265
902.735	4383
902.854	4394
902.973	4360
903.091	4192
903.21	4181
903.328	4310
903.446	4265
903.565	4246
903.683	4360
903.801	4268
903.919	4386
904.038	4413
904.156	4280
904.274	4413
904.392	4337
904.51	4440
904.627	4466
904.745	4558
904.863	4599
904.981	4371
905.098	4291
905.216	4325
905.334	4379
905.451	4462
905.569	4417
905.686	4569
905.803	4550
905.921	4402
906.038	4508
906.155	4443
906.272	4375
906.389	4447
906.506	4322
906.623	4363
906.74	4428
906.857	4291
906.974	4352
907.091	4527
907.208	4748
907.324	4577
907.441	4428
907.557	4318
907.674	4341
907.79	4268
907.907	4344
908.023	4508
908.139	4443
908.256	4443
908.372	4470
908.488	4417
908.604	4310
908.72	4295
908.836	4329
908.952	4329
909.068	4451
909.184	4497
909.3	4481
909.415	4569
909.531	4565
909.647	4379
909.762	4344
909.878	4348
909.993	4436
910.108	4386
910.224	4443
910.339	4470
910.454	4383
910.57	4344
910.685	4276
910.8	4641
910.915	4546
911.03	4428
911.145	4337
911.259	4306
911.374	4348
911.489	4306
911.604	4227
911.718	4173
911.833	4200
911.947	4059
912.062	4006
912.176	4211
912.291	4242
912.405	4211
912.519	4436
912.633	4493
912.748	4405
912.862	4303
912.976	4219
913.09	4013
913.204	4215
913.318	4207
913.431	4390
913.545	4318
913.659	4462
913.772	4367
913.886	4280
914	4238
914.113	4394
914.226	4424
914.34	4383
914.453	4207
914.566	4421
914.68	4280
914.793	4333
914.906	4177
915.019	4067
915.132	4036
915.245	4185
915.358	4188
915.47	4204
915.583	4261
915.696	4360
915.809	4402
915.921	4394
916.034	4280
916.146	4196
916.259	4230
916.371	4383
916.483	4352
916.595	4268
916.708	4325
916.82	4333
916.932	4314
917.044	4341
917.156	4299
917.268	4215
917.38	4303
917.491	4280
917.603	4276
917.715	4383
917.826	4413
917.938	4299
918.049	4196
918.161	4405
918.272	4546
918.384	4466
918.495	4489
918.606	4341
918.717	4276
918.828	4352
918.939	4379
919.05	4265
919.161	4333
919.272	4128
919.383	4200
919.494	4436
919.604	4599
919.715	4432
919.826	4398
919.936	4398
920.047	4535
920.157	4478
920.267	4691
920.378	4546
920.488	4516
920.598	4706
920.708	4854
920.818	4740
920.928	4736
921.038	4908
921.148	4870
921.258	4710
921.368	4561
921.477	4462
921.587	4424
921.697	4371
921.806	4531
921.916	4443
922.025	4261
922.134	4280
922.244	4238
922.353	4333
922.462	4177
922.571	4112
922.68	4029
922.789	3991
922.898	4082
923.007	3972
923.116	4093
923.224	4067
923.333	4071
923.442	4010
923.55	3949
923.659	4017
923.767	4131
923.876	4002
923.984	4116
924.092	3991
924.201	4078
924.309	4120
924.417	4109
924.525	4074
924.633	4112
924.741	5060
924.849	3911
924.956	4101
925.064	3915
925.172	3865
925.279	3960
925.387	4093
925.494	4036
925.602	4181
925.709	4135
925.816	4025
925.924	4177
926.031	4211
926.138	4154
926.245	4257
926.352	4086
926.459	4276
926.566	4325
926.673	4143
926.779	4055
926.886	4059
926.993	3956
927.099	3949
927.206	3934
927.312	3903
927.419	4055
927.525	3998
927.631	4071
927.737	3960
927.843	3945
927.95	3846
928.056	3968
928.162	4032
928.267	4051
928.373	4634
928.479	4154
928.585	3861
928.69	4021
928.796	4112
928.901	3945
929.007	3857
929.112	3998
929.218	4010
929.323	3937
929.428	3926
929.533	4101
929.638	3857
929.743	4002
929.848	3991
929.953	3960
930.058	3937
930.163	3778
930.267	3873
930.372	3964
930.477	3766
930.581	4109
930.685	3922
930.79	3823
930.894	3857
930.998	3842
931.103	4013
931.207	3694
931.311	3724
931.415	3656
931.519	3545
931.623	3504
