Data from test_V78500241_6.txt Node
Date: Fri Mar 25 16:49:02 CST 2022
User: usil
Spectrometer: V785-0024
Trigger mode: 0
Integration Time (sec): 4.000000E-1
Scans to average: 1
Nonlinearity correction enabled: false
Boxcar width: 0
Storing dark spectrum: false
XAxis mode: Wavelengths
Number of Pixels in Spectrum: 1024
>>>>>Begin Spectral Data<<<<<
801.071	8081
801.214	8031
801.356	7982
801.499	7902
801.641	7875
801.783	7947
801.926	8092
802.068	8020
802.211	8024
802.353	8103
802.496	7974
802.638	8020
802.78	7974
802.923	7970
803.065	7928
803.208	7917
803.35	8039
803.492	8130
803.635	8157
803.777	8054
803.919	8195
804.061	8476
804.204	8199
804.346	8081
804.488	8050
804.63	8134
804.773	8027
804.915	8073
805.057	8298
805.199	8210
805.341	8267
805.483	8358
805.626	8214
805.768	8187
805.91	8267
806.052	8229
806.194	8073
806.336	8347
806.478	8168
806.62	8187
806.762	8210
806.904	8385
807.046	8469
807.188	8431
807.33	8400
807.472	8313
807.614	8210
807.756	8130
807.898	8024
808.04	7959
808.182	8005
808.324	7921
808.465	7970
808.607	8058
808.749	8096
808.891	8248
809.033	8286
809.174	8286
809.316	8024
809.458	8065
809.6	8043
809.741	8039
809.883	8035
810.025	8199
810.166	8107
810.308	8115
810.45	8111
810.591	7913
810.733	7811
810.875	7727
811.016	7586
811.158	7594
811.299	7685
811.441	7784
811.582	7750
811.724	7620
811.865	7571
812.007	7677
812.148	7677
812.29	7704
812.431	7715
812.573	7947
812.714	8012
812.855	8161
812.997	8225
813.138	8377
813.279	8271
813.421	8172
813.562	8149
813.703	7982
813.845	7799
813.986	7502
814.127	7301
814.268	7305
814.41	7320
814.551	7171
814.692	7244
814.833	7069
814.974	7183
815.115	7149
815.256	7004
815.397	7008
815.539	6920
815.68	6871
815.821	6818
815.962	6973
816.103	6867
816.244	6760
816.385	6703
816.526	6635
816.666	6540
816.807	6304
816.948	6540
817.089	6540
817.23	6490
817.371	6365
817.512	6433
817.653	6365
817.793	6407
817.934	6391
818.075	6460
818.216	6437
818.356	6525
818.497	6281
818.638	6117
818.778	6171
818.919	6159
819.06	6186
819.2	6399
819.341	6315
819.481	6342
819.622	6597
819.762	6757
819.903	6776
820.043	6635
820.184	6669
820.324	6662
820.465	6722
820.605	6700
820.746	6707
820.886	6593
821.026	6749
821.167	6779
821.307	6852
821.447	6787
821.588	6681
821.728	6585
821.868	6555
822.008	6407
822.149	6445
822.289	6433
822.429	6171
822.569	6136
822.709	6216
822.849	5954
822.99	5927
823.13	5931
823.27	5942
823.41	5798
823.55	5874
823.69	5783
823.83	5874
823.97	5737
824.11	5581
824.25	5528
824.389	5592
824.529	5627
824.669	5562
824.809	5691
824.949	5741
825.089	5668
825.228	5619
825.368	5402
825.508	5353
825.648	5395
825.787	5433
825.927	5414
826.067	5395
826.206	5349
826.346	5421
826.485	5436
826.625	5471
826.765	5554
826.904	5570
827.044	5261
827.183	5273
827.323	5166
827.462	5261
827.601	5216
827.741	5246
827.88	5246
828.02	5159
828.159	5296
828.298	5364
828.437	5383
828.577	5364
828.716	5535
828.855	5398
828.994	5197
829.134	5197
829.273	5296
829.412	5227
829.551	5178
829.69	5277
829.829	5383
829.968	5425
830.107	5383
830.246	5372
830.385	5288
830.524	5235
830.663	5166
830.802	5052
830.941	4976
831.08	4984
831.219	5113
831.357	5067
831.496	5296
831.635	4984
831.774	4927
831.913	4927
832.051	4812
832.19	4774
832.329	4900
832.467	4782
832.606	4717
832.744	4820
832.883	4771
833.022	4797
833.16	4862
833.299	4946
833.437	4904
833.576	4934
833.714	4942
833.852	4961
833.991	4995
834.129	5033
834.267	5071
834.406	4961
834.544	5079
834.682	5048
834.821	5041
834.959	5265
835.097	5113
835.235	5231
835.373	5246
835.511	5193
835.65	5121
835.788	5090
835.926	5006
836.064	4961
836.202	4987
836.34	5231
836.478	5353
836.615	5216
836.753	5299
836.891	5368
837.029	5296
837.167	5303
837.305	5231
837.443	5250
837.58	5212
837.718	5330
837.856	5330
837.993	5220
838.131	5341
838.269	5326
838.406	5280
838.544	5299
838.681	5109
838.819	5102
838.956	4976
839.094	5029
839.231	5045
839.369	5124
839.506	5520
839.643	5368
839.781	5155
839.918	5083
840.055	5223
840.193	5159
840.33	5212
840.467	5208
840.604	5223
840.742	5497
840.879	5174
841.016	5140
841.153	5242
841.29	5455
841.427	5440
841.564	5391
841.701	5425
841.838	5341
841.975	5364
842.112	5315
842.249	5254
842.385	5147
842.522	5406
842.659	5269
842.796	5227
842.933	5265
843.069	5189
843.206	5223
843.343	5357
843.479	5341
843.616	5315
843.752	5079
843.889	5094
844.025	5296
844.162	5094
844.298	5250
844.435	5170
844.571	5166
844.708	5288
844.844	5391
844.98	5368
845.117	5368
845.253	5216
845.389	5170
845.525	5250
845.661	5296
845.798	5109
845.934	5231
846.07	5147
846.206	5307
846.342	5376
846.478	5258
846.614	5075
846.75	5102
846.886	5022
847.022	5201
847.158	5197
847.294	5140
847.429	5201
847.565	5151
847.701	5436
847.837	4991
847.972	4938
848.108	5037
848.244	5037
848.379	4873
848.515	4793
848.65	4782
848.786	4831
848.921	4854
849.057	4961
849.192	5025
849.328	4923
849.463	4919
849.598	4816
849.734	4831
849.869	4854
850.004	4706
850.14	4771
850.275	4645
850.41	4588
850.545	4634
850.68	4672
850.815	4706
850.95	4706
851.085	4949
851.22	4816
851.355	4733
851.49	4645
851.625	4706
851.76	4725
851.895	4618
852.03	4596
852.165	4736
852.299	4831
852.434	4881
852.569	4820
852.703	4854
852.838	4911
852.973	4968
853.107	5003
853.242	4786
853.376	4736
853.511	4626
853.645	4675
853.78	4854
853.914	4793
854.048	4763
854.183	4736
854.317	4725
854.451	4972
854.585	4759
854.72	4729
854.854	4847
854.988	4698
855.122	4744
855.256	4561
855.39	4725
855.524	4904
855.658	4786
855.792	4782
855.926	4828
856.06	4778
856.194	4904
856.327	4752
856.461	4698
856.595	4672
856.729	4687
856.862	4816
856.996	4778
857.13	4820
857.263	4873
857.397	4843
857.53	4793
857.664	4793
857.797	4862
857.931	4858
858.064	4805
858.197	4805
858.331	4771
858.464	4683
858.597	4603
858.731	4729
858.864	4733
858.997	4691
859.13	4725
859.263	4782
859.396	4778
859.529	4714
859.662	4656
859.795	4641
859.928	4748
860.061	4824
860.194	4870
860.327	4691
860.46	4645
860.592	4786
860.725	4850
860.858	4847
860.99	4649
861.123	4550
861.256	4656
861.388	4729
861.521	5505
861.653	4565
861.786	4538
861.918	4580
862.05	4603
862.183	4615
862.315	4653
862.447	4736
862.58	4634
862.712	4516
862.844	4413
862.976	4580
863.108	4538
863.24	4976
863.372	4386
863.504	4459
863.636	4497
863.768	4565
863.9	4519
864.032	4497
864.164	4497
864.296	4615
864.428	4615
864.559	4702
864.691	4611
864.823	4656
864.954	4580
865.086	4569
865.217	4512
865.349	4523
865.48	4542
865.612	4535
865.743	4694
865.875	4561
866.006	4478
866.137	4577
866.269	4519
866.4	4485
866.531	4516
866.662	4485
866.793	4497
866.924	4546
867.055	4561
867.186	4523
867.317	4497
867.448	4462
867.579	4440
867.71	4462
867.841	4405
867.972	4561
868.103	4584
868.233	4542
868.364	4546
868.495	4577
868.625	4679
868.756	4805
868.886	4596
869.017	4714
869.147	4828
869.278	4839
869.408	4717
869.539	4782
869.669	4763
869.799	4801
869.929	4820
870.06	4862
870.19	5094
870.32	5033
870.45	5018
870.58	5140
870.71	5189
870.84	5151
870.97	5048
871.1	4980
871.23	5170
871.36	5174
871.489	5140
871.619	5128
871.749	5189
871.879	5220
872.008	5273
872.138	5204
872.267	5064
872.397	4885
872.526	4812
872.656	4801
872.785	4889
872.915	5006
873.044	5140
873.173	5010
873.303	5060
873.432	4972
873.561	5018
873.69	5003
873.819	4904
873.948	5003
874.077	4889
874.206	4831
874.335	4850
874.464	4984
874.593	5174
874.722	5014
874.851	5170
874.979	5151
875.108	5098
875.237	4999
875.365	5003
875.494	4987
875.623	5071
875.751	4927
875.88	4972
876.008	5075
876.136	5113
876.265	5273
876.393	5429
876.521	5349
876.65	5292
876.778	5220
876.906	5132
877.034	5113
877.162	5132
877.29	5075
877.418	5166
877.546	5075
877.674	5113
877.802	5121
877.93	5079
878.058	5037
878.185	4946
878.313	5018
878.441	5079
878.568	4854
878.696	4946
878.824	5052
878.951	5094
879.079	5178
879.206	5341
879.333	5159
879.461	5071
879.588	5048
879.715	5170
879.842	5330
879.97	5075
880.097	4911
880.224	4793
880.351	4847
880.478	4923
880.605	4873
880.732	4908
880.859	5208
880.986	4938
881.112	5003
881.239	4866
881.366	4717
881.493	4687
881.619	4664
881.746	4725
881.872	4725
881.999	4710
882.125	4763
882.252	4858
882.378	4938
882.505	5052
882.631	4949
882.757	4729
882.883	4816
883.01	4778
883.136	4763
883.262	4664
883.388	4702
883.514	4904
883.64	4946
883.766	4831
883.892	4744
884.018	4793
884.143	4957
884.269	5094
884.395	4759
884.52	4740
884.646	4714
884.772	4660
884.897	4672
885.023	4736
885.148	4889
885.274	4953
885.399	4900
885.524	4763
885.65	4774
885.775	4805
885.9	4782
886.025	4930
886.15	4900
886.275	4816
886.4	4729
886.525	4763
886.65	4797
886.775	4744
886.9	4995
887.025	5113
887.149	4870
887.274	4759
887.399	4634
887.523	4672
887.648	4656
887.773	4672
887.897	4850
888.021	4843
888.146	4714
888.27	4858
888.395	4961
888.519	4828
888.643	4828
888.767	4889
888.891	4797
889.015	4672
889.139	4767
889.263	4679
889.387	4828
889.511	4938
889.635	4911
889.759	4714
889.883	4694
890.006	4824
890.13	4881
890.254	4645
890.377	4763
890.501	4603
890.624	4573
890.748	4748
890.871	4584
890.995	4493
891.118	4455
891.241	4542
891.364	4630
891.488	4672
891.611	4592
891.734	4622
891.857	4683
891.98	4611
892.103	4668
892.226	4740
892.349	4634
892.471	4523
892.594	4653
892.717	4698
892.839	4672
892.962	4675
893.085	4721
893.207	4630
893.33	4493
893.452	4588
893.575	4767
893.697	4691
893.819	4843
893.941	4911
894.064	4854
894.186	4660
894.308	4675
894.43	4752
894.552	4877
894.674	4809
894.796	4683
894.918	4691
895.04	4637
895.161	4793
895.283	4767
895.405	4630
895.526	4698
895.648	4744
895.769	4778
895.891	4782
896.012	4767
896.134	4774
896.255	4740
896.376	4714
896.498	4683
896.619	4755
896.74	4729
896.861	4752
896.982	5025
897.103	5136
897.224	4919
897.345	4831
897.466	4733
897.587	4771
897.708	4896
897.828	4873
897.949	4714
898.07	4596
898.19	4694
898.311	4877
898.431	4706
898.552	4782
898.672	4854
898.792	4854
898.913	4774
899.033	4668
899.153	4577
899.273	4500
899.393	4577
899.513	4596
899.633	4558
899.753	4596
899.873	4554
899.993	4649
900.113	4565
900.232	4630
900.352	4603
900.472	4550
900.591	4474
900.711	4550
900.83	4493
900.95	4691
901.069	4767
901.189	4592
901.308	4455
901.427	4371
901.546	4436
901.665	4569
901.784	4542
901.904	4428
902.023	4371
902.141	4246
902.26	4261
902.379	4348
902.498	4268
902.617	4295
902.735	4394
902.854	4470
902.973	4466
903.091	4287
903.21	4287
903.328	4333
903.446	4367
903.565	4337
903.683	4363
903.801	4318
903.919	4424
904.038	4504
904.156	4398
904.274	4470
904.392	4466
904.51	4493
904.627	4550
904.745	4683
904.863	4702
904.981	4485
905.098	4413
905.216	4402
905.334	4512
905.451	4542
905.569	4538
905.686	4577
905.803	4607
905.921	4478
906.038	4607
906.155	4554
906.272	4474
906.389	4542
906.506	4455
906.623	4459
906.74	4451
906.857	4371
906.974	4432
907.091	4626
907.208	4714
907.324	4664
907.441	4519
907.557	4417
907.674	4424
907.79	4360
907.907	4447
908.023	4592
908.139	4577
908.256	4466
908.372	4538
908.488	4599
908.604	4424
908.72	4424
908.836	4413
908.952	4417
909.068	4474
909.184	4603
909.3	4599
909.415	4653
909.531	4618
909.647	4451
909.762	4440
909.878	4390
909.993	4516
910.108	4459
910.224	4504
910.339	4565
910.454	4440
910.57	4417
910.685	4383
910.8	4714
910.915	4691
911.03	4546
911.145	4409
911.259	4348
911.374	4405
911.489	4367
911.604	4363
911.718	4223
911.833	4257
911.947	4139
912.062	4078
912.176	4287
912.291	4295
912.405	4318
912.519	4516
912.633	4565
912.748	4478
912.862	4371
912.976	4219
913.09	4173
913.204	4249
913.318	4284
913.431	4432
913.545	4432
913.659	4478
913.772	4470
913.886	4322
914	4272
914.113	4428
914.226	4485
914.34	4500
914.453	4265
914.566	4497
914.68	4356
914.793	4428
914.906	4200
915.019	4169
915.132	4131
915.245	4234
915.358	4272
915.47	4291
915.583	4337
915.696	4356
915.809	4443
915.921	4474
916.034	4352
916.146	4295
916.259	4268
916.371	4455
916.483	4398
916.595	4306
916.708	4417
916.82	4383
916.932	4371
917.044	4383
917.156	4367
917.268	4314
917.38	4299
917.491	4344
917.603	4417
917.715	4459
917.826	4512
917.938	4436
918.049	4306
918.161	4504
918.272	4592
918.384	4596
918.495	4512
918.606	4371
918.717	4284
918.828	4379
918.939	4443
919.05	4318
919.161	4398
919.272	4211
919.383	4265
919.494	4489
919.604	4729
919.715	4466
919.826	4451
919.936	4447
920.047	4584
920.157	4561
920.267	4755
920.378	4675
920.488	4561
920.598	4782
920.708	4968
920.818	4850
920.928	4786
921.038	5003
921.148	4911
921.258	4687
921.368	4622
921.477	4535
921.587	4462
921.697	4447
921.806	4603
921.916	4508
922.025	4341
922.134	4356
922.244	4295
922.353	4409
922.462	4230
922.571	4188
922.68	4048
922.789	4002
922.898	4063
923.007	4071
923.116	4162
923.224	4173
923.333	4162
923.442	4036
923.55	3998
923.659	4078
923.767	4181
923.876	4071
923.984	4196
924.092	4055
924.201	4128
924.309	4177
924.417	4166
924.525	4112
924.633	4158
924.741	5094
924.849	3991
924.956	4227
925.064	3979
925.172	3941
925.279	4032
925.387	4128
925.494	4090
925.602	4284
925.709	4207
925.816	4109
925.924	4173
926.031	4253
926.138	4238
926.245	4261
926.352	4177
926.459	4329
926.566	4379
926.673	4177
926.779	4128
926.886	4169
926.993	4051
927.099	4029
927.206	3994
927.312	4021
927.419	4112
927.525	4044
927.631	4147
927.737	4017
927.843	4010
927.95	3903
928.056	3994
928.162	4074
928.267	4109
928.373	4812
928.479	4120
928.585	3922
928.69	4078
928.796	4124
928.901	4040
929.007	3899
929.112	4048
929.218	4078
929.323	3987
929.428	4036
929.533	4162
929.638	3964
929.743	4002
929.848	4105
929.953	4040
930.058	3991
930.163	3838
930.267	3869
930.372	4021
930.477	3873
930.581	4131
930.685	4013
930.79	3896
930.894	3972
930.998	3892
931.103	4090
931.207	3770
931.311	3724
931.415	3709
931.519	3545
931.623	3606
