Data from test_V78500241_1788.txt Node
Date: Fri Mar 25 17:01:26 CST 2022
User: usil
Spectrometer: V785-0024
Trigger mode: 0
Integration Time (sec): 4.000000E-1
Scans to average: 1
Nonlinearity correction enabled: false
Boxcar width: 0
Storing dark spectrum: false
XAxis mode: Wavelengths
Number of Pixels in Spectrum: 1024
>>>>>Begin Spectral Data<<<<<
801.071	8039
801.214	7978
801.356	7951
801.499	7864
801.641	7864
801.783	7845
801.926	8005
802.068	7909
802.211	8012
802.353	7978
802.496	7856
802.638	7856
802.78	7852
802.923	7868
803.065	7917
803.208	7841
803.35	8005
803.492	8039
803.635	8123
803.777	7978
803.919	8138
804.061	8431
804.204	8210
804.346	8027
804.488	7909
804.63	8058
804.773	8046
804.915	8142
805.057	8199
805.199	8107
805.341	8229
805.483	8244
805.626	8176
805.768	8107
805.91	8244
806.052	8218
806.194	8115
806.336	8286
806.478	8073
806.62	8096
806.762	8138
806.904	8279
807.046	8514
807.188	8351
807.33	8332
807.472	8286
807.614	8138
807.756	8088
807.898	8008
808.04	7913
808.182	7890
808.324	7906
808.465	7955
808.607	8054
808.749	8187
808.891	8180
809.033	8328
809.174	8210
809.316	8111
809.458	8054
809.6	8020
809.741	8050
809.883	8050
810.025	8115
810.166	8092
810.308	8050
810.45	7967
810.591	7811
810.733	7738
810.875	7609
811.016	7514
811.158	7476
811.299	7575
811.441	7734
811.582	7674
811.724	7578
811.865	7548
812.007	7575
812.148	7609
812.29	7636
812.431	7700
812.573	7864
812.714	8031
812.855	8161
812.997	8187
813.138	8298
813.279	8221
813.421	8092
813.562	8001
813.703	7795
813.845	7765
813.986	7518
814.127	7297
814.268	7129
814.41	7209
814.551	7164
814.692	7221
814.833	7080
814.974	7088
815.115	7171
815.256	6981
815.397	6916
815.539	6901
815.68	6840
815.821	6776
815.962	6878
816.103	6821
816.244	6673
816.385	6589
816.526	6665
816.666	6490
816.807	6334
816.948	6490
817.089	6479
817.23	6418
817.371	6395
817.512	6384
817.653	6376
817.793	6319
817.934	6372
818.075	6403
818.216	6448
818.356	6433
818.497	6254
818.638	6129
818.778	6125
818.919	6121
819.06	6152
819.2	6361
819.341	6273
819.481	6380
819.622	6513
819.762	6715
819.903	6642
820.043	6650
820.184	6604
820.324	6608
820.465	6692
820.605	6658
820.746	6654
820.886	6494
821.026	6639
821.167	6677
821.307	6772
821.447	6741
821.588	6692
821.728	6566
821.868	6460
822.008	6315
822.149	6369
822.289	6372
822.429	6144
822.569	6083
822.709	6159
822.849	5908
822.99	5851
823.13	5927
823.27	5969
823.41	5764
823.55	5756
823.69	5779
823.83	5775
823.97	5668
824.11	5528
824.25	5471
824.389	5547
824.529	5604
824.669	5509
824.809	5691
824.949	5611
825.089	5577
825.228	5532
825.368	5383
825.508	5303
825.648	5296
825.787	5345
825.927	5364
826.067	5284
826.206	5288
826.346	5391
826.485	5433
826.625	5429
826.765	5528
826.904	5429
827.044	5239
827.183	5151
827.323	5098
827.462	5254
827.601	5185
827.741	5201
827.88	5242
828.02	5086
828.159	5189
828.298	5318
828.437	5322
828.577	5315
828.716	5455
828.855	5341
828.994	5128
829.134	5159
829.273	5170
829.412	5083
829.551	5109
829.69	5170
829.829	5296
829.968	5334
830.107	5227
830.246	5280
830.385	5151
830.524	5121
830.663	5060
830.802	4980
830.941	4862
831.08	4850
831.219	4949
831.357	5010
831.496	5086
831.635	4923
831.774	4831
831.913	4843
832.051	4725
832.19	4717
832.329	4858
832.467	4694
832.606	4599
832.744	4683
832.883	4717
833.022	4748
833.16	4778
833.299	4839
833.437	4809
833.576	4831
833.714	4850
833.852	4881
833.991	4892
834.129	4980
834.267	4968
834.406	4927
834.544	4976
834.682	4961
834.821	4987
834.959	5136
835.097	4961
835.235	5136
835.373	5048
835.511	5140
835.65	5022
835.788	5025
835.926	4919
836.064	4793
836.202	4889
836.34	5166
836.478	5189
836.615	5151
836.753	5201
836.891	5280
837.029	5231
837.167	5201
837.305	5086
837.443	5174
837.58	5079
837.718	5212
837.856	5212
837.993	5162
838.131	5185
838.269	5258
838.406	5166
838.544	5208
838.681	4991
838.819	5025
838.956	4870
839.094	4877
839.231	4965
839.369	5083
839.506	5444
839.643	5258
839.781	5045
839.918	5006
840.055	5090
840.193	5079
840.33	5079
840.467	5162
840.604	5170
840.742	5467
840.879	5060
841.016	5086
841.153	5181
841.29	5368
841.427	5299
841.564	5349
841.701	5303
841.838	5299
841.975	5223
842.112	5288
842.249	5086
842.385	5098
842.522	5330
842.659	5174
842.796	5105
842.933	5193
843.069	5121
843.206	5181
843.343	5273
843.479	5231
843.616	5273
843.752	5003
843.889	5014
844.025	5181
844.162	5029
844.298	5178
844.435	5159
844.571	5006
844.708	5220
844.844	5299
844.98	5368
845.117	5231
845.253	5090
845.389	5056
845.525	5178
845.661	5113
845.798	5048
845.934	5113
846.07	4999
846.206	5208
846.342	5280
846.478	5140
846.614	5060
846.75	4927
846.886	4930
847.022	5166
847.158	4961
847.294	5045
847.429	5079
847.565	5064
847.701	5315
847.837	4866
847.972	4809
848.108	4942
848.244	4930
848.379	4752
848.515	4710
848.65	4679
848.786	4679
848.921	4797
849.057	4892
849.192	4938
849.328	4809
849.463	4824
849.598	4763
849.734	4725
849.869	4725
850.004	4637
850.14	4675
850.275	4611
850.41	4550
850.545	4596
850.68	4615
850.815	4637
850.95	4603
851.085	4824
851.22	4748
851.355	4683
851.49	4641
851.625	4641
851.76	4630
851.895	4546
852.03	4481
852.165	4592
852.299	4698
852.434	4812
852.569	4729
852.703	4744
852.838	4816
852.973	4915
853.107	4892
853.242	4714
853.376	4664
853.511	4580
853.645	4603
853.78	4831
853.914	4653
854.048	4683
854.183	4630
854.317	4702
854.451	4858
854.585	4675
854.72	4596
854.854	4721
854.988	4607
855.122	4611
855.256	4542
855.39	4656
855.524	4759
855.658	4691
855.792	4763
855.926	4729
856.06	4729
856.194	4755
856.327	4694
856.461	4599
856.595	4615
856.729	4580
856.862	4725
856.996	4672
857.13	4698
857.263	4691
857.397	4755
857.53	4645
857.664	4714
857.797	4740
857.931	4748
858.064	4653
858.197	4660
858.331	4634
858.464	4649
858.597	4538
858.731	4618
858.864	4626
858.997	4599
859.13	4691
859.263	4626
859.396	4725
859.529	4592
859.662	4580
859.795	4497
859.928	4622
860.061	4736
860.194	4782
860.327	4550
860.46	4531
860.592	4714
860.725	4714
860.858	4733
860.99	4546
861.123	4527
861.256	4527
861.388	4588
861.521	5315
861.653	4523
861.786	4421
861.918	4443
862.05	4554
862.183	4550
862.315	4622
862.447	4626
862.58	4538
862.712	4409
862.844	4322
862.976	4462
863.108	4447
863.24	4885
863.372	4295
863.504	4451
863.636	4447
863.768	4478
863.9	4413
864.032	4337
864.164	4413
864.296	4436
864.428	4497
864.559	4535
864.691	4485
864.823	4497
864.954	4481
865.086	4466
865.217	4432
865.349	4409
865.48	4500
865.612	4470
865.743	4573
865.875	4493
866.006	4413
866.137	4455
866.269	4451
866.4	4413
866.531	4386
866.662	4405
866.793	4436
866.924	4485
867.055	4508
867.186	4428
867.317	4451
867.448	4352
867.579	4360
867.71	4394
867.841	4303
867.972	4443
868.103	4447
868.233	4436
868.364	4497
868.495	4489
868.625	4672
868.756	4763
868.886	4580
869.017	4611
869.147	4721
869.278	4752
869.408	4653
869.539	4649
869.669	4725
869.799	4656
869.929	4801
870.06	4721
870.19	4984
870.32	4942
870.45	4949
870.58	5018
870.71	5086
870.84	5090
870.97	4965
871.1	4889
871.23	5170
871.36	5143
871.489	4976
871.619	5071
871.749	5124
871.879	5174
872.008	5170
872.138	5045
872.267	4930
872.397	4873
872.526	4782
872.656	4656
872.785	4767
872.915	4904
873.044	4972
873.173	4957
873.303	4949
873.432	4949
873.561	4911
873.69	4873
873.819	4870
873.948	4934
874.077	4850
874.206	4729
874.335	4755
874.464	4915
874.593	5067
874.722	4942
874.851	5075
874.979	5022
875.108	5010
875.237	4896
875.365	4870
875.494	4889
875.623	4980
875.751	4786
875.88	4862
876.008	4987
876.136	4995
876.265	5170
876.393	5360
876.521	5261
876.65	5204
876.778	5181
876.906	5075
877.034	5045
877.162	5083
877.29	5014
877.418	5033
877.546	5014
877.674	5060
877.802	5060
877.93	5003
878.058	4885
878.185	4850
878.313	5018
878.441	4953
878.568	4778
878.696	4866
878.824	4965
878.951	4980
879.079	5117
879.206	5277
879.333	5067
879.461	4968
879.588	4984
879.715	5136
879.842	5231
879.97	4953
880.097	4816
880.224	4763
880.351	4801
880.478	4797
880.605	4816
880.732	4778
880.859	5056
880.986	4873
881.112	4870
881.239	4752
881.366	4622
881.493	4596
881.619	4580
881.746	4679
881.872	4634
881.999	4611
882.125	4687
882.252	4763
882.378	4824
882.505	4976
882.631	4820
882.757	4687
882.883	4759
883.01	4767
883.136	4653
883.262	4596
883.388	4645
883.514	4771
883.64	4801
883.766	4767
883.892	4668
884.018	4702
884.143	4889
884.269	4991
884.395	4706
884.52	4618
884.646	4637
884.772	4569
884.897	4542
885.023	4611
885.148	4820
885.274	4839
885.399	4786
885.524	4679
885.65	4717
885.775	4721
885.9	4729
886.025	4820
886.15	4828
886.275	4793
886.4	4637
886.525	4729
886.65	4630
886.775	4672
886.9	4946
887.025	5056
887.149	4816
887.274	4626
887.399	4550
887.523	4622
887.648	4577
887.773	4580
887.897	4710
888.021	4782
888.146	4702
888.27	4831
888.395	4889
888.519	4809
888.643	4805
888.767	4793
888.891	4664
889.015	4607
889.139	4584
889.263	4558
889.387	4771
889.511	4896
889.635	4801
889.759	4626
889.883	4687
890.006	4752
890.13	4809
890.254	4626
890.377	4733
890.501	4580
890.624	4500
890.748	4626
890.871	4550
890.995	4474
891.118	4386
891.241	4538
891.364	4523
891.488	4630
891.611	4504
891.734	4493
891.857	4573
891.98	4603
892.103	4668
892.226	4630
892.349	4554
892.471	4417
892.594	4584
892.717	4596
892.839	4569
892.962	4626
893.085	4668
893.207	4618
893.33	4436
893.452	4508
893.575	4649
893.697	4535
893.819	4733
893.941	4831
894.064	4774
894.186	4603
894.308	4550
894.43	4733
894.552	4843
894.674	4767
894.796	4527
894.918	4558
895.04	4542
895.161	4687
895.283	4641
895.405	4546
895.526	4596
895.648	4656
895.769	4702
895.891	4721
896.012	4748
896.134	4706
896.255	4641
896.376	4615
896.498	4641
896.619	4641
896.74	4607
896.861	4653
896.982	4889
897.103	5098
897.224	4805
897.345	4721
897.466	4618
897.587	4717
897.708	4820
897.828	4759
897.949	4645
898.07	4592
898.19	4656
898.311	4812
898.431	4637
898.552	4714
898.672	4835
898.792	4767
898.913	4733
899.033	4596
899.153	4504
899.273	4394
899.393	4474
899.513	4474
899.633	4459
899.753	4538
899.873	4538
899.993	4588
900.113	4546
900.232	4584
900.352	4550
900.472	4546
900.591	4371
900.711	4500
900.83	4386
900.95	4615
901.069	4683
901.189	4523
901.308	4360
901.427	4306
901.546	4386
901.665	4516
901.784	4512
901.904	4402
902.023	4329
902.141	4188
902.26	4192
902.379	4287
902.498	4238
902.617	4196
902.735	4379
902.854	4398
902.973	4348
903.091	4234
903.21	4215
903.328	4299
903.446	4284
903.565	4249
903.683	4325
903.801	4230
903.919	4383
904.038	4447
904.156	4337
904.274	4413
904.392	4356
904.51	4417
904.627	4470
904.745	4523
904.863	4592
904.981	4379
905.098	4295
905.216	4314
905.334	4405
905.451	4451
905.569	4424
905.686	4565
905.803	4542
905.921	4440
906.038	4561
906.155	4447
906.272	4413
906.389	4421
906.506	4322
906.623	4363
906.74	4398
906.857	4287
906.974	4394
907.091	4577
907.208	4694
907.324	4546
907.441	4493
907.557	4306
907.674	4356
907.79	4280
907.907	4348
908.023	4424
908.139	4489
908.256	4489
908.372	4451
908.488	4500
908.604	4329
908.72	4329
908.836	4322
908.952	4383
909.068	4451
909.184	4577
909.3	4466
909.415	4565
909.531	4546
909.647	4333
909.762	4371
909.878	4333
909.993	4455
910.108	4428
910.224	4394
910.339	4497
910.454	4451
910.57	4371
910.685	4287
910.8	4630
910.915	4653
911.03	4478
911.145	4314
911.259	4325
911.374	4344
911.489	4291
911.604	4265
911.718	4135
911.833	4215
911.947	4059
912.062	3994
912.176	4215
912.291	4207
912.405	4230
912.519	4447
912.633	4504
912.748	4413
912.862	4318
912.976	4143
913.09	4078
913.204	4162
913.318	4253
913.431	4367
913.545	4386
913.659	4402
913.772	4398
913.886	4246
914	4246
914.113	4367
914.226	4417
914.34	4341
914.453	4246
914.566	4447
914.68	4265
914.793	4299
914.906	4188
915.019	4101
915.132	4059
915.245	4192
915.358	4196
915.47	4207
915.583	4253
915.696	4287
915.809	4447
915.921	4428
916.034	4306
916.146	4246
916.259	4196
916.371	4329
916.483	4348
916.595	4242
916.708	4310
916.82	4310
916.932	4310
917.044	4329
917.156	4287
917.268	4257
917.38	4261
917.491	4234
917.603	4341
917.715	4402
917.826	4405
917.938	4352
918.049	4276
918.161	4371
918.272	4519
918.384	4516
918.495	4470
918.606	4280
918.717	4223
918.828	4265
918.939	4413
919.05	4238
919.161	4344
919.272	4150
919.383	4211
919.494	4485
919.604	4626
919.715	4428
919.826	4371
919.936	4432
920.047	4497
920.157	4512
920.267	4683
920.378	4519
920.488	4550
920.598	4721
920.708	4889
920.818	4809
920.928	4786
921.038	4949
921.148	4927
921.258	4672
921.368	4584
921.477	4466
921.587	4424
921.697	4398
921.806	4565
921.916	4443
922.025	4227
922.134	4265
922.244	4204
922.353	4306
922.462	4158
922.571	4169
922.68	4021
922.789	3972
922.898	4013
923.007	4006
923.116	4067
923.224	4067
923.333	4040
923.442	3972
923.55	3983
923.659	4029
923.767	4090
923.876	4006
923.984	4124
924.092	3983
924.201	4082
924.309	4082
924.417	4090
924.525	4063
924.633	4135
924.741	5045
924.849	3934
924.956	4173
925.064	3987
925.172	3899
925.279	3960
925.387	4032
925.494	4006
925.602	4143
925.709	4192
925.816	4002
925.924	4120
926.031	4200
926.138	4139
926.245	4177
926.352	4101
926.459	4219
926.566	4299
926.673	4116
926.779	4040
926.886	4040
926.993	4006
927.099	3975
927.206	3968
927.312	3918
927.419	4044
927.525	4025
927.631	4086
927.737	3960
927.843	3934
927.95	3835
928.056	3953
928.162	4021
928.267	4071
928.373	4569
928.479	4124
928.585	3869
928.69	3991
928.796	4048
928.901	3934
929.007	3865
929.112	4025
929.218	3953
929.323	3983
929.428	3930
929.533	4090
929.638	3899
929.743	3915
929.848	4090
929.953	3987
930.058	3899
930.163	3808
930.267	3816
930.372	3979
930.477	3755
930.581	4090
930.685	3991
930.79	3812
930.894	3903
930.998	3865
931.103	4086
931.207	3671
931.311	3701
931.415	3648
931.519	3523
931.623	3545
