Data from test_V78500241_1766.txt Node
Date: Fri Mar 25 17:01:16 CST 2022
User: usil
Spectrometer: V785-0024
Trigger mode: 0
Integration Time (sec): 4.000000E-1
Scans to average: 1
Nonlinearity correction enabled: false
Boxcar width: 0
Storing dark spectrum: false
XAxis mode: Wavelengths
Number of Pixels in Spectrum: 1024
>>>>>Begin Spectral Data<<<<<
801.071	8062
801.214	8065
801.356	7925
801.499	7890
801.641	7860
801.783	7856
801.926	7989
802.068	7959
802.211	8050
802.353	8001
802.496	7871
802.638	7944
802.78	7856
802.923	7921
803.065	7936
803.208	7868
803.35	8012
803.492	8134
803.635	8183
803.777	8039
803.919	8195
804.061	8457
804.204	8225
804.346	8088
804.488	7967
804.63	8199
804.773	8024
804.915	8180
805.057	8358
805.199	8244
805.341	8267
805.483	8259
805.626	8252
805.768	8202
805.91	8183
806.052	8313
806.194	8199
806.336	8324
806.478	8187
806.62	8111
806.762	8134
806.904	8309
807.046	8533
807.188	8495
807.33	8328
807.472	8385
807.614	8210
807.756	8202
807.898	8031
808.04	7909
808.182	7967
808.324	7917
808.465	8046
808.607	8149
808.749	8157
808.891	8218
809.033	8404
809.174	8290
809.316	8145
809.458	8145
809.6	8123
809.741	8111
809.883	8031
810.025	8134
810.166	8100
810.308	8065
810.45	8069
810.591	7906
810.733	7753
810.875	7700
811.016	7521
811.158	7434
811.299	7628
811.441	7693
811.582	7677
811.724	7586
811.865	7575
812.007	7704
812.148	7594
812.29	7658
812.431	7792
812.573	7925
812.714	7955
812.855	8115
812.997	8229
813.138	8377
813.279	8301
813.421	8039
813.562	7982
813.703	7826
813.845	7734
813.986	7499
814.127	7228
814.268	7225
814.41	7232
814.551	7202
814.692	7285
814.833	7129
814.974	7103
815.115	7175
815.256	6985
815.397	6958
815.539	6932
815.68	6852
815.821	6776
815.962	6837
816.103	6833
816.244	6749
816.385	6551
816.526	6646
816.666	6483
816.807	6311
816.948	6475
817.089	6513
817.23	6464
817.371	6437
817.512	6342
817.653	6448
817.793	6311
817.934	6456
818.075	6429
818.216	6441
818.356	6422
818.497	6254
818.638	6175
818.778	6148
818.919	6133
819.06	6197
819.2	6319
819.341	6350
819.481	6391
819.622	6532
819.762	6772
819.903	6779
820.043	6612
820.184	6639
820.324	6570
820.465	6688
820.605	6684
820.746	6654
820.886	6555
821.026	6662
821.167	6730
821.307	6829
821.447	6806
821.588	6669
821.728	6566
821.868	6521
822.008	6361
822.149	6357
822.289	6327
822.429	6186
822.569	6133
822.709	6121
822.849	5992
822.99	5965
823.13	5969
823.27	5965
823.41	5786
823.55	5790
823.69	5786
823.83	5790
823.97	5657
824.11	5524
824.25	5528
824.389	5600
824.529	5646
824.669	5566
824.809	5680
824.949	5676
825.089	5638
825.228	5600
825.368	5395
825.508	5330
825.648	5334
825.787	5357
825.927	5425
826.067	5372
826.206	5280
826.346	5414
826.485	5478
826.625	5379
826.765	5543
826.904	5543
827.044	5296
827.183	5235
827.323	5113
827.462	5242
827.601	5220
827.741	5212
827.88	5170
828.02	5117
828.159	5280
828.298	5330
828.437	5391
828.577	5292
828.716	5532
828.855	5345
828.994	5170
829.134	5162
829.273	5189
829.412	5201
829.551	5121
829.69	5166
829.829	5235
829.968	5364
830.107	5299
830.246	5318
830.385	5208
830.524	5155
830.663	5060
830.802	4961
830.941	4904
831.08	4911
831.219	4953
831.357	4953
831.496	5201
831.635	4972
831.774	4824
831.913	4915
832.051	4729
832.19	4782
832.329	4870
832.467	4725
832.606	4668
832.744	4748
832.883	4714
833.022	4778
833.16	4831
833.299	4858
833.437	4854
833.576	4828
833.714	4824
833.852	4885
833.991	4889
834.129	5014
834.267	4949
834.406	4900
834.544	5025
834.682	4976
834.821	4972
834.959	5159
835.097	5010
835.235	5147
835.373	5121
835.511	5105
835.65	5025
835.788	5033
835.926	4896
836.064	4927
836.202	4919
836.34	5159
836.478	5239
836.615	5155
836.753	5231
836.891	5284
837.029	5223
837.167	5246
837.305	5208
837.443	5151
837.58	5113
837.718	5284
837.856	5216
837.993	5170
838.131	5227
838.269	5254
838.406	5178
838.544	5201
838.681	5060
838.819	5037
838.956	4900
839.094	4934
839.231	4953
839.369	5060
839.506	5414
839.643	5277
839.781	5121
839.918	5029
840.055	5075
840.193	5105
840.33	5109
840.467	5132
840.604	5223
840.742	5455
840.879	5025
841.016	5075
841.153	5147
841.29	5368
841.427	5376
841.564	5349
841.701	5360
841.838	5277
841.975	5284
842.112	5239
842.249	5143
842.385	5105
842.522	5360
842.659	5204
842.796	5216
842.933	5181
843.069	5170
843.206	5174
843.343	5395
843.479	5231
843.616	5292
843.752	5098
843.889	5048
844.025	5189
844.162	5067
844.298	5147
844.435	5136
844.571	5075
844.708	5162
844.844	5265
844.98	5421
845.117	5288
845.253	5117
845.389	5113
845.525	5136
845.661	5117
845.798	5006
845.934	5113
846.07	5052
846.206	5197
846.342	5246
846.478	5239
846.614	5033
846.75	4957
846.886	4961
847.022	5155
847.158	4968
847.294	5075
847.429	5121
847.565	5048
847.701	5383
847.837	4873
847.972	4881
848.108	4949
848.244	4938
848.379	4786
848.515	4752
848.65	4740
848.786	4793
848.921	4843
849.057	4847
849.192	4900
849.328	4839
849.463	4831
849.598	4835
849.734	4786
849.869	4733
850.004	4675
850.14	4733
850.275	4622
850.41	4577
850.545	4573
850.68	4542
850.815	4637
850.95	4656
851.085	4850
851.22	4782
851.355	4660
851.49	4588
851.625	4668
851.76	4622
851.895	4550
852.03	4546
852.165	4618
852.299	4721
852.434	4786
852.569	4759
852.703	4801
852.838	4812
852.973	4908
853.107	4934
853.242	4717
853.376	4702
853.511	4500
853.645	4611
853.78	4812
853.914	4668
854.048	4683
854.183	4706
854.317	4736
854.451	4911
854.585	4679
854.72	4618
854.854	4748
854.988	4607
855.122	4596
855.256	4561
855.39	4706
855.524	4805
855.658	4725
855.792	4744
855.926	4786
856.06	4740
856.194	4774
856.327	4687
856.461	4592
856.595	4649
856.729	4694
856.862	4782
856.996	4698
857.13	4691
857.263	4717
857.397	4843
857.53	4656
857.664	4740
857.797	4774
857.931	4778
858.064	4729
858.197	4736
858.331	4679
858.464	4645
858.597	4523
858.731	4630
858.864	4634
858.997	4603
859.13	4679
859.263	4691
859.396	4691
859.529	4561
859.662	4615
859.795	4531
859.928	4653
860.061	4793
860.194	4767
860.327	4603
860.46	4554
860.592	4740
860.725	4717
860.858	4694
860.99	4584
861.123	4516
861.256	4535
861.388	4656
861.521	5303
861.653	4447
861.786	4451
861.918	4447
862.05	4519
862.183	4577
862.315	4634
862.447	4626
862.58	4546
862.712	4386
862.844	4352
862.976	4538
863.108	4474
863.24	4831
863.372	4363
863.504	4394
863.636	4443
863.768	4500
863.9	4470
864.032	4375
864.164	4402
864.296	4478
864.428	4565
864.559	4611
864.691	4565
864.823	4592
864.954	4489
865.086	4504
865.217	4466
865.349	4417
865.48	4459
865.612	4493
865.743	4580
865.875	4538
866.006	4443
866.137	4421
866.269	4443
866.4	4459
866.531	4379
866.662	4405
866.793	4417
866.924	4405
867.055	4474
867.186	4417
867.317	4443
867.448	4383
867.579	4402
867.71	4367
867.841	4333
867.972	4481
868.103	4481
868.233	4462
868.364	4451
868.495	4447
868.625	4660
868.756	4752
868.886	4634
869.017	4656
869.147	4774
869.278	4763
869.408	4649
869.539	4675
869.669	4752
869.799	4672
869.929	4774
870.06	4717
870.19	4927
870.32	4934
870.45	4934
870.58	5014
870.71	5056
870.84	5121
870.97	4999
871.1	4900
871.23	5151
871.36	5132
871.489	5003
871.619	5094
871.749	5052
871.879	5159
872.008	5193
872.138	5033
872.267	4995
872.397	4835
872.526	4839
872.656	4748
872.785	4778
872.915	4934
873.044	5033
873.173	4911
873.303	4946
873.432	5014
873.561	4957
873.69	4892
873.819	4870
873.948	4934
874.077	4839
874.206	4729
874.335	4782
874.464	4900
874.593	5060
874.722	4987
874.851	5109
874.979	5109
875.108	4995
875.237	4919
875.365	4843
875.494	4892
875.623	4999
875.751	4816
875.88	4870
876.008	4991
876.136	5033
876.265	5239
876.393	5360
876.521	5246
876.65	5254
876.778	5128
876.906	5067
877.034	5045
877.162	5079
877.29	5006
877.418	5079
877.546	5041
877.674	5033
877.802	5022
877.93	5041
878.058	4911
878.185	4847
878.313	4930
878.441	4972
878.568	4824
878.696	4854
878.824	4965
878.951	4995
879.079	5090
879.206	5235
879.333	5094
879.461	4965
879.588	5010
879.715	5121
879.842	5242
879.97	4999
880.097	4812
880.224	4744
880.351	4782
880.478	4858
880.605	4820
880.732	4828
880.859	5056
880.986	4942
881.112	4949
881.239	4805
881.366	4675
881.493	4618
881.619	4550
881.746	4637
881.872	4668
881.999	4656
882.125	4710
882.252	4755
882.378	4862
882.505	4987
882.631	4809
882.757	4683
882.883	4736
883.01	4767
883.136	4660
883.262	4615
883.388	4626
883.514	4809
883.64	4873
883.766	4809
883.892	4725
884.018	4706
884.143	4850
884.269	5006
884.395	4615
884.52	4645
884.646	4634
884.772	4577
884.897	4516
885.023	4611
885.148	4748
885.274	4797
885.399	4812
885.524	4687
885.65	4740
885.775	4721
885.9	4694
886.025	4824
886.15	4778
886.275	4714
886.4	4660
886.525	4710
886.65	4668
886.775	4706
886.9	4915
887.025	5064
887.149	4797
887.274	4683
887.399	4622
887.523	4641
887.648	4569
887.773	4569
887.897	4763
888.021	4733
888.146	4733
888.27	4801
888.395	4927
888.519	4752
888.643	4797
888.767	4843
888.891	4702
889.015	4592
889.139	4599
889.263	4603
889.387	4778
889.511	4843
889.635	4793
889.759	4599
889.883	4607
890.006	4767
890.13	4805
890.254	4584
890.377	4641
890.501	4504
890.624	4504
890.748	4649
890.871	4531
890.995	4440
891.118	4383
891.241	4474
891.364	4538
891.488	4611
891.611	4500
891.734	4500
891.857	4607
891.98	4546
892.103	4634
892.226	4626
892.349	4531
892.471	4474
892.594	4538
892.717	4580
892.839	4546
892.962	4630
893.085	4706
893.207	4554
893.33	4440
893.452	4535
893.575	4622
893.697	4550
893.819	4828
893.941	4790
894.064	4816
894.186	4622
894.308	4550
894.43	4725
894.552	4786
894.674	4717
894.796	4573
894.918	4607
895.04	4588
895.161	4729
895.283	4584
895.405	4596
895.526	4577
895.648	4634
895.769	4668
895.891	4660
896.012	4793
896.134	4755
896.255	4664
896.376	4596
896.498	4641
896.619	4687
896.74	4618
896.861	4660
896.982	4915
897.103	5121
897.224	4862
897.345	4763
897.466	4660
897.587	4687
897.708	4824
897.828	4786
897.949	4672
898.07	4554
898.19	4630
898.311	4809
898.431	4668
898.552	4759
898.672	4816
898.792	4835
898.913	4774
899.033	4630
899.153	4500
899.273	4440
899.393	4523
899.513	4527
899.633	4504
899.753	4527
899.873	4485
899.993	4554
900.113	4565
900.232	4580
900.352	4512
900.472	4493
900.591	4394
900.711	4504
900.83	4402
900.95	4634
901.069	4675
901.189	4546
901.308	4360
901.427	4325
901.546	4348
901.665	4428
901.784	4508
901.904	4398
902.023	4344
902.141	4166
902.26	4188
902.379	4265
902.498	4238
902.617	4246
902.735	4379
902.854	4363
902.973	4318
903.091	4200
903.21	4249
903.328	4341
903.446	4299
903.565	4249
903.683	4344
903.801	4230
903.919	4363
904.038	4421
904.156	4318
904.274	4421
904.392	4367
904.51	4451
904.627	4462
904.745	4569
904.863	4561
904.981	4356
905.098	4318
905.216	4352
905.334	4478
905.451	4466
905.569	4367
905.686	4546
905.803	4558
905.921	4417
906.038	4580
906.155	4493
906.272	4398
906.389	4432
906.506	4341
906.623	4413
906.74	4367
906.857	4284
906.974	4371
907.091	4550
907.208	4729
907.324	4580
907.441	4500
907.557	4314
907.674	4314
907.79	4284
907.907	4394
908.023	4489
908.139	4470
908.256	4459
908.372	4440
908.488	4451
908.604	4367
908.72	4318
908.836	4360
908.952	4371
909.068	4455
909.184	4561
909.3	4474
909.415	4607
909.531	4527
909.647	4379
909.762	4344
909.878	4386
909.993	4447
910.108	4462
910.224	4436
910.339	4462
910.454	4379
910.57	4379
910.685	4322
910.8	4611
910.915	4607
911.03	4470
911.145	4325
911.259	4409
911.374	4383
911.489	4284
911.604	4268
911.718	4169
911.833	4215
911.947	4120
912.062	4051
912.176	4200
912.291	4211
912.405	4280
912.519	4440
912.633	4481
912.748	4394
912.862	4268
912.976	4215
913.09	4097
913.204	4215
913.318	4227
913.431	4360
913.545	4337
913.659	4462
913.772	4375
913.886	4207
914	4215
914.113	4371
914.226	4417
914.34	4440
914.453	4234
914.566	4432
914.68	4306
914.793	4280
914.906	4131
915.019	4093
915.132	4097
915.245	4173
915.358	4230
915.47	4169
915.583	4238
915.696	4303
915.809	4379
915.921	4398
916.034	4223
916.146	4230
916.259	4177
916.371	4386
916.483	4356
916.595	4215
916.708	4295
916.82	4348
916.932	4310
917.044	4325
917.156	4322
917.268	4238
917.38	4325
917.491	4253
917.603	4299
917.715	4375
917.826	4409
917.938	4405
918.049	4314
918.161	4367
918.272	4546
918.384	4535
918.495	4443
918.606	4284
918.717	4261
918.828	4363
918.939	4325
919.05	4249
919.161	4337
919.272	4139
919.383	4223
919.494	4421
919.604	4683
919.715	4462
919.826	4398
919.936	4424
920.047	4493
920.157	4474
920.267	4691
920.378	4508
920.488	4516
920.598	4710
920.708	4911
920.818	4740
920.928	4752
921.038	4938
921.148	4946
921.258	4599
921.368	4554
921.477	4497
921.587	4432
921.697	4367
921.806	4508
921.916	4421
922.025	4314
922.134	4280
922.244	4215
922.353	4310
922.462	4147
922.571	4169
922.68	4002
922.789	3975
922.898	4025
923.007	3987
923.116	4101
923.224	4048
923.333	4078
923.442	3975
923.55	3983
923.659	4044
923.767	4101
923.876	4025
923.984	4150
924.092	3991
924.201	4067
924.309	4101
924.417	4116
924.525	4071
924.633	4105
924.741	5029
924.849	3884
924.956	4124
925.064	3964
925.172	3896
925.279	3953
925.387	4055
925.494	4078
925.602	4181
925.709	4173
925.816	4063
925.924	4147
926.031	4192
926.138	4150
926.245	4188
926.352	4090
926.459	4280
926.566	4272
926.673	4112
926.779	4051
926.886	4082
926.993	4013
927.099	3949
927.206	3903
927.312	3968
927.419	4055
927.525	4021
927.631	4120
927.737	4013
927.843	3979
927.95	3846
928.056	3975
928.162	3972
928.267	4051
928.373	4569
928.479	4109
928.585	3827
928.69	4044
928.796	4040
928.901	3975
929.007	3835
929.112	4025
929.218	3945
929.323	3972
929.428	3960
929.533	4093
929.638	3884
929.743	3941
929.848	4025
929.953	3987
930.058	3930
930.163	3751
930.267	3812
930.372	3949
930.477	3846
930.581	4097
930.685	3949
930.79	3808
930.894	3888
930.998	3842
931.103	4013
931.207	3720
931.311	3698
931.415	3667
931.519	3496
931.623	3526
