Data from test_V78500241_534.txt Node
Date: Fri Mar 25 16:52:42 CST 2022
User: usil
Spectrometer: V785-0024
Trigger mode: 0
Integration Time (sec): 4.000000E-1
Scans to average: 1
Nonlinearity correction enabled: false
Boxcar width: 0
Storing dark spectrum: false
XAxis mode: Wavelengths
Number of Pixels in Spectrum: 1024
>>>>>Begin Spectral Data<<<<<
801.071	7959
801.214	8046
801.356	7860
801.499	7845
801.641	7807
801.783	7951
801.926	8020
802.068	7982
802.211	7993
802.353	8016
802.496	7917
802.638	7921
802.78	7883
802.923	7906
803.065	7826
803.208	7894
803.35	7932
803.492	7993
803.635	8149
803.777	8016
803.919	8145
804.061	8415
804.204	8073
804.346	8020
804.488	7951
804.63	8065
804.773	8016
804.915	8005
805.057	8275
805.199	8187
805.341	8309
805.483	8275
805.626	8187
805.768	8058
805.91	8142
806.052	8180
806.194	8062
806.336	8267
806.478	8180
806.62	8088
806.762	8142
806.904	8244
807.046	8393
807.188	8294
807.33	8286
807.472	8244
807.614	8069
807.756	8153
807.898	8016
808.04	7917
808.182	7947
808.324	7868
808.465	7887
808.607	8046
808.749	8046
808.891	8161
809.033	8305
809.174	8176
809.316	7982
809.458	8065
809.6	8024
809.741	8012
809.883	8001
810.025	8096
810.166	8081
810.308	8020
810.45	7997
810.591	7837
810.733	7677
810.875	7636
811.016	7548
811.158	7495
811.299	7556
811.441	7696
811.582	7658
811.724	7548
811.865	7537
812.007	7594
812.148	7571
812.29	7597
812.431	7761
812.573	7799
812.714	7963
812.855	8138
812.997	8233
813.138	8396
813.279	8248
813.421	8180
813.562	8081
813.703	7921
813.845	7833
813.986	7502
814.127	7312
814.268	7259
814.41	7198
814.551	7152
814.692	7168
814.833	7034
814.974	7053
815.115	7076
815.256	7008
815.397	6970
815.539	6985
815.68	6814
815.821	6795
815.962	6951
816.103	6837
816.244	6776
816.385	6700
816.526	6604
816.666	6532
816.807	6296
816.948	6433
817.089	6452
817.23	6483
817.371	6334
817.512	6384
817.653	6357
817.793	6357
817.934	6441
818.075	6437
818.216	6471
818.356	6365
818.497	6254
818.638	6095
818.778	6171
818.919	6155
819.06	6155
819.2	6281
819.341	6308
819.481	6357
819.622	6528
819.762	6722
819.903	6677
820.043	6608
820.184	6532
820.324	6528
820.465	6684
820.605	6620
820.746	6574
820.886	6479
821.026	6623
821.167	6726
821.307	6757
821.447	6745
821.588	6692
821.728	6563
821.868	6506
822.008	6296
822.149	6384
822.289	6357
822.429	6102
822.569	6091
822.709	6076
822.849	5885
822.99	5920
823.13	5885
823.27	5920
823.41	5733
823.55	5767
823.69	5737
823.83	5748
823.97	5627
824.11	5562
824.25	5493
824.389	5558
824.529	5558
824.669	5516
824.809	5611
824.949	5737
825.089	5627
825.228	5551
825.368	5429
825.508	5368
825.648	5372
825.787	5360
825.927	5402
826.067	5337
826.206	5307
826.346	5376
826.485	5395
826.625	5383
826.765	5558
826.904	5467
827.044	5239
827.183	5220
827.323	5121
827.462	5265
827.601	5151
827.741	5151
827.88	5220
828.02	5162
828.159	5216
828.298	5307
828.437	5387
828.577	5258
828.716	5455
828.855	5307
828.994	5201
829.134	5140
829.273	5204
829.412	5212
829.551	5121
829.69	5159
829.829	5299
829.968	5307
830.107	5261
830.246	5246
830.385	5162
830.524	5140
830.663	5094
830.802	4968
830.941	4835
831.08	4900
831.219	4980
831.357	4927
831.496	5170
831.635	4957
831.774	4862
831.913	4866
832.051	4694
832.19	4782
832.329	4866
832.467	4748
832.606	4645
832.744	4763
832.883	4710
833.022	4714
833.16	4774
833.299	4809
833.437	4763
833.576	4847
833.714	4824
833.852	4889
833.991	4881
834.129	4927
834.267	4972
834.406	4930
834.544	4892
834.682	4938
834.821	4957
834.959	5201
835.097	4980
835.235	5143
835.373	5105
835.511	5105
835.65	5022
835.788	5037
835.926	4911
836.064	4873
836.202	4835
836.34	5117
836.478	5178
836.615	5140
836.753	5178
836.891	5269
837.029	5197
837.167	5185
837.305	5147
837.443	5098
837.58	5041
837.718	5299
837.856	5132
837.993	5140
838.131	5223
838.269	5246
838.406	5261
838.544	5216
838.681	5018
838.819	4957
838.956	4885
839.094	4889
839.231	4976
839.369	5064
839.506	5417
839.643	5303
839.781	5022
839.918	4980
840.055	5086
840.193	5056
840.33	5121
840.467	5162
840.604	5201
840.742	5410
840.879	5102
841.016	5086
841.153	5140
841.29	5379
841.427	5326
841.564	5315
841.701	5395
841.838	5265
841.975	5231
842.112	5273
842.249	5143
842.385	5098
842.522	5315
842.659	5155
842.796	5083
842.933	5212
843.069	5159
843.206	5132
843.343	5250
843.479	5185
843.616	5258
843.752	5025
843.889	5018
844.025	5166
844.162	5022
844.298	5220
844.435	5060
844.571	5048
844.708	5197
844.844	5296
844.98	5326
845.117	5284
845.253	5124
845.389	5079
845.525	5162
845.661	5159
845.798	5018
845.934	5143
846.07	5014
846.206	5223
846.342	5292
846.478	5208
846.614	5029
846.75	4999
846.886	4934
847.022	5162
847.158	4987
847.294	5060
847.429	5064
847.565	5086
847.701	5296
847.837	4839
847.972	4771
848.108	4930
848.244	4976
848.379	4839
848.515	4774
848.65	4755
848.786	4752
848.921	4759
849.057	4812
849.192	4908
849.328	4820
849.463	4885
849.598	4767
849.734	4714
849.869	4683
850.004	4618
850.14	4679
850.275	4607
850.41	4516
850.545	4546
850.68	4599
850.815	4622
850.95	4626
851.085	4801
851.22	4763
851.355	4683
851.49	4675
851.625	4615
851.76	4592
851.895	4558
852.03	4558
852.165	4645
852.299	4733
852.434	4793
852.569	4755
852.703	4767
852.838	4831
852.973	4957
853.107	4972
853.242	4691
853.376	4641
853.511	4538
853.645	4592
853.78	4809
853.914	4653
854.048	4706
854.183	4634
854.317	4698
854.451	4782
854.585	4683
854.72	4599
854.854	4774
854.988	4554
855.122	4618
855.256	4535
855.39	4645
855.524	4805
855.658	4729
855.792	4744
855.926	4755
856.06	4774
856.194	4816
856.327	4691
856.461	4550
856.595	4626
856.729	4649
856.862	4820
856.996	4634
857.13	4694
857.263	4736
857.397	4809
857.53	4645
857.664	4694
857.797	4763
857.931	4828
858.064	4694
858.197	4736
858.331	4687
858.464	4630
858.597	4497
858.731	4607
858.864	4630
858.997	4561
859.13	4694
859.263	4656
859.396	4645
859.529	4611
859.662	4584
859.795	4497
859.928	4577
860.061	4774
860.194	4744
860.327	4542
860.46	4611
860.592	4702
860.725	4668
860.858	4744
860.99	4615
861.123	4459
861.256	4546
861.388	4645
861.521	5440
861.653	4466
861.786	4413
861.918	4436
862.05	4523
862.183	4542
862.315	4596
862.447	4641
862.58	4542
862.712	4383
862.844	4291
862.976	4478
863.108	4493
863.24	4873
863.372	4348
863.504	4428
863.636	4398
863.768	4481
863.9	4421
864.032	4394
864.164	4386
864.296	4478
864.428	4603
864.559	4550
864.691	4569
864.823	4542
864.954	4508
865.086	4512
865.217	4436
865.349	4398
865.48	4455
865.612	4489
865.743	4611
865.875	4447
866.006	4424
866.137	4447
866.269	4443
866.4	4443
866.531	4409
866.662	4363
866.793	4455
866.924	4428
867.055	4462
867.186	4474
867.317	4402
867.448	4360
867.579	4405
867.71	4394
867.841	4299
867.972	4493
868.103	4485
868.233	4455
868.364	4428
868.495	4497
868.625	4660
868.756	4740
868.886	4508
869.017	4675
869.147	4733
869.278	4721
869.408	4668
869.539	4653
869.669	4740
869.799	4660
869.929	4736
870.06	4767
870.19	4961
870.32	4911
870.45	4961
870.58	5014
870.71	5090
870.84	5113
870.97	4946
871.1	4870
871.23	5147
871.36	5033
871.489	5060
871.619	5090
871.749	5086
871.879	5098
872.008	5208
872.138	4984
872.267	4987
872.397	4831
872.526	4831
872.656	4759
872.785	4778
872.915	4968
873.044	5014
873.173	4938
873.303	4995
873.432	4904
873.561	4972
873.69	4927
873.819	4915
873.948	4877
874.077	4831
874.206	4694
874.335	4858
874.464	4949
874.593	5025
874.722	4980
874.851	5086
874.979	5086
875.108	5010
875.237	4927
875.365	4892
875.494	4923
875.623	4961
875.751	4828
875.88	4877
876.008	4957
876.136	4995
876.265	5151
876.393	5345
876.521	5303
876.65	5216
876.778	5159
876.906	5117
877.034	5006
877.162	5067
877.29	4968
877.418	5022
877.546	5079
877.674	5060
877.802	5071
877.93	5003
878.058	4961
878.185	4885
878.313	4923
878.441	4946
878.568	4793
878.696	4870
878.824	4991
878.951	5018
879.079	5105
879.206	5216
879.333	5121
879.461	4968
879.588	5006
879.715	5105
879.842	5235
879.97	5025
880.097	4786
880.224	4733
880.351	4793
880.478	4847
880.605	4744
880.732	4805
880.859	5037
880.986	4854
881.112	4927
881.239	4778
881.366	4691
881.493	4649
881.619	4554
881.746	4599
881.872	4649
881.999	4622
882.125	4714
882.252	4805
882.378	4809
882.505	4976
882.631	4763
882.757	4622
882.883	4710
883.01	4729
883.136	4691
883.262	4584
883.388	4618
883.514	4763
883.64	4843
883.766	4767
883.892	4679
884.018	4706
884.143	4889
884.269	5003
884.395	4649
884.52	4630
884.646	4653
884.772	4656
884.897	4535
885.023	4649
885.148	4809
885.274	4919
885.399	4793
885.524	4687
885.65	4710
885.775	4755
885.9	4710
886.025	4858
886.15	4820
886.275	4717
886.4	4607
886.525	4729
886.65	4698
886.775	4717
886.9	4923
887.025	4987
887.149	4793
887.274	4660
887.399	4538
887.523	4637
887.648	4565
887.773	4634
887.897	4744
888.021	4809
888.146	4668
888.27	4793
888.395	4900
888.519	4877
888.643	4805
888.767	4816
888.891	4664
889.015	4630
889.139	4641
889.263	4584
889.387	4740
889.511	4873
889.635	4755
889.759	4653
889.883	4672
890.006	4675
890.13	4786
890.254	4531
890.377	4679
890.501	4531
890.624	4546
890.748	4618
890.871	4504
890.995	4440
891.118	4432
891.241	4497
891.364	4531
891.488	4615
891.611	4489
891.734	4569
891.857	4599
891.98	4538
892.103	4630
892.226	4607
892.349	4512
892.471	4417
892.594	4523
892.717	4577
892.839	4584
892.962	4577
893.085	4641
893.207	4573
893.33	4485
893.452	4500
893.575	4694
893.697	4546
893.819	4774
893.941	4835
894.064	4752
894.186	4542
894.308	4516
894.43	4725
894.552	4870
894.674	4748
894.796	4554
894.918	4580
895.04	4508
895.161	4679
895.283	4683
895.405	4596
895.526	4588
895.648	4710
895.769	4691
895.891	4702
896.012	4725
896.134	4698
896.255	4694
896.376	4618
896.498	4637
896.619	4634
896.74	4592
896.861	4622
896.982	4938
897.103	5098
897.224	4858
897.345	4748
897.466	4691
897.587	4748
897.708	4828
897.828	4771
897.949	4687
898.07	4542
898.19	4641
898.311	4843
898.431	4687
898.552	4740
898.672	4797
898.792	4790
898.913	4748
899.033	4641
899.153	4542
899.273	4417
899.393	4508
899.513	4497
899.633	4481
899.753	4535
899.873	4500
899.993	4554
900.113	4554
900.232	4573
900.352	4580
900.472	4497
900.591	4383
900.711	4478
900.83	4474
900.95	4634
901.069	4691
901.189	4546
901.308	4341
901.427	4314
901.546	4424
901.665	4470
901.784	4516
901.904	4402
902.023	4325
902.141	4227
902.26	4166
902.379	4249
902.498	4219
902.617	4238
902.735	4348
902.854	4375
902.973	4325
903.091	4204
903.21	4238
903.328	4352
903.446	4246
903.565	4291
903.683	4352
903.801	4306
903.919	4383
904.038	4402
904.156	4363
904.274	4455
904.392	4360
904.51	4500
904.627	4470
904.745	4584
904.863	4660
904.981	4409
905.098	4306
905.216	4375
905.334	4390
905.451	4409
905.569	4455
905.686	4550
905.803	4531
905.921	4402
906.038	4558
906.155	4485
906.272	4398
906.389	4443
906.506	4383
906.623	4375
906.74	4394
906.857	4303
906.974	4402
907.091	4546
907.208	4714
907.324	4577
907.441	4512
907.557	4360
907.674	4333
907.79	4360
907.907	4402
908.023	4459
908.139	4504
908.256	4428
908.372	4459
908.488	4432
908.604	4409
908.72	4299
908.836	4348
908.952	4409
909.068	4462
909.184	4592
909.3	4508
909.415	4618
909.531	4558
909.647	4318
909.762	4383
909.878	4333
909.993	4383
910.108	4451
910.224	4421
910.339	4500
910.454	4470
910.57	4371
910.685	4333
910.8	4649
910.915	4634
911.03	4440
911.145	4329
911.259	4337
911.374	4379
911.489	4280
911.604	4329
911.718	4169
911.833	4185
911.947	4059
912.062	4090
912.176	4219
912.291	4284
912.405	4246
912.519	4436
912.633	4459
912.748	4424
912.862	4337
912.976	4253
913.09	4112
913.204	4181
913.318	4261
913.431	4394
913.545	4356
913.659	4478
913.772	4360
913.886	4230
914	4272
914.113	4386
914.226	4432
914.34	4432
914.453	4227
914.566	4421
914.68	4287
914.793	4303
914.906	4112
915.019	4120
915.132	4116
915.245	4188
915.358	4215
915.47	4227
915.583	4246
915.696	4341
915.809	4379
915.921	4421
916.034	4265
916.146	4272
916.259	4253
916.371	4363
916.483	4375
916.595	4204
916.708	4322
916.82	4344
916.932	4329
917.044	4386
917.156	4360
917.268	4215
917.38	4299
917.491	4242
917.603	4344
917.715	4379
917.826	4443
917.938	4352
918.049	4268
918.161	4398
918.272	4550
918.384	4478
918.495	4455
918.606	4333
918.717	4219
918.828	4322
918.939	4428
919.05	4230
919.161	4306
919.272	4139
919.383	4249
919.494	4424
919.604	4580
919.715	4421
919.826	4390
919.936	4421
920.047	4512
920.157	4485
920.267	4710
920.378	4531
920.488	4489
920.598	4744
920.708	4908
920.818	4740
920.928	4725
921.038	4927
921.148	4923
921.258	4603
921.368	4535
921.477	4481
921.587	4478
921.697	4371
921.806	4519
921.916	4451
922.025	4265
922.134	4227
922.244	4238
922.353	4352
922.462	4169
922.571	4120
922.68	4010
922.789	3968
922.898	4017
923.007	3991
923.116	4173
923.224	4071
923.333	4105
923.442	3998
923.55	3945
923.659	4010
923.767	4082
923.876	4017
923.984	4067
924.092	3994
924.201	4078
924.309	4105
924.417	4109
924.525	4055
924.633	4150
924.741	5064
924.849	3937
924.956	4147
925.064	3972
925.172	3903
925.279	4002
925.387	4055
925.494	4074
925.602	4169
925.709	4192
925.816	3987
925.924	4116
926.031	4204
926.138	4181
926.245	4227
926.352	4086
926.459	4192
926.566	4352
926.673	4173
926.779	4116
926.886	4101
926.993	3975
927.099	4006
927.206	3945
927.312	3930
927.419	4036
927.525	4051
927.631	4067
927.737	3975
927.843	3949
927.95	3819
928.056	3956
928.162	4044
928.267	4090
928.373	4714
928.479	4109
928.585	3884
928.69	4048
928.796	4074
928.901	3953
929.007	3861
929.112	4040
929.218	4006
929.323	3941
929.428	3937
929.533	4063
929.638	3918
929.743	3991
929.848	4051
929.953	3968
930.058	3934
930.163	3709
930.267	3827
930.372	3945
930.477	3804
930.581	4097
930.685	3918
930.79	3800
930.894	3896
930.998	3869
931.103	4002
931.207	3732
931.311	3709
931.415	3686
931.519	3504
931.623	3542
