Data from test_V78500241_1183.txt Node
Date: Fri Mar 25 16:57:13 CST 2022
User: usil
Spectrometer: V785-0024
Trigger mode: 0
Integration Time (sec): 4.000000E-1
Scans to average: 1
Nonlinearity correction enabled: false
Boxcar width: 0
Storing dark spectrum: false
XAxis mode: Wavelengths
Number of Pixels in Spectrum: 1024
>>>>>Begin Spectral Data<<<<<
801.071	8100
801.214	8001
801.356	7936
801.499	7860
801.641	7788
801.783	7830
801.926	7967
802.068	7967
802.211	7967
802.353	7982
802.496	7849
802.638	7841
802.78	7902
802.923	7932
803.065	7947
803.208	7883
803.35	8031
803.492	8138
803.635	8145
803.777	8035
803.919	8202
804.061	8442
804.204	8172
804.346	8050
804.488	7982
804.63	8065
804.773	8043
804.915	8149
805.057	8286
805.199	8199
805.341	8199
805.483	8320
805.626	8199
805.768	8180
805.91	8233
806.052	8218
806.194	8138
806.336	8301
806.478	8180
806.62	8096
806.762	8145
806.904	8248
807.046	8457
807.188	8358
807.33	8256
807.472	8282
807.614	8225
807.756	8172
807.898	7928
808.04	7887
808.182	7826
808.324	7864
808.465	7936
808.607	8145
808.749	8183
808.891	8172
809.033	8237
809.174	8176
809.316	8050
809.458	8065
809.6	7951
809.741	8088
809.883	8069
810.025	8081
810.166	8043
810.308	8077
810.45	8016
810.591	7887
810.733	7674
810.875	7696
811.016	7548
811.158	7529
811.299	7586
811.441	7753
811.582	7715
811.724	7597
811.865	7597
812.007	7495
812.148	7632
812.29	7643
812.431	7776
812.573	7906
812.714	7978
812.855	8126
812.997	8210
813.138	8358
813.279	8180
813.421	8084
813.562	8062
813.703	7852
813.845	7788
813.986	7422
814.127	7228
814.268	7225
814.41	7217
814.551	7251
814.692	7175
814.833	7050
814.974	7129
815.115	7053
815.256	6973
815.397	6924
815.539	6996
815.68	6859
815.821	6818
815.962	6848
816.103	6825
816.244	6681
816.385	6665
816.526	6589
816.666	6532
816.807	6304
816.948	6441
817.089	6483
817.23	6445
817.371	6376
817.512	6391
817.653	6448
817.793	6372
817.934	6361
818.075	6452
818.216	6498
818.356	6498
818.497	6281
818.638	6098
818.778	6213
818.919	6163
819.06	6163
819.2	6403
819.341	6315
819.481	6342
819.622	6532
819.762	6707
819.903	6749
820.043	6646
820.184	6521
820.324	6574
820.465	6677
820.605	6700
820.746	6658
820.886	6498
821.026	6639
821.167	6604
821.307	6810
821.447	6760
821.588	6631
821.728	6547
821.868	6498
822.008	6350
822.149	6319
822.289	6365
822.429	6163
822.569	6114
822.709	6091
822.849	5988
822.99	5840
823.13	5923
823.27	5893
823.41	5878
823.55	5798
823.69	5737
823.83	5771
823.97	5695
824.11	5535
824.25	5501
824.389	5532
824.529	5604
824.669	5509
824.809	5627
824.949	5642
825.089	5608
825.228	5551
825.368	5364
825.508	5372
825.648	5395
825.787	5318
825.927	5357
826.067	5326
826.206	5353
826.346	5357
826.485	5387
826.625	5433
826.765	5516
826.904	5478
827.044	5261
827.183	5227
827.323	5113
827.462	5239
827.601	5185
827.741	5208
827.88	5246
828.02	5140
828.159	5216
828.298	5299
828.437	5398
828.577	5250
828.716	5444
828.855	5368
828.994	5162
829.134	5140
829.273	5166
829.412	5162
829.551	5159
829.69	5208
829.829	5254
829.968	5395
830.107	5273
830.246	5250
830.385	5223
830.524	5117
830.663	5075
830.802	4976
830.941	4862
831.08	4881
831.219	4980
831.357	4934
831.496	5151
831.635	4908
831.774	4812
831.913	4831
832.051	4733
832.19	4733
832.329	4820
832.467	4714
832.606	4622
832.744	4683
832.883	4721
833.022	4725
833.16	4816
833.299	4839
833.437	4774
833.576	4782
833.714	4839
833.852	4850
833.991	4877
834.129	5003
834.267	4991
834.406	4870
834.544	4968
834.682	4965
834.821	4949
834.959	5189
835.097	5041
835.235	5166
835.373	5064
835.511	5102
835.65	5033
835.788	5003
835.926	4919
836.064	4938
836.202	4934
836.34	5159
836.478	5261
836.615	5140
836.753	5254
836.891	5242
837.029	5231
837.167	5166
837.305	5185
837.443	5121
837.58	5033
837.718	5261
837.856	5143
837.993	5128
838.131	5204
838.269	5181
838.406	5162
838.544	5166
838.681	5033
838.819	5048
838.956	4904
839.094	4923
839.231	4965
839.369	5147
839.506	5440
839.643	5250
839.781	5113
839.918	4995
840.055	5121
840.193	5109
840.33	5094
840.467	5143
840.604	5197
840.742	5455
840.879	5140
841.016	5022
841.153	5140
841.29	5391
841.427	5330
841.564	5299
841.701	5376
841.838	5303
841.975	5250
842.112	5254
842.249	5159
842.385	5067
842.522	5383
842.659	5159
842.796	5124
842.933	5204
843.069	5159
843.206	5174
843.343	5299
843.479	5242
843.616	5254
843.752	5022
843.889	4995
844.025	5220
844.162	5048
844.298	5223
844.435	5113
844.571	5041
844.708	5151
844.844	5284
844.98	5299
845.117	5311
845.253	5185
845.389	5075
845.525	5162
845.661	5132
845.798	5018
845.934	5105
846.07	5067
846.206	5174
846.342	5307
846.478	5178
846.614	5018
846.75	4972
846.886	4919
847.022	5109
847.158	5033
847.294	5052
847.429	5155
847.565	5006
847.701	5277
847.837	4809
847.972	4786
848.108	4968
848.244	4953
848.379	4820
848.515	4717
848.65	4725
848.786	4725
848.921	4714
849.057	4824
849.192	4915
849.328	4831
849.463	4828
849.598	4778
849.734	4782
849.869	4702
850.004	4588
850.14	4634
850.275	4580
850.41	4527
850.545	4603
850.68	4580
850.815	4626
850.95	4626
851.085	4786
851.22	4725
851.355	4687
851.49	4599
851.625	4645
851.76	4626
851.895	4558
852.03	4538
852.165	4615
852.299	4778
852.434	4786
852.569	4702
852.703	4740
852.838	4877
852.973	4953
853.107	4889
853.242	4763
853.376	4752
853.511	4565
853.645	4649
853.78	4812
853.914	4668
854.048	4694
854.183	4626
854.317	4717
854.451	4889
854.585	4687
854.72	4596
854.854	4744
854.988	4607
855.122	4607
855.256	4523
855.39	4668
855.524	4786
855.658	4740
855.792	4675
855.926	4736
856.06	4698
856.194	4831
856.327	4653
856.461	4611
856.595	4622
856.729	4603
856.862	4771
856.996	4767
857.13	4752
857.263	4805
857.397	4797
857.53	4660
857.664	4759
857.797	4767
857.931	4774
858.064	4714
858.197	4793
858.331	4599
858.464	4603
858.597	4508
858.731	4668
858.864	4615
858.997	4618
859.13	4645
859.263	4637
859.396	4702
859.529	4546
859.662	4561
859.795	4542
859.928	4653
860.061	4729
860.194	4790
860.327	4603
860.46	4565
860.592	4702
860.725	4717
860.858	4755
860.99	4580
861.123	4516
861.256	4569
861.388	4618
861.521	5197
861.653	4474
861.786	4402
861.918	4459
862.05	4497
862.183	4592
862.315	4603
862.447	4607
862.58	4561
862.712	4451
862.844	4344
862.976	4462
863.108	4432
863.24	4866
863.372	4306
863.504	4409
863.636	4386
863.768	4462
863.9	4424
864.032	4379
864.164	4394
864.296	4447
864.428	4561
864.559	4554
864.691	4538
864.823	4523
864.954	4443
865.086	4554
865.217	4390
865.349	4424
865.48	4421
865.612	4459
865.743	4645
865.875	4489
866.006	4443
866.137	4485
866.269	4474
866.4	4443
866.531	4421
866.662	4413
866.793	4402
866.924	4398
867.055	4455
867.186	4459
867.317	4386
867.448	4383
867.579	4348
867.71	4413
867.841	4371
867.972	4474
868.103	4466
868.233	4443
868.364	4428
868.495	4481
868.625	4653
868.756	4706
868.886	4546
869.017	4554
869.147	4710
869.278	4801
869.408	4694
869.539	4645
869.669	4752
869.799	4634
869.929	4767
870.06	4714
870.19	4923
870.32	4889
870.45	4946
870.58	5048
870.71	5014
870.84	5109
870.97	4972
871.1	4831
871.23	5113
871.36	5121
871.489	5003
871.619	5056
871.749	5064
871.879	5128
872.008	5159
872.138	5060
872.267	4972
872.397	4847
872.526	4843
872.656	4668
872.785	4831
872.915	4927
873.044	4957
873.173	4923
873.303	4965
873.432	4984
873.561	4957
873.69	4908
873.819	4862
873.948	4934
874.077	4820
874.206	4797
874.335	4774
874.464	4965
874.593	5048
874.722	4934
874.851	5045
874.979	5029
875.108	5037
875.237	4938
875.365	4805
875.494	4889
875.623	4919
875.751	4824
875.88	4870
876.008	5018
876.136	5018
876.265	5162
876.393	5345
876.521	5223
876.65	5193
876.778	5124
876.906	5060
877.034	5037
877.162	5041
877.29	5022
877.418	5022
877.546	5003
877.674	5003
877.802	5075
877.93	4961
878.058	4927
878.185	4854
878.313	4984
878.441	4927
878.568	4771
878.696	4873
878.824	4896
878.951	4972
879.079	5121
879.206	5288
879.333	5052
879.461	4968
879.588	5033
879.715	5079
879.842	5147
879.97	5048
880.097	4767
880.224	4733
880.351	4820
880.478	4801
880.605	4831
880.732	4759
880.859	5094
880.986	4892
881.112	4923
881.239	4778
881.366	4668
881.493	4596
881.619	4622
881.746	4618
881.872	4626
881.999	4637
882.125	4721
882.252	4778
882.378	4820
882.505	4946
882.631	4782
882.757	4626
882.883	4729
883.01	4706
883.136	4634
883.262	4588
883.388	4588
883.514	4786
883.64	4854
883.766	4824
883.892	4668
884.018	4691
884.143	4870
884.269	5025
884.395	4656
884.52	4622
884.646	4637
884.772	4596
884.897	4508
885.023	4660
885.148	4740
885.274	4873
885.399	4759
885.524	4729
885.65	4645
885.775	4736
885.9	4702
886.025	4831
886.15	4774
886.275	4714
886.4	4649
886.525	4748
886.65	4679
886.775	4679
886.9	4889
887.025	5037
887.149	4786
887.274	4653
887.399	4561
887.523	4577
887.648	4538
887.773	4584
887.897	4782
888.021	4774
888.146	4641
888.27	4755
888.395	4870
888.519	4816
888.643	4763
888.767	4824
888.891	4694
889.015	4558
889.139	4615
889.263	4645
889.387	4691
889.511	4839
889.635	4782
889.759	4637
889.883	4668
890.006	4717
890.13	4896
890.254	4596
890.377	4615
890.501	4519
890.624	4485
890.748	4577
890.871	4542
890.995	4466
891.118	4398
891.241	4523
891.364	4519
891.488	4637
891.611	4500
891.734	4508
891.857	4649
891.98	4542
892.103	4630
892.226	4603
892.349	4455
892.471	4398
892.594	4531
892.717	4599
892.839	4599
892.962	4599
893.085	4717
893.207	4649
893.33	4470
893.452	4550
893.575	4649
893.697	4577
893.819	4801
893.941	4843
894.064	4729
894.186	4512
894.308	4527
894.43	4721
894.552	4820
894.674	4763
894.796	4561
894.918	4588
895.04	4531
895.161	4694
895.283	4634
895.405	4577
895.526	4584
895.648	4649
895.769	4679
895.891	4714
896.012	4755
896.134	4710
896.255	4645
896.376	4653
896.498	4588
896.619	4634
896.74	4603
896.861	4630
896.982	4892
897.103	5041
897.224	4820
897.345	4778
897.466	4672
897.587	4694
897.708	4900
897.828	4748
897.949	4615
898.07	4580
898.19	4592
898.311	4816
898.431	4637
898.552	4698
898.672	4797
898.792	4759
898.913	4714
899.033	4656
899.153	4470
899.273	4409
899.393	4516
899.513	4516
899.633	4565
899.753	4519
899.873	4512
899.993	4569
900.113	4542
900.232	4580
900.352	4516
900.472	4474
900.591	4375
900.711	4459
900.83	4440
900.95	4584
901.069	4694
901.189	4535
901.308	4344
901.427	4295
901.546	4371
901.665	4504
901.784	4474
901.904	4356
902.023	4329
902.141	4188
902.26	4177
902.379	4276
902.498	4261
902.617	4204
902.735	4356
902.854	4402
902.973	4344
903.091	4166
903.21	4192
903.328	4310
903.446	4291
903.565	4253
903.683	4352
903.801	4287
903.919	4386
904.038	4428
904.156	4299
904.274	4470
904.392	4398
904.51	4417
904.627	4462
904.745	4531
904.863	4611
904.981	4405
905.098	4253
905.216	4333
905.334	4390
905.451	4478
905.569	4417
905.686	4512
905.803	4550
905.921	4383
906.038	4531
906.155	4459
906.272	4394
906.389	4424
906.506	4329
906.623	4367
906.74	4413
906.857	4318
906.974	4398
907.091	4584
907.208	4694
907.324	4641
907.441	4493
907.557	4337
907.674	4348
907.79	4291
907.907	4386
908.023	4443
908.139	4497
908.256	4447
908.372	4447
908.488	4421
908.604	4360
908.72	4348
908.836	4383
908.952	4329
909.068	4421
909.184	4584
909.3	4462
909.415	4599
909.531	4558
909.647	4352
909.762	4386
909.878	4356
909.993	4394
910.108	4371
910.224	4424
910.339	4485
910.454	4402
910.57	4379
910.685	4287
910.8	4637
910.915	4592
911.03	4519
911.145	4386
911.259	4325
911.374	4344
911.489	4287
911.604	4268
911.718	4173
911.833	4223
911.947	4124
912.062	4013
912.176	4230
912.291	4211
912.405	4253
912.519	4443
912.633	4481
912.748	4360
912.862	4318
912.976	4223
913.09	4105
913.204	4158
913.318	4215
913.431	4341
913.545	4284
913.659	4443
913.772	4360
913.886	4207
914	4227
914.113	4337
914.226	4474
914.34	4421
914.453	4238
914.566	4405
914.68	4333
914.793	4322
914.906	4135
915.019	4112
915.132	4093
915.245	4147
915.358	4200
915.47	4257
915.583	4230
915.696	4291
915.809	4421
915.921	4402
916.034	4219
916.146	4196
916.259	4204
916.371	4329
916.483	4341
916.595	4265
916.708	4318
916.82	4287
916.932	4299
917.044	4329
917.156	4348
917.268	4211
917.38	4284
917.491	4291
917.603	4333
917.715	4436
917.826	4443
917.938	4322
918.049	4238
918.161	4375
918.272	4592
918.384	4531
918.495	4447
918.606	4280
918.717	4238
918.828	4306
918.939	4394
919.05	4268
919.161	4299
919.272	4093
919.383	4219
919.494	4428
919.604	4611
919.715	4379
919.826	4329
919.936	4356
920.047	4512
920.157	4485
920.267	4702
920.378	4584
920.488	4523
920.598	4710
920.708	4870
920.818	4797
920.928	4733
921.038	4908
921.148	4934
921.258	4645
921.368	4546
921.477	4493
921.587	4447
921.697	4367
921.806	4580
921.916	4394
922.025	4246
922.134	4299
922.244	4207
922.353	4337
922.462	4150
922.571	4128
922.68	4006
922.789	3968
922.898	4044
923.007	4006
923.116	4105
923.224	4063
923.333	4063
923.442	4006
923.55	3979
923.659	4051
923.767	4097
923.876	3949
923.984	4139
924.092	3975
924.201	4063
924.309	4078
924.417	4124
924.525	4116
924.633	4059
924.741	5052
924.849	3968
924.956	4166
925.064	3934
925.172	3953
925.279	3918
925.387	3994
925.494	4044
925.602	4219
925.709	4154
925.816	4044
925.924	4147
926.031	4188
926.138	4162
926.245	4234
926.352	4105
926.459	4253
926.566	4291
926.673	4139
926.779	4074
926.886	4032
926.993	3945
927.099	3983
927.206	3956
927.312	3956
927.419	4048
927.525	4036
927.631	4086
927.737	3934
927.843	3918
927.95	3850
928.056	4025
928.162	4006
928.267	4059
928.373	4672
928.479	4086
928.585	3888
928.69	4025
928.796	4071
928.901	3937
929.007	3827
929.112	3975
929.218	3918
929.323	4002
929.428	3975
929.533	4071
929.638	3903
929.743	4013
929.848	4059
929.953	4017
930.058	3926
930.163	3823
930.267	3846
930.372	3975
930.477	3770
930.581	4101
930.685	3979
930.79	3797
930.894	3922
930.998	3842
931.103	4040
931.207	3713
931.311	3701
931.415	3656
931.519	3500
931.623	3534
