Data from test_V78500241_2025.txt Node
Date: Fri Mar 25 17:03:04 CST 2022
User: usil
Spectrometer: V785-0024
Trigger mode: 0
Integration Time (sec): 4.000000E-1
Scans to average: 1
Nonlinearity correction enabled: false
Boxcar width: 0
Storing dark spectrum: false
XAxis mode: Wavelengths
Number of Pixels in Spectrum: 1024
>>>>>Begin Spectral Data<<<<<
801.071	8005
801.214	7970
801.356	7849
801.499	7879
801.641	7750
801.783	7871
801.926	7887
802.068	7944
802.211	7913
802.353	8008
802.496	7894
802.638	7868
802.78	7818
802.923	7879
803.065	7856
803.208	7871
803.35	7917
803.492	7997
803.635	8119
803.777	7989
803.919	8126
804.061	8389
804.204	8134
804.346	8035
804.488	7936
804.63	8153
804.773	8039
804.915	8050
805.057	8237
805.199	8164
805.341	8157
805.483	8320
805.626	8210
805.768	8164
805.91	8218
806.052	8195
806.194	8111
806.336	8214
806.478	8134
806.62	8100
806.762	8221
806.904	8317
807.046	8457
807.188	8358
807.33	8362
807.472	8339
807.614	8149
807.756	8164
807.898	8001
808.04	7947
808.182	7906
808.324	7951
808.465	7913
808.607	8084
808.749	8176
808.891	8214
809.033	8313
809.174	8267
809.316	8088
809.458	8046
809.6	8016
809.741	8134
809.883	8130
810.025	8107
810.166	8054
810.308	8035
810.45	7967
810.591	7868
810.733	7712
810.875	7693
811.016	7533
811.158	7468
811.299	7559
811.441	7616
811.582	7670
811.724	7647
811.865	7613
812.007	7639
812.148	7624
812.29	7685
812.431	7784
812.573	7940
812.714	8073
812.855	8107
812.997	8256
813.138	8317
813.279	8145
813.421	8069
813.562	8012
813.703	7841
813.845	7715
813.986	7434
814.127	7305
814.268	7263
814.41	7236
814.551	7168
814.692	7228
814.833	7091
814.974	7213
815.115	7171
815.256	7057
815.397	7019
815.539	6981
815.68	6859
815.821	6867
815.962	6878
816.103	6818
816.244	6745
816.385	6669
816.526	6597
816.666	6490
816.807	6353
816.948	6494
817.089	6490
817.23	6506
817.371	6388
817.512	6391
817.653	6433
817.793	6426
817.934	6464
818.075	6540
818.216	6471
818.356	6452
818.497	6296
818.638	6190
818.778	6190
818.919	6209
819.06	6266
819.2	6410
819.341	6346
819.481	6391
819.622	6597
819.762	6764
819.903	6703
820.043	6601
820.184	6555
820.324	6604
820.465	6677
820.605	6703
820.746	6665
820.886	6525
821.026	6681
821.167	6745
821.307	6821
821.447	6753
821.588	6677
821.728	6563
821.868	6494
822.008	6311
822.149	6433
822.289	6388
822.429	6194
822.569	6114
822.709	6140
822.849	5954
822.99	5939
823.13	5942
823.27	5923
823.41	5817
823.55	5832
823.69	5764
823.83	5851
823.97	5729
824.11	5566
824.25	5547
824.389	5589
824.529	5604
824.669	5551
824.809	5642
824.949	5695
825.089	5661
825.228	5562
825.368	5395
825.508	5391
825.648	5334
825.787	5440
825.927	5421
826.067	5387
826.206	5288
826.346	5395
826.485	5410
826.625	5364
826.765	5551
826.904	5535
827.044	5258
827.183	5273
827.323	5128
827.462	5246
827.601	5246
827.741	5220
827.88	5242
828.02	5155
828.159	5242
828.298	5311
828.437	5406
828.577	5315
828.716	5528
828.855	5341
828.994	5193
829.134	5113
829.273	5212
829.412	5151
829.551	5197
829.69	5174
829.829	5299
829.968	5337
830.107	5311
830.246	5254
830.385	5204
830.524	5159
830.663	5075
830.802	5048
830.941	4934
831.08	4881
831.219	4987
831.357	4946
831.496	5197
831.635	4976
831.774	4881
831.913	4915
832.051	4740
832.19	4774
832.329	4843
832.467	4717
832.606	4683
832.744	4725
832.883	4763
833.022	4740
833.16	4797
833.299	4839
833.437	4858
833.576	4843
833.714	4870
833.852	4862
833.991	4934
834.129	4949
834.267	4976
834.406	4915
834.544	5033
834.682	5006
834.821	4927
834.959	5181
835.097	5003
835.235	5090
835.373	5117
835.511	5102
835.65	5037
835.788	5010
835.926	4892
836.064	4862
836.202	4953
836.34	5185
836.478	5242
836.615	5162
836.753	5254
836.891	5303
837.029	5292
837.167	5212
837.305	5178
837.443	5128
837.58	5109
837.718	5277
837.856	5223
837.993	5174
838.131	5261
838.269	5223
838.406	5220
838.544	5181
838.681	5022
838.819	5025
838.956	4904
839.094	4870
839.231	5029
839.369	5105
839.506	5406
839.643	5269
839.781	5075
839.918	5048
840.055	5121
840.193	5117
840.33	5159
840.467	5220
840.604	5193
840.742	5528
840.879	5109
841.016	5102
841.153	5140
841.29	5379
841.427	5364
841.564	5303
841.701	5364
841.838	5288
841.975	5280
842.112	5246
842.249	5132
842.385	5128
842.522	5349
842.659	5155
842.796	5185
842.933	5159
843.069	5212
843.206	5159
843.343	5372
843.479	5258
843.616	5277
843.752	5048
843.889	5052
844.025	5265
844.162	5071
844.298	5235
844.435	5079
844.571	5052
844.708	5204
844.844	5315
844.98	5360
845.117	5277
845.253	5197
845.389	5143
845.525	5151
845.661	5143
845.798	4995
845.934	5117
846.07	5086
846.206	5220
846.342	5292
846.478	5170
846.614	5075
846.75	4938
846.886	4942
847.022	5147
847.158	5079
847.294	5033
847.429	5132
847.565	5056
847.701	5395
847.837	4892
847.972	4847
848.108	4995
848.244	4915
848.379	4812
848.515	4782
848.65	4714
848.786	4778
848.921	4801
849.057	4942
849.192	4915
849.328	4797
849.463	4835
849.598	4797
849.734	4809
849.869	4691
850.004	4630
850.14	4687
850.275	4653
850.41	4592
850.545	4569
850.68	4637
850.815	4664
850.95	4664
851.085	4847
851.22	4771
851.355	4656
851.49	4588
851.625	4626
851.76	4645
851.895	4531
852.03	4569
852.165	4634
852.299	4717
852.434	4774
852.569	4725
852.703	4828
852.838	4854
852.973	4999
853.107	4938
853.242	4755
853.376	4721
853.511	4596
853.645	4611
853.78	4881
853.914	4691
854.048	4668
854.183	4668
854.317	4679
854.451	4900
854.585	4679
854.72	4649
854.854	4771
854.988	4622
855.122	4672
855.256	4565
855.39	4675
855.524	4767
855.658	4717
855.792	4702
855.926	4725
856.06	4778
856.194	4793
856.327	4759
856.461	4622
856.595	4649
856.729	4626
856.862	4774
856.996	4706
857.13	4744
857.263	4771
857.397	4828
857.53	4710
857.664	4759
857.797	4767
857.931	4828
858.064	4694
858.197	4694
858.331	4660
858.464	4626
858.597	4478
858.731	4584
858.864	4668
858.997	4592
859.13	4687
859.263	4675
859.396	4759
859.529	4569
859.662	4622
859.795	4497
859.928	4630
860.061	4771
860.194	4767
860.327	4615
860.46	4573
860.592	4679
860.725	4717
860.858	4736
860.99	4622
861.123	4512
861.256	4535
861.388	4584
861.521	5292
861.653	4466
861.786	4440
861.918	4485
862.05	4550
862.183	4546
862.315	4615
862.447	4702
862.58	4554
862.712	4371
862.844	4287
862.976	4447
863.108	4516
863.24	4793
863.372	4360
863.504	4432
863.636	4432
863.768	4500
863.9	4428
864.032	4379
864.164	4440
864.296	4459
864.428	4561
864.559	4546
864.691	4523
864.823	4550
864.954	4500
865.086	4519
865.217	4424
865.349	4390
865.48	4470
865.612	4512
865.743	4637
865.875	4489
866.006	4489
866.137	4478
866.269	4409
866.4	4440
866.531	4455
866.662	4405
866.793	4386
866.924	4478
867.055	4466
867.186	4478
867.317	4462
867.448	4394
867.579	4409
867.71	4421
867.841	4398
867.972	4493
868.103	4466
868.233	4523
868.364	4424
868.495	4459
868.625	4717
868.756	4752
868.886	4626
869.017	4573
869.147	4771
869.278	4771
869.408	4664
869.539	4649
869.669	4698
869.799	4683
869.929	4759
870.06	4752
870.19	5014
870.32	4927
870.45	4934
870.58	5067
870.71	5064
870.84	5124
870.97	4942
871.1	4915
871.23	5155
871.36	5117
871.489	5045
871.619	5086
871.749	5121
871.879	5124
872.008	5193
872.138	5056
872.267	4980
872.397	4900
872.526	4786
872.656	4736
872.785	4801
872.915	4965
873.044	5029
873.173	4889
873.303	5022
873.432	4957
873.561	4923
873.69	4877
873.819	4881
873.948	4923
874.077	4843
874.206	4733
874.335	4850
874.464	4930
874.593	5109
874.722	4995
874.851	5052
874.979	4980
875.108	5060
875.237	4949
875.365	4949
875.494	4881
875.623	5014
875.751	4835
875.88	4896
876.008	4942
876.136	5041
876.265	5212
876.393	5292
876.521	5280
876.65	5246
876.778	5159
876.906	5056
877.034	4999
877.162	5109
877.29	5006
877.418	5052
877.546	5060
877.674	4984
877.802	4999
877.93	5048
878.058	4915
878.185	4904
878.313	4965
878.441	4946
878.568	4782
878.696	4896
878.824	4923
878.951	5033
879.079	5079
879.206	5277
879.333	5113
879.461	4968
879.588	5014
879.715	5155
879.842	5189
879.97	5075
880.097	4805
880.224	4771
880.351	4809
880.478	4847
880.605	4809
880.732	4767
880.859	5109
880.986	4942
881.112	4930
881.239	4752
881.366	4649
881.493	4580
881.619	4596
881.746	4615
881.872	4653
881.999	4691
882.125	4717
882.252	4782
882.378	4835
882.505	4930
882.631	4797
882.757	4698
882.883	4767
883.01	4706
883.136	4687
883.262	4626
883.388	4607
883.514	4812
883.64	4831
883.766	4778
883.892	4717
884.018	4710
884.143	4896
884.269	4999
884.395	4664
884.52	4626
884.646	4641
884.772	4580
884.897	4546
885.023	4664
885.148	4809
885.274	4824
885.399	4767
885.524	4683
885.65	4706
885.775	4755
885.9	4691
886.025	4885
886.15	4786
886.275	4744
886.4	4675
886.525	4714
886.65	4702
886.775	4675
886.9	4995
887.025	5033
887.149	4797
887.274	4641
887.399	4618
887.523	4645
887.648	4546
887.773	4626
887.897	4801
888.021	4755
888.146	4694
888.27	4793
888.395	4889
888.519	4824
888.643	4805
888.767	4839
888.891	4641
889.015	4592
889.139	4687
889.263	4588
889.387	4771
889.511	4877
889.635	4774
889.759	4588
889.883	4649
890.006	4725
890.13	4797
890.254	4626
890.377	4714
890.501	4535
890.624	4538
890.748	4668
890.871	4527
890.995	4379
891.118	4356
891.241	4527
891.364	4489
891.488	4653
891.611	4470
891.734	4546
891.857	4580
891.98	4577
892.103	4645
892.226	4615
892.349	4535
892.471	4421
892.594	4519
892.717	4584
892.839	4554
892.962	4596
893.085	4645
893.207	4615
893.33	4481
893.452	4573
893.575	4626
893.697	4558
893.819	4763
893.941	4812
894.064	4786
894.186	4596
894.308	4561
894.43	4702
894.552	4816
894.674	4767
894.796	4531
894.918	4577
895.04	4535
895.161	4660
895.283	4645
895.405	4592
895.526	4637
895.648	4706
895.769	4683
895.891	4710
896.012	4714
896.134	4725
896.255	4637
896.376	4637
896.498	4611
896.619	4714
896.74	4615
896.861	4622
896.982	4908
897.103	5075
897.224	4847
897.345	4736
897.466	4672
897.587	4805
897.708	4889
897.828	4790
897.949	4664
898.07	4512
898.19	4653
898.311	4850
898.431	4714
898.552	4729
898.672	4805
898.792	4793
898.913	4710
899.033	4618
899.153	4485
899.273	4421
899.393	4481
899.513	4550
899.633	4535
899.753	4565
899.873	4527
899.993	4569
900.113	4531
900.232	4630
900.352	4504
900.472	4470
900.591	4432
900.711	4489
900.83	4474
900.95	4656
901.069	4714
901.189	4550
901.308	4344
901.427	4352
901.546	4371
901.665	4466
901.784	4466
901.904	4356
902.023	4310
902.141	4192
902.26	4181
902.379	4306
902.498	4287
902.617	4181
902.735	4379
902.854	4417
902.973	4348
903.091	4192
903.21	4238
903.328	4284
903.446	4276
903.565	4261
903.683	4329
903.801	4242
903.919	4421
904.038	4413
904.156	4306
904.274	4421
904.392	4402
904.51	4462
904.627	4512
904.745	4611
904.863	4596
904.981	4383
905.098	4310
905.216	4363
905.334	4375
905.451	4432
905.569	4440
905.686	4584
905.803	4550
905.921	4421
906.038	4531
906.155	4436
906.272	4386
906.389	4459
906.506	4333
906.623	4360
906.74	4402
906.857	4322
906.974	4371
907.091	4531
907.208	4664
907.324	4565
907.441	4478
907.557	4348
907.674	4303
907.79	4348
907.907	4417
908.023	4504
908.139	4474
908.256	4424
908.372	4481
908.488	4466
908.604	4375
908.72	4299
908.836	4344
908.952	4360
909.068	4402
909.184	4542
909.3	4481
909.415	4577
909.531	4523
909.647	4379
909.762	4360
909.878	4356
909.993	4447
910.108	4409
910.224	4398
910.339	4459
910.454	4421
910.57	4356
910.685	4333
910.8	4664
910.915	4634
911.03	4481
911.145	4303
911.259	4352
911.374	4325
911.489	4287
911.604	4303
911.718	4139
911.833	4177
911.947	4044
912.062	4048
912.176	4230
912.291	4265
912.405	4261
912.519	4489
912.633	4447
912.748	4363
912.862	4314
912.976	4192
913.09	4082
913.204	4177
913.318	4238
913.431	4383
913.545	4371
913.659	4443
913.772	4367
913.886	4196
914	4238
914.113	4386
914.226	4432
914.34	4386
914.453	4261
914.566	4421
914.68	4306
914.793	4303
914.906	4147
915.019	4169
915.132	4082
915.245	4207
915.358	4211
915.47	4204
915.583	4280
915.696	4272
915.809	4421
915.921	4428
916.034	4280
916.146	4253
916.259	4230
916.371	4386
916.483	4356
916.595	4287
916.708	4360
916.82	4303
916.932	4318
917.044	4344
917.156	4306
917.268	4249
917.38	4272
917.491	4242
917.603	4314
917.715	4413
917.826	4417
917.938	4398
918.049	4219
918.161	4432
918.272	4516
918.384	4527
918.495	4462
918.606	4287
918.717	4234
918.828	4303
918.939	4367
919.05	4284
919.161	4272
919.272	4177
919.383	4238
919.494	4436
919.604	4607
919.715	4470
919.826	4375
919.936	4455
920.047	4504
920.157	4455
920.267	4675
920.378	4500
920.488	4500
920.598	4710
920.708	4892
920.818	4706
920.928	4782
921.038	4915
921.148	4915
921.258	4637
921.368	4535
921.477	4538
921.587	4478
921.697	4379
921.806	4546
921.916	4424
922.025	4329
922.134	4246
922.244	4230
922.353	4333
922.462	4204
922.571	4139
922.68	3953
922.789	3983
922.898	4025
923.007	4040
923.116	4055
923.224	4017
923.333	4147
923.442	3979
923.55	3979
923.659	4029
923.767	4128
923.876	3975
923.984	4086
924.092	3960
924.201	4067
924.309	4082
924.417	4124
924.525	4055
924.633	4124
924.741	5045
924.849	3884
924.956	4139
925.064	3956
925.172	3876
925.279	3953
925.387	4063
925.494	4032
925.602	4211
925.709	4192
925.816	4048
925.924	4097
926.031	4268
926.138	4139
926.245	4242
926.352	4082
926.459	4249
926.566	4352
926.673	4166
926.779	4078
926.886	4063
926.993	3949
927.099	4002
927.206	3960
927.312	3937
927.419	4090
927.525	4055
927.631	4048
927.737	3972
927.843	3930
927.95	3819
928.056	3956
928.162	3968
928.267	4078
928.373	4565
928.479	4109
928.585	3892
928.69	4013
928.796	4071
928.901	3960
929.007	3869
929.112	4013
929.218	4010
929.323	3892
929.428	3949
929.533	4071
929.638	3915
929.743	3983
929.848	4082
929.953	4029
930.058	3941
930.163	3770
930.267	3797
930.372	3994
930.477	3850
930.581	4082
930.685	3915
930.79	3827
930.894	3831
930.998	3892
931.103	4074
931.207	3717
931.311	3701
931.415	3656
931.519	3545
931.623	3500
