Data from test_V78500241_1565.txt Node
Date: Fri Mar 25 16:59:53 CST 2022
User: usil
Spectrometer: V785-0024
Trigger mode: 0
Integration Time (sec): 4.000000E-1
Scans to average: 1
Nonlinearity correction enabled: false
Boxcar width: 0
Storing dark spectrum: false
XAxis mode: Wavelengths
Number of Pixels in Spectrum: 1024
>>>>>Begin Spectral Data<<<<<
801.071	7940
801.214	8039
801.356	7849
801.499	7879
801.641	7807
801.783	7906
801.926	7936
802.068	7993
802.211	7978
802.353	8005
802.496	7841
802.638	7811
802.78	7951
802.923	7871
803.065	7894
803.208	7864
803.35	7993
803.492	8100
803.635	8103
803.777	8008
803.919	8107
804.061	8484
804.204	8210
804.346	8024
804.488	8016
804.63	8164
804.773	8069
804.915	8149
805.057	8275
805.199	8157
805.341	8218
805.483	8320
805.626	8187
805.768	8126
805.91	8301
806.052	8275
806.194	8111
806.336	8317
806.478	8065
806.62	8107
806.762	8172
806.904	8389
807.046	8583
807.188	8465
807.33	8271
807.472	8358
807.614	8240
807.756	8126
807.898	8039
808.04	7932
808.182	7925
808.324	7944
808.465	7940
808.607	8088
808.749	8187
808.891	8195
809.033	8279
809.174	8233
809.316	8058
809.458	8081
809.6	7986
809.741	7982
809.883	8020
810.025	8161
810.166	8138
810.308	8035
810.45	8050
810.591	7890
810.733	7784
810.875	7734
811.016	7544
811.158	7578
811.299	7525
811.441	7704
811.582	7696
811.724	7601
811.865	7563
812.007	7590
812.148	7620
812.29	7636
812.431	7792
812.573	7940
812.714	8020
812.855	8149
812.997	8256
813.138	8324
813.279	8221
813.421	8058
813.562	8016
813.703	7776
813.845	7708
813.986	7392
814.127	7335
814.268	7225
814.41	7263
814.551	7122
814.692	7297
814.833	7091
814.974	7168
815.115	7145
815.256	7015
815.397	6985
815.539	6943
815.68	6867
815.821	6787
815.962	6905
816.103	6856
816.244	6711
816.385	6620
816.526	6631
816.666	6525
816.807	6350
816.948	6479
817.089	6506
817.23	6414
817.371	6407
817.512	6369
817.653	6441
817.793	6384
817.934	6391
818.075	6502
818.216	6464
818.356	6456
818.497	6262
818.638	6079
818.778	6129
818.919	6213
819.06	6197
819.2	6353
819.341	6331
819.481	6391
819.622	6525
819.762	6760
819.903	6711
820.043	6688
820.184	6642
820.324	6620
820.465	6783
820.605	6764
820.746	6627
820.886	6532
821.026	6612
821.167	6779
821.307	6840
821.447	6738
821.588	6730
821.728	6585
821.868	6494
822.008	6380
822.149	6380
822.289	6395
822.429	6140
822.569	6117
822.709	6152
822.849	5870
822.99	5897
823.13	5961
823.27	5965
823.41	5840
823.55	5783
823.69	5745
823.83	5794
823.97	5676
824.11	5524
824.25	5520
824.389	5524
824.529	5615
824.669	5554
824.809	5630
824.949	5657
825.089	5619
825.228	5551
825.368	5376
825.508	5357
825.648	5307
825.787	5398
825.927	5406
826.067	5318
826.206	5326
826.346	5379
826.485	5398
826.625	5421
826.765	5592
826.904	5539
827.044	5280
827.183	5269
827.323	5143
827.462	5223
827.601	5189
827.741	5216
827.88	5181
828.02	5159
828.159	5246
828.298	5341
828.437	5334
828.577	5326
828.716	5467
828.855	5345
828.994	5140
829.134	5204
829.273	5212
829.412	5166
829.551	5140
829.69	5223
829.829	5280
829.968	5345
830.107	5292
830.246	5307
830.385	5242
830.524	5159
830.663	5090
830.802	4938
830.941	4927
831.08	4915
831.219	4953
831.357	4961
831.496	5147
831.635	4873
831.774	4828
831.913	4889
832.051	4752
832.19	4752
832.329	4904
832.467	4733
832.606	4675
832.744	4694
832.883	4733
833.022	4786
833.16	4797
833.299	4885
833.437	4778
833.576	4801
833.714	4873
833.852	4877
833.991	4953
834.129	4946
834.267	4934
834.406	4915
834.544	4957
834.682	4972
834.821	4991
834.959	5185
835.097	5025
835.235	5189
835.373	5121
835.511	5155
835.65	5048
835.788	5003
835.926	4927
836.064	4900
836.202	4934
836.34	5128
836.478	5258
836.615	5136
836.753	5273
836.891	5261
837.029	5273
837.167	5235
837.305	5136
837.443	5128
837.58	5102
837.718	5292
837.856	5223
837.993	5216
838.131	5227
838.269	5212
838.406	5261
838.544	5178
838.681	5102
838.819	5029
838.956	4911
839.094	4957
839.231	4965
839.369	5086
839.506	5402
839.643	5292
839.781	5060
839.918	4957
840.055	5124
840.193	5056
840.33	5045
840.467	5109
840.604	5212
840.742	5520
840.879	5136
841.016	5071
841.153	5197
841.29	5398
841.427	5292
841.564	5353
841.701	5395
841.838	5269
841.975	5273
842.112	5273
842.249	5181
842.385	5155
842.522	5334
842.659	5140
842.796	5204
842.933	5208
843.069	5181
843.206	5109
843.343	5330
843.479	5239
843.616	5254
843.752	5060
843.889	5033
844.025	5239
844.162	5052
844.298	5220
844.435	5090
844.571	5033
844.708	5246
844.844	5277
844.98	5349
845.117	5326
845.253	5162
845.389	5109
845.525	5162
845.661	5121
845.798	5083
845.934	5102
846.07	5045
846.206	5208
846.342	5235
846.478	5162
846.614	5022
846.75	4972
846.886	4927
847.022	5162
847.158	5067
847.294	5045
847.429	5098
847.565	5094
847.701	5395
847.837	4843
847.972	4744
848.108	5003
848.244	4972
848.379	4850
848.515	4752
848.65	4755
848.786	4721
848.921	4835
849.057	4877
849.192	4919
849.328	4805
849.463	4881
849.598	4763
849.734	4771
849.869	4729
850.004	4664
850.14	4653
850.275	4660
850.41	4569
850.545	4565
850.68	4660
850.815	4660
850.95	4668
851.085	4839
851.22	4748
851.355	4679
851.49	4630
851.625	4641
851.76	4672
851.895	4554
852.03	4546
852.165	4691
852.299	4755
852.434	4828
852.569	4782
852.703	4809
852.838	4816
852.973	4938
853.107	4927
853.242	4725
853.376	4672
853.511	4519
853.645	4641
853.78	4854
853.914	4714
854.048	4660
854.183	4649
854.317	4740
854.451	4797
854.585	4668
854.72	4660
854.854	4786
854.988	4588
855.122	4664
855.256	4538
855.39	4660
855.524	4816
855.658	4752
855.792	4714
855.926	4763
856.06	4782
856.194	4816
856.327	4649
856.461	4634
856.595	4618
856.729	4615
856.862	4774
856.996	4767
857.13	4740
857.263	4771
857.397	4805
857.53	4687
857.664	4771
857.797	4752
857.931	4835
858.064	4683
858.197	4744
858.331	4634
858.464	4577
858.597	4561
858.731	4626
858.864	4656
858.997	4641
859.13	4656
859.263	4694
859.396	4714
859.529	4603
859.662	4565
859.795	4504
859.928	4626
860.061	4771
860.194	4831
860.327	4561
860.46	4531
860.592	4748
860.725	4752
860.858	4721
860.99	4569
861.123	4451
861.256	4535
861.388	4599
861.521	5223
861.653	4474
861.786	4466
861.918	4443
862.05	4512
862.183	4588
862.315	4599
862.447	4656
862.58	4519
862.712	4447
862.844	4318
862.976	4451
863.108	4459
863.24	4740
863.372	4341
863.504	4413
863.636	4447
863.768	4497
863.9	4470
864.032	4344
864.164	4348
864.296	4436
864.428	4481
864.559	4569
864.691	4550
864.823	4516
864.954	4489
865.086	4531
865.217	4459
865.349	4421
865.48	4459
865.612	4481
865.743	4596
865.875	4519
866.006	4455
866.137	4462
866.269	4462
866.4	4447
866.531	4436
866.662	4390
866.793	4424
866.924	4413
867.055	4466
867.186	4455
867.317	4421
867.448	4363
867.579	4371
867.71	4371
867.841	4344
867.972	4394
868.103	4470
868.233	4432
868.364	4538
868.495	4500
868.625	4649
868.756	4721
868.886	4542
869.017	4618
869.147	4824
869.278	4774
869.408	4649
869.539	4649
869.669	4717
869.799	4698
869.929	4717
870.06	4729
870.19	4919
870.32	4923
870.45	4972
870.58	5045
870.71	5064
870.84	5113
870.97	4938
871.1	4919
871.23	5071
871.36	5121
871.489	5010
871.619	5102
871.749	5090
871.879	5109
872.008	5132
872.138	5071
872.267	4965
872.397	4858
872.526	4824
872.656	4740
872.785	4767
872.915	4938
873.044	4991
873.173	4930
873.303	4980
873.432	4991
873.561	4995
873.69	4839
873.819	4847
873.948	4968
874.077	4801
874.206	4774
874.335	4828
874.464	4957
874.593	5079
874.722	4987
874.851	5117
874.979	5006
875.108	5029
875.237	4919
875.365	4873
875.494	4854
875.623	4991
875.751	4843
875.88	4896
876.008	5006
876.136	5067
876.265	5181
876.393	5296
876.521	5258
876.65	5189
876.778	5159
876.906	5041
877.034	5056
877.162	5060
877.29	4976
877.418	5052
877.546	5018
877.674	5052
877.802	5067
877.93	5006
878.058	4953
878.185	4877
878.313	4915
878.441	4919
878.568	4820
878.696	4923
878.824	4976
878.951	4984
879.079	5098
879.206	5311
879.333	5174
879.461	4934
879.588	5010
879.715	5132
879.842	5254
879.97	4976
880.097	4782
880.224	4790
880.351	4839
880.478	4862
880.605	4812
880.732	4793
880.859	5128
880.986	4866
881.112	4896
881.239	4793
881.366	4630
881.493	4603
881.619	4580
881.746	4626
881.872	4698
881.999	4714
882.125	4694
882.252	4778
882.378	4835
882.505	4991
882.631	4797
882.757	4649
882.883	4683
883.01	4706
883.136	4668
883.262	4584
883.388	4637
883.514	4820
883.64	4881
883.766	4812
883.892	4679
884.018	4668
884.143	4957
884.269	5014
884.395	4721
884.52	4641
884.646	4634
884.772	4546
884.897	4565
885.023	4672
885.148	4767
885.274	4839
885.399	4843
885.524	4717
885.65	4702
885.775	4698
885.9	4698
886.025	4828
886.15	4786
886.275	4710
886.4	4653
886.525	4733
886.65	4706
886.775	4691
886.9	4915
887.025	5064
887.149	4812
887.274	4675
887.399	4584
887.523	4615
887.648	4611
887.773	4607
887.897	4717
888.021	4816
888.146	4683
888.27	4858
888.395	4889
888.519	4835
888.643	4866
888.767	4820
888.891	4687
889.015	4622
889.139	4618
889.263	4580
889.387	4721
889.511	4835
889.635	4820
889.759	4649
889.883	4637
890.006	4740
890.13	4862
890.254	4592
890.377	4641
890.501	4558
890.624	4546
890.748	4618
890.871	4489
890.995	4413
891.118	4413
891.241	4512
891.364	4542
891.488	4637
891.611	4478
891.734	4565
891.857	4592
891.98	4569
892.103	4615
892.226	4596
892.349	4516
892.471	4413
892.594	4500
892.717	4607
892.839	4592
892.962	4607
893.085	4679
893.207	4569
893.33	4500
893.452	4500
893.575	4618
893.697	4535
893.819	4797
893.941	4816
894.064	4740
894.186	4580
894.308	4622
894.43	4702
894.552	4805
894.674	4710
894.796	4603
894.918	4615
895.04	4550
895.161	4721
895.283	4664
895.405	4622
895.526	4615
895.648	4721
895.769	4702
895.891	4691
896.012	4778
896.134	4710
896.255	4630
896.376	4630
896.498	4538
896.619	4637
896.74	4615
896.861	4691
896.982	4919
897.103	5037
897.224	4870
897.345	4763
897.466	4615
897.587	4759
897.708	4854
897.828	4790
897.949	4660
898.07	4580
898.19	4634
898.311	4854
898.431	4691
898.552	4668
898.672	4793
898.792	4820
898.913	4755
899.033	4615
899.153	4519
899.273	4428
899.393	4500
899.513	4538
899.633	4481
899.753	4580
899.873	4535
899.993	4561
900.113	4546
900.232	4580
900.352	4497
900.472	4470
900.591	4413
900.711	4493
900.83	4379
900.95	4592
901.069	4694
901.189	4512
901.308	4367
901.427	4329
901.546	4371
901.665	4504
901.784	4455
901.904	4367
902.023	4280
902.141	4192
902.26	4192
902.379	4310
902.498	4249
902.617	4200
902.735	4398
902.854	4383
902.973	4371
903.091	4192
903.21	4192
903.328	4306
903.446	4246
903.565	4219
903.683	4356
903.801	4246
903.919	4383
904.038	4405
904.156	4341
904.274	4428
904.392	4409
904.51	4462
904.627	4512
904.745	4580
904.863	4637
904.981	4421
905.098	4329
905.216	4360
905.334	4398
905.451	4447
905.569	4440
905.686	4569
905.803	4603
905.921	4390
906.038	4558
906.155	4424
906.272	4383
906.389	4417
906.506	4341
906.623	4333
906.74	4375
906.857	4299
906.974	4356
907.091	4535
907.208	4649
907.324	4546
907.441	4470
907.557	4352
907.674	4344
907.79	4337
907.907	4409
908.023	4516
908.139	4508
908.256	4428
908.372	4466
908.488	4443
908.604	4394
908.72	4363
908.836	4379
908.952	4386
909.068	4466
909.184	4561
909.3	4443
909.415	4527
909.531	4569
909.647	4337
909.762	4306
909.878	4367
909.993	4432
910.108	4371
910.224	4432
910.339	4459
910.454	4348
910.57	4341
910.685	4303
910.8	4626
910.915	4523
911.03	4474
911.145	4337
911.259	4341
911.374	4344
911.489	4253
911.604	4242
911.718	4139
911.833	4169
911.947	4044
912.062	4010
912.176	4219
912.291	4230
912.405	4276
912.519	4455
912.633	4493
912.748	4383
912.862	4303
912.976	4185
913.09	4071
913.204	4177
913.318	4249
913.431	4375
913.545	4348
913.659	4459
913.772	4303
913.886	4272
914	4227
914.113	4383
914.226	4424
914.34	4394
914.453	4200
914.566	4421
914.68	4303
914.793	4360
914.906	4162
915.019	4093
915.132	4090
915.245	4173
915.358	4188
915.47	4242
915.583	4219
915.696	4284
915.809	4413
915.921	4459
916.034	4227
916.146	4291
916.259	4230
916.371	4390
916.483	4356
916.595	4257
916.708	4310
916.82	4306
916.932	4322
917.044	4299
917.156	4314
917.268	4227
917.38	4215
917.491	4253
917.603	4314
917.715	4478
917.826	4455
917.938	4390
918.049	4230
918.161	4352
918.272	4565
918.384	4561
918.495	4459
918.606	4284
918.717	4242
918.828	4360
918.939	4363
919.05	4272
919.161	4329
919.272	4090
919.383	4219
919.494	4447
919.604	4607
919.715	4417
919.826	4325
919.936	4417
920.047	4500
920.157	4516
920.267	4668
920.378	4584
920.488	4489
920.598	4725
920.708	4896
920.818	4801
920.928	4767
921.038	4915
921.148	4873
921.258	4611
921.368	4596
921.477	4508
921.587	4485
921.697	4363
921.806	4558
921.916	4432
922.025	4272
922.134	4257
922.244	4230
922.353	4356
922.462	4181
922.571	4116
922.68	4010
922.789	3987
922.898	4029
923.007	4006
923.116	4101
923.224	4051
923.333	4074
923.442	3949
923.55	3960
923.659	4055
923.767	4093
923.876	3964
923.984	4086
924.092	3953
924.201	4040
924.309	4116
924.417	4059
924.525	4059
924.633	4105
924.741	4850
924.849	3926
924.956	4135
925.064	3960
925.172	3896
925.279	3945
925.387	3998
925.494	4040
925.602	4181
925.709	4162
925.816	4021
925.924	4074
926.031	4181
926.138	4177
926.245	4234
926.352	4128
926.459	4249
926.566	4318
926.673	4139
926.779	4116
926.886	4097
926.993	3945
927.099	3937
927.206	3922
927.312	3934
927.419	4086
927.525	4032
927.631	4071
927.737	3926
927.843	3941
927.95	3835
928.056	3941
928.162	4002
928.267	4063
928.373	4603
928.479	4101
928.585	3869
928.69	4032
928.796	4048
928.901	3972
929.007	3876
929.112	3949
929.218	3972
929.323	3956
929.428	3911
929.533	4074
929.638	3945
929.743	3949
929.848	3983
929.953	3998
930.058	3979
930.163	3819
930.267	3835
930.372	3968
930.477	3797
930.581	4112
930.685	3945
930.79	3827
930.894	3911
930.998	3827
931.103	4040
931.207	3701
931.311	3679
931.415	3648
931.519	3515
931.623	3614
