Data from test_V78500241_2397.txt Node
Date: Fri Mar 25 17:05:40 CST 2022
User: usil
Spectrometer: V785-0024
Trigger mode: 0
Integration Time (sec): 4.000000E-1
Scans to average: 1
Nonlinearity correction enabled: false
Boxcar width: 0
Storing dark spectrum: false
XAxis mode: Wavelengths
Number of Pixels in Spectrum: 1024
>>>>>Begin Spectral Data<<<<<
801.071	8016
801.214	7974
801.356	7845
801.499	7925
801.641	7822
801.783	7849
801.926	7902
802.068	7955
802.211	8024
802.353	8012
802.496	7868
802.638	7875
802.78	7890
802.923	7970
803.065	7898
803.208	7894
803.35	8027
803.492	8145
803.635	8199
803.777	8020
803.919	8195
804.061	8484
804.204	8218
804.346	8157
804.488	8054
804.63	8130
804.773	7993
804.915	8123
805.057	8339
805.199	8199
805.341	8332
805.483	8290
805.626	8279
805.768	8161
805.91	8210
806.052	8256
806.194	8092
806.336	8366
806.478	8043
806.62	8058
806.762	8107
806.904	8199
807.046	8400
807.188	8446
807.33	8317
807.472	8358
807.614	8145
807.756	8202
807.898	8046
808.04	7906
808.182	7921
808.324	7849
808.465	8001
808.607	8069
808.749	8119
808.891	8187
809.033	8237
809.174	8202
809.316	8092
809.458	8008
809.6	8016
809.741	8043
809.883	8020
810.025	8172
810.166	8054
810.308	8031
810.45	8016
810.591	7849
810.733	7753
810.875	7696
811.016	7563
811.158	7499
811.299	7525
811.441	7700
811.582	7639
811.724	7552
811.865	7567
812.007	7586
812.148	7616
812.29	7655
812.431	7712
812.573	7837
812.714	8020
812.855	8138
812.997	8248
813.138	8263
813.279	8145
813.421	8054
813.562	7959
813.703	7898
813.845	7868
813.986	7403
814.127	7301
814.268	7240
814.41	7217
814.551	7103
814.692	7247
814.833	7118
814.974	7194
815.115	7118
815.256	6966
815.397	6901
815.539	6894
815.68	6818
815.821	6741
815.962	6859
816.103	6844
816.244	6753
816.385	6650
816.526	6646
816.666	6517
816.807	6319
816.948	6502
817.089	6506
817.23	6426
817.371	6422
817.512	6388
817.653	6403
817.793	6376
817.934	6353
818.075	6506
818.216	6441
818.356	6399
818.497	6308
818.638	6091
818.778	6125
818.919	6121
819.06	6178
819.2	6311
819.341	6365
819.481	6414
819.622	6547
819.762	6719
819.903	6787
820.043	6582
820.184	6597
820.324	6528
820.465	6707
820.605	6688
820.746	6677
820.886	6604
821.026	6658
821.167	6753
821.307	6821
821.447	6772
821.588	6688
821.728	6585
821.868	6536
822.008	6350
822.149	6376
822.289	6323
822.429	6182
822.569	6133
822.709	6186
822.849	5950
822.99	5942
823.13	5973
823.27	5961
823.41	5802
823.55	5771
823.69	5802
823.83	5828
823.97	5676
824.11	5562
824.25	5543
824.389	5558
824.529	5577
824.669	5524
824.809	5634
824.949	5668
825.089	5600
825.228	5551
825.368	5436
825.508	5368
825.648	5368
825.787	5383
825.927	5436
826.067	5288
826.206	5258
826.346	5395
826.485	5364
826.625	5410
826.765	5585
826.904	5471
827.044	5345
827.183	5216
827.323	5140
827.462	5216
827.601	5159
827.741	5216
827.88	5178
828.02	5090
828.159	5231
828.298	5307
828.437	5357
828.577	5299
828.716	5520
828.855	5311
828.994	5204
829.134	5178
829.273	5140
829.412	5159
829.551	5143
829.69	5162
829.829	5296
829.968	5368
830.107	5315
830.246	5273
830.385	5197
830.524	5113
830.663	5071
830.802	5006
830.941	4919
831.08	4835
831.219	4976
831.357	4984
831.496	5155
831.635	4976
831.774	4862
831.913	4885
832.051	4759
832.19	4748
832.329	4854
832.467	4725
832.606	4630
832.744	4672
832.883	4755
833.022	4721
833.16	4725
833.299	4774
833.437	4786
833.576	4862
833.714	4839
833.852	4839
833.991	4946
834.129	4942
834.267	4915
834.406	4911
834.544	4999
834.682	5037
834.821	4942
834.959	5151
835.097	4999
835.235	5151
835.373	5105
835.511	5124
835.65	5045
835.788	5052
835.926	4911
836.064	4885
836.202	4904
836.34	5162
836.478	5216
836.615	5181
836.753	5185
836.891	5341
837.029	5250
837.167	5174
837.305	5212
837.443	5170
837.58	5067
837.718	5204
837.856	5155
837.993	5132
838.131	5242
838.269	5189
838.406	5231
838.544	5189
838.681	5029
838.819	5060
838.956	4938
839.094	4870
839.231	4984
839.369	5045
839.506	5398
839.643	5258
839.781	5064
839.918	5018
840.055	5124
840.193	5109
840.33	5147
840.467	5124
840.604	5193
840.742	5467
840.879	5102
841.016	5090
841.153	5174
841.29	5372
841.427	5349
841.564	5292
841.701	5391
841.838	5277
841.975	5288
842.112	5299
842.249	5128
842.385	5166
842.522	5334
842.659	5189
842.796	5132
842.933	5178
843.069	5117
843.206	5193
843.343	5254
843.479	5254
843.616	5239
843.752	5041
843.889	5003
844.025	5239
844.162	5003
844.298	5277
844.435	5098
844.571	5010
844.708	5189
844.844	5303
844.98	5406
845.117	5318
845.253	5117
845.389	5159
845.525	5117
845.661	5159
845.798	5045
845.934	5132
846.07	5045
846.206	5185
846.342	5284
846.478	5174
846.614	5045
846.75	4976
846.886	4927
847.022	5181
847.158	5022
847.294	5006
847.429	5071
847.565	5113
847.701	5318
847.837	4850
847.972	4767
848.108	4953
848.244	4930
848.379	4835
848.515	4759
848.65	4698
848.786	4744
848.921	4729
849.057	4820
849.192	4911
849.328	4820
849.463	4889
849.598	4812
849.734	4744
849.869	4733
850.004	4596
850.14	4668
850.275	4630
850.41	4527
850.545	4542
850.68	4584
850.815	4599
850.95	4637
851.085	4866
851.22	4736
851.355	4653
851.49	4622
851.625	4607
851.76	4630
851.895	4554
852.03	4504
852.165	4683
852.299	4710
852.434	4831
852.569	4809
852.703	4771
852.838	4835
852.973	4889
853.107	4957
853.242	4736
853.376	4683
853.511	4558
853.645	4645
853.78	4843
853.914	4694
854.048	4660
854.183	4660
854.317	4637
854.451	4843
854.585	4687
854.72	4615
854.854	4759
854.988	4611
855.122	4611
855.256	4523
855.39	4634
855.524	4797
855.658	4702
855.792	4706
855.926	4710
856.06	4748
856.194	4816
856.327	4694
856.461	4618
856.595	4611
856.729	4664
856.862	4793
856.996	4675
857.13	4740
857.263	4755
857.397	4816
857.53	4626
857.664	4664
857.797	4774
857.931	4782
858.064	4649
858.197	4740
858.331	4645
858.464	4653
858.597	4512
858.731	4653
858.864	4653
858.997	4618
859.13	4668
859.263	4683
859.396	4714
859.529	4565
859.662	4588
859.795	4447
859.928	4630
860.061	4771
860.194	4752
860.327	4634
860.46	4565
860.592	4755
860.725	4653
860.858	4744
860.99	4611
861.123	4474
861.256	4527
861.388	4630
861.521	5341
861.653	4497
861.786	4459
861.918	4451
862.05	4512
862.183	4546
862.315	4637
862.447	4672
862.58	4596
862.712	4413
862.844	4310
862.976	4493
863.108	4466
863.24	4774
863.372	4390
863.504	4424
863.636	4394
863.768	4459
863.9	4459
864.032	4371
864.164	4394
864.296	4470
864.428	4546
864.559	4573
864.691	4558
864.823	4504
864.954	4512
865.086	4504
865.217	4455
865.349	4375
865.48	4516
865.612	4546
865.743	4592
865.875	4497
866.006	4398
866.137	4424
866.269	4451
866.4	4440
866.531	4421
866.662	4386
866.793	4386
866.924	4428
867.055	4504
867.186	4462
867.317	4417
867.448	4386
867.579	4363
867.71	4405
867.841	4318
867.972	4436
868.103	4409
868.233	4451
868.364	4447
868.495	4481
868.625	4675
868.756	4816
868.886	4561
869.017	4607
869.147	4736
869.278	4782
869.408	4656
869.539	4649
869.669	4706
869.799	4645
869.929	4755
870.06	4694
870.19	4930
870.32	4915
870.45	4938
870.58	4984
870.71	5109
870.84	5067
870.97	4862
871.1	4877
871.23	5136
871.36	5124
871.489	5033
871.619	5090
871.749	5075
871.879	5109
872.008	5220
872.138	5041
872.267	4968
872.397	4835
872.526	4824
872.656	4752
872.785	4828
872.915	4949
873.044	5029
873.173	4984
873.303	4965
873.432	4953
873.561	4946
873.69	4908
873.819	4885
873.948	4942
874.077	4828
874.206	4714
874.335	4824
874.464	4949
874.593	5060
874.722	4927
874.851	5121
874.979	5075
875.108	5033
875.237	4885
875.365	4870
875.494	4896
875.623	4968
875.751	4866
875.88	4854
876.008	4987
876.136	5018
876.265	5197
876.393	5326
876.521	5269
876.65	5170
876.778	5170
876.906	5079
877.034	5029
877.162	4984
877.29	4999
877.418	5045
877.546	5048
877.674	5018
877.802	5102
877.93	4942
878.058	4934
878.185	4908
878.313	4923
878.441	4953
878.568	4839
878.696	4862
878.824	4953
878.951	5025
879.079	5079
879.206	5307
879.333	5109
879.461	4995
879.588	4923
879.715	5109
879.842	5254
879.97	5010
880.097	4816
880.224	4771
880.351	4828
880.478	4843
880.605	4782
880.732	4809
880.859	5052
880.986	4847
881.112	4934
881.239	4763
881.366	4641
881.493	4577
881.619	4622
881.746	4634
881.872	4630
881.999	4626
882.125	4683
882.252	4759
882.378	4835
882.505	4984
882.631	4809
882.757	4714
882.883	4694
883.01	4710
883.136	4653
883.262	4577
883.388	4611
883.514	4797
883.64	4892
883.766	4786
883.892	4653
884.018	4687
884.143	4911
884.269	4968
884.395	4660
884.52	4588
884.646	4679
884.772	4603
884.897	4626
885.023	4630
885.148	4771
885.274	4858
885.399	4828
885.524	4694
885.65	4637
885.775	4710
885.9	4698
886.025	4828
886.15	4797
886.275	4698
886.4	4637
886.525	4714
886.65	4672
886.775	4675
886.9	4892
887.025	5045
887.149	4835
887.274	4664
887.399	4580
887.523	4599
887.648	4561
887.773	4580
887.897	4748
888.021	4805
888.146	4687
888.27	4767
888.395	4915
888.519	4782
888.643	4782
888.767	4816
888.891	4694
889.015	4637
889.139	4649
889.263	4618
889.387	4767
889.511	4870
889.635	4786
889.759	4599
889.883	4618
890.006	4683
890.13	4828
890.254	4592
890.377	4691
890.501	4554
890.624	4504
890.748	4618
890.871	4493
890.995	4424
891.118	4348
891.241	4516
891.364	4519
891.488	4618
891.611	4466
891.734	4569
891.857	4554
891.98	4565
892.103	4679
892.226	4542
892.349	4546
892.471	4462
892.594	4504
892.717	4573
892.839	4577
892.962	4615
893.085	4675
893.207	4596
893.33	4474
893.452	4527
893.575	4649
893.697	4569
893.819	4793
893.941	4877
894.064	4759
894.186	4561
894.308	4584
894.43	4710
894.552	4755
894.674	4759
894.796	4558
894.918	4611
895.04	4565
895.161	4687
895.283	4664
895.405	4588
895.526	4649
895.648	4679
895.769	4702
895.891	4729
896.012	4733
896.134	4733
896.255	4660
896.376	4664
896.498	4588
896.619	4694
896.74	4588
896.861	4653
896.982	4889
897.103	5060
897.224	4805
897.345	4759
897.466	4664
897.587	4729
897.708	4862
897.828	4740
897.949	4615
898.07	4615
898.19	4641
898.311	4854
898.431	4660
898.552	4675
898.672	4793
898.792	4835
898.913	4736
899.033	4618
899.153	4497
899.273	4428
899.393	4500
899.513	4512
899.633	4535
899.753	4519
899.873	4493
899.993	4577
900.113	4512
900.232	4577
900.352	4512
900.472	4466
900.591	4390
900.711	4500
900.83	4440
900.95	4660
901.069	4630
901.189	4577
901.308	4398
901.427	4356
901.546	4371
901.665	4455
901.784	4531
901.904	4360
902.023	4390
902.141	4147
902.26	4143
902.379	4322
902.498	4268
902.617	4211
902.735	4405
902.854	4363
902.973	4329
903.091	4188
903.21	4192
903.328	4306
903.446	4246
903.565	4204
903.683	4383
903.801	4261
903.919	4417
904.038	4432
904.156	4299
904.274	4432
904.392	4405
904.51	4409
904.627	4470
904.745	4523
904.863	4599
904.981	4367
905.098	4280
905.216	4356
905.334	4390
905.451	4443
905.569	4474
905.686	4558
905.803	4554
905.921	4424
906.038	4546
906.155	4485
906.272	4371
906.389	4470
906.506	4352
906.623	4379
906.74	4383
906.857	4291
906.974	4367
907.091	4561
907.208	4702
907.324	4588
907.441	4436
907.557	4322
907.674	4344
907.79	4341
907.907	4386
908.023	4474
908.139	4462
908.256	4413
908.372	4424
908.488	4455
908.604	4356
908.72	4325
908.836	4363
908.952	4390
909.068	4402
909.184	4565
909.3	4440
909.415	4573
909.531	4558
909.647	4352
909.762	4375
909.878	4341
909.993	4451
910.108	4383
910.224	4375
910.339	4451
910.454	4417
910.57	4360
910.685	4284
910.8	4664
910.915	4611
911.03	4550
911.145	4310
911.259	4344
911.374	4360
911.489	4268
911.604	4280
911.718	4181
911.833	4196
911.947	4048
912.062	4040
912.176	4150
912.291	4227
912.405	4223
912.519	4474
912.633	4474
912.748	4322
912.862	4318
912.976	4188
913.09	4120
913.204	4177
913.318	4265
913.431	4383
913.545	4375
913.659	4478
913.772	4352
913.886	4215
914	4276
914.113	4402
914.226	4402
914.34	4337
914.453	4230
914.566	4440
914.68	4318
914.793	4303
914.906	4154
915.019	4131
915.132	4071
915.245	4196
915.358	4249
915.47	4230
915.583	4238
915.696	4280
915.809	4432
915.921	4386
916.034	4196
916.146	4246
916.259	4246
916.371	4367
916.483	4352
916.595	4253
916.708	4310
916.82	4329
916.932	4314
917.044	4337
917.156	4348
917.268	4234
917.38	4257
917.491	4276
917.603	4322
917.715	4424
917.826	4424
917.938	4352
918.049	4215
918.161	4432
918.272	4508
918.384	4538
918.495	4466
918.606	4325
918.717	4215
918.828	4306
918.939	4379
919.05	4249
919.161	4299
919.272	4139
919.383	4242
919.494	4481
919.604	4634
919.715	4462
919.826	4333
919.936	4424
920.047	4550
920.157	4478
920.267	4683
920.378	4535
920.488	4493
920.598	4801
920.708	4968
920.818	4782
920.928	4733
921.038	4987
921.148	4862
921.258	4641
921.368	4546
921.477	4538
921.587	4493
921.697	4390
921.806	4535
921.916	4466
922.025	4295
922.134	4314
922.244	4223
922.353	4367
922.462	4177
922.571	4166
922.68	4017
922.789	3983
922.898	4071
923.007	4002
923.116	4143
923.224	4101
923.333	4116
923.442	4048
923.55	4006
923.659	4044
923.767	4128
923.876	4063
923.984	4154
924.092	4010
924.201	4177
924.309	4139
924.417	4147
924.525	4105
924.633	4128
924.741	5105
924.849	3972
924.956	4169
925.064	4021
925.172	3911
925.279	4021
925.387	4093
925.494	4078
925.602	4261
925.709	4230
925.816	4097
925.924	4131
926.031	4230
926.138	4204
926.245	4257
926.352	4097
926.459	4272
926.566	4356
926.673	4185
926.779	4112
926.886	4158
926.993	4017
927.099	3998
927.206	3979
927.312	3987
927.419	4051
927.525	4082
927.631	4135
927.737	4006
927.843	3956
927.95	3907
928.056	3983
928.162	4013
928.267	4090
928.373	4805
928.479	4204
928.585	3899
928.69	4086
928.796	4120
928.901	4006
929.007	3918
929.112	4071
929.218	4002
929.323	3998
929.428	3937
929.533	4162
929.638	3953
929.743	4010
929.848	4063
929.953	4017
930.058	3934
930.163	3819
930.267	3838
930.372	4051
930.477	3888
930.581	4173
930.685	3998
930.79	3911
930.894	3960
930.998	3899
931.103	4086
931.207	3762
931.311	3694
931.415	3724
931.519	3553
931.623	3587
