Data from test_V78500241_1509.txt Node
Date: Fri Mar 25 16:59:29 CST 2022
User: usil
Spectrometer: V785-0024
Trigger mode: 0
Integration Time (sec): 4.000000E-1
Scans to average: 1
Nonlinearity correction enabled: false
Boxcar width: 0
Storing dark spectrum: false
XAxis mode: Wavelengths
Number of Pixels in Spectrum: 1024
>>>>>Begin Spectral Data<<<<<
801.071	7921
801.214	7955
801.356	7868
801.499	7837
801.641	7738
801.783	7795
801.926	7940
802.068	7944
802.211	7936
802.353	7989
802.496	7772
802.638	7849
802.78	7913
802.923	7928
803.065	7852
803.208	7830
803.35	7989
803.492	8031
803.635	8134
803.777	7932
803.919	8054
804.061	8381
804.204	8142
804.346	8039
804.488	7944
804.63	8054
804.773	7997
804.915	8016
805.057	8294
805.199	8149
805.341	8164
805.483	8191
805.626	8134
805.768	8088
805.91	8183
806.052	8271
806.194	8145
806.336	8240
806.478	8062
806.62	8058
806.762	8123
806.904	8237
807.046	8347
807.188	8298
807.33	8275
807.472	8332
807.614	8092
807.756	8138
807.898	7955
808.04	7830
808.182	7883
808.324	7890
808.465	7902
808.607	8024
808.749	8077
808.891	8214
809.033	8286
809.174	8172
809.316	8027
809.458	7997
809.6	7928
809.741	8024
809.883	7993
810.025	8077
810.166	8069
810.308	8024
810.45	8012
810.591	7750
810.733	7674
810.875	7620
811.016	7487
811.158	7434
811.299	7590
811.441	7677
811.582	7723
811.724	7559
811.865	7460
812.007	7453
812.148	7521
812.29	7556
812.431	7704
812.573	7860
812.714	7887
812.855	8134
812.997	8142
813.138	8328
813.279	8130
813.421	8096
813.562	7860
813.703	7807
813.845	7712
813.986	7354
814.127	7209
814.268	7251
814.41	7168
814.551	7114
814.692	7175
814.833	7095
814.974	7137
815.115	7065
815.256	6951
815.397	6943
815.539	6958
815.68	6783
815.821	6802
815.962	6802
816.103	6753
816.244	6635
816.385	6593
816.526	6608
816.666	6490
816.807	6281
816.948	6441
817.089	6479
817.23	6445
817.371	6422
817.512	6357
817.653	6410
817.793	6350
817.934	6410
818.075	6479
818.216	6460
818.356	6426
818.497	6289
818.638	6125
818.778	6197
818.919	6133
819.06	6163
819.2	6346
819.341	6391
819.481	6441
819.622	6506
819.762	6734
819.903	6760
820.043	6650
820.184	6627
820.324	6620
820.465	6798
820.605	6692
820.746	6673
820.886	6502
821.026	6654
821.167	6741
821.307	6772
821.447	6859
821.588	6749
821.728	6574
821.868	6517
822.008	6380
822.149	6319
822.289	6342
822.429	6209
822.569	6106
822.709	6194
822.849	5939
822.99	5885
823.13	5950
823.27	5969
823.41	5824
823.55	5824
823.69	5733
823.83	5809
823.97	5688
824.11	5551
824.25	5524
824.389	5615
824.529	5547
824.669	5592
824.809	5672
824.949	5611
825.089	5638
825.228	5604
825.368	5395
825.508	5379
825.648	5391
825.787	5391
825.927	5372
826.067	5307
826.206	5322
826.346	5452
826.485	5421
826.625	5417
826.765	5551
826.904	5509
827.044	5318
827.183	5223
827.323	5216
827.462	5250
827.601	5254
827.741	5197
827.88	5242
828.02	5124
828.159	5235
828.298	5357
828.437	5360
828.577	5307
828.716	5505
828.855	5402
828.994	5181
829.134	5151
829.273	5178
829.412	5223
829.551	5178
829.69	5174
829.829	5258
829.968	5353
830.107	5307
830.246	5372
830.385	5204
830.524	5121
830.663	5071
830.802	4999
830.941	4911
831.08	4900
831.219	5003
831.357	4984
831.496	5208
831.635	5010
831.774	4870
831.913	4904
832.051	4752
832.19	4725
832.329	4839
832.467	4748
832.606	4675
832.744	4767
832.883	4748
833.022	4725
833.16	4820
833.299	4820
833.437	4782
833.576	4831
833.714	4873
833.852	4873
833.991	4930
834.129	5022
834.267	4991
834.406	4885
834.544	4972
834.682	4987
834.821	4980
834.959	5155
835.097	5048
835.235	5159
835.373	5098
835.511	5151
835.65	5060
835.788	5025
835.926	4892
836.064	4908
836.202	4949
836.34	5102
836.478	5277
836.615	5143
836.753	5208
836.891	5353
837.029	5299
837.167	5204
837.305	5166
837.443	5143
837.58	5041
837.718	5277
837.856	5246
837.993	5178
838.131	5292
838.269	5220
838.406	5212
838.544	5223
838.681	5037
838.819	5025
838.956	4927
839.094	4980
839.231	5033
839.369	5086
839.506	5448
839.643	5288
839.781	5083
839.918	5048
840.055	5136
840.193	5079
840.33	5136
840.467	5147
840.604	5231
840.742	5440
840.879	5098
841.016	5064
841.153	5162
841.29	5383
841.427	5379
841.564	5345
841.701	5307
841.838	5345
841.975	5235
842.112	5322
842.249	5178
842.385	5102
842.522	5288
842.659	5193
842.796	5193
842.933	5220
843.069	5136
843.206	5170
843.343	5303
843.479	5242
843.616	5334
843.752	5079
843.889	5025
844.025	5254
844.162	5094
844.298	5246
844.435	5178
844.571	5098
844.708	5181
844.844	5273
844.98	5337
845.117	5311
845.253	5220
845.389	5109
845.525	5227
845.661	5178
845.798	5033
845.934	5162
846.07	5121
846.206	5208
846.342	5292
846.478	5201
846.614	5025
846.75	4984
846.886	4919
847.022	5117
847.158	5079
847.294	5041
847.429	5102
847.565	5045
847.701	5383
847.837	4873
847.972	4850
848.108	5033
848.244	4949
848.379	4774
848.515	4774
848.65	4752
848.786	4763
848.921	4790
849.057	4896
849.192	4919
849.328	4850
849.463	4843
849.598	4816
849.734	4797
849.869	4698
850.004	4668
850.14	4714
850.275	4599
850.41	4592
850.545	4596
850.68	4660
850.815	4649
850.95	4641
851.085	4820
851.22	4763
851.355	4641
851.49	4596
851.625	4653
851.76	4641
851.895	4554
852.03	4565
852.165	4656
852.299	4721
852.434	4793
852.569	4816
852.703	4748
852.838	4877
852.973	4938
853.107	4949
853.242	4771
853.376	4694
853.511	4611
853.645	4618
853.78	4835
853.914	4752
854.048	4698
854.183	4645
854.317	4706
854.451	4843
854.585	4698
854.72	4664
854.854	4805
854.988	4599
855.122	4675
855.256	4550
855.39	4694
855.524	4793
855.658	4710
855.792	4755
855.926	4744
856.06	4812
856.194	4816
856.327	4694
856.461	4599
856.595	4645
856.729	4649
856.862	4752
856.996	4725
857.13	4721
857.263	4805
857.397	4797
857.53	4698
857.664	4744
857.797	4767
857.931	4767
858.064	4672
858.197	4771
858.331	4672
858.464	4607
858.597	4588
858.731	4561
858.864	4634
858.997	4569
859.13	4683
859.263	4706
859.396	4668
859.529	4630
859.662	4580
859.795	4535
859.928	4653
860.061	4820
860.194	4755
860.327	4596
860.46	4584
860.592	4755
860.725	4740
860.858	4710
860.99	4565
861.123	4569
861.256	4531
861.388	4596
861.521	5326
861.653	4459
861.786	4447
861.918	4523
862.05	4519
862.183	4565
862.315	4630
862.447	4649
862.58	4596
862.712	4383
862.844	4329
862.976	4508
863.108	4470
863.24	4763
863.372	4360
863.504	4451
863.636	4440
863.768	4478
863.9	4459
864.032	4409
864.164	4424
864.296	4481
864.428	4527
864.559	4611
864.691	4497
864.823	4519
864.954	4497
865.086	4535
865.217	4436
865.349	4348
865.48	4455
865.612	4485
865.743	4626
865.875	4443
866.006	4443
866.137	4481
866.269	4447
866.4	4447
866.531	4432
866.662	4451
866.793	4405
866.924	4451
867.055	4504
867.186	4516
867.317	4436
867.448	4428
867.579	4440
867.71	4405
867.841	4417
867.972	4478
868.103	4451
868.233	4470
868.364	4459
868.495	4500
868.625	4691
868.756	4733
868.886	4554
869.017	4577
869.147	4831
869.278	4774
869.408	4698
869.539	4641
869.669	4710
869.799	4717
869.929	4763
870.06	4729
870.19	4999
870.32	4953
870.45	4999
870.58	5048
870.71	5056
870.84	5109
870.97	4927
871.1	4885
871.23	5162
871.36	5140
871.489	5018
871.619	5105
871.749	5094
871.879	5143
872.008	5189
872.138	5090
872.267	4984
872.397	4877
872.526	4801
872.656	4767
872.785	4801
872.915	4934
873.044	5022
873.173	4938
873.303	4984
873.432	4968
873.561	4976
873.69	4934
873.819	4847
873.948	4927
874.077	4831
874.206	4771
874.335	4786
874.464	4984
874.593	5064
874.722	4938
874.851	5151
874.979	5075
875.108	4999
875.237	4892
875.365	4915
875.494	4889
875.623	4961
875.751	4854
875.88	4911
876.008	4946
876.136	5060
876.265	5227
876.393	5349
876.521	5231
876.65	5242
876.778	5227
876.906	5064
877.034	5060
877.162	5048
877.29	4991
877.418	5029
877.546	5033
877.674	5067
877.802	4976
877.93	5086
878.058	4946
878.185	4862
878.313	4900
878.441	4957
878.568	4778
878.696	4839
878.824	4987
878.951	5025
879.079	5086
879.206	5250
879.333	5136
879.461	4995
879.588	4972
879.715	5094
879.842	5197
879.97	4999
880.097	4763
880.224	4774
880.351	4812
880.478	4801
880.605	4816
880.732	4752
880.859	5079
880.986	4892
881.112	4976
881.239	4828
881.366	4615
881.493	4630
881.619	4596
881.746	4645
881.872	4641
881.999	4649
882.125	4698
882.252	4778
882.378	4854
882.505	4987
882.631	4854
882.757	4637
882.883	4740
883.01	4744
883.136	4694
883.262	4603
883.388	4615
883.514	4782
883.64	4904
883.766	4778
883.892	4710
884.018	4706
884.143	4858
884.269	5010
884.395	4694
884.52	4637
884.646	4660
884.772	4630
884.897	4542
885.023	4626
885.148	4812
885.274	4877
885.399	4839
885.524	4778
885.65	4710
885.775	4740
885.9	4679
886.025	4904
886.15	4786
886.275	4733
886.4	4664
886.525	4740
886.65	4668
886.775	4679
886.9	4919
887.025	5041
887.149	4793
887.274	4645
887.399	4637
887.523	4634
887.648	4531
887.773	4596
887.897	4774
888.021	4797
888.146	4679
888.27	4801
888.395	4870
888.519	4793
888.643	4881
888.767	4866
888.891	4698
889.015	4592
889.139	4653
889.263	4634
889.387	4759
889.511	4915
889.635	4782
889.759	4622
889.883	4649
890.006	4755
890.13	4790
890.254	4630
890.377	4694
890.501	4565
890.624	4531
890.748	4626
890.871	4516
890.995	4443
891.118	4443
891.241	4531
891.364	4516
891.488	4660
891.611	4512
891.734	4554
891.857	4653
891.98	4577
892.103	4649
892.226	4569
892.349	4527
892.471	4424
892.594	4592
892.717	4592
892.839	4588
892.962	4569
893.085	4637
893.207	4622
893.33	4485
893.452	4504
893.575	4672
893.697	4558
893.819	4812
893.941	4873
894.064	4736
894.186	4634
894.308	4622
894.43	4740
894.552	4816
894.674	4797
894.796	4573
894.918	4599
895.04	4569
895.161	4748
895.283	4649
895.405	4634
895.526	4626
895.648	4660
895.769	4679
895.891	4771
896.012	4759
896.134	4736
896.255	4645
896.376	4615
896.498	4672
896.619	4653
896.74	4592
896.861	4653
896.982	4900
897.103	5067
897.224	4835
897.345	4759
897.466	4691
897.587	4740
897.708	4862
897.828	4782
897.949	4668
898.07	4596
898.19	4660
898.311	4793
898.431	4717
898.552	4748
898.672	4847
898.792	4759
898.913	4771
899.033	4607
899.153	4493
899.273	4394
899.393	4519
899.513	4508
899.633	4519
899.753	4580
899.873	4519
899.993	4626
900.113	4558
900.232	4615
900.352	4527
900.472	4462
900.591	4390
900.711	4493
900.83	4402
900.95	4569
901.069	4683
901.189	4550
901.308	4333
901.427	4329
901.546	4371
901.665	4485
901.784	4512
901.904	4424
902.023	4310
902.141	4204
902.26	4207
902.379	4291
902.498	4268
902.617	4223
902.735	4405
902.854	4417
902.973	4371
903.091	4207
903.21	4242
903.328	4284
903.446	4249
903.565	4261
903.683	4318
903.801	4272
903.919	4398
904.038	4455
904.156	4303
904.274	4421
904.392	4386
904.51	4386
904.627	4451
904.745	4584
904.863	4653
904.981	4436
905.098	4310
905.216	4375
905.334	4405
905.451	4489
905.569	4417
905.686	4569
905.803	4569
905.921	4455
906.038	4531
906.155	4497
906.272	4390
906.389	4432
906.506	4405
906.623	4360
906.74	4428
906.857	4344
906.974	4398
907.091	4580
907.208	4649
907.324	4603
907.441	4481
907.557	4325
907.674	4322
907.79	4344
907.907	4398
908.023	4451
908.139	4462
908.256	4421
908.372	4466
908.488	4485
908.604	4356
908.72	4318
908.836	4375
908.952	4352
909.068	4398
909.184	4615
909.3	4459
909.415	4527
909.531	4527
909.647	4363
909.762	4405
909.878	4386
909.993	4413
910.108	4402
910.224	4379
910.339	4470
910.454	4394
910.57	4344
910.685	4280
910.8	4634
910.915	4611
911.03	4474
911.145	4314
911.259	4341
911.374	4367
911.489	4246
911.604	4257
911.718	4173
911.833	4192
911.947	4090
912.062	4006
912.176	4227
912.291	4234
912.405	4280
912.519	4451
912.633	4527
912.748	4390
912.862	4310
912.976	4200
913.09	4097
913.204	4204
913.318	4249
913.431	4356
913.545	4352
913.659	4470
913.772	4360
913.886	4230
914	4196
914.113	4398
914.226	4440
914.34	4417
914.453	4234
914.566	4443
914.68	4333
914.793	4318
914.906	4143
915.019	4158
915.132	4082
915.245	4200
915.358	4215
915.47	4246
915.583	4265
915.696	4322
915.809	4398
915.921	4424
916.034	4276
916.146	4242
916.259	4169
916.371	4386
916.483	4371
916.595	4268
916.708	4261
916.82	4329
916.932	4333
917.044	4303
917.156	4356
917.268	4227
917.38	4284
917.491	4284
917.603	4329
917.715	4451
917.826	4436
917.938	4367
918.049	4246
918.161	4455
918.272	4546
918.384	4588
918.495	4417
918.606	4261
918.717	4246
918.828	4329
918.939	4371
919.05	4249
919.161	4325
919.272	4154
919.383	4230
919.494	4443
919.604	4611
919.715	4417
919.826	4363
919.936	4398
920.047	4519
920.157	4432
920.267	4664
920.378	4546
920.488	4512
920.598	4748
920.708	4892
920.818	4729
920.928	4805
921.038	4961
921.148	4965
921.258	4637
921.368	4554
921.477	4504
921.587	4462
921.697	4348
921.806	4569
921.916	4398
922.025	4261
922.134	4284
922.244	4177
922.353	4363
922.462	4211
922.571	4128
922.68	3987
922.789	3987
922.898	4032
923.007	3979
923.116	4116
923.224	4036
923.333	4025
923.442	3994
923.55	4002
923.659	4017
923.767	4124
923.876	4002
923.984	4158
924.092	3972
924.201	4063
924.309	4109
924.417	4109
924.525	4040
924.633	4120
924.741	4850
924.849	3926
924.956	4150
925.064	3964
925.172	3892
925.279	3979
925.387	4044
925.494	4040
925.602	4249
925.709	4162
925.816	4040
925.924	4090
926.031	4192
926.138	4219
926.245	4192
926.352	4086
926.459	4223
926.566	4341
926.673	4139
926.779	4078
926.886	4086
926.993	3964
927.099	3941
927.206	3896
927.312	3915
927.419	4055
927.525	4036
927.631	4071
927.737	3968
927.843	3991
927.95	3835
928.056	3994
928.162	3979
928.267	4036
928.373	4607
928.479	4105
928.585	3896
928.69	4013
928.796	4116
928.901	3987
929.007	3869
929.112	3987
929.218	3983
929.323	3949
929.428	3945
929.533	4147
929.638	3934
929.743	3934
929.848	4055
929.953	4002
930.058	3930
930.163	3774
930.267	3827
930.372	3975
930.477	3808
930.581	4078
930.685	3915
930.79	3846
930.894	3869
930.998	3865
931.103	4036
931.207	3709
931.311	3698
931.415	3656
931.519	3530
931.623	3526
