Data from test_V78500241_735.txt Node
Date: Fri Mar 25 16:54:06 CST 2022
User: usil
Spectrometer: V785-0024
Trigger mode: 0
Integration Time (sec): 4.000000E-1
Scans to average: 1
Nonlinearity correction enabled: false
Boxcar width: 0
Storing dark spectrum: false
XAxis mode: Wavelengths
Number of Pixels in Spectrum: 1024
>>>>>Begin Spectral Data<<<<<
801.071	8046
801.214	8012
801.356	7902
801.499	7894
801.641	7890
801.783	7917
801.926	8081
802.068	7925
802.211	8005
802.353	7951
802.496	7887
802.638	7890
802.78	7997
802.923	7932
803.065	7944
803.208	7879
803.35	7997
803.492	8149
803.635	8244
803.777	8069
803.919	8130
804.061	8476
804.204	8130
804.346	8054
804.488	8008
804.63	8115
804.773	8016
804.915	8107
805.057	8313
805.199	8180
805.341	8218
805.483	8263
805.626	8221
805.768	8142
805.91	8195
806.052	8195
806.194	8092
806.336	8309
806.478	8073
806.62	8123
806.762	8195
806.904	8279
807.046	8503
807.188	8389
807.33	8301
807.472	8294
807.614	8279
807.756	8084
807.898	7967
808.04	7906
808.182	7883
808.324	7883
808.465	7978
808.607	8145
808.749	8100
808.891	8187
809.033	8370
809.174	8225
809.316	8054
809.458	8077
809.6	8012
809.741	8088
809.883	8058
810.025	8172
810.166	8126
810.308	8031
810.45	8103
810.591	7909
810.733	7814
810.875	7769
811.016	7480
811.158	7571
811.299	7571
811.441	7772
811.582	7696
811.724	7620
811.865	7472
812.007	7632
812.148	7696
812.29	7655
812.431	7681
812.573	7887
812.714	7986
812.855	8119
812.997	8221
813.138	8347
813.279	8107
813.421	8153
813.562	8069
813.703	7890
813.845	7792
813.986	7472
814.127	7266
814.268	7343
814.41	7255
814.551	7103
814.692	7175
814.833	7046
814.974	7126
815.115	7141
815.256	6962
815.397	6970
815.539	7034
815.68	6920
815.821	6829
815.962	6875
816.103	6760
816.244	6802
816.385	6665
816.526	6627
816.666	6521
816.807	6289
816.948	6410
817.089	6460
817.23	6540
817.371	6410
817.512	6414
817.653	6399
817.793	6380
817.934	6391
818.075	6471
818.216	6452
818.356	6460
818.497	6224
818.638	6175
818.778	6197
818.919	6159
819.06	6163
819.2	6285
819.341	6247
819.481	6369
819.622	6509
819.762	6719
819.903	6684
820.043	6608
820.184	6627
820.324	6589
820.465	6707
820.605	6658
820.746	6639
820.886	6536
821.026	6700
821.167	6722
821.307	6764
821.447	6734
821.588	6715
821.728	6578
821.868	6525
822.008	6323
822.149	6426
822.289	6376
822.429	6171
822.569	6068
822.709	6102
822.849	5950
822.99	5965
823.13	5996
823.27	5969
823.41	5802
823.55	5764
823.69	5764
823.83	5764
823.97	5642
824.11	5592
824.25	5478
824.389	5535
824.529	5577
824.669	5505
824.809	5623
824.949	5649
825.089	5551
825.228	5566
825.368	5383
825.508	5372
825.648	5311
825.787	5368
825.927	5368
826.067	5307
826.206	5254
826.346	5387
826.485	5448
826.625	5421
826.765	5611
826.904	5520
827.044	5265
827.183	5208
827.323	5102
827.462	5239
827.601	5223
827.741	5174
827.88	5189
828.02	5109
828.159	5231
828.298	5277
828.437	5406
828.577	5280
828.716	5467
828.855	5322
828.994	5155
829.134	5155
829.273	5216
829.412	5121
829.551	5109
829.69	5162
829.829	5277
829.968	5334
830.107	5303
830.246	5269
830.385	5193
830.524	5166
830.663	5105
830.802	5018
830.941	4892
831.08	4915
831.219	4946
831.357	5018
831.496	5204
831.635	4957
831.774	4885
831.913	4892
832.051	4736
832.19	4805
832.329	4862
832.467	4702
832.606	4641
832.744	4733
832.883	4706
833.022	4725
833.16	4820
833.299	4847
833.437	4854
833.576	4892
833.714	4854
833.852	4881
833.991	4919
834.129	4999
834.267	4934
834.406	4938
834.544	5022
834.682	4972
834.821	4934
834.959	5185
835.097	4991
835.235	5201
835.373	5102
835.511	5064
835.65	5064
835.788	5045
835.926	4923
836.064	4881
836.202	4885
836.34	5136
836.478	5242
836.615	5098
836.753	5235
836.891	5242
837.029	5292
837.167	5246
837.305	5132
837.443	5189
837.58	5121
837.718	5254
837.856	5269
837.993	5155
838.131	5170
838.269	5212
838.406	5227
838.544	5197
838.681	5090
838.819	5033
838.956	4946
839.094	4930
839.231	4957
839.369	5067
839.506	5444
839.643	5261
839.781	5113
839.918	4999
840.055	5185
840.193	5075
840.33	5056
840.467	5109
840.604	5223
840.742	5478
840.879	5086
841.016	5079
841.153	5204
841.29	5376
841.427	5436
841.564	5364
841.701	5421
841.838	5303
841.975	5265
842.112	5322
842.249	5128
842.385	5170
842.522	5296
842.659	5143
842.796	5147
842.933	5204
843.069	5155
843.206	5174
843.343	5296
843.479	5265
843.616	5273
843.752	5045
843.889	5022
844.025	5273
844.162	5045
844.298	5178
844.435	5094
844.571	5064
844.708	5212
844.844	5292
844.98	5307
845.117	5261
845.253	5193
845.389	5098
845.525	5166
845.661	5132
845.798	5079
845.934	5140
846.07	5064
846.206	5235
846.342	5322
846.478	5246
846.614	5003
846.75	4980
846.886	4999
847.022	5121
847.158	5037
847.294	5056
847.429	5098
847.565	5041
847.701	5357
847.837	4858
847.972	4809
848.108	4987
848.244	4896
848.379	4809
848.515	4717
848.65	4710
848.786	4771
848.921	4771
849.057	4843
849.192	4934
849.328	4881
849.463	4828
849.598	4793
849.734	4752
849.869	4653
850.004	4634
850.14	4637
850.275	4634
850.41	4542
850.545	4577
850.68	4607
850.815	4679
850.95	4653
851.085	4831
851.22	4759
851.355	4599
851.49	4584
851.625	4653
851.76	4668
851.895	4607
852.03	4523
852.165	4660
852.299	4755
852.434	4752
852.569	4778
852.703	4790
852.838	4911
852.973	4923
853.107	4930
853.242	4790
853.376	4698
853.511	4573
853.645	4630
853.78	4733
853.914	4645
854.048	4706
854.183	4679
854.317	4721
854.451	4854
854.585	4675
854.72	4679
854.854	4782
854.988	4603
855.122	4672
855.256	4519
855.39	4694
855.524	4778
855.658	4733
855.792	4679
855.926	4748
856.06	4774
856.194	4816
856.327	4702
856.461	4607
856.595	4592
856.729	4641
856.862	4729
856.996	4675
857.13	4763
857.263	4763
857.397	4778
857.53	4634
857.664	4778
857.797	4767
857.931	4824
858.064	4691
858.197	4748
858.331	4672
858.464	4645
858.597	4554
858.731	4622
858.864	4630
858.997	4584
859.13	4672
859.263	4656
859.396	4748
859.529	4565
859.662	4558
859.795	4573
859.928	4611
860.061	4793
860.194	4797
860.327	4634
860.46	4580
860.592	4706
860.725	4675
860.858	4675
860.99	4603
861.123	4516
861.256	4535
861.388	4615
861.521	5414
861.653	4440
861.786	4447
861.918	4459
862.05	4527
862.183	4588
862.315	4580
862.447	4668
862.58	4561
862.712	4409
862.844	4356
862.976	4478
863.108	4447
863.24	4858
863.372	4299
863.504	4451
863.636	4409
863.768	4440
863.9	4455
864.032	4413
864.164	4417
864.296	4459
864.428	4565
864.559	4607
864.691	4508
864.823	4500
864.954	4516
865.086	4485
865.217	4462
865.349	4383
865.48	4500
865.612	4451
865.743	4637
865.875	4455
866.006	4428
866.137	4523
866.269	4474
866.4	4402
866.531	4402
866.662	4383
866.793	4371
866.924	4405
867.055	4493
867.186	4474
867.317	4383
867.448	4386
867.579	4363
867.71	4421
867.841	4375
867.972	4462
868.103	4474
868.233	4466
868.364	4470
868.495	4436
868.625	4683
868.756	4797
868.886	4577
869.017	4603
869.147	4774
869.278	4714
869.408	4683
869.539	4622
869.669	4744
869.799	4645
869.929	4717
870.06	4729
870.19	4957
870.32	4930
870.45	4934
870.58	4972
870.71	5083
870.84	5090
870.97	4942
871.1	4877
871.23	5132
871.36	5132
871.489	5018
871.619	5029
871.749	5124
871.879	5140
872.008	5201
872.138	5067
872.267	5018
872.397	4839
872.526	4828
872.656	4698
872.785	4828
872.915	4949
873.044	4984
873.173	4957
873.303	4957
873.432	4930
873.561	4946
873.69	4847
873.819	4881
873.948	4908
874.077	4828
874.206	4759
874.335	4812
874.464	4938
874.593	5014
874.722	4991
874.851	5094
874.979	5029
875.108	5022
875.237	4877
875.365	4892
875.494	4873
875.623	4972
875.751	4850
875.88	4896
876.008	5041
876.136	5045
876.265	5166
876.393	5360
876.521	5258
876.65	5235
876.778	5162
876.906	5113
877.034	4972
877.162	5010
877.29	5003
877.418	5056
877.546	5052
877.674	5029
877.802	5014
877.93	5022
878.058	4938
878.185	4877
878.313	4972
878.441	4911
878.568	4774
878.696	4892
878.824	4965
878.951	4927
879.079	5132
879.206	5250
879.333	5113
879.461	4999
879.588	4961
879.715	5109
879.842	5204
879.97	5006
880.097	4759
880.224	4809
880.351	4858
880.478	4839
880.605	4812
880.732	4774
880.859	5113
880.986	4858
881.112	4885
881.239	4782
881.366	4675
881.493	4561
881.619	4550
881.746	4611
881.872	4687
881.999	4656
882.125	4660
882.252	4759
882.378	4847
882.505	4972
882.631	4801
882.757	4706
882.883	4755
883.01	4729
883.136	4672
883.262	4607
883.388	4656
883.514	4847
883.64	4824
883.766	4736
883.892	4630
884.018	4664
884.143	4919
884.269	5025
884.395	4672
884.52	4622
884.646	4645
884.772	4550
884.897	4558
885.023	4649
885.148	4790
885.274	4854
885.399	4824
885.524	4771
885.65	4683
885.775	4755
885.9	4691
886.025	4889
886.15	4786
886.275	4725
886.4	4649
886.525	4721
886.65	4717
886.775	4668
886.9	4953
887.025	4995
887.149	4870
887.274	4615
887.399	4596
887.523	4580
887.648	4592
887.773	4603
887.897	4755
888.021	4744
888.146	4687
888.27	4801
888.395	4892
888.519	4782
888.643	4782
888.767	4831
888.891	4675
889.015	4599
889.139	4675
889.263	4649
889.387	4698
889.511	4881
889.635	4812
889.759	4630
889.883	4645
890.006	4759
890.13	4835
890.254	4569
890.377	4668
890.501	4542
890.624	4504
890.748	4592
890.871	4466
890.995	4447
891.118	4443
891.241	4493
891.364	4535
891.488	4668
891.611	4535
891.734	4504
891.857	4630
891.98	4588
892.103	4641
892.226	4607
892.349	4474
892.471	4424
892.594	4561
892.717	4596
892.839	4538
892.962	4599
893.085	4611
893.207	4554
893.33	4459
893.452	4573
893.575	4618
893.697	4554
893.819	4759
893.941	4790
894.064	4767
894.186	4577
894.308	4599
894.43	4714
894.552	4790
894.674	4706
894.796	4538
894.918	4630
895.04	4561
895.161	4706
895.283	4698
895.405	4599
895.526	4596
895.648	4714
895.769	4736
895.891	4717
896.012	4778
896.134	4729
896.255	4660
896.376	4588
896.498	4580
896.619	4645
896.74	4622
896.861	4679
896.982	4930
897.103	5086
897.224	4793
897.345	4702
897.466	4679
897.587	4725
897.708	4862
897.828	4763
897.949	4615
898.07	4554
898.19	4641
898.311	4824
898.431	4698
898.552	4733
898.672	4809
898.792	4809
898.913	4752
899.033	4630
899.153	4523
899.273	4405
899.393	4489
899.513	4489
899.633	4474
899.753	4504
899.873	4497
899.993	4596
900.113	4497
900.232	4577
900.352	4497
900.472	4516
900.591	4383
900.711	4497
900.83	4440
900.95	4580
901.069	4675
901.189	4554
901.308	4367
901.427	4318
901.546	4375
901.665	4519
901.784	4466
901.904	4390
902.023	4348
902.141	4192
902.26	4158
902.379	4329
902.498	4249
902.617	4253
902.735	4398
902.854	4405
902.973	4348
903.091	4173
903.21	4207
903.328	4318
903.446	4265
903.565	4257
903.683	4360
903.801	4223
903.919	4383
904.038	4398
904.156	4303
904.274	4402
904.392	4367
904.51	4459
904.627	4451
904.745	4603
904.863	4626
904.981	4417
905.098	4325
905.216	4329
905.334	4390
905.451	4443
905.569	4413
905.686	4531
905.803	4599
905.921	4402
906.038	4550
906.155	4462
906.272	4451
906.389	4455
906.506	4367
906.623	4363
906.74	4394
906.857	4299
906.974	4383
907.091	4580
907.208	4744
907.324	4580
907.441	4512
907.557	4333
907.674	4341
907.79	4344
907.907	4394
908.023	4516
908.139	4455
908.256	4432
908.372	4500
908.488	4481
908.604	4371
908.72	4299
908.836	4375
908.952	4348
909.068	4398
909.184	4561
909.3	4466
909.415	4558
909.531	4542
909.647	4356
909.762	4363
909.878	4325
909.993	4451
910.108	4424
910.224	4390
910.339	4436
910.454	4405
910.57	4356
910.685	4337
910.8	4637
910.915	4622
911.03	4500
911.145	4352
911.259	4325
911.374	4360
911.489	4295
911.604	4272
911.718	4196
911.833	4158
911.947	4082
912.062	4059
912.176	4211
912.291	4196
912.405	4185
912.519	4466
912.633	4527
912.748	4341
912.862	4287
912.976	4181
913.09	4086
913.204	4169
913.318	4230
913.431	4409
913.545	4375
913.659	4409
913.772	4356
913.886	4204
914	4215
914.113	4383
914.226	4409
914.34	4398
914.453	4223
914.566	4443
914.68	4280
914.793	4325
914.906	4173
915.019	4120
915.132	4086
915.245	4188
915.358	4265
915.47	4230
915.583	4268
915.696	4303
915.809	4402
915.921	4409
916.034	4265
916.146	4246
916.259	4246
916.371	4375
916.483	4386
916.595	4291
916.708	4303
916.82	4344
916.932	4371
917.044	4299
917.156	4322
917.268	4204
917.38	4318
917.491	4227
917.603	4386
917.715	4379
917.826	4451
917.938	4303
918.049	4261
918.161	4413
918.272	4561
918.384	4519
918.495	4462
918.606	4318
918.717	4211
918.828	4360
918.939	4371
919.05	4272
919.161	4276
919.272	4143
919.383	4219
919.494	4462
919.604	4637
919.715	4383
919.826	4367
919.936	4394
920.047	4516
920.157	4504
920.267	4679
920.378	4580
920.488	4478
920.598	4721
920.708	4870
920.818	4771
920.928	4767
921.038	4946
921.148	4885
921.258	4611
921.368	4527
921.477	4542
921.587	4478
921.697	4367
921.806	4512
921.916	4459
922.025	4291
922.134	4246
922.244	4158
922.353	4375
922.462	4173
922.571	4135
922.68	4017
922.789	3972
922.898	4006
923.007	3964
923.116	4086
923.224	4051
923.333	4105
923.442	3975
923.55	4002
923.659	3998
923.767	4120
923.876	4025
923.984	4082
924.092	4036
924.201	4059
924.309	4071
924.417	4112
924.525	4036
924.633	4112
924.741	4881
924.849	3899
924.956	4116
925.064	3949
925.172	3918
925.279	3975
925.387	4048
925.494	4059
925.602	4177
925.709	4188
925.816	4051
925.924	4128
926.031	4223
926.138	4166
926.245	4173
926.352	4067
926.459	4261
926.566	4344
926.673	4124
926.779	4071
926.886	4086
926.993	3983
927.099	3941
927.206	3926
927.312	3983
927.419	4032
927.525	3991
927.631	4074
927.737	3918
927.843	3960
927.95	3838
928.056	3918
928.162	3998
928.267	4040
928.373	4656
928.479	4059
928.585	3865
928.69	4017
928.796	4074
928.901	3972
929.007	3842
929.112	3972
929.218	3991
929.323	3934
929.428	3915
929.533	4147
929.638	3911
929.743	3968
929.848	4002
929.953	3972
930.058	3934
930.163	3781
930.267	3793
930.372	3987
930.477	3785
930.581	4154
930.685	3975
930.79	3804
930.894	3907
930.998	3861
931.103	4063
931.207	3736
931.311	3698
931.415	3656
931.519	3515
931.623	3526
