Data from test_V78500241_1744.txt Node
Date: Fri Mar 25 17:01:07 CST 2022
User: usil
Spectrometer: V785-0024
Trigger mode: 0
Integration Time (sec): 4.000000E-1
Scans to average: 1
Nonlinearity correction enabled: false
Boxcar width: 0
Storing dark spectrum: false
XAxis mode: Wavelengths
Number of Pixels in Spectrum: 1024
>>>>>Begin Spectral Data<<<<<
801.071	8046
801.214	7959
801.356	7928
801.499	7868
801.641	7753
801.783	7792
801.926	7982
802.068	7963
802.211	7928
802.353	7951
802.496	7868
802.638	7852
802.78	7833
802.923	7906
803.065	7830
803.208	7822
803.35	7947
803.492	8081
803.635	8126
803.777	8031
803.919	8115
804.061	8431
804.204	8214
804.346	8046
804.488	7993
804.63	8134
804.773	7978
804.915	8161
805.057	8279
805.199	8206
805.341	8244
805.483	8210
805.626	8195
805.768	8073
805.91	8157
806.052	8210
806.194	8119
806.336	8244
806.478	8096
806.62	8008
806.762	8161
806.904	8275
807.046	8457
807.188	8396
807.33	8305
807.472	8347
807.614	8084
807.756	8172
807.898	7951
808.04	7852
808.182	7917
808.324	7909
808.465	7944
808.607	8084
808.749	8096
808.891	8180
809.033	8294
809.174	8237
809.316	8073
809.458	8073
809.6	8005
809.741	8043
809.883	8024
810.025	8126
810.166	8008
810.308	8005
810.45	7978
810.591	7807
810.733	7715
810.875	7677
811.016	7544
811.158	7533
811.299	7483
811.441	7681
811.582	7681
811.724	7655
811.865	7529
812.007	7537
812.148	7586
812.29	7689
812.431	7765
812.573	7852
812.714	7967
812.855	8111
812.997	8176
813.138	8237
813.279	8172
813.421	8065
813.562	7974
813.703	7852
813.845	7712
813.986	7445
814.127	7225
814.268	7221
814.41	7187
814.551	7179
814.692	7209
814.833	7137
814.974	7038
815.115	7126
815.256	6928
815.397	6905
815.539	6958
815.68	6821
815.821	6760
815.962	6871
816.103	6798
816.244	6669
816.385	6604
816.526	6563
816.666	6429
816.807	6311
816.948	6422
817.089	6467
817.23	6361
817.371	6422
817.512	6350
817.653	6376
817.793	6342
817.934	6399
818.075	6407
818.216	6445
818.356	6391
818.497	6228
818.638	6106
818.778	6197
818.919	6121
819.06	6182
819.2	6315
819.341	6273
819.481	6391
819.622	6521
819.762	6711
819.903	6673
820.043	6521
820.184	6574
820.324	6639
820.465	6703
820.605	6662
820.746	6623
820.886	6467
821.026	6719
821.167	6696
821.307	6783
821.447	6768
821.588	6681
821.728	6593
821.868	6456
822.008	6315
822.149	6365
822.289	6319
822.429	6144
822.569	6098
822.709	6083
822.849	5954
822.99	5942
823.13	5946
823.27	5882
823.41	5802
823.55	5832
823.69	5764
823.83	5733
823.97	5691
824.11	5547
824.25	5486
824.389	5558
824.529	5592
824.669	5524
824.809	5627
824.949	5627
825.089	5653
825.228	5524
825.368	5398
825.508	5318
825.648	5410
825.787	5402
825.927	5357
826.067	5303
826.206	5250
826.346	5414
826.485	5459
826.625	5421
826.765	5535
826.904	5493
827.044	5223
827.183	5181
827.323	5075
827.462	5204
827.601	5197
827.741	5220
827.88	5216
828.02	5094
828.159	5197
828.298	5292
828.437	5292
828.577	5307
828.716	5524
828.855	5357
828.994	5147
829.134	5147
829.273	5174
829.412	5140
829.551	5136
829.69	5140
829.829	5212
829.968	5337
830.107	5318
830.246	5265
830.385	5166
830.524	5102
830.663	5079
830.802	4972
830.941	4866
831.08	4885
831.219	4980
831.357	4942
831.496	5121
831.635	4881
831.774	4831
831.913	4839
832.051	4725
832.19	4740
832.329	4885
832.467	4721
832.606	4637
832.744	4729
832.883	4706
833.022	4725
833.16	4771
833.299	4835
833.437	4843
833.576	4828
833.714	4824
833.852	4896
833.991	4885
834.129	4980
834.267	4904
834.406	4866
834.544	4946
834.682	4984
834.821	4995
834.959	5140
835.097	4976
835.235	5124
835.373	5109
835.511	5102
835.65	5041
835.788	5029
835.926	4858
836.064	4831
836.202	4892
836.34	5109
836.478	5189
836.615	5079
836.753	5204
836.891	5254
837.029	5269
837.167	5231
837.305	5132
837.443	5132
837.58	5124
837.718	5220
837.856	5159
837.993	5159
838.131	5151
838.269	5193
838.406	5212
838.544	5193
838.681	4980
838.819	4961
838.956	4847
839.094	4870
839.231	4934
839.369	5048
839.506	5406
839.643	5269
839.781	5064
839.918	4995
840.055	5117
840.193	5029
840.33	5075
840.467	5105
840.604	5121
840.742	5402
840.879	5022
841.016	5052
841.153	5155
841.29	5353
841.427	5307
841.564	5326
841.701	5368
841.838	5254
841.975	5212
842.112	5273
842.249	5162
842.385	5071
842.522	5303
842.659	5155
842.796	5037
842.933	5174
843.069	5121
843.206	5162
843.343	5250
843.479	5216
843.616	5273
843.752	4984
843.889	5006
844.025	5223
844.162	5003
844.298	5174
844.435	5109
844.571	5033
844.708	5143
844.844	5315
844.98	5353
845.117	5258
845.253	5105
845.389	5117
845.525	5174
845.661	5105
845.798	5003
845.934	5159
846.07	5064
846.206	5193
846.342	5273
846.478	5094
846.614	5010
846.75	4942
846.886	4946
847.022	5109
847.158	5060
847.294	5079
847.429	5117
847.565	5048
847.701	5296
847.837	4866
847.972	4816
848.108	4987
848.244	4949
848.379	4755
848.515	4771
848.65	4656
848.786	4717
848.921	4774
849.057	4835
849.192	4896
849.328	4835
849.463	4873
849.598	4755
849.734	4774
849.869	4702
850.004	4634
850.14	4672
850.275	4622
850.41	4538
850.545	4554
850.68	4580
850.815	4622
850.95	4607
851.085	4801
851.22	4733
851.355	4641
851.49	4653
851.625	4626
851.76	4580
851.895	4554
852.03	4546
852.165	4687
852.299	4679
852.434	4778
852.569	4755
852.703	4740
852.838	4889
852.973	4930
853.107	4904
853.242	4694
853.376	4672
853.511	4596
853.645	4599
853.78	4831
853.914	4721
854.048	4660
854.183	4683
854.317	4687
854.451	4793
854.585	4656
854.72	4634
854.854	4763
854.988	4607
855.122	4607
855.256	4493
855.39	4596
855.524	4831
855.658	4717
855.792	4683
855.926	4782
856.06	4790
856.194	4809
856.327	4672
856.461	4618
856.595	4630
856.729	4618
856.862	4736
856.996	4679
857.13	4744
857.263	4736
857.397	4847
857.53	4683
857.664	4668
857.797	4702
857.931	4748
858.064	4691
858.197	4736
858.331	4672
858.464	4592
858.597	4497
858.731	4626
858.864	4645
858.997	4637
859.13	4592
859.263	4679
859.396	4702
859.529	4538
859.662	4554
859.795	4516
859.928	4603
860.061	4801
860.194	4725
860.327	4599
860.46	4565
860.592	4729
860.725	4691
860.858	4733
860.99	4554
861.123	4478
861.256	4535
861.388	4641
861.521	5345
861.653	4459
861.786	4421
861.918	4440
862.05	4478
862.183	4569
862.315	4592
862.447	4634
862.58	4577
862.712	4398
862.844	4363
862.976	4481
863.108	4424
863.24	4866
863.372	4363
863.504	4424
863.636	4443
863.768	4462
863.9	4421
864.032	4329
864.164	4421
864.296	4489
864.428	4512
864.559	4523
864.691	4519
864.823	4459
864.954	4497
865.086	4512
865.217	4455
865.349	4386
865.48	4504
865.612	4432
865.743	4653
865.875	4443
866.006	4417
866.137	4455
866.269	4436
866.4	4462
866.531	4413
866.662	4383
866.793	4398
866.924	4421
867.055	4481
867.186	4428
867.317	4375
867.448	4337
867.579	4360
867.71	4394
867.841	4356
867.972	4481
868.103	4440
868.233	4512
868.364	4424
868.495	4481
868.625	4637
868.756	4733
868.886	4569
869.017	4615
869.147	4725
869.278	4820
869.408	4660
869.539	4630
869.669	4694
869.799	4618
869.929	4748
870.06	4725
870.19	4961
870.32	4930
870.45	4938
870.58	4987
870.71	5121
870.84	5098
870.97	4892
871.1	4949
871.23	5109
871.36	5113
871.489	5025
871.619	5086
871.749	5090
871.879	5113
872.008	5189
872.138	5037
872.267	5010
872.397	4816
872.526	4812
872.656	4729
872.785	4790
872.915	4923
873.044	4991
873.173	4858
873.303	4953
873.432	4953
873.561	4995
873.69	4904
873.819	4900
873.948	4919
874.077	4866
874.206	4759
874.335	4786
874.464	4896
874.593	5014
874.722	4953
874.851	5109
874.979	4984
875.108	5083
875.237	4911
875.365	4881
875.494	4873
875.623	4980
875.751	4801
875.88	4873
876.008	4911
876.136	5037
876.265	5185
876.393	5345
876.521	5261
876.65	5201
876.778	5079
876.906	5079
877.034	5025
877.162	5045
877.29	4980
877.418	5060
877.546	5018
877.674	5014
877.802	5041
877.93	5010
878.058	4919
878.185	4866
878.313	4946
878.441	4980
878.568	4767
878.696	4854
878.824	4976
878.951	5006
879.079	5086
879.206	5284
879.333	5071
879.461	4942
879.588	4991
879.715	5113
879.842	5273
879.97	4987
880.097	4771
880.224	4721
880.351	4752
880.478	4774
880.605	4797
880.732	4763
880.859	5086
880.986	4896
881.112	4908
881.239	4809
881.366	4683
881.493	4615
881.619	4573
881.746	4615
881.872	4615
881.999	4668
882.125	4694
882.252	4755
882.378	4771
882.505	4965
882.631	4809
882.757	4656
882.883	4736
883.01	4729
883.136	4702
883.262	4592
883.388	4573
883.514	4801
883.64	4866
883.766	4744
883.892	4649
884.018	4683
884.143	4873
884.269	5010
884.395	4653
884.52	4672
884.646	4645
884.772	4607
884.897	4558
885.023	4656
885.148	4763
885.274	4843
885.399	4797
885.524	4733
885.65	4717
885.775	4801
885.9	4729
886.025	4862
886.15	4809
886.275	4691
886.4	4637
886.525	4725
886.65	4721
886.775	4664
886.9	4835
887.025	5056
887.149	4831
887.274	4649
887.399	4554
887.523	4603
887.648	4607
887.773	4626
887.897	4748
888.021	4782
888.146	4714
888.27	4763
888.395	4835
888.519	4812
888.643	4885
888.767	4831
888.891	4653
889.015	4630
889.139	4698
889.263	4607
889.387	4748
889.511	4873
889.635	4782
889.759	4649
889.883	4607
890.006	4710
890.13	4812
890.254	4634
890.377	4698
890.501	4531
890.624	4493
890.748	4664
890.871	4523
890.995	4440
891.118	4405
891.241	4466
891.364	4531
891.488	4702
891.611	4508
891.734	4577
891.857	4588
891.98	4561
892.103	4618
892.226	4558
892.349	4485
892.471	4466
892.594	4500
892.717	4618
892.839	4569
892.962	4618
893.085	4618
893.207	4569
893.33	4432
893.452	4569
893.575	4687
893.697	4573
893.819	4767
893.941	4847
894.064	4782
894.186	4546
894.308	4535
894.43	4702
894.552	4862
894.674	4736
894.796	4588
894.918	4634
895.04	4558
895.161	4675
895.283	4679
895.405	4634
895.526	4584
895.648	4649
895.769	4630
895.891	4714
896.012	4675
896.134	4710
896.255	4691
896.376	4630
896.498	4561
896.619	4710
896.74	4565
896.861	4656
896.982	4946
897.103	5075
897.224	4828
897.345	4714
897.466	4675
897.587	4763
897.708	4820
897.828	4744
897.949	4691
898.07	4584
898.19	4687
898.311	4847
898.431	4653
898.552	4736
898.672	4767
898.792	4824
898.913	4698
899.033	4580
899.153	4508
899.273	4440
899.393	4466
899.513	4500
899.633	4531
899.753	4512
899.873	4508
899.993	4584
900.113	4531
900.232	4550
900.352	4569
900.472	4474
900.591	4462
900.711	4489
900.83	4440
900.95	4603
901.069	4717
901.189	4554
901.308	4341
901.427	4333
901.546	4402
901.665	4485
901.784	4500
901.904	4360
902.023	4299
902.141	4211
902.26	4135
902.379	4325
902.498	4234
902.617	4238
902.735	4344
902.854	4379
902.973	4383
903.091	4185
903.21	4242
903.328	4314
903.446	4249
903.565	4284
903.683	4409
903.801	4276
903.919	4424
904.038	4409
904.156	4318
904.274	4428
904.392	4379
904.51	4405
904.627	4481
904.745	4565
904.863	4622
904.981	4409
905.098	4314
905.216	4367
905.334	4443
905.451	4443
905.569	4459
905.686	4523
905.803	4618
905.921	4409
906.038	4569
906.155	4478
906.272	4413
906.389	4455
906.506	4337
906.623	4325
906.74	4398
906.857	4318
906.974	4348
907.091	4531
907.208	4668
907.324	4550
907.441	4462
907.557	4329
907.674	4337
907.79	4257
907.907	4405
908.023	4497
908.139	4485
908.256	4413
908.372	4424
908.488	4413
908.604	4318
908.72	4287
908.836	4375
908.952	4306
909.068	4390
909.184	4603
909.3	4470
909.415	4523
909.531	4504
909.647	4333
909.762	4360
909.878	4341
909.993	4394
910.108	4356
910.224	4440
910.339	4493
910.454	4402
910.57	4367
910.685	4299
910.8	4611
910.915	4592
911.03	4504
911.145	4303
911.259	4337
911.374	4337
911.489	4287
911.604	4284
911.718	4150
911.833	4154
911.947	4097
912.062	4036
912.176	4223
912.291	4291
912.405	4238
912.519	4478
912.633	4485
912.748	4360
912.862	4291
912.976	4177
913.09	4093
913.204	4173
913.318	4219
913.431	4344
913.545	4318
913.659	4402
913.772	4375
913.886	4249
914	4192
914.113	4398
914.226	4432
914.34	4386
914.453	4238
914.566	4417
914.68	4257
914.793	4337
914.906	4177
915.019	4097
915.132	4082
915.245	4162
915.358	4204
915.47	4200
915.583	4272
915.696	4303
915.809	4390
915.921	4424
916.034	4257
916.146	4291
916.259	4249
916.371	4390
916.483	4363
916.595	4265
916.708	4306
916.82	4299
916.932	4287
917.044	4344
917.156	4306
917.268	4234
917.38	4276
917.491	4287
917.603	4367
917.715	4474
917.826	4405
917.938	4398
918.049	4242
918.161	4367
918.272	4519
918.384	4550
918.495	4436
918.606	4322
918.717	4219
918.828	4337
918.939	4367
919.05	4265
919.161	4287
919.272	4128
919.383	4249
919.494	4421
919.604	4653
919.715	4405
919.826	4356
919.936	4386
920.047	4481
920.157	4466
920.267	4733
920.378	4561
920.488	4493
920.598	4721
920.708	4911
920.818	4733
920.928	4721
921.038	4949
921.148	4938
921.258	4596
921.368	4588
921.477	4462
921.587	4455
921.697	4325
921.806	4558
921.916	4405
922.025	4295
922.134	4287
922.244	4249
922.353	4337
922.462	4120
922.571	4120
922.68	4006
922.789	3979
922.898	4036
923.007	3949
923.116	4074
923.224	4086
923.333	4143
923.442	3994
923.55	4013
923.659	4051
923.767	4059
923.876	4017
923.984	4173
924.092	3972
924.201	4093
924.309	4078
924.417	4101
924.525	4051
924.633	4120
924.741	4904
924.849	3873
924.956	4131
925.064	3979
925.172	3907
925.279	3975
925.387	4074
925.494	4093
925.602	4196
925.709	4135
925.816	4040
925.924	4109
926.031	4280
926.138	4147
926.245	4166
926.352	4074
926.459	4219
926.566	4314
926.673	4128
926.779	4093
926.886	4090
926.993	3979
927.099	3972
927.206	3945
927.312	3972
927.419	3994
927.525	3991
927.631	4078
927.737	3953
927.843	3930
927.95	3892
928.056	3937
928.162	3949
928.267	4048
928.373	4664
928.479	4097
928.585	3846
928.69	4002
928.796	4101
928.901	3960
929.007	3804
929.112	4032
929.218	3945
929.323	3972
929.428	3972
929.533	4071
929.638	3861
929.743	3922
929.848	4048
929.953	4002
930.058	3949
930.163	3766
930.267	3804
930.372	3998
930.477	3816
930.581	4101
930.685	3968
930.79	3819
930.894	3896
930.998	3838
931.103	4051
931.207	3732
931.311	3679
931.415	3709
931.519	3557
931.623	3530
