Data from test_V78500241_2055.txt Node
Date: Fri Mar 25 17:03:17 CST 2022
User: usil
Spectrometer: V785-0024
Trigger mode: 0
Integration Time (sec): 4.000000E-1
Scans to average: 1
Nonlinearity correction enabled: false
Boxcar width: 0
Storing dark spectrum: false
XAxis mode: Wavelengths
Number of Pixels in Spectrum: 1024
>>>>>Begin Spectral Data<<<<<
801.071	7947
801.214	7970
801.356	7826
801.499	7906
801.641	7750
801.783	7765
801.926	7982
802.068	7963
802.211	7978
802.353	7909
802.496	7864
802.638	7909
802.78	7818
802.923	7921
803.065	7852
803.208	7776
803.35	7902
803.492	8054
803.635	8161
803.777	8005
803.919	8058
804.061	8374
804.204	8145
804.346	8050
804.488	7970
804.63	8115
804.773	7982
804.915	8123
805.057	8221
805.199	8164
805.341	8195
805.483	8202
805.626	8248
805.768	8115
805.91	8187
806.052	8195
806.194	8161
806.336	8225
806.478	8092
806.62	8020
806.762	8107
806.904	8271
807.046	8419
807.188	8419
807.33	8317
807.472	8370
807.614	8233
807.756	8077
807.898	8016
808.04	7841
808.182	7917
808.324	7902
808.465	7894
808.607	8103
808.749	8142
808.891	8145
809.033	8313
809.174	8187
809.316	8020
809.458	8081
809.6	8001
809.741	8043
809.883	8058
810.025	8123
810.166	8035
810.308	7989
810.45	8005
810.591	7852
810.733	7719
810.875	7704
811.016	7502
811.158	7400
811.299	7571
811.441	7685
811.582	7643
811.724	7525
811.865	7457
812.007	7609
812.148	7620
812.29	7632
812.431	7734
812.573	7932
812.714	7947
812.855	8142
812.997	8221
813.138	8298
813.279	8206
813.421	8001
813.562	7902
813.703	7803
813.845	7689
813.986	7441
814.127	7259
814.268	7156
814.41	7137
814.551	7183
814.692	7236
814.833	7099
814.974	7126
815.115	7084
815.256	6958
815.397	6901
815.539	6954
815.68	6760
815.821	6783
815.962	6878
816.103	6818
816.244	6711
816.385	6616
816.526	6525
816.666	6502
816.807	6323
816.948	6448
817.089	6464
817.23	6414
817.371	6429
817.512	6384
817.653	6334
817.793	6361
817.934	6346
818.075	6433
818.216	6467
818.356	6437
818.497	6209
818.638	6121
818.778	6114
818.919	6140
819.06	6133
819.2	6350
819.341	6292
819.481	6350
819.622	6467
819.762	6738
819.903	6696
820.043	6601
820.184	6559
820.324	6582
820.465	6665
820.605	6662
820.746	6650
820.886	6532
821.026	6711
821.167	6757
821.307	6795
821.447	6741
821.588	6662
821.728	6570
821.868	6498
822.008	6315
822.149	6350
822.289	6365
822.429	6148
822.569	6140
822.709	6121
822.849	5927
822.99	5866
823.13	5897
823.27	5935
823.41	5790
823.55	5767
823.69	5794
823.83	5771
823.97	5649
824.11	5539
824.25	5520
824.389	5539
824.529	5551
824.669	5539
824.809	5634
824.949	5665
825.089	5596
825.228	5516
825.368	5383
825.508	5296
825.648	5402
825.787	5345
825.927	5337
826.067	5311
826.206	5315
826.346	5406
826.485	5414
826.625	5436
826.765	5566
826.904	5452
827.044	5231
827.183	5174
827.323	5098
827.462	5235
827.601	5185
827.741	5189
827.88	5197
828.02	5117
828.159	5223
828.298	5311
828.437	5360
828.577	5299
828.716	5471
828.855	5288
828.994	5124
829.134	5166
829.273	5159
829.412	5136
829.551	5128
829.69	5193
829.829	5231
829.968	5395
830.107	5246
830.246	5296
830.385	5197
830.524	5105
830.663	5067
830.802	4991
830.941	4904
831.08	4885
831.219	4961
831.357	4942
831.496	5143
831.635	4919
831.774	4843
831.913	4820
832.051	4725
832.19	4763
832.329	4820
832.467	4656
832.606	4634
832.744	4744
832.883	4694
833.022	4721
833.16	4774
833.299	4778
833.437	4831
833.576	4850
833.714	4843
833.852	4896
833.991	4858
834.129	4904
834.267	4930
834.406	4904
834.544	5025
834.682	5014
834.821	4980
834.959	5124
835.097	4961
835.235	5109
835.373	5071
835.511	5094
835.65	5045
835.788	5010
835.926	4896
836.064	4862
836.202	4961
836.34	5151
836.478	5212
836.615	5086
836.753	5246
836.891	5273
837.029	5269
837.167	5185
837.305	5159
837.443	5162
837.58	5075
837.718	5212
837.856	5162
837.993	5151
838.131	5299
838.269	5216
838.406	5242
838.544	5178
838.681	5018
838.819	5025
838.956	4877
839.094	4873
839.231	4953
839.369	5086
839.506	5410
839.643	5197
839.781	5033
839.918	5064
840.055	5109
840.193	5098
840.33	5094
840.467	5113
840.604	5174
840.742	5421
840.879	5132
841.016	5086
841.153	5105
841.29	5360
841.427	5299
841.564	5288
841.701	5368
841.838	5280
841.975	5216
842.112	5288
842.249	5128
842.385	5105
842.522	5345
842.659	5136
842.796	5090
842.933	5178
843.069	5250
843.206	5098
843.343	5330
843.479	5170
843.616	5246
843.752	5014
843.889	5022
844.025	5242
844.162	5045
844.298	5201
844.435	5067
844.571	5052
844.708	5193
844.844	5330
844.98	5330
845.117	5258
845.253	5102
845.389	5094
845.525	5216
845.661	5151
845.798	4991
845.934	5098
846.07	5045
846.206	5105
846.342	5231
846.478	5212
846.614	5003
846.75	4991
846.886	4961
847.022	5143
847.158	5033
847.294	5033
847.429	5109
847.565	5041
847.701	5296
847.837	4839
847.972	4831
848.108	4957
848.244	5006
848.379	4782
848.515	4698
848.65	4729
848.786	4744
848.921	4771
849.057	4790
849.192	4866
849.328	4809
849.463	4828
849.598	4771
849.734	4744
849.869	4679
850.004	4656
850.14	4656
850.275	4596
850.41	4500
850.545	4607
850.68	4561
850.815	4618
850.95	4618
851.085	4797
851.22	4729
851.355	4691
851.49	4599
851.625	4630
851.76	4626
851.895	4527
852.03	4542
852.165	4653
852.299	4744
852.434	4809
852.569	4729
852.703	4733
852.838	4854
852.973	4927
853.107	4949
853.242	4702
853.376	4664
853.511	4622
853.645	4675
853.78	4790
853.914	4717
854.048	4672
854.183	4634
854.317	4691
854.451	4831
854.585	4653
854.72	4626
854.854	4736
854.988	4580
855.122	4622
855.256	4527
855.39	4683
855.524	4828
855.658	4714
855.792	4645
855.926	4706
856.06	4736
856.194	4835
856.327	4653
856.461	4599
856.595	4622
856.729	4618
856.862	4706
856.996	4706
857.13	4717
857.263	4733
857.397	4831
857.53	4645
857.664	4725
857.797	4752
857.931	4763
858.064	4702
858.197	4683
858.331	4649
858.464	4622
858.597	4508
858.731	4588
858.864	4637
858.997	4645
859.13	4618
859.263	4660
859.396	4668
859.529	4538
859.662	4554
859.795	4500
859.928	4615
860.061	4763
860.194	4714
860.327	4603
860.46	4577
860.592	4733
860.725	4694
860.858	4736
860.99	4592
861.123	4508
861.256	4550
861.388	4630
861.521	5231
861.653	4481
861.786	4447
861.918	4470
862.05	4516
862.183	4493
862.315	4561
862.447	4687
862.58	4527
862.712	4443
862.844	4303
862.976	4497
863.108	4417
863.24	4782
863.372	4295
863.504	4417
863.636	4455
863.768	4470
863.9	4436
864.032	4398
864.164	4428
864.296	4443
864.428	4542
864.559	4615
864.691	4508
864.823	4481
864.954	4508
865.086	4527
865.217	4466
865.349	4485
865.48	4455
865.612	4531
865.743	4599
865.875	4462
866.006	4398
866.137	4459
866.269	4417
866.4	4413
866.531	4432
866.662	4409
866.793	4424
866.924	4432
867.055	4504
867.186	4455
867.317	4417
867.448	4375
867.579	4413
867.71	4394
867.841	4360
867.972	4428
868.103	4455
868.233	4478
868.364	4470
868.495	4474
868.625	4656
868.756	4748
868.886	4538
869.017	4603
869.147	4771
869.278	4755
869.408	4649
869.539	4649
869.669	4736
869.799	4702
869.929	4767
870.06	4729
870.19	4911
870.32	4908
870.45	4976
870.58	5003
870.71	5090
870.84	5094
870.97	4957
871.1	4908
871.23	5166
871.36	5102
871.489	5025
871.619	5022
871.749	5064
871.879	5109
872.008	5143
872.138	5033
872.267	4957
872.397	4820
872.526	4793
872.656	4736
872.785	4763
872.915	4946
873.044	4984
873.173	4923
873.303	4972
873.432	4968
873.561	4930
873.69	4881
873.819	4858
873.948	4938
874.077	4797
874.206	4782
874.335	4778
874.464	4892
874.593	5033
874.722	4949
874.851	5037
874.979	5033
875.108	5033
875.237	4904
875.365	4877
875.494	4862
875.623	4972
875.751	4828
875.88	4889
876.008	4972
876.136	5060
876.265	5242
876.393	5326
876.521	5242
876.65	5189
876.778	5170
876.906	5075
877.034	4980
877.162	5079
877.29	4957
877.418	5064
877.546	5010
877.674	5041
877.802	5045
877.93	4946
878.058	4896
878.185	4892
878.313	4953
878.441	4900
878.568	4752
878.696	4900
878.824	4908
878.951	4957
879.079	5064
879.206	5284
879.333	5094
879.461	4976
879.588	4968
879.715	5113
879.842	5204
879.97	5022
880.097	4733
880.224	4717
880.351	4778
880.478	4828
880.605	4801
880.732	4797
880.859	5102
880.986	4862
881.112	4850
881.239	4736
881.366	4641
881.493	4573
881.619	4588
881.746	4653
881.872	4660
881.999	4603
882.125	4717
882.252	4812
882.378	4835
882.505	4938
882.631	4782
882.757	4675
882.883	4740
883.01	4736
883.136	4706
883.262	4565
883.388	4565
883.514	4809
883.64	4831
883.766	4736
883.892	4656
884.018	4714
884.143	4877
884.269	4968
884.395	4660
884.52	4637
884.646	4611
884.772	4531
884.897	4523
885.023	4637
885.148	4797
885.274	4828
885.399	4778
885.524	4698
885.65	4637
885.775	4729
885.9	4717
886.025	4835
886.15	4771
886.275	4736
886.4	4634
886.525	4702
886.65	4687
886.775	4706
886.9	4877
887.025	5018
887.149	4782
887.274	4626
887.399	4588
887.523	4580
887.648	4573
887.773	4561
887.897	4744
888.021	4801
888.146	4691
888.27	4778
888.395	4900
888.519	4820
888.643	4771
888.767	4809
888.891	4675
889.015	4561
889.139	4664
889.263	4592
889.387	4721
889.511	4839
889.635	4763
889.759	4596
889.883	4630
890.006	4752
890.13	4831
890.254	4622
890.377	4634
890.501	4554
890.624	4535
890.748	4668
890.871	4455
890.995	4470
891.118	4413
891.241	4542
891.364	4527
891.488	4645
891.611	4542
891.734	4554
891.857	4626
891.98	4577
892.103	4656
892.226	4607
892.349	4558
892.471	4470
892.594	4546
892.717	4607
892.839	4622
892.962	4615
893.085	4691
893.207	4592
893.33	4466
893.452	4580
893.575	4721
893.697	4637
893.819	4748
893.941	4816
894.064	4831
894.186	4626
894.308	4634
894.43	4710
894.552	4812
894.674	4717
894.796	4599
894.918	4588
895.04	4611
895.161	4759
895.283	4706
895.405	4618
895.526	4660
895.648	4744
895.769	4649
895.891	4702
896.012	4759
896.134	4736
896.255	4664
896.376	4687
896.498	4664
896.619	4736
896.74	4687
896.861	4698
896.982	4968
897.103	5162
897.224	4873
897.345	4812
897.466	4698
897.587	4740
897.708	4908
897.828	4805
897.949	4675
898.07	4637
898.19	4626
898.311	4843
898.431	4714
898.552	4771
898.672	4870
898.792	4809
898.913	4793
899.033	4672
899.153	4542
899.273	4497
899.393	4565
899.513	4584
899.633	4565
899.753	4603
899.873	4550
899.993	4611
900.113	4554
900.232	4588
900.352	4584
900.472	4512
900.591	4459
900.711	4516
900.83	4474
900.95	4622
901.069	4740
901.189	4580
901.308	4394
901.427	4390
901.546	4421
901.665	4508
901.784	4542
901.904	4443
902.023	4363
902.141	4268
902.26	4227
902.379	4333
902.498	4253
902.617	4257
902.735	4375
902.854	4440
902.973	4390
903.091	4249
903.21	4295
903.328	4322
903.446	4314
903.565	4299
903.683	4360
903.801	4310
903.919	4535
904.038	4470
904.156	4367
904.274	4512
904.392	4455
904.51	4421
904.627	4485
904.745	4573
904.863	4649
904.981	4417
905.098	4371
905.216	4363
905.334	4462
905.451	4474
905.569	4462
905.686	4592
905.803	4558
905.921	4421
906.038	4588
906.155	4478
906.272	4428
906.389	4455
906.506	4440
906.623	4398
906.74	4428
906.857	4371
906.974	4405
907.091	4603
907.208	4759
907.324	4584
907.441	4538
907.557	4379
907.674	4443
907.79	4344
907.907	4409
908.023	4527
908.139	4504
908.256	4481
908.372	4508
908.488	4493
908.604	4371
908.72	4413
908.836	4443
908.952	4386
909.068	4447
909.184	4584
909.3	4455
909.415	4599
909.531	4554
909.647	4386
909.762	4402
909.878	4333
909.993	4474
910.108	4409
910.224	4440
910.339	4485
910.454	4443
910.57	4375
910.685	4379
910.8	4618
910.915	4645
911.03	4535
911.145	4291
911.259	4337
911.374	4379
911.489	4329
911.604	4291
911.718	4204
911.833	4211
911.947	4097
912.062	4074
912.176	4261
912.291	4291
912.405	4223
912.519	4493
912.633	4542
912.748	4383
912.862	4363
912.976	4257
913.09	4116
913.204	4173
913.318	4246
913.431	4390
913.545	4398
913.659	4459
913.772	4394
913.886	4276
914	4234
914.113	4409
914.226	4455
914.34	4443
914.453	4207
914.566	4474
914.68	4322
914.793	4341
914.906	4219
915.019	4128
915.132	4120
915.245	4230
915.358	4291
915.47	4299
915.583	4284
915.696	4295
915.809	4451
915.921	4478
916.034	4276
916.146	4257
916.259	4249
916.371	4371
916.483	4318
916.595	4306
916.708	4398
916.82	4375
916.932	4333
917.044	4375
917.156	4360
917.268	4280
917.38	4306
917.491	4291
917.603	4303
917.715	4451
917.826	4470
917.938	4356
918.049	4207
918.161	4451
918.272	4584
918.384	4565
918.495	4512
918.606	4306
918.717	4295
918.828	4352
918.939	4386
919.05	4295
919.161	4348
919.272	4162
919.383	4242
919.494	4474
919.604	4630
919.715	4462
919.826	4360
919.936	4409
920.047	4550
920.157	4542
920.267	4721
920.378	4516
920.488	4481
920.598	4714
920.708	4870
920.818	4843
920.928	4797
921.038	4961
921.148	4919
921.258	4626
921.368	4588
921.477	4596
921.587	4485
921.697	4367
921.806	4588
921.916	4470
922.025	4329
922.134	4303
922.244	4249
922.353	4329
922.462	4188
922.571	4135
922.68	4010
922.789	4002
922.898	4067
923.007	4002
923.116	4131
923.224	4067
923.333	4109
923.442	4067
923.55	4017
923.659	4063
923.767	4135
923.876	4025
923.984	4177
924.092	4074
924.201	4086
924.309	4116
924.417	4162
924.525	4036
924.633	4158
924.741	5071
924.849	3903
924.956	4147
925.064	3975
925.172	3899
925.279	3994
925.387	4025
925.494	4082
925.602	4227
925.709	4196
925.816	4067
925.924	4162
926.031	4238
926.138	4211
926.245	4181
926.352	4154
926.459	4333
926.566	4329
926.673	4177
926.779	4101
926.886	4124
926.993	3998
927.099	3956
927.206	4002
927.312	3915
927.419	4059
927.525	4032
927.631	4124
927.737	4006
927.843	3960
927.95	3850
928.056	3998
928.162	4017
928.267	4071
928.373	4653
928.479	4124
928.585	3945
928.69	4044
928.796	4112
928.901	3983
929.007	3857
929.112	4051
929.218	3991
929.323	3972
929.428	3983
929.533	4128
929.638	3953
929.743	3983
929.848	4078
929.953	4051
930.058	3941
930.163	3823
930.267	3869
930.372	3979
930.477	3838
930.581	4150
930.685	3991
930.79	3819
930.894	3926
930.998	3903
931.103	4078
931.207	3747
931.311	3690
931.415	3682
931.519	3507
931.623	3538
