Data from test_V78500241_2608.txt Node
Date: Fri Mar 25 17:07:08 CST 2022
User: usil
Spectrometer: V785-0024
Trigger mode: 0
Integration Time (sec): 4.000000E-1
Scans to average: 1
Nonlinearity correction enabled: false
Boxcar width: 0
Storing dark spectrum: false
XAxis mode: Wavelengths
Number of Pixels in Spectrum: 1024
>>>>>Begin Spectral Data<<<<<
801.071	8065
801.214	8008
801.356	7909
801.499	7879
801.641	7769
801.783	7852
801.926	8024
802.068	7917
802.211	8027
802.353	7978
802.496	7856
802.638	7967
802.78	7894
802.923	7860
803.065	7917
803.208	7830
803.35	8020
803.492	8065
803.635	8176
803.777	8020
803.919	8142
804.061	8381
804.204	8149
804.346	8069
804.488	7970
804.63	8065
804.773	8035
804.915	8157
805.057	8320
805.199	8172
805.341	8214
805.483	8332
805.626	8267
805.768	8100
805.91	8195
806.052	8164
806.194	8073
806.336	8301
806.478	8043
806.62	8062
806.762	8084
806.904	8301
807.046	8434
807.188	8320
807.33	8328
807.472	8279
807.614	8153
807.756	8145
807.898	8001
808.04	7875
808.182	7894
808.324	7890
808.465	7913
808.607	8035
808.749	8096
808.891	8214
809.033	8259
809.174	8210
809.316	7993
809.458	8092
809.6	8012
809.741	8069
809.883	8005
810.025	8161
810.166	8069
810.308	8016
810.45	8001
810.591	7841
810.733	7746
810.875	7609
811.016	7525
811.158	7533
811.299	7575
811.441	7807
811.582	7742
811.724	7552
811.865	7529
812.007	7613
812.148	7597
812.29	7639
812.431	7738
812.573	7925
812.714	7967
812.855	8123
812.997	8252
813.138	8275
813.279	8183
813.421	8123
813.562	7963
813.703	7875
813.845	7734
813.986	7384
814.127	7308
814.268	7251
814.41	7259
814.551	7232
814.692	7190
814.833	7114
814.974	7069
815.115	7107
815.256	6970
815.397	6973
815.539	7004
815.68	6779
815.821	6779
815.962	6875
816.103	6844
816.244	6700
816.385	6658
816.526	6635
816.666	6479
816.807	6334
816.948	6479
817.089	6460
817.23	6502
817.371	6388
817.512	6365
817.653	6414
817.793	6365
817.934	6429
818.075	6490
818.216	6483
818.356	6418
818.497	6277
818.638	6091
818.778	6098
818.919	6213
819.06	6190
819.2	6308
819.341	6357
819.481	6376
819.622	6532
819.762	6764
819.903	6738
820.043	6608
820.184	6620
820.324	6601
820.465	6741
820.605	6692
820.746	6684
820.886	6604
821.026	6631
821.167	6768
821.307	6848
821.447	6840
821.588	6722
821.728	6623
821.868	6551
822.008	6376
822.149	6403
822.289	6395
822.429	6144
822.569	6171
822.709	6152
822.849	5946
822.99	5859
823.13	5897
823.27	5942
823.41	5779
823.55	5748
823.69	5779
823.83	5794
823.97	5661
824.11	5558
824.25	5505
824.389	5596
824.529	5581
824.669	5562
824.809	5665
824.949	5684
825.089	5695
825.228	5562
825.368	5425
825.508	5353
825.648	5326
825.787	5402
825.927	5433
826.067	5334
826.206	5357
826.346	5383
826.485	5455
826.625	5425
826.765	5532
826.904	5535
827.044	5296
827.183	5239
827.323	5143
827.462	5201
827.601	5185
827.741	5208
827.88	5239
828.02	5159
828.159	5227
828.298	5315
828.437	5337
828.577	5296
828.716	5474
828.855	5398
828.994	5185
829.134	5162
829.273	5170
829.412	5159
829.551	5117
829.69	5105
829.829	5201
829.968	5402
830.107	5277
830.246	5296
830.385	5166
830.524	5151
830.663	5098
830.802	4991
830.941	4820
831.08	4820
831.219	4987
831.357	4942
831.496	5136
831.635	4862
831.774	4877
831.913	4858
832.051	4793
832.19	4771
832.329	4816
832.467	4714
832.606	4672
832.744	4740
832.883	4668
833.022	4748
833.16	4790
833.299	4797
833.437	4831
833.576	4873
833.714	4847
833.852	4862
833.991	4866
834.129	4980
834.267	4908
834.406	4900
834.544	4995
834.682	4980
834.821	4919
834.959	5121
835.097	4995
835.235	5121
835.373	5048
835.511	5151
835.65	5025
835.788	5094
835.926	4881
836.064	4873
836.202	4904
836.34	5193
836.478	5208
836.615	5105
836.753	5235
836.891	5242
837.029	5265
837.167	5261
837.305	5151
837.443	5105
837.58	5037
837.718	5280
837.856	5181
837.993	5094
838.131	5288
838.269	5242
838.406	5162
838.544	5159
838.681	5079
838.819	5037
838.956	4908
839.094	4919
839.231	4980
839.369	5102
839.506	5421
839.643	5315
839.781	5048
839.918	4991
840.055	5060
840.193	5105
840.33	5124
840.467	5143
840.604	5159
840.742	5417
840.879	5117
841.016	5105
841.153	5143
841.29	5387
841.427	5322
841.564	5307
841.701	5349
841.838	5311
841.975	5258
842.112	5296
842.249	5204
842.385	5117
842.522	5292
842.659	5162
842.796	5113
842.933	5216
843.069	5124
843.206	5140
843.343	5277
843.479	5254
843.616	5185
843.752	5029
843.889	5022
844.025	5227
844.162	5018
844.298	5242
844.435	5075
844.571	5067
844.708	5208
844.844	5284
844.98	5288
845.117	5330
845.253	5147
845.389	5102
845.525	5155
845.661	5140
845.798	5083
845.934	5105
846.07	5060
846.206	5220
846.342	5288
846.478	5181
846.614	5010
846.75	5010
846.886	4946
847.022	5174
847.158	4995
847.294	5079
847.429	5140
847.565	5090
847.701	5307
847.837	4835
847.972	4805
848.108	4965
848.244	4927
848.379	4759
848.515	4702
848.65	4744
848.786	4850
848.921	4755
849.057	4889
849.192	4877
849.328	4847
849.463	4786
849.598	4824
849.734	4805
849.869	4744
850.004	4580
850.14	4679
850.275	4615
850.41	4565
850.545	4577
850.68	4615
850.815	4618
850.95	4656
851.085	4820
851.22	4717
851.355	4634
851.49	4607
851.625	4615
851.76	4660
851.895	4588
852.03	4512
852.165	4660
852.299	4714
852.434	4824
852.569	4706
852.703	4767
852.838	4824
852.973	4946
853.107	4911
853.242	4744
853.376	4668
853.511	4569
853.645	4596
853.78	4801
853.914	4668
854.048	4630
854.183	4653
854.317	4710
854.451	4908
854.585	4687
854.72	4588
854.854	4774
854.988	4580
855.122	4611
855.256	4485
855.39	4698
855.524	4755
855.658	4778
855.792	4729
855.926	4733
856.06	4691
856.194	4839
856.327	4706
856.461	4565
856.595	4584
856.729	4561
856.862	4740
856.996	4679
857.13	4729
857.263	4752
857.397	4786
857.53	4634
857.664	4672
857.797	4763
857.931	4828
858.064	4683
858.197	4778
858.331	4675
858.464	4660
858.597	4527
858.731	4664
858.864	4569
858.997	4596
859.13	4599
859.263	4721
859.396	4656
859.529	4565
859.662	4596
859.795	4569
859.928	4626
860.061	4748
860.194	4771
860.327	4626
860.46	4527
860.592	4675
860.725	4786
860.858	4725
860.99	4573
861.123	4538
861.256	4531
861.388	4565
861.521	5376
861.653	4462
861.786	4386
861.918	4474
862.05	4516
862.183	4527
862.315	4592
862.447	4622
862.58	4554
862.712	4413
862.844	4356
862.976	4459
863.108	4462
863.24	4774
863.372	4310
863.504	4394
863.636	4421
863.768	4474
863.9	4409
864.032	4333
864.164	4394
864.296	4474
864.428	4538
864.559	4577
864.691	4523
864.823	4577
864.954	4516
865.086	4569
865.217	4489
865.349	4440
865.48	4405
865.612	4474
865.743	4637
865.875	4432
866.006	4409
866.137	4474
866.269	4493
866.4	4485
866.531	4413
866.662	4398
866.793	4379
866.924	4405
867.055	4489
867.186	4474
867.317	4436
867.448	4329
867.579	4371
867.71	4417
867.841	4402
867.972	4451
868.103	4493
868.233	4436
868.364	4459
868.495	4481
868.625	4672
868.756	4744
868.886	4565
869.017	4592
869.147	4778
869.278	4736
869.408	4698
869.539	4653
869.669	4725
869.799	4653
869.929	4790
870.06	4698
870.19	5003
870.32	4881
870.45	4957
870.58	4999
870.71	5067
870.84	5143
870.97	4976
871.1	4927
871.23	5143
871.36	5124
871.489	5060
871.619	5098
871.749	5121
871.879	5147
872.008	5178
872.138	5010
872.267	4995
872.397	4862
872.526	4839
872.656	4710
872.785	4793
872.915	4946
873.044	4976
873.173	4923
873.303	4961
873.432	4972
873.561	4999
873.69	4908
873.819	4862
873.948	4915
874.077	4839
874.206	4767
874.335	4767
874.464	4934
874.593	5071
874.722	4968
874.851	5121
874.979	5037
875.108	5048
875.237	4892
875.365	4934
875.494	4919
875.623	5033
875.751	4824
875.88	4904
876.008	4965
876.136	5052
876.265	5189
876.393	5349
876.521	5239
876.65	5216
876.778	5159
876.906	5071
877.034	5071
877.162	5052
877.29	5014
877.418	5041
877.546	5094
877.674	5041
877.802	5018
877.93	4991
878.058	4942
878.185	4896
878.313	4957
878.441	5006
878.568	4831
878.696	4919
878.824	4995
878.951	5014
879.079	5147
879.206	5292
879.333	5094
879.461	5025
879.588	5022
879.715	5140
879.842	5208
879.97	4995
880.097	4812
880.224	4740
880.351	4740
880.478	4873
880.605	4828
880.732	4725
880.859	5124
880.986	4881
881.112	4889
881.239	4812
881.366	4717
881.493	4603
881.619	4588
881.746	4664
881.872	4702
881.999	4630
882.125	4672
882.252	4824
882.378	4854
882.505	4946
882.631	4809
882.757	4687
882.883	4691
883.01	4736
883.136	4653
883.262	4592
883.388	4584
883.514	4782
883.64	4908
883.766	4771
883.892	4672
884.018	4706
884.143	4873
884.269	4961
884.395	4694
884.52	4694
884.646	4615
884.772	4592
884.897	4565
885.023	4710
885.148	4812
885.274	4843
885.399	4812
885.524	4656
885.65	4691
885.775	4725
885.9	4706
886.025	4835
886.15	4805
886.275	4694
886.4	4637
886.525	4672
886.65	4664
886.775	4698
886.9	4900
887.025	5033
887.149	4820
887.274	4656
887.399	4603
887.523	4603
887.648	4554
887.773	4573
887.897	4782
888.021	4805
888.146	4710
888.27	4790
888.395	4946
888.519	4797
888.643	4805
888.767	4824
888.891	4656
889.015	4584
889.139	4641
889.263	4615
889.387	4702
889.511	4847
889.635	4793
889.759	4630
889.883	4679
890.006	4710
890.13	4812
890.254	4649
890.377	4672
890.501	4478
890.624	4546
890.748	4603
890.871	4512
890.995	4443
891.118	4386
891.241	4485
891.364	4519
891.488	4641
891.611	4561
891.734	4542
891.857	4573
891.98	4611
892.103	4622
892.226	4603
892.349	4550
892.471	4459
892.594	4485
892.717	4637
892.839	4588
892.962	4630
893.085	4626
893.207	4618
893.33	4512
893.452	4493
893.575	4668
893.697	4565
893.819	4786
893.941	4820
894.064	4736
894.186	4637
894.308	4500
894.43	4740
894.552	4801
894.674	4748
894.796	4535
894.918	4588
895.04	4535
895.161	4691
895.283	4672
895.405	4592
895.526	4596
895.648	4698
895.769	4664
895.891	4717
896.012	4687
896.134	4721
896.255	4653
896.376	4637
896.498	4641
896.619	4668
896.74	4622
896.861	4611
896.982	5006
897.103	5079
897.224	4839
897.345	4763
897.466	4736
897.587	4767
897.708	4839
897.828	4755
897.949	4653
898.07	4558
898.19	4656
898.311	4828
898.431	4660
898.552	4717
898.672	4782
898.792	4767
898.913	4744
899.033	4634
899.153	4451
899.273	4459
899.393	4550
899.513	4519
899.633	4523
899.753	4565
899.873	4489
899.993	4588
900.113	4516
900.232	4561
900.352	4569
900.472	4481
900.591	4417
900.711	4493
900.83	4455
900.95	4630
901.069	4694
901.189	4554
901.308	4398
901.427	4341
901.546	4333
901.665	4489
901.784	4519
901.904	4409
902.023	4314
902.141	4211
902.26	4177
902.379	4284
902.498	4280
902.617	4238
902.735	4379
902.854	4367
902.973	4386
903.091	4219
903.21	4234
903.328	4287
903.446	4261
903.565	4215
903.683	4352
903.801	4265
903.919	4432
904.038	4413
904.156	4360
904.274	4417
904.392	4386
904.51	4462
904.627	4462
904.745	4569
904.863	4630
904.981	4363
905.098	4360
905.216	4386
905.334	4455
905.451	4443
905.569	4409
905.686	4531
905.803	4573
905.921	4402
906.038	4546
906.155	4489
906.272	4363
906.389	4462
906.506	4375
906.623	4383
906.74	4363
906.857	4287
906.974	4352
907.091	4535
907.208	4645
907.324	4538
907.441	4508
907.557	4367
907.674	4363
907.79	4337
907.907	4432
908.023	4485
908.139	4500
908.256	4428
908.372	4451
908.488	4474
908.604	4341
908.72	4363
908.836	4375
908.952	4344
909.068	4424
909.184	4615
909.3	4466
909.415	4596
909.531	4584
909.647	4421
909.762	4375
909.878	4299
909.993	4459
910.108	4398
910.224	4398
910.339	4466
910.454	4386
910.57	4398
910.685	4261
910.8	4672
910.915	4554
911.03	4470
911.145	4329
911.259	4310
911.374	4341
911.489	4295
911.604	4280
911.718	4215
911.833	4185
911.947	4078
912.062	4036
912.176	4204
912.291	4234
912.405	4253
912.519	4497
912.633	4500
912.748	4352
912.862	4371
912.976	4181
913.09	4101
913.204	4219
913.318	4276
913.431	4356
913.545	4314
913.659	4390
913.772	4409
913.886	4280
914	4246
914.113	4386
914.226	4394
914.34	4394
914.453	4276
914.566	4440
914.68	4291
914.793	4295
914.906	4162
915.019	4147
915.132	4082
915.245	4158
915.358	4219
915.47	4276
915.583	4280
915.696	4306
915.809	4417
915.921	4428
916.034	4234
916.146	4238
916.259	4234
916.371	4352
916.483	4367
916.595	4242
916.708	4325
916.82	4352
916.932	4329
917.044	4291
917.156	4367
917.268	4242
917.38	4299
917.491	4295
917.603	4299
917.715	4394
917.826	4421
917.938	4371
918.049	4242
918.161	4394
918.272	4569
918.384	4535
918.495	4455
918.606	4322
918.717	4230
918.828	4291
918.939	4386
919.05	4242
919.161	4318
919.272	4158
919.383	4211
919.494	4455
919.604	4653
919.715	4409
919.826	4375
919.936	4383
920.047	4531
920.157	4497
920.267	4710
920.378	4542
920.488	4508
920.598	4714
920.708	4839
920.818	4736
920.928	4778
921.038	4923
921.148	4915
921.258	4622
921.368	4523
921.477	4493
921.587	4424
921.697	4363
921.806	4542
921.916	4417
922.025	4249
922.134	4242
922.244	4219
922.353	4314
922.462	4196
922.571	4154
922.68	4013
922.789	3960
922.898	4040
923.007	3968
923.116	4086
923.224	4063
923.333	4093
923.442	3998
923.55	3979
923.659	4010
923.767	4120
923.876	3972
923.984	4124
924.092	3991
924.201	4040
924.309	4120
924.417	4135
924.525	4032
924.633	4090
924.741	5060
924.849	3926
924.956	4139
925.064	3968
925.172	3937
925.279	3994
925.387	4006
925.494	4063
925.602	4215
925.709	4234
925.816	4021
925.924	4147
926.031	4261
926.138	4154
926.245	4185
926.352	4078
926.459	4219
926.566	4322
926.673	4147
926.779	4109
926.886	4036
926.993	3983
927.099	3960
927.206	3918
927.312	3937
927.419	4051
927.525	4017
927.631	4063
927.737	3968
927.843	4006
927.95	3838
928.056	4002
928.162	3960
928.267	4097
928.373	4565
928.479	4139
928.585	3876
928.69	4002
928.796	4055
928.901	3987
929.007	3857
929.112	4036
929.218	4017
929.323	3911
929.428	3949
929.533	4139
929.638	3930
929.743	3960
929.848	4032
929.953	3998
930.058	3918
930.163	3755
930.267	3827
930.372	3979
930.477	3816
930.581	4059
930.685	3956
930.79	3846
930.894	3918
930.998	3857
931.103	4025
931.207	3724
931.311	3694
931.415	3671
931.519	3549
931.623	3549
