Data from test_V78500241_194.txt Node
Date: Fri Mar 25 16:50:21 CST 2022
User: usil
Spectrometer: V785-0024
Trigger mode: 0
Integration Time (sec): 4.000000E-1
Scans to average: 1
Nonlinearity correction enabled: false
Boxcar width: 0
Storing dark spectrum: false
XAxis mode: Wavelengths
Number of Pixels in Spectrum: 1024
>>>>>Begin Spectral Data<<<<<
801.071	8069
801.214	7997
801.356	7871
801.499	7902
801.641	7814
801.783	7864
801.926	8012
802.068	8005
802.211	8008
802.353	8062
802.496	7868
802.638	7940
802.78	7909
802.923	7936
803.065	7826
803.208	7837
803.35	7974
803.492	8050
803.635	8191
803.777	8062
803.919	8115
804.061	8415
804.204	8100
804.346	8012
804.488	7955
804.63	8058
804.773	7970
804.915	8088
805.057	8267
805.199	8157
805.341	8206
805.483	8259
805.626	8134
805.768	8111
805.91	8130
806.052	8180
806.194	8100
806.336	8275
806.478	8134
806.62	8062
806.762	8092
806.904	8248
807.046	8412
807.188	8320
807.33	8218
807.472	8298
807.614	8081
807.756	8202
807.898	7928
808.04	7921
808.182	7928
808.324	7978
808.465	7959
808.607	8005
808.749	8199
808.891	8229
809.033	8362
809.174	8210
809.316	8134
809.458	8024
809.6	7982
809.741	8039
809.883	8001
810.025	8115
810.166	8062
810.308	8035
810.45	8012
810.591	7856
810.733	7750
810.875	7700
811.016	7605
811.158	7556
811.299	7582
811.441	7757
811.582	7689
811.724	7578
811.865	7563
812.007	7605
812.148	7658
812.29	7685
812.431	7738
812.573	7902
812.714	8024
812.855	8210
812.997	8324
813.138	8317
813.279	8218
813.421	8073
813.562	8005
813.703	7898
813.845	7742
813.986	7480
814.127	7171
814.268	7274
814.41	7251
814.551	7171
814.692	7202
814.833	7122
814.974	7129
815.115	7126
815.256	7027
815.397	6954
815.539	6954
815.68	6840
815.821	6734
815.962	6821
816.103	6852
816.244	6791
816.385	6635
816.526	6642
816.666	6555
816.807	6350
816.948	6483
817.089	6479
817.23	6513
817.371	6498
817.512	6418
817.653	6361
817.793	6365
817.934	6365
818.075	6445
818.216	6365
818.356	6464
818.497	6239
818.638	6144
818.778	6087
818.919	6163
819.06	6144
819.2	6327
819.341	6292
819.481	6399
819.622	6536
819.762	6696
819.903	6722
820.043	6585
820.184	6593
820.324	6608
820.465	6722
820.605	6677
820.746	6662
820.886	6490
821.026	6665
821.167	6688
821.307	6753
821.447	6753
821.588	6658
821.728	6582
821.868	6525
822.008	6262
822.149	6380
822.289	6338
822.429	6178
822.569	6030
822.709	6133
822.849	5908
822.99	5897
823.13	5935
823.27	5942
823.41	5824
823.55	5813
823.69	5786
823.83	5794
823.97	5649
824.11	5543
824.25	5505
824.389	5604
824.529	5585
824.669	5562
824.809	5646
824.949	5600
825.089	5619
825.228	5551
825.368	5372
825.508	5341
825.648	5387
825.787	5429
825.927	5326
826.067	5254
826.206	5311
826.346	5436
826.485	5383
826.625	5417
826.765	5512
826.904	5463
827.044	5197
827.183	5189
827.323	5185
827.462	5307
827.601	5201
827.741	5227
827.88	5208
828.02	5102
828.159	5284
828.298	5334
828.437	5402
828.577	5296
828.716	5452
828.855	5387
828.994	5189
829.134	5128
829.273	5220
829.412	5151
829.551	5113
829.69	5170
829.829	5239
829.968	5353
830.107	5299
830.246	5261
830.385	5181
830.524	5201
830.663	5071
830.802	5045
830.941	4870
831.08	4915
831.219	5006
831.357	4961
831.496	5159
831.635	4904
831.774	4858
831.913	4873
832.051	4725
832.19	4744
832.329	4816
832.467	4687
832.606	4660
832.744	4691
832.883	4672
833.022	4664
833.16	4816
833.299	4816
833.437	4847
833.576	4812
833.714	4892
833.852	4915
833.991	4919
834.129	4976
834.267	4908
834.406	4915
834.544	4957
834.682	5018
834.821	4965
834.959	5151
835.097	4999
835.235	5132
835.373	5105
835.511	5094
835.65	5018
835.788	5060
835.926	4892
836.064	4923
836.202	4934
836.34	5159
836.478	5254
836.615	5128
836.753	5273
836.891	5265
837.029	5315
837.167	5189
837.305	5151
837.443	5189
837.58	5064
837.718	5303
837.856	5185
837.993	5174
838.131	5235
838.269	5223
838.406	5254
838.544	5170
838.681	5037
838.819	5003
838.956	4908
839.094	4896
839.231	5003
839.369	5071
839.506	5444
839.643	5273
839.781	5048
839.918	5045
840.055	5136
840.193	5102
840.33	5102
840.467	5124
840.604	5166
840.742	5425
840.879	5098
841.016	5098
841.153	5151
841.29	5398
841.427	5368
841.564	5349
841.701	5398
841.838	5296
841.975	5261
842.112	5311
842.249	5124
842.385	5132
842.522	5334
842.659	5197
842.796	5147
842.933	5189
843.069	5162
843.206	5220
843.343	5299
843.479	5277
843.616	5303
843.752	5037
843.889	4961
844.025	5212
844.162	5037
844.298	5227
844.435	5075
844.571	5067
844.708	5189
844.844	5303
844.98	5330
845.117	5246
845.253	5155
845.389	5075
845.525	5181
845.661	5124
845.798	5045
845.934	5121
846.07	5094
846.206	5250
846.342	5273
846.478	5178
846.614	5052
846.75	4987
846.886	4995
847.022	5155
847.158	5014
847.294	5041
847.429	5113
847.565	5022
847.701	5303
847.837	4866
847.972	4835
848.108	4938
848.244	4953
848.379	4790
848.515	4714
848.65	4748
848.786	4748
848.921	4824
849.057	4881
849.192	4904
849.328	4828
849.463	4847
849.598	4820
849.734	4714
849.869	4755
850.004	4607
850.14	4683
850.275	4637
850.41	4535
850.545	4558
850.68	4626
850.815	4630
850.95	4630
851.085	4892
851.22	4752
851.355	4691
851.49	4592
851.625	4641
851.76	4664
851.895	4596
852.03	4584
852.165	4626
852.299	4698
852.434	4797
852.569	4767
852.703	4793
852.838	4862
852.973	4957
853.107	4911
853.242	4733
853.376	4706
853.511	4592
853.645	4607
853.78	4774
853.914	4725
854.048	4660
854.183	4649
854.317	4683
854.451	4873
854.585	4714
854.72	4580
854.854	4759
854.988	4634
855.122	4660
855.256	4516
855.39	4675
855.524	4812
855.658	4740
855.792	4733
855.926	4786
856.06	4763
856.194	4805
856.327	4748
856.461	4675
856.595	4653
856.729	4649
856.862	4744
856.996	4733
857.13	4759
857.263	4763
857.397	4828
857.53	4653
857.664	4702
857.797	4771
857.931	4771
858.064	4717
858.197	4786
858.331	4698
858.464	4630
858.597	4497
858.731	4656
858.864	4626
858.997	4592
859.13	4653
859.263	4721
859.396	4679
859.529	4592
859.662	4558
859.795	4531
859.928	4630
860.061	4752
860.194	4797
860.327	4599
860.46	4561
860.592	4668
860.725	4744
860.858	4725
860.99	4584
861.123	4554
861.256	4497
861.388	4634
861.521	5341
861.653	4500
861.786	4447
861.918	4443
862.05	4527
862.183	4546
862.315	4607
862.447	4683
862.58	4573
862.712	4360
862.844	4379
862.976	4428
863.108	4470
863.24	4885
863.372	4379
863.504	4451
863.636	4394
863.768	4527
863.9	4455
864.032	4337
864.164	4409
864.296	4497
864.428	4519
864.559	4516
864.691	4531
864.823	4554
864.954	4455
865.086	4512
865.217	4497
865.349	4432
865.48	4500
865.612	4519
865.743	4565
865.875	4478
866.006	4417
866.137	4466
866.269	4402
866.4	4481
866.531	4459
866.662	4478
866.793	4443
866.924	4390
867.055	4531
867.186	4447
867.317	4409
867.448	4390
867.579	4409
867.71	4424
867.841	4375
867.972	4504
868.103	4462
868.233	4512
868.364	4489
868.495	4546
868.625	4687
868.756	4790
868.886	4599
869.017	4637
869.147	4763
869.278	4763
869.408	4668
869.539	4649
869.669	4679
869.799	4679
869.929	4763
870.06	4740
870.19	4999
870.32	4908
870.45	4930
870.58	5018
870.71	5109
870.84	5075
870.97	4965
871.1	4915
871.23	5178
871.36	5151
871.489	5067
871.619	5094
871.749	5083
871.879	5102
872.008	5178
872.138	5094
872.267	5025
872.397	4816
872.526	4793
872.656	4691
872.785	4790
872.915	4896
873.044	5060
873.173	4930
873.303	5041
873.432	4949
873.561	4961
873.69	4873
873.819	4927
873.948	4953
874.077	4847
874.206	4755
874.335	4812
874.464	4915
874.593	5067
874.722	4961
874.851	5147
874.979	5018
875.108	5060
875.237	4908
875.365	4892
875.494	4908
875.623	4980
875.751	4847
875.88	4892
876.008	4991
876.136	5041
876.265	5208
876.393	5387
876.521	5220
876.65	5178
876.778	5193
876.906	5098
877.034	4946
877.162	5041
877.29	5025
877.418	5094
877.546	4987
877.674	5045
877.802	5064
877.93	5071
878.058	4938
878.185	4873
878.313	4972
878.441	4919
878.568	4793
878.696	4915
878.824	4957
878.951	4999
879.079	5159
879.206	5227
879.333	5109
879.461	5010
879.588	4965
879.715	5193
879.842	5265
879.97	5029
880.097	4790
880.224	4782
880.351	4828
880.478	4835
880.605	4862
880.732	4767
880.859	5105
880.986	4900
881.112	4911
881.239	4797
881.366	4687
881.493	4607
881.619	4634
881.746	4668
881.872	4672
881.999	4653
882.125	4687
882.252	4801
882.378	4816
882.505	4942
882.631	4820
882.757	4656
882.883	4740
883.01	4744
883.136	4698
883.262	4615
883.388	4611
883.514	4847
883.64	4862
883.766	4778
883.892	4664
884.018	4714
884.143	4892
884.269	4999
884.395	4748
884.52	4679
884.646	4637
884.772	4641
884.897	4565
885.023	4698
885.148	4763
885.274	4927
885.399	4873
885.524	4736
885.65	4706
885.775	4793
885.9	4748
886.025	4881
886.15	4790
886.275	4683
886.4	4702
886.525	4721
886.65	4698
886.775	4687
886.9	4953
887.025	5094
887.149	4839
887.274	4687
887.399	4573
887.523	4615
887.648	4565
887.773	4615
887.897	4786
888.021	4759
888.146	4706
888.27	4763
888.395	4862
888.519	4793
888.643	4824
888.767	4839
888.891	4668
889.015	4641
889.139	4649
889.263	4611
889.387	4801
889.511	4831
889.635	4828
889.759	4618
889.883	4668
890.006	4736
890.13	4778
890.254	4603
890.377	4664
890.501	4584
890.624	4538
890.748	4649
890.871	4519
890.995	4405
891.118	4375
891.241	4588
891.364	4516
891.488	4622
891.611	4493
891.734	4516
891.857	4649
891.98	4573
892.103	4615
892.226	4611
892.349	4538
892.471	4428
892.594	4596
892.717	4573
892.839	4584
892.962	4607
893.085	4630
893.207	4588
893.33	4504
893.452	4523
893.575	4675
893.697	4599
893.819	4771
893.941	4858
894.064	4736
894.186	4558
894.308	4588
894.43	4748
894.552	4831
894.674	4759
894.796	4519
894.918	4569
895.04	4592
895.161	4668
895.283	4691
895.405	4584
895.526	4664
895.648	4664
895.769	4714
895.891	4706
896.012	4752
896.134	4706
896.255	4637
896.376	4679
896.498	4626
896.619	4683
896.74	4596
896.861	4649
896.982	4934
897.103	5117
897.224	4858
897.345	4744
897.466	4702
897.587	4771
897.708	4873
897.828	4843
897.949	4675
898.07	4550
898.19	4615
898.311	4828
898.431	4714
898.552	4748
898.672	4793
898.792	4831
898.913	4755
899.033	4615
899.153	4512
899.273	4443
899.393	4481
899.513	4500
899.633	4519
899.753	4527
899.873	4489
899.993	4573
900.113	4542
900.232	4588
900.352	4554
900.472	4523
900.591	4413
900.711	4466
900.83	4409
900.95	4630
901.069	4691
901.189	4538
901.308	4386
901.427	4318
901.546	4383
901.665	4531
901.784	4523
901.904	4398
902.023	4333
902.141	4227
902.26	4181
902.379	4352
902.498	4280
902.617	4207
902.735	4402
902.854	4386
902.973	4337
903.091	4253
903.21	4257
903.328	4344
903.446	4265
903.565	4249
903.683	4344
903.801	4333
903.919	4390
904.038	4481
904.156	4344
904.274	4462
904.392	4379
904.51	4455
904.627	4470
904.745	4580
904.863	4660
904.981	4379
905.098	4299
905.216	4390
905.334	4436
905.451	4451
905.569	4455
905.686	4531
905.803	4569
905.921	4398
906.038	4535
906.155	4474
906.272	4424
906.389	4455
906.506	4371
906.623	4417
906.74	4352
906.857	4310
906.974	4413
907.091	4561
907.208	4706
907.324	4588
907.441	4519
907.557	4394
907.674	4367
907.79	4325
907.907	4421
908.023	4470
908.139	4516
908.256	4447
908.372	4470
908.488	4459
908.604	4310
908.72	4352
908.836	4383
908.952	4386
909.068	4481
909.184	4561
909.3	4493
909.415	4565
909.531	4592
909.647	4375
909.762	4402
909.878	4356
909.993	4440
910.108	4447
910.224	4405
910.339	4462
910.454	4462
910.57	4352
910.685	4318
910.8	4725
910.915	4634
911.03	4527
911.145	4322
911.259	4337
911.374	4360
911.489	4360
911.604	4287
911.718	4215
911.833	4177
911.947	4093
912.062	4029
912.176	4230
912.291	4238
912.405	4249
912.519	4432
912.633	4596
912.748	4398
912.862	4356
912.976	4257
913.09	4128
913.204	4188
913.318	4242
913.431	4375
913.545	4394
913.659	4489
913.772	4390
913.886	4238
914	4242
914.113	4428
914.226	4459
914.34	4367
914.453	4227
914.566	4451
914.68	4310
914.793	4333
914.906	4135
915.019	4082
915.132	4040
915.245	4169
915.358	4257
915.47	4284
915.583	4276
915.696	4344
915.809	4462
915.921	4383
916.034	4272
916.146	4257
916.259	4211
916.371	4394
916.483	4352
916.595	4284
916.708	4284
916.82	4280
916.932	4333
917.044	4322
917.156	4314
917.268	4280
917.38	4325
917.491	4284
917.603	4360
917.715	4466
917.826	4493
917.938	4386
918.049	4261
918.161	4363
918.272	4592
918.384	4512
918.495	4481
918.606	4291
918.717	4181
918.828	4371
918.939	4398
919.05	4272
919.161	4303
919.272	4230
919.383	4249
919.494	4489
919.604	4603
919.715	4440
919.826	4356
919.936	4443
920.047	4516
920.157	4481
920.267	4687
920.378	4573
920.488	4493
920.598	4721
920.708	4873
920.818	4774
920.928	4774
921.038	4965
921.148	4919
921.258	4645
921.368	4561
921.477	4500
921.587	4440
921.697	4409
921.806	4558
921.916	4436
922.025	4287
922.134	4306
922.244	4272
922.353	4386
922.462	4135
922.571	4139
922.68	4032
922.789	3998
922.898	4010
923.007	4006
923.116	4105
923.224	4109
923.333	4063
923.442	3956
923.55	3991
923.659	4097
923.767	4109
923.876	3987
923.984	4166
924.092	3972
924.201	4101
924.309	4162
924.417	4124
924.525	4063
924.633	4124
924.741	4927
924.849	3888
924.956	4166
925.064	3979
925.172	3926
925.279	3972
925.387	4093
925.494	4112
925.602	4196
925.709	4196
925.816	4036
925.924	4097
926.031	4249
926.138	4204
926.245	4219
926.352	4105
926.459	4280
926.566	4291
926.673	4147
926.779	4078
926.886	4112
926.993	3994
927.099	3941
927.206	3926
927.312	3964
927.419	4059
927.525	4017
927.631	4105
927.737	3998
927.843	3994
927.95	3819
928.056	3964
928.162	3994
928.267	4048
928.373	4698
928.479	4135
928.585	3861
928.69	4055
928.796	4154
928.901	3922
929.007	3880
929.112	3983
929.218	3953
929.323	3941
929.428	3972
929.533	4090
929.638	3991
929.743	3953
929.848	4059
929.953	3979
930.058	3945
930.163	3793
930.267	3816
930.372	3998
930.477	3819
930.581	4097
930.685	4006
930.79	3846
930.894	3892
930.998	3876
931.103	4017
931.207	3740
931.311	3736
931.415	3698
931.519	3542
931.623	3572
