Data from test_V78500241_647.txt Node
Date: Fri Mar 25 16:53:30 CST 2022
User: usil
Spectrometer: V785-0024
Trigger mode: 0
Integration Time (sec): 4.000000E-1
Scans to average: 1
Nonlinearity correction enabled: false
Boxcar width: 0
Storing dark spectrum: false
XAxis mode: Wavelengths
Number of Pixels in Spectrum: 1024
>>>>>Begin Spectral Data<<<<<
801.071	8046
801.214	8035
801.356	7963
801.499	7849
801.641	7868
801.783	7909
801.926	7997
802.068	7978
802.211	8065
802.353	8043
802.496	7875
802.638	7986
802.78	7978
802.923	7951
803.065	7864
803.208	7928
803.35	8024
803.492	8191
803.635	8183
803.777	8111
803.919	8149
804.061	8522
804.204	8176
804.346	8069
804.488	7986
804.63	8142
804.773	8046
804.915	8126
805.057	8355
805.199	8130
805.341	8263
805.483	8290
805.626	8282
805.768	8191
805.91	8195
806.052	8282
806.194	8096
806.336	8309
806.478	8123
806.62	8073
806.762	8206
806.904	8279
807.046	8476
807.188	8408
807.33	8320
807.472	8347
807.614	8130
807.756	8199
807.898	7997
808.04	7856
808.182	7997
808.324	7982
808.465	7928
808.607	8043
808.749	8191
808.891	8282
809.033	8298
809.174	8206
809.316	8031
809.458	8088
809.6	7993
809.741	8046
809.883	8142
810.025	8020
810.166	8107
810.308	8039
810.45	8062
810.591	7978
810.733	7826
810.875	7708
811.016	7567
811.158	7506
811.299	7586
811.441	7750
811.582	7693
811.724	7529
811.865	7556
812.007	7655
812.148	7666
812.29	7632
812.431	7708
812.573	7883
812.714	7967
812.855	8187
812.997	8214
813.138	8393
813.279	8301
813.421	8126
813.562	8123
813.703	7883
813.845	7792
813.986	7540
814.127	7289
814.268	7228
814.41	7221
814.551	7149
814.692	7179
814.833	7091
814.974	7069
815.115	7164
815.256	7031
815.397	6939
815.539	7031
815.68	6837
815.821	6806
815.962	6935
816.103	6829
816.244	6738
816.385	6658
816.526	6570
816.666	6532
816.807	6300
816.948	6460
817.089	6532
817.23	6513
817.371	6384
817.512	6384
817.653	6464
817.793	6361
817.934	6441
818.075	6486
818.216	6433
818.356	6384
818.497	6296
818.638	6087
818.778	6197
818.919	6182
819.06	6152
819.2	6346
819.341	6376
819.481	6391
819.622	6570
819.762	6806
819.903	6703
820.043	6604
820.184	6585
820.324	6536
820.465	6753
820.605	6604
820.746	6616
820.886	6547
821.026	6677
821.167	6738
821.307	6833
821.447	6734
821.588	6662
821.728	6620
821.868	6536
822.008	6308
822.149	6395
822.289	6407
822.429	6197
822.569	6087
822.709	6121
822.849	5901
822.99	5931
823.13	5946
823.27	5965
823.41	5824
823.55	5767
823.69	5813
823.83	5855
823.97	5699
824.11	5516
824.25	5581
824.389	5630
824.529	5551
824.669	5558
824.809	5668
824.949	5714
825.089	5573
825.228	5547
825.368	5395
825.508	5395
825.648	5353
825.787	5387
825.927	5444
826.067	5349
826.206	5273
826.346	5345
826.485	5417
826.625	5421
826.765	5528
826.904	5509
827.044	5220
827.183	5235
827.323	5151
827.462	5261
827.601	5162
827.741	5239
827.88	5242
828.02	5102
828.159	5284
828.298	5303
828.437	5414
828.577	5334
828.716	5474
828.855	5318
828.994	5185
829.134	5174
829.273	5231
829.412	5124
829.551	5166
829.69	5140
829.829	5242
829.968	5421
830.107	5326
830.246	5284
830.385	5227
830.524	5174
830.663	5052
830.802	5037
830.941	4858
831.08	4980
831.219	4991
831.357	5064
831.496	5204
831.635	4949
831.774	4847
831.913	4915
832.051	4706
832.19	4740
832.329	4850
832.467	4725
832.606	4691
832.744	4763
832.883	4744
833.022	4778
833.16	4820
833.299	4790
833.437	4847
833.576	4843
833.714	4889
833.852	4896
833.991	4938
834.129	5006
834.267	4946
834.406	4915
834.544	4995
834.682	4976
834.821	4923
834.959	5174
835.097	4991
835.235	5109
835.373	5102
835.511	5170
835.65	5045
835.788	5071
835.926	4915
836.064	4927
836.202	4904
836.34	5216
836.478	5231
836.615	5140
836.753	5261
836.891	5299
837.029	5261
837.167	5208
837.305	5155
837.443	5178
837.58	5083
837.718	5261
837.856	5208
837.993	5109
838.131	5250
838.269	5239
838.406	5231
838.544	5181
838.681	5090
838.819	5022
838.956	4904
839.094	4968
839.231	4980
839.369	5060
839.506	5398
839.643	5220
839.781	5079
839.918	5071
840.055	5113
840.193	5128
840.33	5159
840.467	5155
840.604	5227
840.742	5463
840.879	5086
841.016	5060
841.153	5124
841.29	5379
841.427	5303
841.564	5345
841.701	5383
841.838	5387
841.975	5231
842.112	5315
842.249	5193
842.385	5056
842.522	5357
842.659	5212
842.796	5159
842.933	5170
843.069	5178
843.206	5147
843.343	5337
843.479	5223
843.616	5303
843.752	5060
843.889	5029
844.025	5227
844.162	5067
844.298	5227
844.435	5079
844.571	5075
844.708	5269
844.844	5330
844.98	5425
845.117	5261
845.253	5185
845.389	5052
845.525	5151
845.661	5151
845.798	5071
845.934	5117
846.07	5048
846.206	5193
846.342	5269
846.478	5174
846.614	5045
846.75	4980
846.886	4957
847.022	5178
847.158	4995
847.294	5067
847.429	5136
847.565	5064
847.701	5341
847.837	4835
847.972	4786
848.108	4968
848.244	4930
848.379	4850
848.515	4733
848.65	4755
848.786	4767
848.921	4873
849.057	4911
849.192	4877
849.328	4816
849.463	4866
849.598	4824
849.734	4729
849.869	4733
850.004	4641
850.14	4721
850.275	4618
850.41	4527
850.545	4603
850.68	4626
850.815	4664
850.95	4637
851.085	4889
851.22	4778
851.355	4607
851.49	4622
851.625	4634
851.76	4611
851.895	4546
852.03	4535
852.165	4641
852.299	4672
852.434	4828
852.569	4733
852.703	4790
852.838	4866
852.973	4923
853.107	4908
853.242	4759
853.376	4649
853.511	4580
853.645	4634
853.78	4786
853.914	4702
854.048	4683
854.183	4679
854.317	4744
854.451	4854
854.585	4679
854.72	4653
854.854	4759
854.988	4615
855.122	4656
855.256	4565
855.39	4698
855.524	4809
855.658	4733
855.792	4721
855.926	4733
856.06	4748
856.194	4862
856.327	4714
856.461	4637
856.595	4615
856.729	4637
856.862	4774
856.996	4668
857.13	4744
857.263	4782
857.397	4854
857.53	4675
857.664	4748
857.797	4778
857.931	4824
858.064	4725
858.197	4767
858.331	4630
858.464	4675
858.597	4519
858.731	4645
858.864	4660
858.997	4615
859.13	4634
859.263	4710
859.396	4691
859.529	4550
859.662	4580
859.795	4512
859.928	4622
860.061	4782
860.194	4725
860.327	4645
860.46	4577
860.592	4740
860.725	4687
860.858	4752
860.99	4588
861.123	4565
861.256	4500
861.388	4615
861.521	5364
861.653	4504
861.786	4443
861.918	4493
862.05	4554
862.183	4550
862.315	4569
862.447	4687
862.58	4558
862.712	4428
862.844	4314
862.976	4485
863.108	4481
863.24	4889
863.372	4371
863.504	4417
863.636	4409
863.768	4485
863.9	4428
864.032	4409
864.164	4459
864.296	4440
864.428	4531
864.559	4535
864.691	4542
864.823	4523
864.954	4516
865.086	4497
865.217	4478
865.349	4447
865.48	4455
865.612	4542
865.743	4645
865.875	4432
866.006	4478
866.137	4523
866.269	4489
866.4	4462
866.531	4478
866.662	4432
866.793	4421
866.924	4466
867.055	4508
867.186	4459
867.317	4417
867.448	4402
867.579	4405
867.71	4383
867.841	4402
867.972	4497
868.103	4436
868.233	4447
868.364	4447
868.495	4531
868.625	4672
868.756	4721
868.886	4512
869.017	4645
869.147	4763
869.278	4767
869.408	4710
869.539	4641
869.669	4691
869.799	4744
869.929	4786
870.06	4744
870.19	4980
870.32	4923
870.45	4946
870.58	4961
870.71	5143
870.84	5105
870.97	4949
871.1	4911
871.23	5140
871.36	5124
871.489	5006
871.619	5071
871.749	5086
871.879	5174
872.008	5105
872.138	5132
872.267	4961
872.397	4850
872.526	4786
872.656	4733
872.785	4782
872.915	5025
873.044	5045
873.173	4927
873.303	4972
873.432	4911
873.561	4976
873.69	4854
873.819	4877
873.948	4900
874.077	4839
874.206	4790
874.335	4831
874.464	4984
874.593	5071
874.722	4949
874.851	5071
874.979	5060
875.108	5048
875.237	4889
875.365	4862
875.494	4892
875.623	4999
875.751	4828
875.88	4896
876.008	4984
876.136	5033
876.265	5220
876.393	5383
876.521	5239
876.65	5193
876.778	5178
876.906	5048
877.034	5006
877.162	5041
877.29	4934
877.418	5064
877.546	5052
877.674	5018
877.802	5041
877.93	5029
878.058	4946
878.185	4892
878.313	4968
878.441	4972
878.568	4831
878.696	4896
878.824	4961
878.951	4972
879.079	5170
879.206	5307
879.333	5159
879.461	5003
879.588	5022
879.715	5071
879.842	5185
879.97	4980
880.097	4782
880.224	4778
880.351	4790
880.478	4839
880.605	4801
880.732	4824
880.859	5132
880.986	4885
881.112	4923
881.239	4774
881.366	4679
881.493	4584
881.619	4584
881.746	4664
881.872	4706
881.999	4660
882.125	4714
882.252	4801
882.378	4847
882.505	4965
882.631	4797
882.757	4641
882.883	4767
883.01	4736
883.136	4725
883.262	4569
883.388	4577
883.514	4843
883.64	4835
883.766	4790
883.892	4687
884.018	4744
884.143	4900
884.269	4972
884.395	4656
884.52	4683
884.646	4702
884.772	4596
884.897	4588
885.023	4637
885.148	4820
885.274	4858
885.399	4793
885.524	4740
885.65	4664
885.775	4706
885.9	4717
886.025	4862
886.15	4816
886.275	4755
886.4	4649
886.525	4729
886.65	4694
886.775	4733
886.9	4885
887.025	5010
887.149	4790
887.274	4672
887.399	4580
887.523	4622
887.648	4599
887.773	4519
887.897	4809
888.021	4744
888.146	4710
888.27	4820
888.395	4904
888.519	4801
888.643	4831
888.767	4805
888.891	4622
889.015	4603
889.139	4714
889.263	4584
889.387	4748
889.511	4908
889.635	4858
889.759	4656
889.883	4615
890.006	4797
890.13	4816
890.254	4672
890.377	4706
890.501	4542
890.624	4542
890.748	4622
890.871	4519
890.995	4451
891.118	4390
891.241	4531
891.364	4546
891.488	4611
891.611	4535
891.734	4512
891.857	4626
891.98	4558
892.103	4622
892.226	4569
892.349	4573
892.471	4470
892.594	4531
892.717	4573
892.839	4592
892.962	4577
893.085	4649
893.207	4611
893.33	4481
893.452	4554
893.575	4694
893.697	4599
893.819	4797
893.941	4809
894.064	4763
894.186	4618
894.308	4546
894.43	4736
894.552	4828
894.674	4763
894.796	4577
894.918	4558
895.04	4542
895.161	4721
895.283	4714
895.405	4622
895.526	4653
895.648	4683
895.769	4645
895.891	4717
896.012	4736
896.134	4736
896.255	4641
896.376	4603
896.498	4653
896.619	4706
896.74	4622
896.861	4618
896.982	4930
897.103	5056
897.224	4854
897.345	4820
897.466	4664
897.587	4729
897.708	4828
897.828	4801
897.949	4618
898.07	4588
898.19	4637
898.311	4812
898.431	4656
898.552	4736
898.672	4797
898.792	4843
898.913	4786
899.033	4611
899.153	4462
899.273	4478
899.393	4451
899.513	4558
899.633	4550
899.753	4538
899.873	4538
899.993	4596
900.113	4523
900.232	4596
900.352	4504
900.472	4451
900.591	4394
900.711	4535
900.83	4436
900.95	4626
901.069	4641
901.189	4478
901.308	4356
901.427	4333
901.546	4383
901.665	4432
901.784	4516
901.904	4379
902.023	4337
902.141	4181
902.26	4162
902.379	4310
902.498	4246
902.617	4196
902.735	4398
902.854	4398
902.973	4325
903.091	4188
903.21	4253
903.328	4310
903.446	4272
903.565	4280
903.683	4344
903.801	4257
903.919	4417
904.038	4386
904.156	4379
904.274	4405
904.392	4379
904.51	4398
904.627	4470
904.745	4580
904.863	4645
904.981	4379
905.098	4287
905.216	4402
905.334	4451
905.451	4432
905.569	4428
905.686	4588
905.803	4603
905.921	4405
906.038	4527
906.155	4478
906.272	4405
906.389	4474
906.506	4398
906.623	4367
906.74	4363
906.857	4337
906.974	4344
907.091	4596
907.208	4687
907.324	4535
907.441	4466
907.557	4303
907.674	4333
907.79	4280
907.907	4341
908.023	4455
908.139	4474
908.256	4455
908.372	4443
908.488	4421
908.604	4363
908.72	4322
908.836	4432
908.952	4352
909.068	4474
909.184	4580
909.3	4459
909.415	4588
909.531	4577
909.647	4333
909.762	4325
909.878	4352
909.993	4405
910.108	4455
910.224	4398
910.339	4523
910.454	4451
910.57	4383
910.685	4276
910.8	4603
910.915	4622
911.03	4485
911.145	4329
911.259	4291
911.374	4371
911.489	4284
911.604	4276
911.718	4204
911.833	4177
911.947	4063
912.062	3983
912.176	4207
912.291	4303
912.405	4261
912.519	4512
912.633	4481
912.748	4356
912.862	4337
912.976	4215
913.09	4154
913.204	4192
913.318	4291
913.431	4344
913.545	4409
913.659	4470
913.772	4325
913.886	4215
914	4238
914.113	4398
914.226	4417
914.34	4348
914.453	4211
914.566	4440
914.68	4261
914.793	4367
914.906	4120
915.019	4135
915.132	4067
915.245	4196
915.358	4177
915.47	4257
915.583	4257
915.696	4303
915.809	4432
915.921	4424
916.034	4268
916.146	4295
916.259	4177
916.371	4363
916.483	4356
916.595	4219
916.708	4314
916.82	4299
916.932	4295
917.044	4318
917.156	4291
917.268	4249
917.38	4268
917.491	4291
917.603	4344
917.715	4360
917.826	4390
917.938	4337
918.049	4223
918.161	4383
918.272	4519
918.384	4542
918.495	4478
918.606	4299
918.717	4223
918.828	4325
918.939	4390
919.05	4314
919.161	4287
919.272	4131
919.383	4223
919.494	4451
919.604	4656
919.715	4466
919.826	4390
919.936	4405
920.047	4474
920.157	4462
920.267	4694
920.378	4554
920.488	4516
920.598	4736
920.708	4915
920.818	4744
920.928	4744
921.038	4953
921.148	4930
921.258	4603
921.368	4538
921.477	4546
921.587	4478
921.697	4363
921.806	4580
921.916	4398
922.025	4287
922.134	4287
922.244	4242
922.353	4310
922.462	4158
922.571	4109
922.68	3987
922.789	3998
922.898	4021
923.007	3964
923.116	4067
923.224	4006
923.333	4093
923.442	4013
923.55	3968
923.659	4044
923.767	4105
923.876	4006
923.984	4120
924.092	3956
924.201	4071
924.309	4078
924.417	4147
924.525	4036
924.633	4090
924.741	5029
924.849	3854
924.956	4101
925.064	3991
925.172	3896
925.279	3964
925.387	4021
925.494	4078
925.602	4219
925.709	4147
925.816	4013
925.924	4143
926.031	4230
926.138	4181
926.245	4169
926.352	4120
926.459	4249
926.566	4318
926.673	4177
926.779	4036
926.886	4109
926.993	3987
927.099	3972
927.206	3972
927.312	3926
927.419	4032
927.525	4055
927.631	4128
927.737	3892
927.843	3918
927.95	3888
928.056	3926
928.162	4002
928.267	4063
928.373	4679
928.479	4082
928.585	3857
928.69	4029
928.796	4105
928.901	3934
929.007	3808
929.112	3998
929.218	3972
929.323	3896
929.428	3899
929.533	4093
929.638	3922
929.743	3968
929.848	4032
929.953	3998
930.058	3907
930.163	3759
930.267	3816
930.372	3972
930.477	3819
930.581	4090
930.685	3926
930.79	3789
930.894	3876
930.998	3850
931.103	3998
931.207	3667
931.311	3709
931.415	3656
931.519	3500
931.623	3526
