Data from test_V78500241_1887.txt Node
Date: Fri Mar 25 17:02:07 CST 2022
User: usil
Spectrometer: V785-0024
Trigger mode: 0
Integration Time (sec): 4.000000E-1
Scans to average: 1
Nonlinearity correction enabled: false
Boxcar width: 0
Storing dark spectrum: false
XAxis mode: Wavelengths
Number of Pixels in Spectrum: 1024
>>>>>Begin Spectral Data<<<<<
801.071	8050
801.214	7993
801.356	7947
801.499	7963
801.641	7830
801.783	7845
801.926	7967
802.068	7993
802.211	8008
802.353	7974
802.496	7837
802.638	7841
802.78	7936
802.923	7928
803.065	7860
803.208	7921
803.35	7982
803.492	8050
803.635	8153
803.777	8027
803.919	8145
804.061	8427
804.204	8256
804.346	8115
804.488	7997
804.63	8073
804.773	8046
804.915	8081
805.057	8256
805.199	8187
805.341	8214
805.483	8225
805.626	8237
805.768	8180
805.91	8282
806.052	8237
806.194	8058
806.336	8355
806.478	8142
806.62	8039
806.762	8164
806.904	8271
807.046	8484
807.188	8347
807.33	8317
807.472	8355
807.614	8164
807.756	8202
807.898	7944
808.04	7906
808.182	7951
808.324	7887
808.465	7875
808.607	8084
808.749	8054
808.891	8195
809.033	8225
809.174	8309
809.316	8111
809.458	8088
809.6	8100
809.741	8031
809.883	8100
810.025	8126
810.166	8092
810.308	8012
810.45	7928
810.591	7788
810.733	7715
810.875	7616
811.016	7571
811.158	7487
811.299	7590
811.441	7734
811.582	7666
811.724	7563
811.865	7499
812.007	7597
812.148	7628
812.29	7605
812.431	7761
812.573	7967
812.714	7932
812.855	8130
812.997	8252
813.138	8313
813.279	8142
813.421	8134
813.562	8054
813.703	7860
813.845	7788
813.986	7438
814.127	7240
814.268	7217
814.41	7160
814.551	7194
814.692	7308
814.833	7099
814.974	7084
815.115	7122
815.256	7053
815.397	6951
815.539	6970
815.68	6818
815.821	6810
815.962	6844
816.103	6848
816.244	6711
816.385	6593
816.526	6585
816.666	6494
816.807	6342
816.948	6422
817.089	6475
817.23	6467
817.371	6395
817.512	6437
817.653	6448
817.793	6407
817.934	6422
818.075	6448
818.216	6448
818.356	6407
818.497	6251
818.638	6129
818.778	6213
818.919	6110
819.06	6148
819.2	6388
819.341	6372
819.481	6323
819.622	6578
819.762	6783
819.903	6734
820.043	6620
820.184	6574
820.324	6532
820.465	6692
820.605	6597
820.746	6650
820.886	6566
821.026	6681
821.167	6654
821.307	6787
821.447	6779
821.588	6654
821.728	6608
821.868	6525
822.008	6369
822.149	6327
822.289	6353
822.429	6163
822.569	6114
822.709	6167
822.849	5878
822.99	5961
823.13	5996
823.27	5958
823.41	5786
823.55	5786
823.69	5786
823.83	5767
823.97	5668
824.11	5535
824.25	5528
824.389	5524
824.529	5634
824.669	5501
824.809	5657
824.949	5668
825.089	5619
825.228	5570
825.368	5387
825.508	5376
825.648	5387
825.787	5349
825.927	5368
826.067	5288
826.206	5303
826.346	5414
826.485	5425
826.625	5368
826.765	5558
826.904	5490
827.044	5277
827.183	5204
827.323	5166
827.462	5239
827.601	5162
827.741	5189
827.88	5227
828.02	5136
828.159	5250
828.298	5326
828.437	5307
828.577	5303
828.716	5512
828.855	5288
828.994	5151
829.134	5121
829.273	5201
829.412	5170
829.551	5143
829.69	5189
829.829	5227
829.968	5379
830.107	5315
830.246	5261
830.385	5193
830.524	5086
830.663	5067
830.802	4942
830.941	4889
831.08	4889
831.219	4991
831.357	4957
831.496	5204
831.635	4965
831.774	4850
831.913	4877
832.051	4721
832.19	4733
832.329	4873
832.467	4717
832.606	4664
832.744	4725
832.883	4691
833.022	4725
833.16	4774
833.299	4839
833.437	4774
833.576	4809
833.714	4854
833.852	4858
833.991	4847
834.129	4976
834.267	4915
834.406	4938
834.544	4961
834.682	4995
834.821	4961
834.959	5170
835.097	4965
835.235	5121
835.373	5090
835.511	5124
835.65	5033
835.788	5006
835.926	4873
836.064	4904
836.202	4938
836.34	5140
836.478	5189
836.615	5079
836.753	5223
836.891	5254
837.029	5261
837.167	5174
837.305	5159
837.443	5151
837.58	5102
837.718	5235
837.856	5178
837.993	5140
838.131	5223
838.269	5155
838.406	5201
838.544	5166
838.681	5071
838.819	5014
838.956	4881
839.094	4904
839.231	4965
839.369	5079
839.506	5410
839.643	5284
839.781	5041
839.918	5022
840.055	5045
840.193	5086
840.33	5086
840.467	5124
840.604	5189
840.742	5391
840.879	5105
841.016	5109
841.153	5090
841.29	5345
841.427	5337
841.564	5299
841.701	5349
841.838	5280
841.975	5208
842.112	5246
842.249	5174
842.385	5113
842.522	5402
842.659	5174
842.796	5121
842.933	5181
843.069	5121
843.206	5185
843.343	5311
843.479	5254
843.616	5246
843.752	5041
843.889	5025
844.025	5254
844.162	5003
844.298	5193
844.435	5090
844.571	5033
844.708	5227
844.844	5299
844.98	5379
845.117	5307
845.253	5162
845.389	5083
845.525	5197
845.661	5151
845.798	5003
845.934	5162
846.07	5052
846.206	5166
846.342	5235
846.478	5147
846.614	5010
846.75	5003
846.886	4946
847.022	5197
847.158	4999
847.294	5064
847.429	5105
847.565	5060
847.701	5364
847.837	4873
847.972	4824
848.108	4984
848.244	4976
848.379	4805
848.515	4740
848.65	4714
848.786	4748
848.921	4801
849.057	4870
849.192	4949
849.328	4759
849.463	4858
849.598	4820
849.734	4744
849.869	4717
850.004	4618
850.14	4653
850.275	4584
850.41	4519
850.545	4538
850.68	4603
850.815	4618
850.95	4615
851.085	4828
851.22	4755
851.355	4668
851.49	4630
851.625	4622
851.76	4698
851.895	4584
852.03	4516
852.165	4622
852.299	4714
852.434	4790
852.569	4763
852.703	4778
852.838	4847
852.973	4911
853.107	4911
853.242	4752
853.376	4679
853.511	4573
853.645	4596
853.78	4850
853.914	4725
854.048	4634
854.183	4637
854.317	4710
854.451	4820
854.585	4641
854.72	4694
854.854	4748
854.988	4596
855.122	4634
855.256	4558
855.39	4717
855.524	4767
855.658	4702
855.792	4687
855.926	4702
856.06	4771
856.194	4714
856.327	4687
856.461	4637
856.595	4637
856.729	4599
856.862	4786
856.996	4729
857.13	4725
857.263	4767
857.397	4763
857.53	4687
857.664	4672
857.797	4733
857.931	4797
858.064	4698
858.197	4714
858.331	4664
858.464	4596
858.597	4523
858.731	4668
858.864	4611
858.997	4588
859.13	4596
859.263	4683
859.396	4668
859.529	4599
859.662	4580
859.795	4512
859.928	4630
860.061	4763
860.194	4755
860.327	4603
860.46	4538
860.592	4725
860.725	4672
860.858	4721
860.99	4565
861.123	4516
861.256	4516
861.388	4622
861.521	5357
861.653	4493
861.786	4421
861.918	4500
862.05	4516
862.183	4546
862.315	4596
862.447	4611
862.58	4573
862.712	4432
862.844	4295
862.976	4466
863.108	4474
863.24	4870
863.372	4386
863.504	4443
863.636	4363
863.768	4459
863.9	4466
864.032	4379
864.164	4413
864.296	4424
864.428	4535
864.559	4580
864.691	4527
864.823	4512
864.954	4474
865.086	4523
865.217	4440
865.349	4413
865.48	4424
865.612	4462
865.743	4630
865.875	4485
866.006	4386
866.137	4455
866.269	4470
866.4	4455
866.531	4405
866.662	4424
866.793	4398
866.924	4428
867.055	4466
867.186	4421
867.317	4405
867.448	4367
867.579	4379
867.71	4417
867.841	4310
867.972	4459
868.103	4447
868.233	4447
868.364	4474
868.495	4516
868.625	4675
868.756	4717
868.886	4615
869.017	4622
869.147	4763
869.278	4790
869.408	4626
869.539	4634
869.669	4706
869.799	4649
869.929	4744
870.06	4675
870.19	4957
870.32	4953
870.45	4919
870.58	5029
870.71	5090
870.84	5098
870.97	4904
871.1	4892
871.23	5094
871.36	5136
871.489	5056
871.619	5033
871.749	5067
871.879	5155
872.008	5197
872.138	5090
872.267	4991
872.397	4908
872.526	4771
872.656	4771
872.785	4771
872.915	4919
873.044	5067
873.173	4927
873.303	4942
873.432	4934
873.561	4987
873.69	4892
873.819	4881
873.948	4904
874.077	4831
874.206	4774
874.335	4816
874.464	4915
874.593	5010
874.722	4968
874.851	5117
874.979	5060
875.108	5029
875.237	4873
875.365	4896
875.494	4873
875.623	4949
875.751	4820
875.88	4919
876.008	4946
876.136	5029
876.265	5094
876.393	5330
876.521	5284
876.65	5212
876.778	5181
876.906	5147
877.034	4999
877.162	5086
877.29	4999
877.418	5056
877.546	5037
877.674	5037
877.802	5052
877.93	5006
878.058	4934
878.185	4900
878.313	4968
878.441	4927
878.568	4816
878.696	4881
878.824	4949
878.951	4995
879.079	5079
879.206	5288
879.333	5090
879.461	4911
879.588	5014
879.715	5117
879.842	5178
879.97	4976
880.097	4786
880.224	4721
880.351	4847
880.478	4858
880.605	4763
880.732	4771
880.859	5075
880.986	4866
881.112	4877
881.239	4801
881.366	4649
881.493	4637
881.619	4603
881.746	4653
881.872	4675
881.999	4611
882.125	4702
882.252	4816
882.378	4805
882.505	4957
882.631	4759
882.757	4675
882.883	4752
883.01	4763
883.136	4672
883.262	4641
883.388	4592
883.514	4816
883.64	4831
883.766	4759
883.892	4683
884.018	4679
884.143	4839
884.269	5014
884.395	4679
884.52	4584
884.646	4649
884.772	4615
884.897	4580
885.023	4653
885.148	4786
885.274	4927
885.399	4824
885.524	4710
885.65	4733
885.775	4752
885.9	4675
886.025	4828
886.15	4797
886.275	4714
886.4	4645
886.525	4717
886.65	4702
886.775	4706
886.9	4858
887.025	5014
887.149	4782
887.274	4630
887.399	4538
887.523	4615
887.648	4561
887.773	4580
887.897	4714
888.021	4816
888.146	4637
888.27	4812
888.395	4881
888.519	4782
888.643	4824
888.767	4828
888.891	4694
889.015	4565
889.139	4611
889.263	4611
889.387	4759
889.511	4862
889.635	4801
889.759	4645
889.883	4626
890.006	4694
890.13	4820
890.254	4588
890.377	4626
890.501	4558
890.624	4481
890.748	4653
890.871	4481
890.995	4436
891.118	4390
891.241	4519
891.364	4508
891.488	4664
891.611	4497
891.734	4565
891.857	4584
891.98	4516
892.103	4622
892.226	4554
892.349	4535
892.471	4436
892.594	4550
892.717	4611
892.839	4577
892.962	4611
893.085	4679
893.207	4577
893.33	4462
893.452	4523
893.575	4679
893.697	4596
893.819	4767
893.941	4843
894.064	4698
894.186	4542
894.308	4584
894.43	4675
894.552	4835
894.674	4721
894.796	4584
894.918	4603
895.04	4565
895.161	4668
895.283	4668
895.405	4561
895.526	4675
895.648	4664
895.769	4664
895.891	4721
896.012	4729
896.134	4710
896.255	4683
896.376	4622
896.498	4599
896.619	4694
896.74	4630
896.861	4580
896.982	4911
897.103	5079
897.224	4801
897.345	4736
897.466	4683
897.587	4752
897.708	4839
897.828	4782
897.949	4683
898.07	4550
898.19	4630
898.311	4881
898.431	4683
898.552	4729
898.672	4759
898.792	4816
898.913	4805
899.033	4577
899.153	4497
899.273	4459
899.393	4459
899.513	4554
899.633	4542
899.753	4489
899.873	4489
899.993	4603
900.113	4508
900.232	4618
900.352	4497
900.472	4512
900.591	4344
900.711	4508
900.83	4447
900.95	4634
901.069	4729
901.189	4569
901.308	4394
901.427	4306
901.546	4383
901.665	4500
901.784	4516
901.904	4386
902.023	4291
902.141	4169
902.26	4135
902.379	4299
902.498	4223
902.617	4253
902.735	4356
902.854	4394
902.973	4352
903.091	4219
903.21	4242
903.328	4314
903.446	4257
903.565	4246
903.683	4310
903.801	4215
903.919	4375
904.038	4405
904.156	4265
904.274	4379
904.392	4360
904.51	4443
904.627	4409
904.745	4546
904.863	4622
904.981	4379
905.098	4329
905.216	4352
905.334	4383
905.451	4360
905.569	4478
905.686	4538
905.803	4577
905.921	4428
906.038	4512
906.155	4428
906.272	4363
906.389	4466
906.506	4306
906.623	4371
906.74	4333
906.857	4310
906.974	4390
907.091	4596
907.208	4721
907.324	4630
907.441	4474
907.557	4329
907.674	4310
907.79	4348
907.907	4348
908.023	4500
908.139	4489
908.256	4417
908.372	4474
908.488	4421
908.604	4322
908.72	4333
908.836	4383
908.952	4398
909.068	4440
909.184	4527
909.3	4512
909.415	4535
909.531	4577
909.647	4371
909.762	4348
909.878	4356
909.993	4459
910.108	4459
910.224	4383
910.339	4455
910.454	4390
910.57	4333
910.685	4291
910.8	4607
910.915	4577
911.03	4512
911.145	4303
911.259	4291
911.374	4337
911.489	4284
911.604	4265
911.718	4162
911.833	4219
911.947	4063
912.062	4055
912.176	4207
912.291	4242
912.405	4223
912.519	4440
912.633	4512
912.748	4367
912.862	4318
912.976	4204
913.09	4131
913.204	4162
913.318	4257
913.431	4394
913.545	4341
913.659	4455
913.772	4333
913.886	4261
914	4207
914.113	4379
914.226	4451
914.34	4356
914.453	4223
914.566	4383
914.68	4303
914.793	4322
914.906	4204
915.019	4116
915.132	4040
915.245	4249
915.358	4181
915.47	4188
915.583	4268
915.696	4291
915.809	4371
915.921	4436
916.034	4257
916.146	4272
916.259	4230
916.371	4367
916.483	4356
916.595	4242
916.708	4344
916.82	4322
916.932	4299
917.044	4318
917.156	4337
917.268	4227
917.38	4268
917.491	4234
917.603	4352
917.715	4398
917.826	4428
917.938	4375
918.049	4257
918.161	4356
918.272	4497
918.384	4497
918.495	4470
918.606	4363
918.717	4211
918.828	4306
918.939	4379
919.05	4204
919.161	4318
919.272	4147
919.383	4242
919.494	4451
919.604	4611
919.715	4432
919.826	4348
919.936	4390
920.047	4531
920.157	4519
920.267	4675
920.378	4542
920.488	4508
920.598	4717
920.708	4847
920.818	4771
920.928	4729
921.038	4946
921.148	4923
921.258	4645
921.368	4542
921.477	4485
921.587	4421
921.697	4394
921.806	4519
921.916	4436
922.025	4234
922.134	4310
922.244	4211
922.353	4367
922.462	4166
922.571	4093
922.68	4006
922.789	3968
922.898	4059
923.007	4032
923.116	4059
923.224	4025
923.333	4090
923.442	3972
923.55	3953
923.659	3972
923.767	4139
923.876	4006
923.984	4116
924.092	4029
924.201	4051
924.309	4097
924.417	4112
924.525	4017
924.633	4128
924.741	4987
924.849	3934
924.956	4150
925.064	3941
925.172	3861
925.279	3941
925.387	4048
925.494	4048
925.602	4154
925.709	4196
925.816	4002
925.924	4124
926.031	4249
926.138	4162
926.245	4223
926.352	4067
926.459	4246
926.566	4310
926.673	4158
926.779	4097
926.886	4071
926.993	3934
927.099	3983
927.206	3903
927.312	3949
927.419	4097
927.525	4017
927.631	4101
927.737	3975
927.843	3998
927.95	3819
928.056	3956
928.162	3956
928.267	4063
928.373	4588
928.479	4154
928.585	3831
928.69	4048
928.796	4112
928.901	3960
929.007	3831
929.112	4006
929.218	3949
929.323	3953
929.428	3956
929.533	4105
929.638	3884
929.743	3937
929.848	4044
929.953	4002
930.058	3915
930.163	3762
930.267	3819
930.372	3949
930.477	3816
930.581	4093
930.685	3953
930.79	3785
930.894	3869
930.998	3876
931.103	4010
931.207	3667
931.311	3698
931.415	3663
931.519	3523
931.623	3557
