Data from test_V78500241_932.txt Node
Date: Fri Mar 25 16:55:28 CST 2022
User: usil
Spectrometer: V785-0024
Trigger mode: 0
Integration Time (sec): 4.000000E-1
Scans to average: 1
Nonlinearity correction enabled: false
Boxcar width: 0
Storing dark spectrum: false
XAxis mode: Wavelengths
Number of Pixels in Spectrum: 1024
>>>>>Begin Spectral Data<<<<<
801.071	8012
801.214	8035
801.356	7902
801.499	7909
801.641	7822
801.783	7898
801.926	7974
802.068	7883
802.211	8039
802.353	7997
802.496	7845
802.638	7856
802.78	7879
802.923	7894
803.065	7928
803.208	7894
803.35	8092
803.492	8157
803.635	8206
803.777	8058
803.919	8077
804.061	8412
804.204	8123
804.346	8073
804.488	7951
804.63	8092
804.773	8043
804.915	8142
805.057	8183
805.199	8202
805.341	8263
805.483	8229
805.626	8183
805.768	8084
805.91	8206
806.052	8172
806.194	8039
806.336	8263
806.478	8096
806.62	7986
806.762	8195
806.904	8259
807.046	8412
807.188	8351
807.33	8336
807.472	8301
807.614	8123
807.756	8119
807.898	7974
808.04	7879
808.182	7856
808.324	7902
808.465	7871
808.607	8054
808.749	8111
808.891	8199
809.033	8301
809.174	8221
809.316	8065
809.458	8012
809.6	7955
809.741	8062
809.883	8024
810.025	8065
810.166	8039
810.308	8020
810.45	8035
810.591	7890
810.733	7753
810.875	7685
811.016	7468
811.158	7472
811.299	7537
811.441	7715
811.582	7639
811.724	7559
811.865	7571
812.007	7514
812.148	7597
812.29	7647
812.431	7715
812.573	7818
812.714	8008
812.855	8134
812.997	8142
813.138	8286
813.279	8210
813.421	8058
813.562	8020
813.703	7845
813.845	7719
813.986	7445
814.127	7274
814.268	7278
814.41	7217
814.551	7137
814.692	7129
814.833	7023
814.974	7095
815.115	7084
815.256	6935
815.397	6916
815.539	6954
815.68	6806
815.821	6730
815.962	6852
816.103	6798
816.244	6703
816.385	6665
816.526	6658
816.666	6441
816.807	6292
816.948	6418
817.089	6471
817.23	6422
817.371	6433
817.512	6403
817.653	6410
817.793	6365
817.934	6414
818.075	6422
818.216	6471
818.356	6384
818.497	6216
818.638	6133
818.778	6197
818.919	6098
819.06	6178
819.2	6235
819.341	6292
819.481	6334
819.622	6494
819.762	6662
819.903	6616
820.043	6559
820.184	6593
820.324	6650
820.465	6711
820.605	6631
820.746	6601
820.886	6509
821.026	6612
821.167	6692
821.307	6837
821.447	6719
821.588	6639
821.728	6620
821.868	6540
822.008	6350
822.149	6350
822.289	6372
822.429	6144
822.569	6072
822.709	6095
822.849	5969
822.99	5882
823.13	5901
823.27	5950
823.41	5767
823.55	5798
823.69	5786
823.83	5805
823.97	5707
824.11	5524
824.25	5570
824.389	5604
824.529	5566
824.669	5532
824.809	5642
824.949	5653
825.089	5623
825.228	5570
825.368	5406
825.508	5376
825.648	5391
825.787	5410
825.927	5436
826.067	5299
826.206	5357
826.346	5436
826.485	5417
826.625	5417
826.765	5535
826.904	5478
827.044	5223
827.183	5235
827.323	5132
827.462	5326
827.601	5201
827.741	5204
827.88	5277
828.02	5170
828.159	5220
828.298	5299
828.437	5395
828.577	5322
828.716	5520
828.855	5357
828.994	5193
829.134	5155
829.273	5265
829.412	5155
829.551	5193
829.69	5208
829.829	5265
829.968	5360
830.107	5292
830.246	5277
830.385	5170
830.524	5181
830.663	5113
830.802	5006
830.941	4930
831.08	4896
831.219	5064
831.357	4987
831.496	5235
831.635	4900
831.774	4938
831.913	4839
832.051	4797
832.19	4752
832.329	4904
832.467	4725
832.606	4622
832.744	4725
832.883	4771
833.022	4744
833.16	4847
833.299	4831
833.437	4801
833.576	4820
833.714	4896
833.852	4892
833.991	4881
834.129	5006
834.267	5003
834.406	4934
834.544	4995
834.682	4968
834.821	4987
834.959	5216
835.097	5052
835.235	5090
835.373	5094
835.511	5136
835.65	5064
835.788	5033
835.926	4908
836.064	4927
836.202	4900
836.34	5174
836.478	5185
836.615	5155
836.753	5284
836.891	5296
837.029	5280
837.167	5174
837.305	5197
837.443	5204
837.58	5071
837.718	5261
837.856	5265
837.993	5204
838.131	5204
838.269	5288
838.406	5197
838.544	5212
838.681	5090
838.819	5060
838.956	4900
839.094	4896
839.231	5006
839.369	5048
839.506	5436
839.643	5303
839.781	5079
839.918	5056
840.055	5132
840.193	5128
840.33	5124
840.467	5178
840.604	5216
840.742	5490
840.879	5090
841.016	5128
841.153	5185
841.29	5368
841.427	5357
841.564	5326
841.701	5341
841.838	5311
841.975	5242
842.112	5296
842.249	5208
842.385	5121
842.522	5334
842.659	5181
842.796	5109
842.933	5235
843.069	5132
843.206	5155
843.343	5307
843.479	5277
843.616	5334
843.752	5086
843.889	4999
844.025	5220
844.162	5041
844.298	5235
844.435	5075
844.571	5056
844.708	5159
844.844	5318
844.98	5372
845.117	5341
845.253	5162
845.389	5090
845.525	5201
845.661	5151
845.798	4991
845.934	5155
846.07	5056
846.206	5220
846.342	5299
846.478	5147
846.614	5041
846.75	4987
846.886	5010
847.022	5166
847.158	5090
847.294	5056
847.429	5151
847.565	5102
847.701	5376
847.837	4820
847.972	4816
848.108	4957
848.244	4999
848.379	4767
848.515	4752
848.65	4733
848.786	4771
848.921	4790
849.057	4835
849.192	4957
849.328	4809
849.463	4911
849.598	4835
849.734	4790
849.869	4710
850.004	4641
850.14	4649
850.275	4645
850.41	4542
850.545	4573
850.68	4653
850.815	4653
850.95	4656
851.085	4839
851.22	4748
851.355	4653
851.49	4672
851.625	4626
851.76	4683
851.895	4603
852.03	4561
852.165	4618
852.299	4736
852.434	4778
852.569	4763
852.703	4797
852.838	4847
852.973	4965
853.107	4923
853.242	4706
853.376	4714
853.511	4577
853.645	4626
853.78	4816
853.914	4771
854.048	4626
854.183	4637
854.317	4714
854.451	4873
854.585	4729
854.72	4580
854.854	4748
854.988	4615
855.122	4679
855.256	4565
855.39	4733
855.524	4790
855.658	4721
855.792	4683
855.926	4752
856.06	4782
856.194	4774
856.327	4694
856.461	4630
856.595	4630
856.729	4683
856.862	4748
856.996	4645
857.13	4721
857.263	4786
857.397	4850
857.53	4702
857.664	4748
857.797	4759
857.931	4820
858.064	4694
858.197	4782
858.331	4698
858.464	4630
858.597	4573
858.731	4584
858.864	4660
858.997	4618
859.13	4672
859.263	4675
859.396	4706
859.529	4618
859.662	4596
859.795	4527
859.928	4615
860.061	4793
860.194	4816
860.327	4653
860.46	4554
860.592	4717
860.725	4714
860.858	4744
860.99	4546
861.123	4577
861.256	4523
861.388	4626
861.521	5185
861.653	4474
861.786	4447
861.918	4504
862.05	4478
862.183	4596
862.315	4660
862.447	4649
862.58	4565
862.712	4409
862.844	4348
862.976	4493
863.108	4466
863.24	4778
863.372	4341
863.504	4493
863.636	4440
863.768	4554
863.9	4447
864.032	4318
864.164	4436
864.296	4519
864.428	4546
864.559	4516
864.691	4546
864.823	4538
864.954	4462
865.086	4550
865.217	4489
865.349	4436
865.48	4470
865.612	4478
865.743	4660
865.875	4451
866.006	4375
866.137	4500
866.269	4428
866.4	4440
866.531	4432
866.662	4413
866.793	4360
866.924	4481
867.055	4516
867.186	4504
867.317	4432
867.448	4394
867.579	4386
867.71	4409
867.841	4405
867.972	4451
868.103	4489
868.233	4466
868.364	4455
868.495	4493
868.625	4683
868.756	4714
868.886	4584
869.017	4634
869.147	4793
869.278	4752
869.408	4683
869.539	4675
869.669	4702
869.799	4626
869.929	4752
870.06	4759
870.19	4949
870.32	4896
870.45	4919
870.58	4984
870.71	5143
870.84	5090
870.97	4892
871.1	4942
871.23	5155
871.36	5109
871.489	4995
871.619	5124
871.749	5075
871.879	5143
872.008	5239
872.138	5060
872.267	5010
872.397	4866
872.526	4801
872.656	4729
872.785	4820
872.915	4991
873.044	5083
873.173	4915
873.303	5014
873.432	4934
873.561	4991
873.69	4881
873.819	4847
873.948	4854
874.077	4816
874.206	4771
874.335	4790
874.464	4927
874.593	5083
874.722	4934
874.851	5143
874.979	5033
875.108	5045
875.237	4946
875.365	4870
875.494	4862
875.623	4942
875.751	4862
875.88	4858
876.008	4995
876.136	4980
876.265	5220
876.393	5337
876.521	5288
876.65	5239
876.778	5147
876.906	5105
877.034	5010
877.162	5067
877.29	5003
877.418	5067
877.546	4995
877.674	5083
877.802	5018
877.93	5041
878.058	4953
878.185	4930
878.313	4942
878.441	4980
878.568	4782
878.696	4900
878.824	4961
878.951	4999
879.079	5170
879.206	5288
879.333	5147
879.461	4995
879.588	4957
879.715	5143
879.842	5227
879.97	5025
880.097	4835
880.224	4774
880.351	4774
880.478	4843
880.605	4850
880.732	4805
880.859	5064
880.986	4934
881.112	4911
881.239	4793
881.366	4672
881.493	4645
881.619	4588
881.746	4637
881.872	4672
881.999	4702
882.125	4672
882.252	4767
882.378	4816
882.505	4953
882.631	4824
882.757	4672
882.883	4733
883.01	4748
883.136	4683
883.262	4588
883.388	4611
883.514	4786
883.64	4858
883.766	4763
883.892	4702
884.018	4687
884.143	4877
884.269	5006
884.395	4634
884.52	4641
884.646	4641
884.772	4550
884.897	4558
885.023	4645
885.148	4812
885.274	4835
885.399	4858
885.524	4702
885.65	4660
885.775	4748
885.9	4698
886.025	4862
886.15	4774
886.275	4675
886.4	4645
886.525	4752
886.65	4706
886.775	4721
886.9	4934
887.025	5048
887.149	4835
887.274	4649
887.399	4615
887.523	4584
887.648	4561
887.773	4596
887.897	4771
888.021	4793
888.146	4694
888.27	4782
888.395	4911
888.519	4812
888.643	4843
888.767	4847
888.891	4714
889.015	4641
889.139	4675
889.263	4577
889.387	4790
889.511	4866
889.635	4828
889.759	4653
889.883	4641
890.006	4763
890.13	4816
890.254	4634
890.377	4710
890.501	4561
890.624	4485
890.748	4630
890.871	4558
890.995	4474
891.118	4363
891.241	4459
891.364	4588
891.488	4607
891.611	4489
891.734	4550
891.857	4599
891.98	4527
892.103	4618
892.226	4558
892.349	4554
892.471	4428
892.594	4554
892.717	4596
892.839	4542
892.962	4573
893.085	4634
893.207	4573
893.33	4516
893.452	4497
893.575	4656
893.697	4531
893.819	4805
893.941	4820
894.064	4778
894.186	4546
894.308	4531
894.43	4752
894.552	4793
894.674	4752
894.796	4596
894.918	4637
895.04	4611
895.161	4706
895.283	4675
895.405	4546
895.526	4634
895.648	4702
895.769	4683
895.891	4687
896.012	4767
896.134	4675
896.255	4702
896.376	4618
896.498	4653
896.619	4675
896.74	4664
896.861	4641
896.982	4930
897.103	5105
897.224	4873
897.345	4733
897.466	4672
897.587	4717
897.708	4843
897.828	4850
897.949	4675
898.07	4569
898.19	4645
898.311	4809
898.431	4675
898.552	4744
898.672	4854
898.792	4793
898.913	4733
899.033	4656
899.153	4500
899.273	4409
899.393	4489
899.513	4462
899.633	4493
899.753	4558
899.873	4481
899.993	4538
900.113	4531
900.232	4558
900.352	4554
900.472	4523
900.591	4447
900.711	4535
900.83	4383
900.95	4622
901.069	4714
901.189	4478
901.308	4337
901.427	4318
901.546	4356
901.665	4516
901.784	4516
901.904	4371
902.023	4322
902.141	4196
902.26	4177
902.379	4303
902.498	4227
902.617	4211
902.735	4375
902.854	4383
902.973	4379
903.091	4223
903.21	4257
903.328	4291
903.446	4246
903.565	4230
903.683	4344
903.801	4303
903.919	4390
904.038	4421
904.156	4348
904.274	4459
904.392	4402
904.51	4428
904.627	4451
904.745	4519
904.863	4630
904.981	4402
905.098	4303
905.216	4398
905.334	4436
905.451	4443
905.569	4485
905.686	4561
905.803	4565
905.921	4394
906.038	4527
906.155	4451
906.272	4390
906.389	4447
906.506	4344
906.623	4394
906.74	4417
906.857	4322
906.974	4360
907.091	4599
907.208	4649
907.324	4603
907.441	4535
907.557	4360
907.674	4344
907.79	4314
907.907	4394
908.023	4489
908.139	4455
908.256	4417
908.372	4440
908.488	4478
908.604	4295
908.72	4310
908.836	4390
908.952	4367
909.068	4348
909.184	4558
909.3	4478
909.415	4603
909.531	4500
909.647	4341
909.762	4341
909.878	4363
909.993	4409
910.108	4451
910.224	4386
910.339	4424
910.454	4394
910.57	4322
910.685	4287
910.8	4634
910.915	4580
911.03	4500
911.145	4341
911.259	4325
911.374	4371
911.489	4276
911.604	4291
911.718	4154
911.833	4192
911.947	4036
912.062	4032
912.176	4215
912.291	4261
912.405	4257
912.519	4417
912.633	4485
912.748	4417
912.862	4318
912.976	4227
913.09	4067
913.204	4169
913.318	4223
913.431	4348
913.545	4329
913.659	4440
913.772	4314
913.886	4291
914	4257
914.113	4386
914.226	4455
914.34	4417
914.453	4192
914.566	4394
914.68	4306
914.793	4325
914.906	4169
915.019	4082
915.132	4093
915.245	4196
915.358	4154
915.47	4238
915.583	4257
915.696	4287
915.809	4375
915.921	4436
916.034	4219
916.146	4223
916.259	4227
916.371	4394
916.483	4367
916.595	4299
916.708	4242
916.82	4303
916.932	4325
917.044	4299
917.156	4295
917.268	4242
917.38	4242
917.491	4280
917.603	4325
917.715	4424
917.826	4417
917.938	4360
918.049	4287
918.161	4398
918.272	4527
918.384	4531
918.495	4421
918.606	4268
918.717	4230
918.828	4306
918.939	4375
919.05	4238
919.161	4333
919.272	4143
919.383	4261
919.494	4481
919.604	4611
919.715	4413
919.826	4299
919.936	4367
920.047	4531
920.157	4489
920.267	4721
920.378	4546
920.488	4500
920.598	4645
920.708	4877
920.818	4759
920.928	4729
921.038	4949
921.148	4927
921.258	4645
921.368	4546
921.477	4485
921.587	4443
921.697	4367
921.806	4535
921.916	4375
922.025	4261
922.134	4272
922.244	4238
922.353	4337
922.462	4154
922.571	4143
922.68	3991
922.789	3994
922.898	4013
923.007	3991
923.116	4124
923.224	4013
923.333	4059
923.442	3953
923.55	3941
923.659	3968
923.767	4128
923.876	4002
923.984	4078
924.092	4017
924.201	4090
924.309	4067
924.417	4093
924.525	4032
924.633	4109
924.741	5018
924.849	3956
924.956	4120
925.064	3987
925.172	3926
925.279	3934
925.387	4063
925.494	4051
925.602	4181
925.709	4188
925.816	4017
925.924	4166
926.031	4204
926.138	4135
926.245	4185
926.352	4093
926.459	4280
926.566	4303
926.673	4169
926.779	4051
926.886	4101
926.993	3983
927.099	3964
927.206	3915
927.312	3934
927.419	4044
927.525	4021
927.631	4044
927.737	3949
927.843	3911
927.95	3819
928.056	3987
928.162	3987
928.267	4025
928.373	4694
928.479	4090
928.585	3850
928.69	4017
928.796	4082
928.901	3998
929.007	3835
929.112	4017
929.218	3979
929.323	3873
929.428	3907
929.533	4078
929.638	3926
929.743	3953
929.848	4029
929.953	3987
930.058	3972
930.163	3759
930.267	3800
930.372	4029
930.477	3812
930.581	4105
930.685	3960
930.79	3823
930.894	3861
930.998	3899
931.103	4036
931.207	3743
931.311	3660
931.415	3656
931.519	3481
931.623	3576
