Data from test_V78500241_2382.txt Node
Date: Fri Mar 25 17:05:33 CST 2022
User: usil
Spectrometer: V785-0024
Trigger mode: 0
Integration Time (sec): 4.000000E-1
Scans to average: 1
Nonlinearity correction enabled: false
Boxcar width: 0
Storing dark spectrum: false
XAxis mode: Wavelengths
Number of Pixels in Spectrum: 1024
>>>>>Begin Spectral Data<<<<<
801.071	8027
801.214	7986
801.356	7860
801.499	7830
801.641	7909
801.783	7890
801.926	7982
802.068	7947
802.211	8039
802.353	7963
802.496	7909
802.638	7856
802.78	7936
802.923	7909
803.065	7860
803.208	7887
803.35	8024
803.492	8020
803.635	8161
803.777	8073
803.919	8218
804.061	8473
804.204	8202
804.346	8126
804.488	7898
804.63	8123
804.773	7951
804.915	8130
805.057	8298
805.199	8103
805.341	8183
805.483	8259
805.626	8271
805.768	8081
805.91	8176
806.052	8210
806.194	8149
806.336	8252
806.478	8134
806.62	8046
806.762	8138
806.904	8225
807.046	8385
807.188	8385
807.33	8370
807.472	8313
807.614	8206
807.756	8115
807.898	8012
808.04	7906
808.182	7864
808.324	7894
808.465	7868
808.607	8084
808.749	8161
808.891	8195
809.033	8294
809.174	8240
809.316	8119
809.458	8119
809.6	8084
809.741	8035
809.883	8058
810.025	8199
810.166	8092
810.308	8024
810.45	8035
810.591	7845
810.733	7715
810.875	7746
811.016	7559
811.158	7419
811.299	7613
811.441	7731
811.582	7643
811.724	7537
811.865	7529
812.007	7624
812.148	7609
812.29	7647
812.431	7757
812.573	7894
812.714	8008
812.855	8168
812.997	8244
813.138	8256
813.279	8161
813.421	8073
813.562	7932
813.703	7879
813.845	7693
813.986	7453
814.127	7259
814.268	7175
814.41	7206
814.551	7152
814.692	7225
814.833	7129
814.974	7072
815.115	7072
815.256	6970
815.397	7008
815.539	6916
815.68	6863
815.821	6798
815.962	6894
816.103	6741
816.244	6696
816.385	6593
816.526	6593
816.666	6536
816.807	6315
816.948	6486
817.089	6437
817.23	6467
817.371	6418
817.512	6418
817.653	6433
817.793	6376
817.934	6448
818.075	6483
818.216	6414
818.356	6418
818.497	6239
818.638	6155
818.778	6159
818.919	6159
819.06	6163
819.2	6315
819.341	6281
819.481	6426
819.622	6574
819.762	6741
819.903	6707
820.043	6589
820.184	6623
820.324	6574
820.465	6654
820.605	6741
820.746	6662
820.886	6528
821.026	6662
821.167	6677
821.307	6791
821.447	6772
821.588	6726
821.728	6585
821.868	6506
822.008	6384
822.149	6365
822.289	6365
822.429	6175
822.569	6125
822.709	6140
822.849	5866
822.99	5882
823.13	5927
823.27	5958
823.41	5802
823.55	5752
823.69	5752
823.83	5794
823.97	5707
824.11	5600
824.25	5524
824.389	5573
824.529	5619
824.669	5512
824.809	5665
824.949	5634
825.089	5573
825.228	5524
825.368	5360
825.508	5349
825.648	5341
825.787	5402
825.927	5364
826.067	5254
826.206	5318
826.346	5383
826.485	5379
826.625	5391
826.765	5585
826.904	5535
827.044	5284
827.183	5162
827.323	5151
827.462	5273
827.601	5174
827.741	5216
827.88	5223
828.02	5105
828.159	5185
828.298	5311
828.437	5379
828.577	5250
828.716	5459
828.855	5330
828.994	5159
829.134	5166
829.273	5201
829.412	5151
829.551	5124
829.69	5140
829.829	5250
829.968	5376
830.107	5261
830.246	5231
830.385	5204
830.524	5124
830.663	5029
830.802	4968
830.941	4866
831.08	4824
831.219	4953
831.357	4961
831.496	5170
831.635	4927
831.774	4843
831.913	4816
832.051	4748
832.19	4729
832.329	4896
832.467	4683
832.606	4672
832.744	4736
832.883	4740
833.022	4725
833.16	4755
833.299	4862
833.437	4809
833.576	4801
833.714	4873
833.852	4816
833.991	4866
834.129	4957
834.267	4919
834.406	4915
834.544	4949
834.682	4953
834.821	4911
834.959	5181
835.097	4972
835.235	5178
835.373	5041
835.511	5124
835.65	5083
835.788	5010
835.926	4930
836.064	4862
836.202	4892
836.34	5113
836.478	5216
836.615	5197
836.753	5166
836.891	5231
837.029	5265
837.167	5216
837.305	5147
837.443	5132
837.58	5025
837.718	5235
837.856	5178
837.993	5124
838.131	5178
838.269	5250
838.406	5170
838.544	5220
838.681	5041
838.819	4976
838.956	4870
839.094	4885
839.231	4961
839.369	5018
839.506	5417
839.643	5269
839.781	5033
839.918	5064
840.055	5090
840.193	5083
840.33	5071
840.467	5124
840.604	5174
840.742	5452
840.879	5086
841.016	5048
841.153	5151
841.29	5395
841.427	5345
841.564	5296
841.701	5364
841.838	5292
841.975	5254
842.112	5273
842.249	5075
842.385	5117
842.522	5307
842.659	5155
842.796	5128
842.933	5201
843.069	5159
843.206	5162
843.343	5288
843.479	5204
843.616	5250
843.752	5037
843.889	4976
844.025	5166
844.162	5014
844.298	5143
844.435	5075
844.571	5071
844.708	5197
844.844	5299
844.98	5299
845.117	5239
845.253	5113
845.389	5098
845.525	5193
845.661	5121
845.798	4995
845.934	5113
846.07	5033
846.206	5204
846.342	5265
846.478	5235
846.614	5029
846.75	4938
846.886	4915
847.022	5162
847.158	5029
847.294	5052
847.429	5117
847.565	5105
847.701	5258
847.837	4858
847.972	4835
848.108	4915
848.244	4915
848.379	4759
848.515	4714
848.65	4717
848.786	4752
848.921	4752
849.057	4782
849.192	4866
849.328	4820
849.463	4805
849.598	4752
849.734	4733
849.869	4664
850.004	4611
850.14	4622
850.275	4615
850.41	4519
850.545	4542
850.68	4603
850.815	4618
850.95	4599
851.085	4854
851.22	4675
851.355	4634
851.49	4592
851.625	4634
851.76	4641
851.895	4561
852.03	4569
852.165	4653
852.299	4679
852.434	4801
852.569	4767
852.703	4752
852.838	4828
852.973	4938
853.107	4942
853.242	4793
853.376	4691
853.511	4565
853.645	4588
853.78	4771
853.914	4717
854.048	4687
854.183	4615
854.317	4752
854.451	4889
854.585	4729
854.72	4672
854.854	4752
854.988	4668
855.122	4649
855.256	4550
855.39	4664
855.524	4790
855.658	4736
855.792	4729
855.926	4771
856.06	4790
856.194	4850
856.327	4736
856.461	4653
856.595	4702
856.729	4683
856.862	4767
856.996	4733
857.13	4782
857.263	4820
857.397	4839
857.53	4755
857.664	4759
857.797	4790
857.931	4797
858.064	4675
858.197	4843
858.331	4698
858.464	4637
858.597	4546
858.731	4664
858.864	4653
858.997	4637
859.13	4687
859.263	4736
859.396	4725
859.529	4630
859.662	4622
859.795	4607
859.928	4683
860.061	4774
860.194	4854
860.327	4653
860.46	4588
860.592	4729
860.725	4778
860.858	4809
860.99	4573
861.123	4546
861.256	4554
861.388	4599
861.521	5368
861.653	4497
861.786	4443
861.918	4527
862.05	4577
862.183	4622
862.315	4634
862.447	4649
862.58	4637
862.712	4436
862.844	4386
862.976	4519
863.108	4474
863.24	4816
863.372	4375
863.504	4447
863.636	4466
863.768	4527
863.9	4440
864.032	4413
864.164	4417
864.296	4527
864.428	4577
864.559	4634
864.691	4519
864.823	4599
864.954	4538
865.086	4527
865.217	4493
865.349	4424
865.48	4489
865.612	4489
865.743	4668
865.875	4493
866.006	4474
866.137	4523
866.269	4493
866.4	4455
866.531	4440
866.662	4424
866.793	4424
866.924	4443
867.055	4512
867.186	4447
867.317	4481
867.448	4402
867.579	4405
867.71	4436
867.841	4413
867.972	4512
868.103	4519
868.233	4451
868.364	4436
868.495	4546
868.625	4664
868.756	4763
868.886	4622
869.017	4660
869.147	4812
869.278	4763
869.408	4694
869.539	4660
869.669	4812
869.799	4656
869.929	4801
870.06	4790
870.19	5010
870.32	4942
870.45	4972
870.58	5014
870.71	5155
870.84	5136
870.97	4946
871.1	4843
871.23	5197
871.36	5178
871.489	5037
871.619	5090
871.749	5140
871.879	5159
872.008	5231
872.138	5109
872.267	5018
872.397	4843
872.526	4839
872.656	4759
872.785	4797
872.915	4980
873.044	5041
873.173	5014
873.303	4968
873.432	5003
873.561	5014
873.69	4892
873.819	4889
873.948	4949
874.077	4809
874.206	4816
874.335	4843
874.464	4942
874.593	5067
874.722	4968
874.851	5128
874.979	5060
875.108	5045
875.237	4934
875.365	4847
875.494	4938
875.623	4995
875.751	4843
875.88	4892
876.008	4972
876.136	5064
876.265	5212
876.393	5383
876.521	5273
876.65	5299
876.778	5231
876.906	5109
877.034	5140
877.162	5113
877.29	5033
877.418	5124
877.546	5086
877.674	5079
877.802	5048
877.93	5018
878.058	4930
878.185	4889
878.313	4999
878.441	5045
878.568	4820
878.696	4942
878.824	4991
878.951	5003
879.079	5155
879.206	5269
879.333	5136
879.461	5003
879.588	5003
879.715	5162
879.842	5265
879.97	5041
880.097	4824
880.224	4748
880.351	4805
880.478	4801
880.605	4831
880.732	4835
880.859	5136
880.986	4896
881.112	4949
881.239	4786
881.366	4725
881.493	4649
881.619	4672
881.746	4694
881.872	4656
881.999	4649
882.125	4733
882.252	4797
882.378	4835
882.505	5045
882.631	4850
882.757	4721
882.883	4797
883.01	4847
883.136	4660
883.262	4645
883.388	4645
883.514	4850
883.64	4953
883.766	4790
883.892	4702
884.018	4706
884.143	4934
884.269	5067
884.395	4694
884.52	4672
884.646	4653
884.772	4535
884.897	4596
885.023	4675
885.148	4809
885.274	4908
885.399	4843
885.524	4771
885.65	4691
885.775	4809
885.9	4748
886.025	4877
886.15	4816
886.275	4763
886.4	4710
886.525	4733
886.65	4687
886.775	4729
886.9	4949
887.025	5083
887.149	4790
887.274	4653
887.399	4630
887.523	4588
887.648	4592
887.773	4626
887.897	4812
888.021	4790
888.146	4675
888.27	4831
888.395	4968
888.519	4820
888.643	4866
888.767	4885
888.891	4736
889.015	4634
889.139	4683
889.263	4592
889.387	4778
889.511	4873
889.635	4797
889.759	4653
889.883	4740
890.006	4778
890.13	4786
890.254	4611
890.377	4717
890.501	4561
890.624	4569
890.748	4653
890.871	4527
890.995	4432
891.118	4432
891.241	4558
891.364	4554
891.488	4683
891.611	4523
891.734	4565
891.857	4641
891.98	4626
892.103	4653
892.226	4611
892.349	4535
892.471	4474
892.594	4569
892.717	4626
892.839	4603
892.962	4573
893.085	4672
893.207	4641
893.33	4470
893.452	4588
893.575	4672
893.697	4558
893.819	4824
893.941	4828
894.064	4824
894.186	4607
894.308	4577
894.43	4733
894.552	4873
894.674	4778
894.796	4607
894.918	4599
895.04	4584
895.161	4683
895.283	4694
895.405	4630
895.526	4615
895.648	4725
895.769	4714
895.891	4767
896.012	4801
896.134	4710
896.255	4729
896.376	4668
896.498	4592
896.619	4679
896.74	4622
896.861	4618
896.982	4991
897.103	5086
897.224	4850
897.345	4748
897.466	4645
897.587	4729
897.708	4900
897.828	4759
897.949	4694
898.07	4573
898.19	4714
898.311	4866
898.431	4755
898.552	4790
898.672	4752
898.792	4858
898.913	4752
899.033	4622
899.153	4516
899.273	4436
899.393	4573
899.513	4550
899.633	4569
899.753	4584
899.873	4535
899.993	4565
900.113	4584
900.232	4626
900.352	4497
900.472	4489
900.591	4417
900.711	4485
900.83	4504
900.95	4599
901.069	4733
901.189	4611
901.308	4405
901.427	4299
901.546	4443
901.665	4432
901.784	4558
901.904	4398
902.023	4322
902.141	4181
902.26	4204
902.379	4303
902.498	4215
902.617	4230
902.735	4405
902.854	4409
902.973	4398
903.091	4223
903.21	4303
903.328	4325
903.446	4287
903.565	4238
903.683	4390
903.801	4238
903.919	4440
904.038	4398
904.156	4276
904.274	4421
904.392	4390
904.51	4440
904.627	4455
904.745	4550
904.863	4630
904.981	4428
905.098	4325
905.216	4333
905.334	4466
905.451	4405
905.569	4436
905.686	4577
905.803	4656
905.921	4424
906.038	4542
906.155	4500
906.272	4413
906.389	4489
906.506	4344
906.623	4383
906.74	4409
906.857	4363
906.974	4367
907.091	4565
907.208	4698
907.324	4607
907.441	4523
907.557	4383
907.674	4325
907.79	4333
907.907	4417
908.023	4489
908.139	4497
908.256	4440
908.372	4516
908.488	4459
908.604	4375
908.72	4318
908.836	4409
908.952	4402
909.068	4466
909.184	4607
909.3	4466
909.415	4603
909.531	4550
909.647	4360
909.762	4386
909.878	4363
909.993	4402
910.108	4455
910.224	4447
910.339	4478
910.454	4383
910.57	4367
910.685	4341
910.8	4630
910.915	4630
911.03	4561
911.145	4360
911.259	4352
911.374	4398
911.489	4325
911.604	4291
911.718	4181
911.833	4227
911.947	4101
912.062	4063
912.176	4280
912.291	4280
912.405	4249
912.519	4470
912.633	4527
912.748	4386
912.862	4325
912.976	4200
913.09	4116
913.204	4238
913.318	4284
913.431	4375
913.545	4383
913.659	4500
913.772	4367
913.886	4230
914	4211
914.113	4390
914.226	4409
914.34	4394
914.453	4234
914.566	4466
914.68	4348
914.793	4352
914.906	4181
915.019	4124
915.132	4078
915.245	4196
915.358	4188
915.47	4242
915.583	4310
915.696	4284
915.809	4424
915.921	4455
916.034	4291
916.146	4280
916.259	4249
916.371	4432
916.483	4405
916.595	4265
916.708	4371
916.82	4360
916.932	4337
917.044	4363
917.156	4367
917.268	4276
917.38	4310
917.491	4265
917.603	4386
917.715	4462
917.826	4424
917.938	4379
918.049	4204
918.161	4394
918.272	4546
918.384	4554
918.495	4470
918.606	4291
918.717	4280
918.828	4356
918.939	4375
919.05	4280
919.161	4367
919.272	4120
919.383	4211
919.494	4462
919.604	4656
919.715	4447
919.826	4360
919.936	4394
920.047	4569
920.157	4508
920.267	4733
920.378	4554
920.488	4527
920.598	4805
920.708	4896
920.818	4759
920.928	4801
921.038	5003
921.148	4995
921.258	4664
921.368	4622
921.477	4558
921.587	4516
921.697	4386
921.806	4519
921.916	4432
922.025	4280
922.134	4333
922.244	4291
922.353	4352
922.462	4223
922.571	4173
922.68	4082
922.789	4017
922.898	4074
923.007	4002
923.116	4158
923.224	4116
923.333	4143
923.442	4036
923.55	4067
923.659	4082
923.767	4181
923.876	4051
923.984	4143
924.092	4086
924.201	4112
924.309	4128
924.417	4169
924.525	4116
924.633	4128
924.741	5102
924.849	3975
924.956	4177
925.064	3998
925.172	3918
925.279	4002
925.387	4120
925.494	4101
925.602	4287
925.709	4242
925.816	4128
925.924	4162
926.031	4253
926.138	4215
926.245	4207
926.352	4143
926.459	4318
926.566	4318
926.673	4204
926.779	4120
926.886	4105
926.993	4040
927.099	4036
927.206	3979
927.312	3998
927.419	4063
927.525	4074
927.631	4131
927.737	3991
927.843	3979
927.95	3880
928.056	4013
928.162	4036
928.267	4109
928.373	4740
928.479	4135
928.585	3945
928.69	4059
928.796	4188
928.901	4006
929.007	3922
929.112	4036
929.218	4036
929.323	3994
929.428	3975
929.533	4112
929.638	3945
929.743	4006
929.848	4071
929.953	4017
930.058	3956
930.163	3812
930.267	3888
930.372	4044
930.477	3819
930.581	4112
930.685	3987
930.79	3842
930.894	3941
930.998	3892
931.103	4078
931.207	3762
931.311	3720
931.415	3724
931.519	3561
931.623	3606
