Data from test_V78500241_1819.txt Node
Date: Fri Mar 25 17:01:38 CST 2022
User: usil
Spectrometer: V785-0024
Trigger mode: 0
Integration Time (sec): 4.000000E-1
Scans to average: 1
Nonlinearity correction enabled: false
Boxcar width: 0
Storing dark spectrum: false
XAxis mode: Wavelengths
Number of Pixels in Spectrum: 1024
>>>>>Begin Spectral Data<<<<<
801.071	7982
801.214	7967
801.356	7868
801.499	7898
801.641	7780
801.783	7780
801.926	7993
802.068	7940
802.211	7970
802.353	8020
802.496	7841
802.638	7902
802.78	7864
802.923	7887
803.065	7951
803.208	7906
803.35	7940
803.492	8123
803.635	8138
803.777	7963
803.919	8115
804.061	8400
804.204	8157
804.346	8084
804.488	7986
804.63	8111
804.773	8020
804.915	8092
805.057	8275
805.199	8176
805.341	8225
805.483	8339
805.626	8199
805.768	8126
805.91	8233
806.052	8142
806.194	8111
806.336	8267
806.478	8096
806.62	8058
806.762	8123
806.904	8233
807.046	8495
807.188	8343
807.33	8332
807.472	8324
807.614	8138
807.756	8126
807.898	7947
808.04	7909
808.182	7879
808.324	7883
808.465	7932
808.607	7978
808.749	8077
808.891	8187
809.033	8347
809.174	8199
809.316	8096
809.458	8035
809.6	8005
809.741	8107
809.883	8081
810.025	8183
810.166	8050
810.308	8043
810.45	8008
810.591	7894
810.733	7708
810.875	7693
811.016	7594
811.158	7426
811.299	7525
811.441	7712
811.582	7658
811.724	7540
811.865	7529
812.007	7658
812.148	7510
812.29	7597
812.431	7761
812.573	7833
812.714	7967
812.855	8100
812.997	8221
813.138	8218
813.279	8138
813.421	8077
813.562	7970
813.703	7852
813.845	7727
813.986	7381
814.127	7209
814.268	7194
814.41	7270
814.551	7187
814.692	7240
814.833	7050
814.974	7149
815.115	7076
815.256	6989
815.397	6920
815.539	6985
815.68	6802
815.821	6776
815.962	6856
816.103	6779
816.244	6711
816.385	6593
816.526	6604
816.666	6513
816.807	6285
816.948	6445
817.089	6460
817.23	6410
817.371	6353
817.512	6361
817.653	6414
817.793	6311
817.934	6384
818.075	6395
818.216	6456
818.356	6448
818.497	6258
818.638	6129
818.778	6125
818.919	6190
819.06	6152
819.2	6331
819.341	6327
819.481	6403
819.622	6589
819.762	6707
819.903	6734
820.043	6597
820.184	6623
820.324	6597
820.465	6688
820.605	6623
820.746	6684
820.886	6506
821.026	6582
821.167	6662
821.307	6840
821.447	6764
821.588	6711
821.728	6563
821.868	6460
822.008	6281
822.149	6323
822.289	6353
822.429	6148
822.569	6041
822.709	6102
822.849	5889
822.99	5851
823.13	5920
823.27	5908
823.41	5794
823.55	5794
823.69	5752
823.83	5729
823.97	5688
824.11	5516
824.25	5524
824.389	5585
824.529	5619
824.669	5543
824.809	5592
824.949	5703
825.089	5638
825.228	5577
825.368	5410
825.508	5303
825.648	5368
825.787	5440
825.927	5345
826.067	5318
826.206	5242
826.346	5421
826.485	5368
826.625	5383
826.765	5543
826.904	5497
827.044	5261
827.183	5201
827.323	5143
827.462	5311
827.601	5189
827.741	5216
827.88	5288
828.02	5174
828.159	5292
828.298	5337
828.437	5391
828.577	5261
828.716	5532
828.855	5383
828.994	5193
829.134	5159
829.273	5269
829.412	5162
829.551	5155
829.69	5159
829.829	5277
829.968	5349
830.107	5303
830.246	5337
830.385	5193
830.524	5147
830.663	5079
830.802	5022
830.941	4946
831.08	4946
831.219	5052
831.357	4961
831.496	5185
831.635	4949
831.774	4847
831.913	4900
832.051	4702
832.19	4793
832.329	4858
832.467	4679
832.606	4687
832.744	4790
832.883	4786
833.022	4736
833.16	4774
833.299	4839
833.437	4850
833.576	4889
833.714	4900
833.852	4915
833.991	4919
834.129	4946
834.267	5025
834.406	4965
834.544	5045
834.682	5006
834.821	5003
834.959	5208
835.097	5045
835.235	5193
835.373	5155
835.511	5162
835.65	5064
835.788	5083
835.926	4934
836.064	4858
836.202	4942
836.34	5250
836.478	5250
836.615	5201
836.753	5242
836.891	5341
837.029	5277
837.167	5231
837.305	5197
837.443	5151
837.58	5117
837.718	5326
837.856	5223
837.993	5140
838.131	5288
838.269	5258
838.406	5239
838.544	5170
838.681	5006
838.819	5025
838.956	4858
839.094	4900
839.231	5006
839.369	5147
839.506	5417
839.643	5261
839.781	5064
839.918	5052
840.055	5143
840.193	5109
840.33	5212
840.467	5105
840.604	5220
840.742	5444
840.879	5174
841.016	5102
841.153	5204
841.29	5410
841.427	5353
841.564	5376
841.701	5357
841.838	5273
841.975	5334
842.112	5280
842.249	5109
842.385	5151
842.522	5288
842.659	5197
842.796	5193
842.933	5227
843.069	5185
843.206	5197
843.343	5311
843.479	5269
843.616	5311
843.752	5094
843.889	5014
844.025	5246
844.162	5010
844.298	5292
844.435	5136
844.571	5083
844.708	5254
844.844	5326
844.98	5364
845.117	5296
845.253	5140
845.389	5124
845.525	5216
845.661	5185
845.798	5048
845.934	5178
846.07	5090
846.206	5204
846.342	5265
846.478	5185
846.614	5056
846.75	4961
846.886	4961
847.022	5166
847.158	5083
847.294	5105
847.429	5155
847.565	5117
847.701	5372
847.837	4873
847.972	4843
848.108	4968
848.244	4976
848.379	4801
848.515	4733
848.65	4736
848.786	4778
848.921	4816
849.057	4908
849.192	4904
849.328	4816
849.463	4858
849.598	4820
849.734	4790
849.869	4710
850.004	4653
850.14	4687
850.275	4626
850.41	4546
850.545	4615
850.68	4698
850.815	4653
850.95	4645
851.085	4843
851.22	4809
851.355	4733
851.49	4672
851.625	4664
851.76	4694
851.895	4588
852.03	4611
852.165	4679
852.299	4733
852.434	4828
852.569	4786
852.703	4771
852.838	4862
852.973	4946
853.107	4942
853.242	4714
853.376	4721
853.511	4573
853.645	4691
853.78	4816
853.914	4721
854.048	4679
854.183	4634
854.317	4725
854.451	4854
854.585	4740
854.72	4653
854.854	4774
854.988	4592
855.122	4622
855.256	4538
855.39	4698
855.524	4816
855.658	4797
855.792	4710
855.926	4717
856.06	4809
856.194	4843
856.327	4710
856.461	4637
856.595	4683
856.729	4626
856.862	4801
856.996	4748
857.13	4755
857.263	4805
857.397	4805
857.53	4637
857.664	4736
857.797	4801
857.931	4801
858.064	4710
858.197	4763
858.331	4755
858.464	4618
858.597	4561
858.731	4725
858.864	4634
858.997	4637
859.13	4702
859.263	4717
859.396	4740
859.529	4634
859.662	4565
859.795	4550
859.928	4694
860.061	4752
860.194	4816
860.327	4672
860.46	4588
860.592	4759
860.725	4725
860.858	4759
860.99	4653
861.123	4542
861.256	4538
861.388	4645
861.521	5421
861.653	4489
861.786	4432
861.918	4500
862.05	4493
862.183	4607
862.315	4580
862.447	4675
862.58	4561
862.712	4432
862.844	4337
862.976	4432
863.108	4462
863.24	4866
863.372	4386
863.504	4459
863.636	4405
863.768	4497
863.9	4443
864.032	4375
864.164	4383
864.296	4497
864.428	4561
864.559	4596
864.691	4538
864.823	4546
864.954	4493
865.086	4493
865.217	4489
865.349	4462
865.48	4440
865.612	4531
865.743	4634
865.875	4512
866.006	4432
866.137	4462
866.269	4443
866.4	4459
866.531	4508
866.662	4402
866.793	4417
866.924	4409
867.055	4516
867.186	4535
867.317	4443
867.448	4386
867.579	4459
867.71	4375
867.841	4386
867.972	4451
868.103	4436
868.233	4462
868.364	4478
868.495	4508
868.625	4733
868.756	4824
868.886	4653
869.017	4691
869.147	4797
869.278	4793
869.408	4675
869.539	4683
869.669	4774
869.799	4717
869.929	4767
870.06	4763
870.19	5014
870.32	4953
870.45	4972
870.58	5022
870.71	5075
870.84	5067
870.97	4987
871.1	4889
871.23	5166
871.36	5159
871.489	5075
871.619	5090
871.749	5064
871.879	5071
872.008	5124
872.138	5079
872.267	4999
872.397	4850
872.526	4816
872.656	4755
872.785	4847
872.915	4938
873.044	5029
873.173	4953
873.303	4987
873.432	4968
873.561	4949
873.69	4911
873.819	4919
873.948	4919
874.077	4831
874.206	4763
874.335	4816
874.464	4953
874.593	5037
874.722	4927
874.851	5140
874.979	5083
875.108	5102
875.237	4972
875.365	4892
875.494	4915
875.623	4961
875.751	4858
875.88	4839
876.008	4957
876.136	4980
876.265	5189
876.393	5360
876.521	5288
876.65	5261
876.778	5151
876.906	5060
877.034	4999
877.162	5071
877.29	4984
877.418	5048
877.546	5071
877.674	5014
877.802	5071
877.93	5064
878.058	4923
878.185	4847
878.313	4957
878.441	4999
878.568	4820
878.696	4881
878.824	4965
878.951	5029
879.079	5181
879.206	5280
879.333	5102
879.461	5014
879.588	5045
879.715	5132
879.842	5216
879.97	5037
880.097	4778
880.224	4790
880.351	4801
880.478	4835
880.605	4839
880.732	4809
880.859	5117
880.986	4908
881.112	4934
881.239	4801
881.366	4668
881.493	4634
881.619	4637
881.746	4630
881.872	4634
881.999	4634
882.125	4679
882.252	4816
882.378	4839
882.505	4980
882.631	4847
882.757	4683
882.883	4740
883.01	4759
883.136	4675
883.262	4599
883.388	4622
883.514	4843
883.64	4835
883.766	4786
883.892	4694
884.018	4763
884.143	4911
884.269	5025
884.395	4744
884.52	4634
884.646	4675
884.772	4584
884.897	4573
885.023	4668
885.148	4793
885.274	4870
885.399	4812
885.524	4725
885.65	4694
885.775	4759
885.9	4702
886.025	4885
886.15	4824
886.275	4687
886.4	4736
886.525	4755
886.65	4729
886.775	4687
886.9	4930
887.025	5037
887.149	4805
887.274	4668
887.399	4634
887.523	4615
887.648	4542
887.773	4584
887.897	4755
888.021	4801
888.146	4668
888.27	4843
888.395	4896
888.519	4824
888.643	4870
888.767	4862
888.891	4683
889.015	4618
889.139	4714
889.263	4618
889.387	4721
889.511	4877
889.635	4790
889.759	4679
889.883	4672
890.006	4714
890.13	4828
890.254	4630
890.377	4694
890.501	4550
890.624	4474
890.748	4637
890.871	4527
890.995	4443
891.118	4383
891.241	4508
891.364	4519
891.488	4622
891.611	4470
891.734	4588
891.857	4615
891.98	4588
892.103	4649
892.226	4580
892.349	4523
892.471	4436
892.594	4531
892.717	4630
892.839	4580
892.962	4588
893.085	4675
893.207	4611
893.33	4493
893.452	4546
893.575	4698
893.697	4584
893.819	4782
893.941	4816
894.064	4797
894.186	4538
894.308	4603
894.43	4729
894.552	4839
894.674	4740
894.796	4558
894.918	4584
895.04	4538
895.161	4725
895.283	4675
895.405	4580
895.526	4637
895.648	4702
895.769	4717
895.891	4706
896.012	4717
896.134	4721
896.255	4649
896.376	4656
896.498	4634
896.619	4702
896.74	4607
896.861	4645
896.982	4961
897.103	5056
897.224	4831
897.345	4748
897.466	4675
897.587	4721
897.708	4854
897.828	4843
897.949	4698
898.07	4611
898.19	4637
898.311	4790
898.431	4675
898.552	4733
898.672	4816
898.792	4793
898.913	4778
899.033	4607
899.153	4523
899.273	4371
899.393	4432
899.513	4485
899.633	4550
899.753	4538
899.873	4542
899.993	4592
900.113	4527
900.232	4607
900.352	4542
900.472	4497
900.591	4443
900.711	4489
900.83	4459
900.95	4691
901.069	4691
901.189	4535
901.308	4383
901.427	4344
901.546	4398
901.665	4470
901.784	4516
901.904	4363
902.023	4322
902.141	4196
902.26	4166
902.379	4276
902.498	4230
902.617	4200
902.735	4413
902.854	4421
902.973	4383
903.091	4230
903.21	4196
903.328	4325
903.446	4280
903.565	4276
903.683	4329
903.801	4314
903.919	4409
904.038	4462
904.156	4306
904.274	4428
904.392	4421
904.51	4413
904.627	4432
904.745	4550
904.863	4694
904.981	4390
905.098	4268
905.216	4375
905.334	4417
905.451	4402
905.569	4417
905.686	4622
905.803	4603
905.921	4424
906.038	4516
906.155	4394
906.272	4360
906.389	4478
906.506	4367
906.623	4367
906.74	4383
906.857	4333
906.974	4367
907.091	4573
907.208	4687
907.324	4546
907.441	4489
907.557	4360
907.674	4348
907.79	4344
907.907	4367
908.023	4478
908.139	4462
908.256	4428
908.372	4466
908.488	4485
908.604	4322
908.72	4360
908.836	4424
908.952	4367
909.068	4398
909.184	4584
909.3	4455
909.415	4592
909.531	4546
909.647	4352
909.762	4417
909.878	4344
909.993	4443
910.108	4390
910.224	4432
910.339	4459
910.454	4428
910.57	4344
910.685	4337
910.8	4706
910.915	4630
911.03	4500
911.145	4284
911.259	4257
911.374	4356
911.489	4322
911.604	4303
911.718	4196
911.833	4219
911.947	4128
912.062	4029
912.176	4204
912.291	4257
912.405	4287
912.519	4459
912.633	4466
912.748	4371
912.862	4337
912.976	4211
913.09	4097
913.204	4192
913.318	4234
913.431	4337
913.545	4356
913.659	4398
913.772	4375
913.886	4272
914	4230
914.113	4367
914.226	4447
914.34	4424
914.453	4249
914.566	4455
914.68	4310
914.793	4363
914.906	4166
915.019	4109
915.132	4082
915.245	4139
915.358	4223
915.47	4287
915.583	4219
915.696	4272
915.809	4413
915.921	4394
916.034	4284
916.146	4280
916.259	4219
916.371	4363
916.483	4379
916.595	4257
916.708	4310
916.82	4360
916.932	4356
917.044	4310
917.156	4333
917.268	4276
917.38	4329
917.491	4261
917.603	4367
917.715	4424
917.826	4379
917.938	4318
918.049	4276
918.161	4394
918.272	4596
918.384	4550
918.495	4462
918.606	4318
918.717	4242
918.828	4363
918.939	4375
919.05	4234
919.161	4310
919.272	4185
919.383	4257
919.494	4421
919.604	4603
919.715	4424
919.826	4303
919.936	4493
920.047	4500
920.157	4489
920.267	4645
920.378	4611
920.488	4523
920.598	4702
920.708	4938
920.818	4759
920.928	4759
921.038	4930
921.148	4881
921.258	4611
921.368	4538
921.477	4500
921.587	4485
921.697	4356
921.806	4542
921.916	4398
922.025	4234
922.134	4287
922.244	4223
922.353	4322
922.462	4204
922.571	4093
922.68	3979
922.789	3987
922.898	4051
923.007	4017
923.116	4059
923.224	4051
923.333	4025
923.442	3994
923.55	3956
923.659	4013
923.767	4074
923.876	3983
923.984	4169
924.092	3987
924.201	4093
924.309	4086
924.417	4112
924.525	4074
924.633	4150
924.741	5003
924.849	3865
924.956	4177
925.064	3960
925.172	3899
925.279	3964
925.387	4071
925.494	4044
925.602	4215
925.709	4204
925.816	4025
925.924	4169
926.031	4173
926.138	4158
926.245	4200
926.352	4082
926.459	4268
926.566	4287
926.673	4154
926.779	4097
926.886	4139
926.993	3983
927.099	4010
927.206	3949
927.312	3960
927.419	4048
927.525	4048
927.631	4101
927.737	3994
927.843	3949
927.95	3831
928.056	4010
928.162	3991
928.267	4063
928.373	4599
928.479	4147
928.585	3892
928.69	4040
928.796	4040
928.901	3956
929.007	3835
929.112	4002
929.218	4013
929.323	3930
929.428	3945
929.533	4109
929.638	3945
929.743	3968
929.848	4040
929.953	4006
930.058	3907
930.163	3751
930.267	3816
930.372	3941
930.477	3823
930.581	4097
930.685	3945
930.79	3819
930.894	3880
930.998	3876
931.103	4036
931.207	3709
931.311	3682
931.415	3644
931.519	3515
931.623	3568
