Data from test_V78500241_2793.txt Node
Date: Fri Mar 25 17:08:25 CST 2022
User: usil
Spectrometer: V785-0024
Trigger mode: 0
Integration Time (sec): 4.000000E-1
Scans to average: 1
Nonlinearity correction enabled: false
Boxcar width: 0
Storing dark spectrum: false
XAxis mode: Wavelengths
Number of Pixels in Spectrum: 1024
>>>>>Begin Spectral Data<<<<<
801.071	7989
801.214	7928
801.356	7826
801.499	7887
801.641	7780
801.783	7860
801.926	7967
802.068	7955
802.211	8020
802.353	7978
802.496	7845
802.638	7902
802.78	7898
802.923	7879
803.065	7822
803.208	7894
803.35	7947
803.492	8058
803.635	8195
803.777	8050
803.919	8191
804.061	8450
804.204	8115
804.346	8035
804.488	7989
804.63	8073
804.773	8035
804.915	8062
805.057	8332
805.199	8149
805.341	8180
805.483	8271
805.626	8214
805.768	8153
805.91	8210
806.052	8142
806.194	8111
806.336	8237
806.478	8035
806.62	8035
806.762	8134
806.904	8225
807.046	8374
807.188	8252
807.33	8355
807.472	8324
807.614	8153
807.756	8187
807.898	8035
808.04	7811
808.182	7811
808.324	7906
808.465	7932
808.607	8100
808.749	8119
808.891	8248
809.033	8252
809.174	8172
809.316	8138
809.458	8001
809.6	8001
809.741	8024
809.883	8043
810.025	8111
810.166	8077
810.308	7978
810.45	8050
810.591	7917
810.733	7666
810.875	7651
811.016	7590
811.158	7559
811.299	7533
811.441	7826
811.582	7788
811.724	7563
811.865	7544
812.007	7594
812.148	7594
812.29	7616
812.431	7761
812.573	7833
812.714	8027
812.855	8134
812.997	8187
813.138	8309
813.279	8206
813.421	8103
813.562	7936
813.703	7814
813.845	7776
813.986	7419
814.127	7266
814.268	7183
814.41	7232
814.551	7152
814.692	7149
814.833	7084
814.974	7107
815.115	7091
815.256	6943
815.397	6935
815.539	6970
815.68	6844
815.821	6772
815.962	6863
816.103	6890
816.244	6764
816.385	6665
816.526	6601
816.666	6521
816.807	6380
816.948	6471
817.089	6479
817.23	6486
817.371	6433
817.512	6410
817.653	6391
817.793	6365
817.934	6418
818.075	6399
818.216	6391
818.356	6422
818.497	6216
818.638	6125
818.778	6186
818.919	6148
819.06	6159
819.2	6300
819.341	6292
819.481	6357
819.622	6570
819.762	6726
819.903	6730
820.043	6585
820.184	6536
820.324	6578
820.465	6684
820.605	6650
820.746	6635
820.886	6532
821.026	6665
821.167	6707
821.307	6810
821.447	6719
821.588	6620
821.728	6585
821.868	6467
822.008	6311
822.149	6452
822.289	6395
822.429	6201
822.569	6087
822.709	6152
822.849	5931
822.99	5916
823.13	5931
823.27	5874
823.41	5722
823.55	5790
823.69	5809
823.83	5805
823.97	5642
824.11	5501
824.25	5490
824.389	5554
824.529	5638
824.669	5566
824.809	5691
824.949	5634
825.089	5665
825.228	5570
825.368	5387
825.508	5368
825.648	5368
825.787	5337
825.927	5364
826.067	5345
826.206	5322
826.346	5398
826.485	5402
826.625	5387
826.765	5497
826.904	5535
827.044	5235
827.183	5227
827.323	5117
827.462	5261
827.601	5174
827.741	5166
827.88	5239
828.02	5128
828.159	5220
828.298	5277
828.437	5349
828.577	5265
828.716	5433
828.855	5303
828.994	5132
829.134	5105
829.273	5193
829.412	5105
829.551	5143
829.69	5151
829.829	5212
829.968	5341
830.107	5250
830.246	5292
830.385	5166
830.524	5109
830.663	5056
830.802	4953
830.941	4889
831.08	4862
831.219	4957
831.357	5003
831.496	5155
831.635	4900
831.774	4831
831.913	4839
832.051	4774
832.19	4710
832.329	4816
832.467	4706
832.606	4607
832.744	4729
832.883	4687
833.022	4691
833.16	4790
833.299	4774
833.437	4778
833.576	4866
833.714	4835
833.852	4774
833.991	4900
834.129	4946
834.267	4972
834.406	4835
834.544	4923
834.682	4961
834.821	4984
834.959	5143
835.097	4965
835.235	5201
835.373	5113
835.511	5117
835.65	4991
835.788	5071
835.926	4911
836.064	4881
836.202	4904
836.34	5132
836.478	5189
836.615	5132
836.753	5239
836.891	5269
837.029	5261
837.167	5189
837.305	5181
837.443	5166
837.58	5052
837.718	5265
837.856	5124
837.993	5181
838.131	5223
838.269	5174
838.406	5197
838.544	5132
838.681	5003
838.819	5010
838.956	4904
839.094	4900
839.231	4968
839.369	5045
839.506	5410
839.643	5204
839.781	5022
839.918	5014
840.055	5075
840.193	5067
840.33	5079
840.467	5124
840.604	5162
840.742	5402
840.879	5056
841.016	5052
841.153	5193
841.29	5353
841.427	5318
841.564	5334
841.701	5368
841.838	5242
841.975	5254
842.112	5261
842.249	5155
842.385	5045
842.522	5353
842.659	5178
842.796	5143
842.933	5189
843.069	5117
843.206	5159
843.343	5288
843.479	5265
843.616	5246
843.752	5045
843.889	5010
844.025	5185
844.162	5029
844.298	5170
844.435	5064
844.571	5041
844.708	5197
844.844	5246
844.98	5326
845.117	5269
845.253	5143
845.389	5056
845.525	5178
845.661	5155
845.798	4999
845.934	5094
846.07	5056
846.206	5170
846.342	5223
846.478	5151
846.614	5025
846.75	4999
846.886	4946
847.022	5147
847.158	5014
847.294	5067
847.429	5067
847.565	5071
847.701	5292
847.837	4854
847.972	4816
848.108	4972
848.244	4904
848.379	4771
848.515	4736
848.65	4778
848.786	4729
848.921	4767
849.057	4866
849.192	4870
849.328	4831
849.463	4812
849.598	4805
849.734	4755
849.869	4733
850.004	4603
850.14	4660
850.275	4569
850.41	4535
850.545	4542
850.68	4656
850.815	4637
850.95	4577
851.085	4866
851.22	4736
851.355	4687
851.49	4622
851.625	4672
851.76	4649
851.895	4538
852.03	4550
852.165	4622
852.299	4721
852.434	4854
852.569	4763
852.703	4767
852.838	4870
852.973	4930
853.107	4942
853.242	4767
853.376	4759
853.511	4508
853.645	4637
853.78	4801
853.914	4721
854.048	4717
854.183	4679
854.317	4668
854.451	4889
854.585	4771
854.72	4664
854.854	4824
854.988	4664
855.122	4706
855.256	4538
855.39	4683
855.524	4782
855.658	4774
855.792	4694
855.926	4805
856.06	4801
856.194	4870
856.327	4729
856.461	4672
856.595	4687
856.729	4599
856.862	4763
856.996	4744
857.13	4812
857.263	4812
857.397	4831
857.53	4668
857.664	4752
857.797	4793
857.931	4850
858.064	4755
858.197	4831
858.331	4660
858.464	4694
858.597	4569
858.731	4603
858.864	4698
858.997	4637
859.13	4717
859.263	4675
859.396	4733
859.529	4618
859.662	4615
859.795	4588
859.928	4675
860.061	4782
860.194	4790
860.327	4626
860.46	4630
860.592	4725
860.725	4717
860.858	4729
860.99	4584
861.123	4519
861.256	4584
861.388	4664
861.521	5337
861.653	4535
861.786	4508
861.918	4462
862.05	4584
862.183	4573
862.315	4656
862.447	4725
862.58	4611
862.712	4417
862.844	4383
862.976	4485
863.108	4500
863.24	4782
863.372	4363
863.504	4478
863.636	4386
863.768	4489
863.9	4428
864.032	4386
864.164	4447
864.296	4504
864.428	4569
864.559	4550
864.691	4622
864.823	4542
864.954	4558
865.086	4519
865.217	4447
865.349	4432
865.48	4459
865.612	4493
865.743	4721
865.875	4474
866.006	4459
866.137	4485
866.269	4440
866.4	4451
866.531	4478
866.662	4478
866.793	4504
866.924	4497
867.055	4531
867.186	4466
867.317	4508
867.448	4417
867.579	4402
867.71	4417
867.841	4379
867.972	4455
868.103	4542
868.233	4451
868.364	4440
868.495	4542
868.625	4710
868.756	4771
868.886	4622
869.017	4656
869.147	4812
869.278	4790
869.408	4698
869.539	4687
869.669	4733
869.799	4694
869.929	4805
870.06	4801
870.19	4976
870.32	4972
870.45	4991
870.58	5045
870.71	5159
870.84	5140
870.97	5025
871.1	4949
871.23	5181
871.36	5132
871.489	5094
871.619	5147
871.749	5121
871.879	5140
872.008	5242
872.138	5124
872.267	5029
872.397	4870
872.526	4824
872.656	4755
872.785	4816
872.915	4965
873.044	5102
873.173	4953
873.303	5014
873.432	4991
873.561	4976
873.69	4934
873.819	4949
873.948	4972
874.077	4835
874.206	4721
874.335	4778
874.464	4927
874.593	5075
874.722	4946
874.851	5151
874.979	5166
875.108	5079
875.237	4915
875.365	4930
875.494	4946
875.623	4987
875.751	4847
875.88	4949
876.008	5018
876.136	5018
876.265	5280
876.393	5345
876.521	5296
876.65	5269
876.778	5239
876.906	5124
877.034	5048
877.162	5083
877.29	5064
877.418	5083
877.546	5098
877.674	5143
877.802	5052
877.93	5029
878.058	4965
878.185	4911
878.313	5006
878.441	4991
878.568	4858
878.696	4896
878.824	5025
878.951	5090
879.079	5197
879.206	5334
879.333	5197
879.461	4946
879.588	5090
879.715	5143
879.842	5227
879.97	5086
880.097	4767
880.224	4729
880.351	4873
880.478	4820
880.605	4854
880.732	4870
880.859	5105
880.986	4946
881.112	4949
881.239	4828
881.366	4694
881.493	4634
881.619	4660
881.746	4664
881.872	4656
881.999	4725
882.125	4717
882.252	4774
882.378	4812
882.505	5018
882.631	4854
882.757	4721
882.883	4809
883.01	4717
883.136	4702
883.262	4577
883.388	4634
883.514	4870
883.64	4911
883.766	4812
883.892	4759
884.018	4774
884.143	4919
884.269	5025
884.395	4702
884.52	4672
884.646	4656
884.772	4611
884.897	4660
885.023	4660
885.148	4843
885.274	4873
885.399	4889
885.524	4736
885.65	4721
885.775	4831
885.9	4729
886.025	4900
886.15	4748
886.275	4763
886.4	4672
886.525	4748
886.65	4714
886.775	4691
886.9	4919
887.025	5025
887.149	4896
887.274	4645
887.399	4596
887.523	4630
887.648	4603
887.773	4588
887.897	4790
888.021	4816
888.146	4710
888.27	4801
888.395	4900
888.519	4843
888.643	4831
888.767	4854
888.891	4660
889.015	4626
889.139	4649
889.263	4664
889.387	4805
889.511	4877
889.635	4790
889.759	4649
889.883	4679
890.006	4706
890.13	4873
890.254	4641
890.377	4660
890.501	4588
890.624	4588
890.748	4641
890.871	4531
890.995	4497
891.118	4451
891.241	4561
891.364	4523
891.488	4656
891.611	4554
891.734	4580
891.857	4611
891.98	4561
892.103	4668
892.226	4664
892.349	4535
892.471	4432
892.594	4580
892.717	4649
892.839	4611
892.962	4588
893.085	4721
893.207	4626
893.33	4497
893.452	4569
893.575	4683
893.697	4622
893.819	4774
893.941	4904
894.064	4831
894.186	4603
894.308	4626
894.43	4736
894.552	4847
894.674	4824
894.796	4626
894.918	4622
895.04	4607
895.161	4706
895.283	4691
895.405	4577
895.526	4672
895.648	4721
895.769	4733
895.891	4714
896.012	4759
896.134	4721
896.255	4717
896.376	4653
896.498	4641
896.619	4679
896.74	4710
896.861	4645
896.982	4968
897.103	5098
897.224	4885
897.345	4744
897.466	4672
897.587	4729
897.708	4854
897.828	4812
897.949	4706
898.07	4603
898.19	4668
898.311	4862
898.431	4691
898.552	4790
898.672	4839
898.792	4809
898.913	4744
899.033	4668
899.153	4535
899.273	4504
899.393	4531
899.513	4489
899.633	4481
899.753	4611
899.873	4542
899.993	4558
900.113	4573
900.232	4645
900.352	4577
900.472	4497
900.591	4447
900.711	4565
900.83	4504
900.95	4660
901.069	4733
901.189	4531
901.308	4371
901.427	4348
901.546	4405
901.665	4500
901.784	4584
901.904	4421
902.023	4348
902.141	4173
902.26	4204
902.379	4360
902.498	4268
902.617	4223
902.735	4390
902.854	4443
902.973	4371
903.091	4230
903.21	4272
903.328	4356
903.446	4344
903.565	4272
903.683	4367
903.801	4344
903.919	4402
904.038	4459
904.156	4375
904.274	4462
904.392	4432
904.51	4436
904.627	4443
904.745	4599
904.863	4618
904.981	4432
905.098	4276
905.216	4424
905.334	4459
905.451	4402
905.569	4481
905.686	4577
905.803	4554
905.921	4421
906.038	4622
906.155	4478
906.272	4398
906.389	4493
906.506	4379
906.623	4386
906.74	4421
906.857	4325
906.974	4371
907.091	4626
907.208	4744
907.324	4611
907.441	4558
907.557	4348
907.674	4409
907.79	4337
907.907	4390
908.023	4493
908.139	4493
908.256	4443
908.372	4455
908.488	4485
908.604	4371
908.72	4363
908.836	4398
908.952	4432
909.068	4451
909.184	4592
909.3	4531
909.415	4664
909.531	4596
909.647	4352
909.762	4386
909.878	4344
909.993	4474
910.108	4440
910.224	4413
910.339	4493
910.454	4394
910.57	4402
910.685	4318
910.8	4710
910.915	4641
911.03	4550
911.145	4367
911.259	4383
911.374	4375
911.489	4333
911.604	4318
911.718	4211
911.833	4234
911.947	4120
912.062	4055
912.176	4188
912.291	4223
912.405	4272
912.519	4512
912.633	4542
912.748	4386
912.862	4337
912.976	4238
913.09	4135
913.204	4185
913.318	4268
913.431	4356
913.545	4383
913.659	4489
913.772	4360
913.886	4295
914	4219
914.113	4398
914.226	4466
914.34	4371
914.453	4249
914.566	4481
914.68	4344
914.793	4367
914.906	4177
915.019	4093
915.132	4109
915.245	4227
915.358	4230
915.47	4215
915.583	4265
915.696	4341
915.809	4436
915.921	4447
916.034	4215
916.146	4295
916.259	4204
916.371	4413
916.483	4386
916.595	4303
916.708	4341
916.82	4379
916.932	4348
917.044	4383
917.156	4303
917.268	4230
917.38	4310
917.491	4265
917.603	4329
917.715	4421
917.826	4493
917.938	4329
918.049	4234
918.161	4402
918.272	4527
918.384	4607
918.495	4497
918.606	4295
918.717	4257
918.828	4428
918.939	4405
919.05	4265
919.161	4386
919.272	4154
919.383	4188
919.494	4497
919.604	4656
919.715	4447
919.826	4440
919.936	4428
920.047	4577
920.157	4558
920.267	4733
920.378	4588
920.488	4580
920.598	4740
920.708	4919
920.818	4771
920.928	4835
921.038	5006
921.148	4980
921.258	4691
921.368	4656
921.477	4565
921.587	4516
921.697	4375
921.806	4592
921.916	4436
922.025	4329
922.134	4280
922.244	4299
922.353	4394
922.462	4227
922.571	4207
922.68	4051
922.789	4036
922.898	4059
923.007	4071
923.116	4147
923.224	4124
923.333	4128
923.442	4055
923.55	4036
923.659	4120
923.767	4177
923.876	4006
923.984	4181
924.092	4021
924.201	4181
924.309	4120
924.417	4169
924.525	4101
924.633	4177
924.741	4927
924.849	4002
924.956	4196
925.064	4010
925.172	3960
925.279	4010
925.387	4101
925.494	4112
925.602	4276
925.709	4242
925.816	4124
925.924	4227
926.031	4280
926.138	4234
926.245	4204
926.352	4116
926.459	4284
926.566	4352
926.673	4227
926.779	4112
926.886	4188
926.993	4010
927.099	4044
927.206	4002
927.312	3972
927.419	4143
927.525	4097
927.631	4135
927.737	4097
927.843	4017
927.95	3892
928.056	4021
928.162	4071
928.267	4139
928.373	4717
928.479	4207
928.585	3918
928.69	4059
928.796	4131
928.901	4040
929.007	3911
929.112	4071
929.218	4082
929.323	4013
929.428	3991
929.533	4181
929.638	3983
929.743	4048
929.848	4116
929.953	4032
930.058	3972
930.163	3846
930.267	3896
930.372	4017
930.477	3831
930.581	4120
930.685	4040
930.79	3846
930.894	3983
930.998	3922
931.103	4067
931.207	3774
931.311	3759
931.415	3698
931.519	3599
931.623	3614
