Data from test_V78500241_1237.txt Node
Date: Fri Mar 25 16:57:36 CST 2022
User: usil
Spectrometer: V785-0024
Trigger mode: 0
Integration Time (sec): 4.000000E-1
Scans to average: 1
Nonlinearity correction enabled: false
Boxcar width: 0
Storing dark spectrum: false
XAxis mode: Wavelengths
Number of Pixels in Spectrum: 1024
>>>>>Begin Spectral Data<<<<<
801.071	7986
801.214	8062
801.356	7902
801.499	7917
801.641	7757
801.783	7856
801.926	7947
802.068	7883
802.211	7986
802.353	7947
802.496	7879
802.638	7826
802.78	7963
802.923	7917
803.065	7837
803.208	7894
803.35	7951
803.492	8103
803.635	8077
803.777	8073
803.919	8183
804.061	8476
804.204	8199
804.346	8046
804.488	7947
804.63	8115
804.773	8043
804.915	8115
805.057	8294
805.199	8206
805.341	8183
805.483	8244
805.626	8168
805.768	8100
805.91	8176
806.052	8229
806.194	8065
806.336	8328
806.478	8111
806.62	8084
806.762	8115
806.904	8263
807.046	8495
807.188	8374
807.33	8294
807.472	8320
807.614	8202
807.756	8168
807.898	7955
808.04	7845
808.182	7944
808.324	7978
808.465	7921
808.607	8111
808.749	8119
808.891	8183
809.033	8332
809.174	8252
809.316	8035
809.458	8050
809.6	8043
809.741	8043
809.883	8035
810.025	8111
810.166	8153
810.308	8081
810.45	8046
810.591	7921
810.733	7727
810.875	7704
811.016	7518
811.158	7514
811.299	7590
811.441	7776
811.582	7727
811.724	7632
811.865	7540
812.007	7639
812.148	7518
812.29	7666
812.431	7765
812.573	7928
812.714	8001
812.855	8134
812.997	8210
813.138	8362
813.279	8233
813.421	8134
813.562	7982
813.703	7871
813.845	7799
813.986	7472
814.127	7305
814.268	7236
814.41	7221
814.551	7206
814.692	7221
814.833	7072
814.974	7110
815.115	7095
815.256	6962
815.397	6954
815.539	7015
815.68	6859
815.821	6818
815.962	6954
816.103	6859
816.244	6730
816.385	6635
816.526	6658
816.666	6509
816.807	6346
816.948	6483
817.089	6494
817.23	6441
817.371	6338
817.512	6414
817.653	6426
817.793	6410
817.934	6445
818.075	6429
818.216	6464
818.356	6475
818.497	6292
818.638	6121
818.778	6194
818.919	6190
819.06	6171
819.2	6327
819.341	6292
819.481	6357
819.622	6570
819.762	6745
819.903	6764
820.043	6623
820.184	6589
820.324	6597
820.465	6760
820.605	6673
820.746	6635
820.886	6456
821.026	6662
821.167	6722
821.307	6798
821.447	6768
821.588	6623
821.728	6547
821.868	6498
822.008	6327
822.149	6384
822.289	6388
822.429	6194
822.569	6064
822.709	6106
822.849	5992
822.99	5916
823.13	5984
823.27	5958
823.41	5779
823.55	5893
823.69	5783
823.83	5779
823.97	5684
824.11	5596
824.25	5490
824.389	5581
824.529	5630
824.669	5543
824.809	5619
824.949	5680
825.089	5630
825.228	5600
825.368	5414
825.508	5395
825.648	5376
825.787	5433
825.927	5364
826.067	5315
826.206	5288
826.346	5372
826.485	5455
826.625	5410
826.765	5547
826.904	5539
827.044	5277
827.183	5227
827.323	5159
827.462	5292
827.601	5181
827.741	5208
827.88	5258
828.02	5117
828.159	5239
828.298	5311
828.437	5391
828.577	5269
828.716	5482
828.855	5334
828.994	5181
829.134	5204
829.273	5166
829.412	5162
829.551	5155
829.69	5181
829.829	5227
829.968	5410
830.107	5280
830.246	5288
830.385	5174
830.524	5117
830.663	5128
830.802	5022
830.941	4911
831.08	4892
831.219	5010
831.357	4995
831.496	5170
831.635	4919
831.774	4873
831.913	4858
832.051	4717
832.19	4702
832.329	4885
832.467	4687
832.606	4637
832.744	4801
832.883	4725
833.022	4759
833.16	4793
833.299	4862
833.437	4824
833.576	4828
833.714	4850
833.852	4889
833.991	4927
834.129	4987
834.267	4953
834.406	4953
834.544	4957
834.682	5006
834.821	5014
834.959	5162
835.097	5033
835.235	5166
835.373	5045
835.511	5109
835.65	5071
835.788	5033
835.926	4946
836.064	4911
836.202	4896
836.34	5178
836.478	5288
836.615	5140
836.753	5212
836.891	5368
837.029	5284
837.167	5181
837.305	5208
837.443	5166
837.58	5113
837.718	5269
837.856	5227
837.993	5185
838.131	5223
838.269	5242
838.406	5220
838.544	5227
838.681	5075
838.819	5060
838.956	4896
839.094	4953
839.231	5014
839.369	5109
839.506	5425
839.643	5337
839.781	5071
839.918	5060
840.055	5136
840.193	5098
840.33	5147
840.467	5132
840.604	5162
840.742	5448
840.879	5064
841.016	5136
841.153	5143
841.29	5387
841.427	5345
841.564	5311
841.701	5357
841.838	5307
841.975	5204
842.112	5227
842.249	5155
842.385	5136
842.522	5315
842.659	5143
842.796	5124
842.933	5239
843.069	5151
843.206	5151
843.343	5349
843.479	5299
843.616	5292
843.752	5090
843.889	5067
844.025	5242
844.162	5041
844.298	5216
844.435	5094
844.571	5083
844.708	5242
844.844	5303
844.98	5303
845.117	5284
845.253	5136
845.389	5140
845.525	5174
845.661	5102
845.798	5033
845.934	5159
846.07	5067
846.206	5181
846.342	5250
846.478	5132
846.614	5029
846.75	4949
846.886	5010
847.022	5102
847.158	5029
847.294	5071
847.429	5083
847.565	5056
847.701	5345
847.837	4919
847.972	4809
848.108	5018
848.244	4961
848.379	4793
848.515	4721
848.65	4698
848.786	4740
848.921	4771
849.057	4881
849.192	4889
849.328	4797
849.463	4831
849.598	4866
849.734	4786
849.869	4725
850.004	4660
850.14	4694
850.275	4565
850.41	4542
850.545	4599
850.68	4603
850.815	4577
850.95	4668
851.085	4831
851.22	4748
851.355	4702
851.49	4603
851.625	4664
851.76	4649
851.895	4546
852.03	4519
852.165	4603
852.299	4759
852.434	4782
852.569	4755
852.703	4767
852.838	4858
852.973	4908
853.107	4889
853.242	4740
853.376	4672
853.511	4599
853.645	4656
853.78	4797
853.914	4763
854.048	4691
854.183	4634
854.317	4698
854.451	4892
854.585	4729
854.72	4653
854.854	4740
854.988	4607
855.122	4615
855.256	4535
855.39	4664
855.524	4812
855.658	4748
855.792	4698
855.926	4733
856.06	4759
856.194	4755
856.327	4694
856.461	4607
856.595	4672
856.729	4607
856.862	4717
856.996	4702
857.13	4714
857.263	4759
857.397	4854
857.53	4653
857.664	4664
857.797	4797
857.931	4793
858.064	4694
858.197	4774
858.331	4694
858.464	4596
858.597	4535
858.731	4694
858.864	4626
858.997	4656
859.13	4668
859.263	4615
859.396	4672
859.529	4538
859.662	4573
859.795	4542
859.928	4622
860.061	4790
860.194	4752
860.327	4622
860.46	4584
860.592	4675
860.725	4767
860.858	4649
860.99	4626
861.123	4554
861.256	4565
861.388	4580
861.521	5341
861.653	4504
861.786	4443
861.918	4447
862.05	4558
862.183	4573
862.315	4622
862.447	4649
862.58	4554
862.712	4405
862.844	4329
862.976	4485
863.108	4485
863.24	4915
863.372	4360
863.504	4447
863.636	4409
863.768	4504
863.9	4485
864.032	4344
864.164	4390
864.296	4478
864.428	4550
864.559	4550
864.691	4512
864.823	4538
864.954	4542
865.086	4478
865.217	4443
865.349	4432
865.48	4432
865.612	4470
865.743	4641
865.875	4424
866.006	4402
866.137	4440
866.269	4455
866.4	4367
866.531	4413
866.662	4394
866.793	4424
866.924	4432
867.055	4470
867.186	4440
867.317	4383
867.448	4402
867.579	4417
867.71	4409
867.841	4341
867.972	4443
868.103	4481
868.233	4466
868.364	4481
868.495	4474
868.625	4679
868.756	4740
868.886	4538
869.017	4607
869.147	4793
869.278	4771
869.408	4668
869.539	4656
869.669	4691
869.799	4672
869.929	4752
870.06	4702
870.19	4957
870.32	4870
870.45	4919
870.58	5014
870.71	5083
870.84	5105
870.97	4961
871.1	4896
871.23	5170
871.36	5132
871.489	5010
871.619	5041
871.749	5079
871.879	5181
872.008	5143
872.138	5075
872.267	4999
872.397	4812
872.526	4809
872.656	4744
872.785	4786
872.915	4949
873.044	5075
873.173	4900
873.303	4930
873.432	4976
873.561	4934
873.69	4908
873.819	4873
873.948	4862
874.077	4790
874.206	4786
874.335	4847
874.464	4908
874.593	5060
874.722	4919
874.851	5105
874.979	5083
875.108	4980
875.237	4911
875.365	4885
875.494	4896
875.623	4984
875.751	4797
875.88	4919
876.008	4957
876.136	5045
876.265	5185
876.393	5292
876.521	5235
876.65	5193
876.778	5162
876.906	5014
877.034	4968
877.162	5033
877.29	4965
877.418	5022
877.546	5048
877.674	5060
877.802	5022
877.93	4987
878.058	4900
878.185	4900
878.313	4953
878.441	4946
878.568	4736
878.696	4904
878.824	4942
878.951	5022
879.079	5136
879.206	5288
879.333	5045
879.461	4987
879.588	4999
879.715	5102
879.842	5181
879.97	5014
880.097	4797
880.224	4717
880.351	4786
880.478	4824
880.605	4812
880.732	4782
880.859	5064
880.986	4889
881.112	4877
881.239	4767
881.366	4668
881.493	4630
881.619	4596
881.746	4641
881.872	4660
881.999	4645
882.125	4641
882.252	4782
882.378	4782
882.505	4972
882.631	4774
882.757	4679
882.883	4740
883.01	4771
883.136	4634
883.262	4592
883.388	4611
883.514	4850
883.64	4881
883.766	4782
883.892	4641
884.018	4725
884.143	4911
884.269	5064
884.395	4630
884.52	4626
884.646	4649
884.772	4588
884.897	4599
885.023	4615
885.148	4786
885.274	4877
885.399	4797
885.524	4702
885.65	4706
885.775	4717
885.9	4615
886.025	4839
886.15	4790
886.275	4759
886.4	4660
886.525	4744
886.65	4675
886.775	4675
886.9	4911
887.025	5025
887.149	4816
887.274	4702
887.399	4573
887.523	4573
887.648	4592
887.773	4626
887.897	4767
888.021	4828
888.146	4660
888.27	4828
888.395	4881
888.519	4790
888.643	4812
888.767	4820
888.891	4630
889.015	4603
889.139	4645
889.263	4607
889.387	4668
889.511	4824
889.635	4721
889.759	4656
889.883	4641
890.006	4683
890.13	4790
890.254	4577
890.377	4687
890.501	4546
890.624	4504
890.748	4622
890.871	4459
890.995	4455
891.118	4360
891.241	4497
891.364	4561
891.488	4592
891.611	4519
891.734	4497
891.857	4603
891.98	4546
892.103	4622
892.226	4584
892.349	4561
892.471	4398
892.594	4527
892.717	4577
892.839	4527
892.962	4603
893.085	4675
893.207	4599
893.33	4470
893.452	4470
893.575	4618
893.697	4599
893.819	4774
893.941	4793
894.064	4736
894.186	4561
894.308	4569
894.43	4736
894.552	4805
894.674	4755
894.796	4558
894.918	4641
895.04	4561
895.161	4729
895.283	4637
895.405	4546
895.526	4634
895.648	4683
895.769	4668
895.891	4706
896.012	4740
896.134	4702
896.255	4675
896.376	4653
896.498	4637
896.619	4721
896.74	4580
896.861	4649
896.982	4938
897.103	5075
897.224	4805
897.345	4763
897.466	4668
897.587	4767
897.708	4839
897.828	4778
897.949	4645
898.07	4531
898.19	4596
898.311	4839
898.431	4683
898.552	4702
898.672	4843
898.792	4752
898.913	4752
899.033	4656
899.153	4523
899.273	4451
899.393	4527
899.513	4527
899.633	4493
899.753	4538
899.873	4497
899.993	4531
900.113	4561
900.232	4584
900.352	4538
900.472	4470
900.591	4428
900.711	4493
900.83	4402
900.95	4645
901.069	4687
901.189	4542
901.308	4360
901.427	4314
901.546	4356
901.665	4474
901.784	4481
901.904	4348
902.023	4337
902.141	4188
902.26	4215
902.379	4329
902.498	4204
902.617	4211
902.735	4356
902.854	4405
902.973	4310
903.091	4227
903.21	4253
903.328	4268
903.446	4234
903.565	4291
903.683	4379
903.801	4246
903.919	4356
904.038	4459
904.156	4299
904.274	4421
904.392	4379
904.51	4462
904.627	4459
904.745	4580
904.863	4607
904.981	4371
905.098	4325
905.216	4352
905.334	4421
905.451	4432
905.569	4440
905.686	4546
905.803	4561
905.921	4379
906.038	4516
906.155	4481
906.272	4344
906.389	4459
906.506	4341
906.623	4375
906.74	4379
906.857	4287
906.974	4329
907.091	4565
907.208	4698
907.324	4561
907.441	4489
907.557	4329
907.674	4322
907.79	4291
907.907	4417
908.023	4455
908.139	4443
908.256	4432
908.372	4443
908.488	4455
908.604	4363
908.72	4337
908.836	4360
908.952	4371
909.068	4409
909.184	4569
909.3	4474
909.415	4573
909.531	4580
909.647	4348
909.762	4428
909.878	4303
909.993	4424
910.108	4440
910.224	4447
910.339	4466
910.454	4413
910.57	4398
910.685	4299
910.8	4687
910.915	4607
911.03	4497
911.145	4325
911.259	4314
911.374	4341
911.489	4333
911.604	4299
911.718	4173
911.833	4200
911.947	4071
912.062	3991
912.176	4185
912.291	4227
912.405	4230
912.519	4440
912.633	4474
912.748	4348
912.862	4287
912.976	4230
913.09	4097
913.204	4166
913.318	4246
913.431	4379
913.545	4360
913.659	4451
913.772	4375
913.886	4268
914	4219
914.113	4344
914.226	4466
914.34	4428
914.453	4215
914.566	4398
914.68	4295
914.793	4348
914.906	4162
915.019	4131
915.132	4059
915.245	4181
915.358	4200
915.47	4280
915.583	4272
915.696	4291
915.809	4402
915.921	4398
916.034	4230
916.146	4295
916.259	4257
916.371	4322
916.483	4333
916.595	4238
916.708	4363
916.82	4333
916.932	4306
917.044	4356
917.156	4295
917.268	4291
917.38	4314
917.491	4257
917.603	4322
917.715	4424
917.826	4470
917.938	4299
918.049	4276
918.161	4383
918.272	4538
918.384	4538
918.495	4432
918.606	4253
918.717	4223
918.828	4344
918.939	4360
919.05	4246
919.161	4322
919.272	4158
919.383	4246
919.494	4436
919.604	4630
919.715	4428
919.826	4341
919.936	4398
920.047	4538
920.157	4466
920.267	4729
920.378	4497
920.488	4455
920.598	4675
920.708	4911
920.818	4729
920.928	4782
921.038	4984
921.148	4904
921.258	4622
921.368	4558
921.477	4508
921.587	4455
921.697	4383
921.806	4497
921.916	4440
922.025	4238
922.134	4166
922.244	4246
922.353	4344
922.462	4188
922.571	4101
922.68	4044
922.789	3994
922.898	3987
923.007	3956
923.116	4086
923.224	4044
923.333	4051
923.442	4013
923.55	3968
923.659	3998
923.767	4082
923.876	3972
923.984	4131
924.092	3994
924.201	4097
924.309	4074
924.417	4116
924.525	4067
924.633	4120
924.741	5037
924.849	3873
924.956	4105
925.064	3934
925.172	3922
925.279	3930
925.387	4040
925.494	4074
925.602	4185
925.709	4162
925.816	4063
925.924	4120
926.031	4223
926.138	4162
926.245	4219
926.352	4105
926.459	4249
926.566	4295
926.673	4128
926.779	4086
926.886	4105
926.993	3960
927.099	3960
927.206	3937
927.312	3930
927.419	4071
927.525	3987
927.631	4105
927.737	3972
927.843	3994
927.95	3876
928.056	3922
928.162	3979
928.267	4013
928.373	4622
928.479	4131
928.585	3937
928.69	4025
928.796	4021
928.901	3949
929.007	3823
929.112	4006
929.218	3983
929.323	3926
929.428	3949
929.533	4086
929.638	3918
929.743	3934
929.848	3998
929.953	3994
930.058	3918
930.163	3762
930.267	3793
930.372	3956
930.477	3797
930.581	4067
930.685	3926
930.79	3838
930.894	3850
930.998	3804
931.103	4002
931.207	3709
931.311	3720
931.415	3682
931.519	3553
931.623	3538
