Data from test_V78500241_496.txt Node
Date: Fri Mar 25 16:52:27 CST 2022
User: usil
Spectrometer: V785-0024
Trigger mode: 0
Integration Time (sec): 4.000000E-1
Scans to average: 1
Nonlinearity correction enabled: false
Boxcar width: 0
Storing dark spectrum: false
XAxis mode: Wavelengths
Number of Pixels in Spectrum: 1024
>>>>>Begin Spectral Data<<<<<
801.071	8062
801.214	8046
801.356	7906
801.499	7917
801.641	7879
801.783	7898
801.926	8065
802.068	7989
802.211	8012
802.353	8012
802.496	7925
802.638	7940
802.78	7967
802.923	7913
803.065	7841
803.208	7795
803.35	8046
803.492	8073
803.635	8126
803.777	7997
803.919	8172
804.061	8457
804.204	8130
804.346	8020
804.488	7928
804.63	8100
804.773	8043
804.915	8096
805.057	8309
805.199	8149
805.341	8199
805.483	8248
805.626	8202
805.768	8088
805.91	8164
806.052	8206
806.194	8096
806.336	8320
806.478	8149
806.62	8103
806.762	8168
806.904	8267
807.046	8469
807.188	8336
807.33	8206
807.472	8351
807.614	8153
807.756	8187
807.898	8012
808.04	7921
808.182	8001
808.324	7944
808.465	7925
808.607	8031
808.749	8134
808.891	8259
809.033	8290
809.174	8161
809.316	8081
809.458	8043
809.6	7993
809.741	8046
809.883	8081
810.025	8081
810.166	8062
810.308	8039
810.45	8008
810.591	7967
810.733	7753
810.875	7731
811.016	7521
811.158	7502
811.299	7666
811.441	7742
811.582	7715
811.724	7575
811.865	7632
812.007	7605
812.148	7605
812.29	7666
812.431	7784
812.573	7887
812.714	8005
812.855	8221
812.997	8275
813.138	8400
813.279	8267
813.421	8138
813.562	8103
813.703	7940
813.845	7902
813.986	7559
814.127	7335
814.268	7350
814.41	7263
814.551	7206
814.692	7198
814.833	7065
814.974	7187
815.115	7088
815.256	6939
815.397	6905
815.539	6981
815.68	6806
815.821	6764
815.962	6856
816.103	6859
816.244	6779
816.385	6650
816.526	6673
816.666	6559
816.807	6350
816.948	6506
817.089	6536
817.23	6460
817.371	6437
817.512	6460
817.653	6414
817.793	6418
817.934	6399
818.075	6456
818.216	6437
818.356	6471
818.497	6281
818.638	6091
818.778	6148
818.919	6102
819.06	6201
819.2	6300
819.341	6338
819.481	6338
819.622	6528
819.762	6749
819.903	6654
820.043	6578
820.184	6563
820.324	6608
820.465	6673
820.605	6654
820.746	6654
820.886	6540
821.026	6707
821.167	6715
821.307	6795
821.447	6707
821.588	6719
821.728	6604
821.868	6490
822.008	6365
822.149	6323
822.289	6357
822.429	6152
822.569	6079
822.709	6178
822.849	5882
822.99	5935
823.13	5923
823.27	5950
823.41	5824
823.55	5783
823.69	5771
823.83	5836
823.97	5668
824.11	5573
824.25	5528
824.389	5623
824.529	5604
824.669	5551
824.809	5672
824.949	5657
825.089	5619
825.228	5589
825.368	5395
825.508	5360
825.648	5334
825.787	5349
825.927	5395
826.067	5376
826.206	5318
826.346	5353
826.485	5425
826.625	5444
826.765	5577
826.904	5497
827.044	5258
827.183	5258
827.323	5102
827.462	5273
827.601	5227
827.741	5151
827.88	5185
828.02	5143
828.159	5254
828.298	5322
828.437	5345
828.577	5349
828.716	5535
828.855	5307
828.994	5174
829.134	5113
829.273	5223
829.412	5113
829.551	5151
829.69	5204
829.829	5292
829.968	5414
830.107	5265
830.246	5246
830.385	5174
830.524	5174
830.663	5090
830.802	4957
830.941	4934
831.08	4911
831.219	5006
831.357	4968
831.496	5132
831.635	4927
831.774	4881
831.913	4877
832.051	4736
832.19	4790
832.329	4824
832.467	4653
832.606	4649
832.744	4729
832.883	4755
833.022	4744
833.16	4831
833.299	4786
833.437	4858
833.576	4820
833.714	4862
833.852	4820
833.991	4942
834.129	4995
834.267	4972
834.406	4904
834.544	5048
834.682	4972
834.821	4995
834.959	5155
835.097	4965
835.235	5170
835.373	5094
835.511	5109
835.65	5079
835.788	5071
835.926	4900
836.064	4858
836.202	4847
836.34	5201
836.478	5239
836.615	5136
836.753	5239
836.891	5330
837.029	5296
837.167	5208
837.305	5170
837.443	5201
837.58	5067
837.718	5288
837.856	5178
837.993	5140
838.131	5258
838.269	5193
838.406	5212
838.544	5235
838.681	4991
838.819	5006
838.956	4892
839.094	4870
839.231	5025
839.369	5056
839.506	5429
839.643	5273
839.781	5067
839.918	5048
840.055	5105
840.193	5140
840.33	5113
840.467	5147
840.604	5254
840.742	5501
840.879	5052
841.016	5098
841.153	5147
841.29	5429
841.427	5353
841.564	5379
841.701	5345
841.838	5296
841.975	5269
842.112	5235
842.249	5083
842.385	5162
842.522	5318
842.659	5193
842.796	5140
842.933	5220
843.069	5189
843.206	5216
843.343	5280
843.479	5265
843.616	5220
843.752	5079
843.889	5029
844.025	5239
844.162	5041
844.298	5227
844.435	5117
844.571	5071
844.708	5265
844.844	5349
844.98	5349
845.117	5299
845.253	5162
845.389	5075
845.525	5147
845.661	5155
845.798	5067
845.934	5143
846.07	5060
846.206	5223
846.342	5341
846.478	5254
846.614	5010
846.75	4957
846.886	4972
847.022	5159
847.158	4999
847.294	5075
847.429	5147
847.565	5060
847.701	5330
847.837	4831
847.972	4809
848.108	4949
848.244	4946
848.379	4820
848.515	4744
848.65	4763
848.786	4767
848.921	4820
849.057	4877
849.192	4862
849.328	4820
849.463	4923
849.598	4820
849.734	4786
849.869	4736
850.004	4668
850.14	4672
850.275	4615
850.41	4554
850.545	4573
850.68	4618
850.815	4645
850.95	4660
851.085	4885
851.22	4782
851.355	4717
851.49	4679
851.625	4645
851.76	4706
851.895	4535
852.03	4523
852.165	4687
852.299	4801
852.434	4805
852.569	4790
852.703	4782
852.838	4854
852.973	4991
853.107	4904
853.242	4706
853.376	4683
853.511	4554
853.645	4618
853.78	4755
853.914	4725
854.048	4656
854.183	4683
854.317	4740
854.451	4847
854.585	4721
854.72	4672
854.854	4740
854.988	4622
855.122	4649
855.256	4508
855.39	4702
855.524	4759
855.658	4740
855.792	4729
855.926	4771
856.06	4793
856.194	4858
856.327	4694
856.461	4634
856.595	4599
856.729	4588
856.862	4771
856.996	4691
857.13	4687
857.263	4805
857.397	4862
857.53	4668
857.664	4698
857.797	4790
857.931	4771
858.064	4694
858.197	4778
858.331	4694
858.464	4672
858.597	4546
858.731	4672
858.864	4649
858.997	4569
859.13	4683
859.263	4649
859.396	4729
859.529	4577
859.662	4573
859.795	4500
859.928	4645
860.061	4778
860.194	4771
860.327	4656
860.46	4588
860.592	4698
860.725	4733
860.858	4733
860.99	4618
861.123	4519
861.256	4512
861.388	4622
861.521	5376
861.653	4478
861.786	4432
861.918	4428
862.05	4538
862.183	4588
862.315	4596
862.447	4626
862.58	4554
862.712	4409
862.844	4386
862.976	4470
863.108	4497
863.24	4820
863.372	4363
863.504	4455
863.636	4432
863.768	4493
863.9	4440
864.032	4367
864.164	4409
864.296	4443
864.428	4577
864.559	4580
864.691	4538
864.823	4516
864.954	4508
865.086	4504
865.217	4497
865.349	4436
865.48	4550
865.612	4535
865.743	4664
865.875	4493
866.006	4417
866.137	4470
866.269	4428
866.4	4440
866.531	4390
866.662	4371
866.793	4417
866.924	4421
867.055	4485
867.186	4462
867.317	4481
867.448	4386
867.579	4360
867.71	4409
867.841	4383
867.972	4474
868.103	4436
868.233	4474
868.364	4451
868.495	4489
868.625	4710
868.756	4767
868.886	4531
869.017	4634
869.147	4816
869.278	4740
869.408	4687
869.539	4683
869.669	4763
869.799	4675
869.929	4767
870.06	4767
870.19	4957
870.32	4927
870.45	4946
870.58	4972
870.71	5098
870.84	5117
870.97	4984
871.1	4908
871.23	5147
871.36	5136
871.489	5037
871.619	5090
871.749	5079
871.879	5105
872.008	5170
872.138	5064
872.267	4987
872.397	4870
872.526	4790
872.656	4721
872.785	4892
872.915	4938
873.044	4995
873.173	4942
873.303	5022
873.432	4961
873.561	4953
873.69	4896
873.819	4850
873.948	4900
874.077	4839
874.206	4797
874.335	4850
874.464	4965
874.593	5060
874.722	4927
874.851	5124
874.979	5075
875.108	5025
875.237	4911
875.365	4908
875.494	4843
875.623	4991
875.751	4835
875.88	4927
876.008	4946
876.136	5064
876.265	5216
876.393	5330
876.521	5239
876.65	5178
876.778	5197
876.906	5090
877.034	4980
877.162	5048
877.29	4987
877.418	5079
877.546	5014
877.674	5056
877.802	5067
877.93	4991
878.058	4949
878.185	4824
878.313	4961
878.441	4995
878.568	4809
878.696	4839
878.824	4946
878.951	5014
879.079	5162
879.206	5341
879.333	5117
879.461	4976
879.588	5006
879.715	5159
879.842	5197
879.97	5041
880.097	4854
880.224	4767
880.351	4824
880.478	4820
880.605	4816
880.732	4797
880.859	5083
880.986	4938
881.112	4942
881.239	4812
881.366	4691
881.493	4664
881.619	4584
881.746	4622
881.872	4679
881.999	4679
882.125	4710
882.252	4805
882.378	4778
882.505	4976
882.631	4816
882.757	4698
882.883	4797
883.01	4706
883.136	4675
883.262	4588
883.388	4630
883.514	4843
883.64	4904
883.766	4782
883.892	4675
884.018	4714
884.143	4919
884.269	4961
884.395	4694
884.52	4618
884.646	4653
884.772	4611
884.897	4577
885.023	4653
885.148	4771
885.274	4854
885.399	4805
885.524	4664
885.65	4683
885.775	4744
885.9	4729
886.025	4862
886.15	4782
886.275	4729
886.4	4622
886.525	4729
886.65	4679
886.775	4675
886.9	4923
887.025	5010
887.149	4812
887.274	4645
887.399	4622
887.523	4580
887.648	4519
887.773	4637
887.897	4805
888.021	4793
888.146	4645
888.27	4831
888.395	4908
888.519	4812
888.643	4828
888.767	4831
888.891	4660
889.015	4584
889.139	4683
889.263	4622
889.387	4714
889.511	4866
889.635	4767
889.759	4656
889.883	4656
890.006	4717
890.13	4866
890.254	4596
890.377	4691
890.501	4546
890.624	4542
890.748	4645
890.871	4493
890.995	4440
891.118	4421
891.241	4546
891.364	4542
891.488	4668
891.611	4481
891.734	4538
891.857	4618
891.98	4584
892.103	4637
892.226	4527
892.349	4535
892.471	4459
892.594	4516
892.717	4645
892.839	4641
892.962	4554
893.085	4694
893.207	4618
893.33	4421
893.452	4508
893.575	4706
893.697	4546
893.819	4835
893.941	4850
894.064	4782
894.186	4596
894.308	4618
894.43	4683
894.552	4812
894.674	4725
894.796	4527
894.918	4546
895.04	4615
895.161	4752
895.283	4649
895.405	4615
895.526	4653
895.648	4656
895.769	4706
895.891	4733
896.012	4736
896.134	4736
896.255	4691
896.376	4637
896.498	4588
896.619	4679
896.74	4603
896.861	4634
896.982	4961
897.103	5083
897.224	4881
897.345	4725
897.466	4656
897.587	4763
897.708	4892
897.828	4733
897.949	4672
898.07	4577
898.19	4679
898.311	4831
898.431	4683
898.552	4706
898.672	4862
898.792	4820
898.913	4733
899.033	4641
899.153	4523
899.273	4394
899.393	4447
899.513	4535
899.633	4535
899.753	4596
899.873	4516
899.993	4630
900.113	4519
900.232	4611
900.352	4531
900.472	4516
900.591	4405
900.711	4497
900.83	4451
900.95	4607
901.069	4729
901.189	4523
901.308	4360
901.427	4322
901.546	4356
901.665	4462
901.784	4535
901.904	4348
902.023	4284
902.141	4177
902.26	4166
902.379	4291
902.498	4287
902.617	4276
902.735	4367
902.854	4375
902.973	4322
903.091	4173
903.21	4234
903.328	4329
903.446	4230
903.565	4242
903.683	4360
903.801	4291
903.919	4421
904.038	4493
904.156	4284
904.274	4402
904.392	4386
904.51	4428
904.627	4474
904.745	4538
904.863	4580
904.981	4424
905.098	4272
905.216	4375
905.334	4497
905.451	4470
905.569	4451
905.686	4573
905.803	4584
905.921	4394
906.038	4588
906.155	4535
906.272	4436
906.389	4455
906.506	4360
906.623	4421
906.74	4383
906.857	4325
906.974	4341
907.091	4580
907.208	4702
907.324	4607
907.441	4512
907.557	4363
907.674	4360
907.79	4287
907.907	4360
908.023	4500
908.139	4489
908.256	4443
908.372	4474
908.488	4455
908.604	4356
908.72	4360
908.836	4348
908.952	4371
909.068	4424
909.184	4607
909.3	4497
909.415	4603
909.531	4580
909.647	4341
909.762	4402
909.878	4360
909.993	4409
910.108	4402
910.224	4417
910.339	4512
910.454	4402
910.57	4386
910.685	4314
910.8	4630
910.915	4656
911.03	4519
911.145	4371
911.259	4329
911.374	4402
911.489	4261
911.604	4238
911.718	4204
911.833	4196
911.947	4093
912.062	3964
912.176	4227
912.291	4246
912.405	4280
912.519	4451
912.633	4527
912.748	4394
912.862	4329
912.976	4253
913.09	4101
913.204	4200
913.318	4261
913.431	4432
913.545	4398
913.659	4413
913.772	4413
913.886	4276
914	4276
914.113	4375
914.226	4443
914.34	4371
914.453	4223
914.566	4428
914.68	4303
914.793	4295
914.906	4166
915.019	4131
915.132	4101
915.245	4154
915.358	4227
915.47	4253
915.583	4284
915.696	4306
915.809	4428
915.921	4432
916.034	4284
916.146	4257
916.259	4234
916.371	4432
916.483	4303
916.595	4287
916.708	4329
916.82	4322
916.932	4337
917.044	4280
917.156	4360
917.268	4246
917.38	4276
917.491	4253
917.603	4318
917.715	4455
917.826	4455
917.938	4363
918.049	4284
918.161	4383
918.272	4542
918.384	4523
918.495	4443
918.606	4265
918.717	4246
918.828	4379
918.939	4329
919.05	4257
919.161	4310
919.272	4112
919.383	4242
919.494	4474
919.604	4634
919.715	4451
919.826	4348
919.936	4428
920.047	4504
920.157	4432
920.267	4679
920.378	4550
920.488	4504
920.598	4694
920.708	4908
920.818	4767
920.928	4793
921.038	4965
921.148	4908
921.258	4656
921.368	4569
921.477	4443
921.587	4474
921.697	4394
921.806	4569
921.916	4409
922.025	4276
922.134	4314
922.244	4219
922.353	4325
922.462	4162
922.571	4112
922.68	4040
922.789	3949
922.898	4048
923.007	3983
923.116	4051
923.224	4032
923.333	4101
923.442	4021
923.55	3991
923.659	4055
923.767	4139
923.876	4013
923.984	4162
924.092	4010
924.201	4112
924.309	4078
924.417	4074
924.525	4082
924.633	4051
924.741	5022
924.849	3918
924.956	4116
925.064	3975
925.172	3899
925.279	3975
925.387	4036
925.494	4055
925.602	4211
925.709	4223
925.816	4063
925.924	4112
926.031	4242
926.138	4143
926.245	4196
926.352	4082
926.459	4234
926.566	4242
926.673	4143
926.779	4097
926.886	4067
926.993	3934
927.099	3930
927.206	3918
927.312	3945
927.419	4051
927.525	4051
927.631	4082
927.737	3964
927.843	3918
927.95	3827
928.056	3960
928.162	3983
928.267	4071
928.373	4698
928.479	4139
928.585	3842
928.69	4006
928.796	4051
928.901	3979
929.007	3888
929.112	4006
929.218	4006
929.323	3930
929.428	3964
929.533	4093
929.638	3949
929.743	3956
929.848	4063
929.953	4006
930.058	3926
930.163	3732
930.267	3816
930.372	4010
930.477	3812
930.581	4101
930.685	3991
930.79	3800
930.894	3888
930.998	3884
931.103	4025
931.207	3740
931.311	3713
931.415	3686
931.519	3538
931.623	3553
