Data from test_V78500241_2112.txt Node
Date: Fri Mar 25 17:03:41 CST 2022
User: usil
Spectrometer: V785-0024
Trigger mode: 0
Integration Time (sec): 4.000000E-1
Scans to average: 1
Nonlinearity correction enabled: false
Boxcar width: 0
Storing dark spectrum: false
XAxis mode: Wavelengths
Number of Pixels in Spectrum: 1024
>>>>>Begin Spectral Data<<<<<
801.071	8016
801.214	7951
801.356	7894
801.499	7860
801.641	7795
801.783	7772
801.926	7967
802.068	7917
802.211	7940
802.353	7947
802.496	7864
802.638	7883
802.78	7822
802.923	7883
803.065	7860
803.208	7830
803.35	7944
803.492	8031
803.635	8111
803.777	7970
803.919	8081
804.061	8412
804.204	8176
804.346	8016
804.488	7955
804.63	8081
804.773	8065
804.915	8054
805.057	8271
805.199	8218
805.341	8126
805.483	8256
805.626	8164
805.768	8142
805.91	8210
806.052	8210
806.194	8145
806.336	8183
806.478	8069
806.62	8046
806.762	8123
806.904	8229
807.046	8499
807.188	8393
807.33	8328
807.472	8362
807.614	8202
807.756	8218
807.898	8005
808.04	7871
808.182	7803
808.324	7875
808.465	7822
808.607	8031
808.749	8153
808.891	8279
809.033	8275
809.174	8225
809.316	8096
809.458	8103
809.6	8031
809.741	8084
809.883	8024
810.025	8100
810.166	8119
810.308	7993
810.45	7951
810.591	7803
810.733	7719
810.875	7681
811.016	7518
811.158	7441
811.299	7594
811.441	7700
811.582	7727
811.724	7582
811.865	7491
812.007	7594
812.148	7582
812.29	7658
812.431	7742
812.573	7902
812.714	8005
812.855	8153
812.997	8164
813.138	8301
813.279	8183
813.421	8031
813.562	7928
813.703	7807
813.845	7746
813.986	7377
814.127	7266
814.268	7217
814.41	7107
814.551	7183
814.692	7270
814.833	7027
814.974	7050
815.115	7137
815.256	6981
815.397	6901
815.539	6985
815.68	6818
815.821	6730
815.962	6795
816.103	6810
816.244	6646
816.385	6566
816.526	6597
816.666	6498
816.807	6304
816.948	6483
817.089	6414
817.23	6441
817.371	6365
817.512	6384
817.653	6414
817.793	6350
817.934	6334
818.075	6483
818.216	6433
818.356	6429
818.497	6224
818.638	6152
818.778	6136
818.919	6159
819.06	6133
819.2	6369
819.341	6304
819.481	6334
819.622	6494
819.762	6662
819.903	6726
820.043	6688
820.184	6525
820.324	6604
820.465	6673
820.605	6696
820.746	6604
820.886	6517
821.026	6601
821.167	6703
821.307	6810
821.447	6818
821.588	6597
821.728	6566
821.868	6509
822.008	6247
822.149	6323
822.289	6323
822.429	6133
822.569	6114
822.709	6106
822.849	5927
822.99	5882
823.13	5901
823.27	5866
823.41	5760
823.55	5794
823.69	5767
823.83	5760
823.97	5642
824.11	5554
824.25	5421
824.389	5539
824.529	5596
824.669	5497
824.809	5604
824.949	5634
825.089	5604
825.228	5615
825.368	5433
825.508	5345
825.648	5292
825.787	5406
825.927	5379
826.067	5307
826.206	5242
826.346	5398
826.485	5425
826.625	5421
826.765	5528
826.904	5467
827.044	5269
827.183	5181
827.323	5162
827.462	5204
827.601	5216
827.741	5170
827.88	5193
828.02	5083
828.159	5246
828.298	5273
828.437	5296
828.577	5265
828.716	5467
828.855	5360
828.994	5162
829.134	5174
829.273	5166
829.412	5121
829.551	5136
829.69	5162
829.829	5212
829.968	5376
830.107	5265
830.246	5235
830.385	5193
830.524	5151
830.663	5071
830.802	4946
830.941	4904
831.08	4885
831.219	5041
831.357	4953
831.496	5216
831.635	4911
831.774	4847
831.913	4847
832.051	4729
832.19	4782
832.329	4873
832.467	4637
832.606	4649
832.744	4706
832.883	4752
833.022	4729
833.16	4767
833.299	4831
833.437	4782
833.576	4793
833.714	4831
833.852	4873
833.991	4854
834.129	4965
834.267	4953
834.406	4900
834.544	4957
834.682	4946
834.821	4999
834.959	5216
835.097	4972
835.235	5143
835.373	5060
835.511	5067
835.65	5022
835.788	4995
835.926	4854
836.064	4881
836.202	4870
836.34	5162
836.478	5223
836.615	5079
836.753	5216
836.891	5277
837.029	5242
837.167	5235
837.305	5143
837.443	5128
837.58	5022
837.718	5231
837.856	5155
837.993	5105
838.131	5208
838.269	5246
838.406	5201
838.544	5174
838.681	5010
838.819	5041
838.956	4885
839.094	4900
839.231	4976
839.369	5045
839.506	5406
839.643	5250
839.781	5018
839.918	4961
840.055	5056
840.193	5105
840.33	5105
840.467	5143
840.604	5140
840.742	5474
840.879	5041
841.016	5071
841.153	5155
841.29	5368
841.427	5303
841.564	5318
841.701	5334
841.838	5235
841.975	5212
842.112	5250
842.249	5113
842.385	5048
842.522	5296
842.659	5193
842.796	5124
842.933	5159
843.069	5143
843.206	5155
843.343	5315
843.479	5273
843.616	5265
843.752	5067
843.889	4999
844.025	5212
844.162	4987
844.298	5216
844.435	5090
844.571	5052
844.708	5197
844.844	5360
844.98	5402
845.117	5307
845.253	5147
845.389	5079
845.525	5124
845.661	5121
845.798	5048
845.934	5079
846.07	5022
846.206	5250
846.342	5277
846.478	5155
846.614	5006
846.75	4968
846.886	4976
847.022	5140
847.158	4965
847.294	5071
847.429	5109
847.565	5056
847.701	5341
847.837	4850
847.972	4790
848.108	4980
848.244	4881
848.379	4763
848.515	4687
848.65	4694
848.786	4721
848.921	4793
849.057	4866
849.192	4900
849.328	4839
849.463	4854
849.598	4828
849.734	4687
849.869	4725
850.004	4637
850.14	4698
850.275	4645
850.41	4554
850.545	4527
850.68	4573
850.815	4611
850.95	4622
851.085	4809
851.22	4767
851.355	4675
851.49	4615
851.625	4618
851.76	4622
851.895	4565
852.03	4470
852.165	4634
852.299	4774
852.434	4763
852.569	4691
852.703	4782
852.838	4831
852.973	4957
853.107	4862
853.242	4721
853.376	4611
853.511	4588
853.645	4565
853.78	4759
853.914	4691
854.048	4683
854.183	4656
854.317	4691
854.451	4862
854.585	4660
854.72	4653
854.854	4736
854.988	4588
855.122	4634
855.256	4516
855.39	4698
855.524	4717
855.658	4721
855.792	4721
855.926	4694
856.06	4710
856.194	4824
856.327	4675
856.461	4634
856.595	4599
856.729	4634
856.862	4733
856.996	4725
857.13	4744
857.263	4812
857.397	4717
857.53	4626
857.664	4755
857.797	4744
857.931	4771
858.064	4630
858.197	4740
858.331	4603
858.464	4607
858.597	4546
858.731	4637
858.864	4615
858.997	4653
859.13	4672
859.263	4679
859.396	4691
859.529	4603
859.662	4565
859.795	4527
859.928	4679
860.061	4744
860.194	4767
860.327	4611
860.46	4596
860.592	4668
860.725	4694
860.858	4706
860.99	4550
861.123	4474
861.256	4573
861.388	4577
861.521	5478
861.653	4402
861.786	4440
861.918	4462
862.05	4523
862.183	4554
862.315	4618
862.447	4675
862.58	4546
862.712	4390
862.844	4344
862.976	4432
863.108	4421
863.24	4774
863.372	4306
863.504	4470
863.636	4428
863.768	4493
863.9	4447
864.032	4367
864.164	4443
864.296	4459
864.428	4527
864.559	4565
864.691	4569
864.823	4523
864.954	4428
865.086	4497
865.217	4466
865.349	4436
865.48	4443
865.612	4508
865.743	4615
865.875	4440
866.006	4443
866.137	4481
866.269	4447
866.4	4440
866.531	4440
866.662	4398
866.793	4402
866.924	4379
867.055	4474
867.186	4455
867.317	4424
867.448	4375
867.579	4333
867.71	4428
867.841	4333
867.972	4478
868.103	4512
868.233	4424
868.364	4455
868.495	4436
868.625	4626
868.756	4771
868.886	4561
869.017	4618
869.147	4771
869.278	4767
869.408	4656
869.539	4656
869.669	4687
869.799	4683
869.929	4714
870.06	4717
870.19	4980
870.32	4946
870.45	4972
870.58	4965
870.71	5067
870.84	5113
870.97	4957
871.1	4873
871.23	5117
871.36	5197
871.489	5025
871.619	5140
871.749	5121
871.879	5147
872.008	5170
872.138	5041
872.267	4991
872.397	4862
872.526	4771
872.656	4714
872.785	4820
872.915	4957
873.044	5003
873.173	4946
873.303	5003
873.432	4949
873.561	4976
873.69	4904
873.819	4877
873.948	4854
874.077	4805
874.206	4714
874.335	4797
874.464	4873
874.593	5048
874.722	4904
874.851	5052
874.979	5010
875.108	5025
875.237	4930
875.365	4850
875.494	4885
875.623	5014
875.751	4870
875.88	4866
876.008	4957
876.136	5022
876.265	5109
876.393	5379
876.521	5296
876.65	5162
876.778	5147
876.906	5071
877.034	5048
877.162	5075
877.29	4995
877.418	5105
877.546	5018
877.674	5006
877.802	5029
877.93	4995
878.058	4900
878.185	4820
878.313	4930
878.441	4980
878.568	4824
878.696	4850
878.824	4946
878.951	4942
879.079	5117
879.206	5315
879.333	5045
879.461	4927
879.588	4991
879.715	5102
879.842	5235
879.97	5006
880.097	4763
880.224	4763
880.351	4809
880.478	4820
880.605	4782
880.732	4759
880.859	5045
880.986	4873
881.112	4911
881.239	4782
881.366	4634
881.493	4603
881.619	4554
881.746	4577
881.872	4615
881.999	4611
882.125	4675
882.252	4767
882.378	4778
882.505	4946
882.631	4805
882.757	4615
882.883	4721
883.01	4656
883.136	4641
883.262	4546
883.388	4596
883.514	4767
883.64	4877
883.766	4767
883.892	4656
884.018	4622
884.143	4858
884.269	5022
884.395	4653
884.52	4645
884.646	4645
884.772	4577
884.897	4569
885.023	4645
885.148	4778
885.274	4873
885.399	4828
885.524	4672
885.65	4698
885.775	4721
885.9	4721
886.025	4828
886.15	4786
886.275	4721
886.4	4645
886.525	4714
886.65	4649
886.775	4656
886.9	4904
887.025	4980
887.149	4729
887.274	4637
887.399	4618
887.523	4588
887.648	4577
887.773	4588
887.897	4755
888.021	4748
888.146	4702
888.27	4767
888.395	4908
888.519	4725
888.643	4797
888.767	4820
888.891	4698
889.015	4615
889.139	4675
889.263	4596
889.387	4797
889.511	4850
889.635	4793
889.759	4649
889.883	4649
890.006	4733
890.13	4854
890.254	4660
890.377	4714
890.501	4531
890.624	4565
890.748	4668
890.871	4504
890.995	4489
891.118	4375
891.241	4546
891.364	4565
891.488	4675
891.611	4489
891.734	4588
891.857	4596
891.98	4584
892.103	4706
892.226	4634
892.349	4531
892.471	4443
892.594	4569
892.717	4618
892.839	4596
892.962	4641
893.085	4721
893.207	4645
893.33	4489
893.452	4542
893.575	4691
893.697	4622
893.819	4812
893.941	4915
894.064	4797
894.186	4618
894.308	4588
894.43	4782
894.552	4816
894.674	4744
894.796	4599
894.918	4656
895.04	4584
895.161	4752
895.283	4698
895.405	4603
895.526	4679
895.648	4706
895.769	4714
895.891	4736
896.012	4733
896.134	4793
896.255	4729
896.376	4687
896.498	4668
896.619	4687
896.74	4634
896.861	4664
896.982	4946
897.103	5109
897.224	4843
897.345	4801
897.466	4660
897.587	4801
897.708	4930
897.828	4820
897.949	4702
898.07	4573
898.19	4698
898.311	4828
898.431	4687
898.552	4805
898.672	4812
898.792	4873
898.913	4767
899.033	4637
899.153	4516
899.273	4474
899.393	4561
899.513	4588
899.633	4558
899.753	4554
899.873	4512
899.993	4649
900.113	4527
900.232	4626
900.352	4588
900.472	4512
900.591	4451
900.711	4500
900.83	4470
900.95	4656
901.069	4698
901.189	4584
901.308	4413
901.427	4405
901.546	4409
901.665	4565
901.784	4481
901.904	4455
902.023	4303
902.141	4207
902.26	4196
902.379	4306
902.498	4287
902.617	4280
902.735	4367
902.854	4402
902.973	4379
903.091	4227
903.21	4272
903.328	4325
903.446	4325
903.565	4261
903.683	4394
903.801	4322
903.919	4421
904.038	4470
904.156	4291
904.274	4432
904.392	4386
904.51	4489
904.627	4466
904.745	4588
904.863	4698
904.981	4440
905.098	4363
905.216	4383
905.334	4455
905.451	4474
905.569	4451
905.686	4546
905.803	4611
905.921	4481
906.038	4573
906.155	4535
906.272	4402
906.389	4481
906.506	4363
906.623	4402
906.74	4394
906.857	4337
906.974	4371
907.091	4584
907.208	4733
907.324	4630
907.441	4478
907.557	4409
907.674	4344
907.79	4360
907.907	4386
908.023	4481
908.139	4500
908.256	4489
908.372	4535
908.488	4481
908.604	4379
908.72	4356
908.836	4405
908.952	4398
909.068	4451
909.184	4607
909.3	4481
909.415	4596
909.531	4618
909.647	4386
909.762	4421
909.878	4386
909.993	4455
910.108	4428
910.224	4443
910.339	4504
910.454	4455
910.57	4424
910.685	4348
910.8	4645
910.915	4634
911.03	4527
911.145	4333
911.259	4360
911.374	4398
911.489	4310
911.604	4306
911.718	4230
911.833	4200
911.947	4135
912.062	4074
912.176	4219
912.291	4249
912.405	4249
912.519	4508
912.633	4527
912.748	4428
912.862	4337
912.976	4242
913.09	4097
913.204	4211
913.318	4284
913.431	4375
913.545	4413
913.659	4512
913.772	4363
913.886	4284
914	4265
914.113	4421
914.226	4424
914.34	4409
914.453	4287
914.566	4478
914.68	4329
914.793	4363
914.906	4207
915.019	4154
915.132	4101
915.245	4181
915.358	4249
915.47	4280
915.583	4280
915.696	4325
915.809	4432
915.921	4447
916.034	4272
916.146	4356
916.259	4246
916.371	4367
916.483	4417
916.595	4310
916.708	4371
916.82	4367
916.932	4360
917.044	4352
917.156	4337
917.268	4253
917.38	4284
917.491	4295
917.603	4405
917.715	4466
917.826	4500
917.938	4379
918.049	4284
918.161	4405
918.272	4588
918.384	4584
918.495	4500
918.606	4306
918.717	4253
918.828	4348
918.939	4398
919.05	4280
919.161	4322
919.272	4135
919.383	4314
919.494	4504
919.604	4630
919.715	4436
919.826	4390
919.936	4455
920.047	4573
920.157	4500
920.267	4725
920.378	4558
920.488	4481
920.598	4736
920.708	4919
920.818	4771
920.928	4759
921.038	4976
921.148	4968
921.258	4683
921.368	4558
921.477	4558
921.587	4462
921.697	4424
921.806	4535
921.916	4459
922.025	4310
922.134	4322
922.244	4246
922.353	4341
922.462	4227
922.571	4139
922.68	4032
922.789	4025
922.898	4086
923.007	4021
923.116	4112
923.224	4082
923.333	4105
923.442	4059
923.55	3994
923.659	4055
923.767	4116
923.876	4029
923.984	4147
924.092	4006
924.201	4131
924.309	4086
924.417	4162
924.525	4074
924.633	4090
924.741	5079
924.849	3896
924.956	4109
925.064	3991
925.172	3956
925.279	3998
925.387	4086
925.494	4078
925.602	4284
925.709	4204
925.816	4059
925.924	4139
926.031	4238
926.138	4147
926.245	4234
926.352	4135
926.459	4219
926.566	4360
926.673	4173
926.779	4120
926.886	4090
926.993	3998
927.099	3994
927.206	3949
927.312	3975
927.419	4059
927.525	4067
927.631	4109
927.737	4025
927.843	3949
927.95	3899
928.056	3983
928.162	4002
928.267	4105
928.373	4637
928.479	4124
928.585	3926
928.69	4036
928.796	4055
928.901	3972
929.007	3861
929.112	4032
929.218	3983
929.323	3960
929.428	3934
929.533	4116
929.638	3960
929.743	4013
929.848	4097
929.953	4036
930.058	3998
930.163	3793
930.267	3888
930.372	3968
930.477	3831
930.581	4112
930.685	3934
930.79	3846
930.894	3896
930.998	3880
931.103	4090
931.207	3720
931.311	3762
931.415	3705
931.519	3526
931.623	3580
