Data from test_V78500241_1371.txt Node
Date: Fri Mar 25 16:58:32 CST 2022
User: usil
Spectrometer: V785-0024
Trigger mode: 0
Integration Time (sec): 4.000000E-1
Scans to average: 1
Nonlinearity correction enabled: false
Boxcar width: 0
Storing dark spectrum: false
XAxis mode: Wavelengths
Number of Pixels in Spectrum: 1024
>>>>>Begin Spectral Data<<<<<
801.071	8050
801.214	8043
801.356	7928
801.499	7890
801.641	7845
801.783	7765
801.926	7989
802.068	7959
802.211	7997
802.353	7917
802.496	7818
802.638	7814
802.78	7932
802.923	7967
803.065	7822
803.208	7860
803.35	7963
803.492	8130
803.635	8123
803.777	8016
803.919	8100
804.061	8469
804.204	8187
804.346	8039
804.488	7978
804.63	8157
804.773	8084
804.915	8081
805.057	8286
805.199	8195
805.341	8206
805.483	8237
805.626	8199
805.768	8092
805.91	8271
806.052	8218
806.194	8161
806.336	8279
806.478	8081
806.62	8050
806.762	8164
806.904	8218
807.046	8488
807.188	8393
807.33	8317
807.472	8339
807.614	8096
807.756	8157
807.898	8012
808.04	7894
808.182	7898
808.324	7963
808.465	8016
808.607	8100
808.749	8107
808.891	8195
809.033	8225
809.174	8237
809.316	8046
809.458	8043
809.6	7993
809.741	8016
809.883	8020
810.025	8081
810.166	8123
810.308	8001
810.45	8012
810.591	7871
810.733	7708
810.875	7655
811.016	7544
811.158	7567
811.299	7556
811.441	7696
811.582	7708
811.724	7605
811.865	7597
812.007	7510
812.148	7582
812.29	7662
812.431	7719
812.573	7822
812.714	7913
812.855	8096
812.997	8161
813.138	8351
813.279	8233
813.421	8077
813.562	8062
813.703	7845
813.845	7753
813.986	7422
814.127	7247
814.268	7171
814.41	7152
814.551	7202
814.692	7129
814.833	7091
814.974	7061
815.115	7095
815.256	7012
815.397	6951
815.539	6905
815.68	6837
815.821	6779
815.962	6825
816.103	6837
816.244	6707
816.385	6627
816.526	6604
816.666	6479
816.807	6308
816.948	6429
817.089	6490
817.23	6445
817.371	6357
817.512	6422
817.653	6395
817.793	6388
817.934	6452
818.075	6467
818.216	6452
818.356	6395
818.497	6235
818.638	6087
818.778	6155
818.919	6136
819.06	6190
819.2	6327
819.341	6342
819.481	6395
819.622	6547
819.762	6601
819.903	6715
820.043	6608
820.184	6578
820.324	6544
820.465	6684
820.605	6688
820.746	6646
820.886	6483
821.026	6696
821.167	6696
821.307	6848
821.447	6776
821.588	6623
821.728	6570
821.868	6498
822.008	6304
822.149	6361
822.289	6338
822.429	6175
822.569	6083
822.709	6087
822.849	5904
822.99	5901
823.13	5946
823.27	5973
823.41	5767
823.55	5771
823.69	5817
823.83	5805
823.97	5642
824.11	5516
824.25	5490
824.389	5600
824.529	5573
824.669	5497
824.809	5634
824.949	5653
825.089	5589
825.228	5493
825.368	5414
825.508	5330
825.648	5307
825.787	5433
825.927	5406
826.067	5318
826.206	5261
826.346	5383
826.485	5421
826.625	5368
826.765	5505
826.904	5455
827.044	5208
827.183	5201
827.323	5170
827.462	5166
827.601	5140
827.741	5124
827.88	5231
828.02	5083
828.159	5239
828.298	5277
828.437	5326
828.577	5307
828.716	5497
828.855	5318
828.994	5132
829.134	5155
829.273	5216
829.412	5132
829.551	5155
829.69	5132
829.829	5242
829.968	5402
830.107	5261
830.246	5242
830.385	5170
830.524	5124
830.663	5075
830.802	4991
830.941	4885
831.08	4870
831.219	4991
831.357	4972
831.496	5143
831.635	4934
831.774	4816
831.913	4835
832.051	4683
832.19	4698
832.329	4831
832.467	4710
832.606	4645
832.744	4687
832.883	4698
833.022	4767
833.16	4740
833.299	4835
833.437	4805
833.576	4812
833.714	4843
833.852	4862
833.991	4862
834.129	4938
834.267	4919
834.406	4870
834.544	5029
834.682	4961
834.821	4965
834.959	5105
835.097	5006
835.235	5132
835.373	5109
835.511	5067
835.65	5018
835.788	4987
835.926	4915
836.064	4850
836.202	4923
836.34	5128
836.478	5250
836.615	5083
836.753	5181
836.891	5284
837.029	5284
837.167	5189
837.305	5140
837.443	5197
837.58	5025
837.718	5223
837.856	5166
837.993	5113
838.131	5216
838.269	5223
838.406	5201
838.544	5159
838.681	5037
838.819	4949
838.956	4934
839.094	4843
839.231	5022
839.369	5056
839.506	5376
839.643	5254
839.781	5060
839.918	4949
840.055	5128
840.193	5086
840.33	5109
840.467	5109
840.604	5090
840.742	5425
840.879	5045
841.016	5086
841.153	5128
841.29	5360
841.427	5334
841.564	5315
841.701	5299
841.838	5216
841.975	5231
842.112	5284
842.249	5166
842.385	5098
842.522	5315
842.659	5201
842.796	5143
842.933	5193
843.069	5147
843.206	5121
843.343	5277
843.479	5212
843.616	5254
843.752	5041
843.889	4980
844.025	5231
844.162	4972
844.298	5231
844.435	5071
844.571	5025
844.708	5155
844.844	5292
844.98	5395
845.117	5318
845.253	5075
845.389	5075
845.525	5117
845.661	5159
845.798	5056
845.934	5121
846.07	5067
846.206	5197
846.342	5296
846.478	5109
846.614	5052
846.75	4934
846.886	4911
847.022	5121
847.158	4961
847.294	5045
847.429	5102
847.565	5052
847.701	5292
847.837	4812
847.972	4793
848.108	4976
848.244	4896
848.379	4763
848.515	4717
848.65	4721
848.786	4721
848.921	4790
849.057	4877
849.192	4839
849.328	4801
849.463	4805
849.598	4767
849.734	4733
849.869	4675
850.004	4637
850.14	4641
850.275	4588
850.41	4493
850.545	4542
850.68	4550
850.815	4634
850.95	4550
851.085	4820
851.22	4717
851.355	4649
851.49	4645
851.625	4637
851.76	4675
851.895	4569
852.03	4466
852.165	4630
852.299	4706
852.434	4755
852.569	4740
852.703	4748
852.838	4858
852.973	4915
853.107	4889
853.242	4687
853.376	4656
853.511	4523
853.645	4584
853.78	4752
853.914	4653
854.048	4649
854.183	4649
854.317	4714
854.451	4778
854.585	4717
854.72	4656
854.854	4740
854.988	4580
855.122	4653
855.256	4554
855.39	4649
855.524	4740
855.658	4706
855.792	4660
855.926	4721
856.06	4748
856.194	4774
856.327	4660
856.461	4580
856.595	4634
856.729	4596
856.862	4740
856.996	4649
857.13	4710
857.263	4790
857.397	4790
857.53	4641
857.664	4729
857.797	4816
857.931	4793
858.064	4664
858.197	4698
858.331	4649
858.464	4592
858.597	4497
858.731	4588
858.864	4637
858.997	4569
859.13	4656
859.263	4656
859.396	4721
859.529	4588
859.662	4554
859.795	4565
859.928	4641
860.061	4771
860.194	4767
860.327	4641
860.46	4580
860.592	4687
860.725	4736
860.858	4725
860.99	4546
861.123	4519
861.256	4497
861.388	4561
861.521	5429
861.653	4436
861.786	4478
861.918	4413
862.05	4512
862.183	4546
862.315	4603
862.447	4626
862.58	4519
862.712	4341
862.844	4306
862.976	4451
863.108	4466
863.24	4873
863.372	4325
863.504	4371
863.636	4394
863.768	4466
863.9	4398
864.032	4344
864.164	4375
864.296	4459
864.428	4538
864.559	4561
864.691	4474
864.823	4512
864.954	4523
865.086	4451
865.217	4462
865.349	4402
865.48	4436
865.612	4466
865.743	4603
865.875	4451
866.006	4478
866.137	4432
866.269	4447
866.4	4424
866.531	4405
866.662	4375
866.793	4432
866.924	4451
867.055	4485
867.186	4424
867.317	4424
867.448	4371
867.579	4383
867.71	4360
867.841	4333
867.972	4428
868.103	4413
868.233	4459
868.364	4493
868.495	4447
868.625	4645
868.756	4740
868.886	4577
869.017	4588
869.147	4774
869.278	4862
869.408	4645
869.539	4672
869.669	4740
869.799	4618
869.929	4733
870.06	4687
870.19	4965
870.32	4900
870.45	4976
870.58	5006
870.71	5071
870.84	5094
870.97	4942
871.1	4904
871.23	5140
871.36	5109
871.489	4995
871.619	5067
871.749	5086
871.879	5067
872.008	5128
872.138	5041
872.267	4957
872.397	4797
872.526	4793
872.656	4664
872.785	4812
872.915	4919
873.044	5025
873.173	4919
873.303	4942
873.432	4915
873.561	4930
873.69	4877
873.819	4854
873.948	4904
874.077	4786
874.206	4771
874.335	4782
874.464	4892
874.593	5064
874.722	4930
874.851	5121
874.979	5022
875.108	5022
875.237	4923
875.365	4881
875.494	4862
875.623	4949
875.751	4801
875.88	4858
876.008	4942
876.136	4999
876.265	5159
876.393	5376
876.521	5212
876.65	5193
876.778	5170
876.906	5086
877.034	5075
877.162	5045
877.29	4946
877.418	5025
877.546	5041
877.674	5041
877.802	5022
877.93	5018
878.058	4908
878.185	4854
878.313	4900
878.441	4957
878.568	4790
878.696	4854
878.824	4965
878.951	4961
879.079	5117
879.206	5277
879.333	5090
879.461	4946
879.588	4991
879.715	5113
879.842	5197
879.97	5010
880.097	4729
880.224	4694
880.351	4790
880.478	4816
880.605	4828
880.732	4721
880.859	5029
880.986	4885
881.112	4889
881.239	4793
881.366	4687
881.493	4622
881.619	4573
881.746	4622
881.872	4706
881.999	4611
882.125	4710
882.252	4767
882.378	4831
882.505	4984
882.631	4816
882.757	4622
882.883	4717
883.01	4748
883.136	4672
883.262	4577
883.388	4569
883.514	4774
883.64	4866
883.766	4733
883.892	4679
884.018	4744
884.143	4866
884.269	4991
884.395	4630
884.52	4634
884.646	4626
884.772	4550
884.897	4577
885.023	4634
885.148	4786
885.274	4831
885.399	4824
885.524	4710
885.65	4672
885.775	4729
885.9	4698
886.025	4831
886.15	4801
886.275	4694
886.4	4637
886.525	4698
886.65	4668
886.775	4683
886.9	4870
887.025	5006
887.149	4816
887.274	4660
887.399	4580
887.523	4588
887.648	4546
887.773	4527
887.897	4797
888.021	4744
888.146	4687
888.27	4828
888.395	4858
888.519	4805
888.643	4824
888.767	4793
888.891	4694
889.015	4592
889.139	4649
889.263	4641
889.387	4736
889.511	4824
889.635	4839
889.759	4607
889.883	4641
890.006	4691
890.13	4824
890.254	4630
890.377	4668
890.501	4584
890.624	4493
890.748	4596
890.871	4558
890.995	4409
891.118	4390
891.241	4516
891.364	4493
891.488	4615
891.611	4497
891.734	4527
891.857	4565
891.98	4519
892.103	4622
892.226	4615
892.349	4550
892.471	4367
892.594	4531
892.717	4630
892.839	4531
892.962	4637
893.085	4679
893.207	4588
893.33	4459
893.452	4428
893.575	4668
893.697	4561
893.819	4759
893.941	4816
894.064	4710
894.186	4561
894.308	4577
894.43	4706
894.552	4759
894.674	4710
894.796	4546
894.918	4656
895.04	4573
895.161	4725
895.283	4675
895.405	4561
895.526	4622
895.648	4717
895.769	4675
895.891	4755
896.012	4740
896.134	4698
896.255	4634
896.376	4653
896.498	4611
896.619	4698
896.74	4588
896.861	4618
896.982	4908
897.103	5067
897.224	4816
897.345	4782
897.466	4706
897.587	4755
897.708	4843
897.828	4710
897.949	4668
898.07	4588
898.19	4637
898.311	4824
898.431	4664
898.552	4733
898.672	4812
898.792	4790
898.913	4740
899.033	4607
899.153	4493
899.273	4474
899.393	4459
899.513	4500
899.633	4497
899.753	4531
899.873	4504
899.993	4554
900.113	4485
900.232	4573
900.352	4500
900.472	4424
900.591	4409
900.711	4489
900.83	4428
900.95	4618
901.069	4698
901.189	4516
901.308	4398
901.427	4318
901.546	4363
901.665	4493
901.784	4504
901.904	4344
902.023	4295
902.141	4162
902.26	4177
902.379	4287
902.498	4230
902.617	4173
902.735	4375
902.854	4363
902.973	4337
903.091	4181
903.21	4253
903.328	4318
903.446	4223
903.565	4227
903.683	4356
903.801	4299
903.919	4424
904.038	4424
904.156	4329
904.274	4447
904.392	4413
904.51	4386
904.627	4459
904.745	4577
904.863	4618
904.981	4318
905.098	4257
905.216	4363
905.334	4413
905.451	4436
905.569	4413
905.686	4508
905.803	4573
905.921	4451
906.038	4535
906.155	4432
906.272	4352
906.389	4466
906.506	4348
906.623	4363
906.74	4394
906.857	4303
906.974	4329
907.091	4512
907.208	4668
907.324	4596
907.441	4481
907.557	4367
907.674	4383
907.79	4360
907.907	4394
908.023	4432
908.139	4432
908.256	4417
908.372	4474
908.488	4447
908.604	4344
908.72	4371
908.836	4344
908.952	4356
909.068	4428
909.184	4584
909.3	4451
909.415	4622
909.531	4508
909.647	4306
909.762	4390
909.878	4371
909.993	4470
910.108	4375
910.224	4440
910.339	4504
910.454	4367
910.57	4409
910.685	4329
910.8	4641
910.915	4577
911.03	4531
911.145	4314
911.259	4314
911.374	4360
911.489	4310
911.604	4268
911.718	4158
911.833	4196
911.947	4071
912.062	4067
912.176	4211
912.291	4219
912.405	4234
912.519	4462
912.633	4436
912.748	4363
912.862	4367
912.976	4188
913.09	4158
913.204	4158
913.318	4253
913.431	4341
913.545	4386
913.659	4451
913.772	4394
913.886	4238
914	4238
914.113	4356
914.226	4462
914.34	4352
914.453	4230
914.566	4432
914.68	4276
914.793	4344
914.906	4158
915.019	4135
915.132	4097
915.245	4143
915.358	4207
915.47	4211
915.583	4265
915.696	4325
915.809	4424
915.921	4451
916.034	4253
916.146	4227
916.259	4219
916.371	4360
916.483	4314
916.595	4246
916.708	4337
916.82	4325
916.932	4363
917.044	4363
917.156	4310
917.268	4188
917.38	4276
917.491	4268
917.603	4318
917.715	4424
917.826	4413
917.938	4367
918.049	4253
918.161	4375
918.272	4565
918.384	4519
918.495	4459
918.606	4249
918.717	4211
918.828	4314
918.939	4329
919.05	4219
919.161	4265
919.272	4109
919.383	4219
919.494	4428
919.604	4588
919.715	4417
919.826	4363
919.936	4409
920.047	4527
920.157	4512
920.267	4702
920.378	4573
920.488	4504
920.598	4729
920.708	4854
920.818	4759
920.928	4733
921.038	4965
921.148	4923
921.258	4592
921.368	4538
921.477	4500
921.587	4440
921.697	4344
921.806	4538
921.916	4398
922.025	4253
922.134	4227
922.244	4261
922.353	4318
922.462	4196
922.571	4139
922.68	3987
922.789	3949
922.898	3991
923.007	3979
923.116	4109
923.224	4090
923.333	4067
923.442	3968
923.55	3975
923.659	4002
923.767	4086
923.876	3987
923.984	4124
924.092	3983
924.201	4051
924.309	4109
924.417	4097
924.525	4017
924.633	4120
924.741	4980
924.849	3926
924.956	4116
925.064	3926
925.172	3892
925.279	3915
925.387	4082
925.494	4063
925.602	4177
925.709	4207
925.816	4025
925.924	4074
926.031	4227
926.138	4181
926.245	4158
926.352	4036
926.459	4234
926.566	4306
926.673	4124
926.779	4071
926.886	4059
926.993	3972
927.099	3972
927.206	3953
927.312	3941
927.419	4048
927.525	3998
927.631	4074
927.737	3975
927.843	3911
927.95	3819
928.056	3911
928.162	3941
928.267	4029
928.373	4660
928.479	4086
928.585	3861
928.69	3968
928.796	4036
928.901	4006
929.007	3831
929.112	3979
929.218	3953
929.323	3888
929.428	3949
929.533	4082
929.638	3915
929.743	3937
929.848	4025
929.953	4006
930.058	3899
930.163	3766
930.267	3819
930.372	3934
930.477	3804
930.581	4071
930.685	3956
930.79	3778
930.894	3873
930.998	3850
931.103	4032
931.207	3720
931.311	3713
931.415	3606
931.519	3534
931.623	3507
