Data from test_V78500241_415.txt Node
Date: Fri Mar 25 16:51:53 CST 2022
User: usil
Spectrometer: V785-0024
Trigger mode: 0
Integration Time (sec): 4.000000E-1
Scans to average: 1
Nonlinearity correction enabled: false
Boxcar width: 0
Storing dark spectrum: false
XAxis mode: Wavelengths
Number of Pixels in Spectrum: 1024
>>>>>Begin Spectral Data<<<<<
801.071	8039
801.214	8100
801.356	7940
801.499	7852
801.641	7822
801.783	7860
801.926	8043
802.068	7997
802.211	7997
802.353	8005
802.496	7818
802.638	7841
802.78	7921
802.923	7982
803.065	7887
803.208	7871
803.35	8016
803.492	8012
803.635	8081
803.777	8054
803.919	8187
804.061	8366
804.204	8100
804.346	8111
804.488	8046
804.63	8100
804.773	7959
804.915	8092
805.057	8301
805.199	8233
805.341	8191
805.483	8248
805.626	8142
805.768	8024
805.91	8142
806.052	8050
806.194	8073
806.336	8336
806.478	8206
806.62	8145
806.762	8157
806.904	8324
807.046	8408
807.188	8389
807.33	8176
807.472	8328
807.614	8123
807.756	8187
807.898	8046
808.04	7925
808.182	7970
808.324	7959
808.465	7989
808.607	8107
808.749	8065
808.891	8202
809.033	8294
809.174	8240
809.316	8073
809.458	8065
809.6	7982
809.741	8027
809.883	8058
810.025	8092
810.166	8168
810.308	8126
810.45	7997
810.591	7898
810.733	7772
810.875	7643
811.016	7533
811.158	7518
811.299	7616
811.441	7769
811.582	7761
811.724	7636
811.865	7655
812.007	7639
812.148	7655
812.29	7681
812.431	7803
812.573	7856
812.714	8103
812.855	8206
812.997	8256
813.138	8320
813.279	8202
813.421	8172
813.562	8103
813.703	7928
813.845	7772
813.986	7540
814.127	7293
814.268	7343
814.41	7285
814.551	7225
814.692	7278
814.833	7107
814.974	7084
815.115	7129
815.256	6977
815.397	6939
815.539	6894
815.68	6829
815.821	6787
815.962	6852
816.103	6878
816.244	6779
816.385	6646
816.526	6639
816.666	6460
816.807	6315
816.948	6475
817.089	6563
817.23	6399
817.371	6388
817.512	6388
817.653	6448
817.793	6334
817.934	6437
818.075	6479
818.216	6445
818.356	6399
818.497	6289
818.638	6133
818.778	6175
818.919	6140
819.06	6171
819.2	6399
819.341	6338
819.481	6361
819.622	6525
819.762	6779
819.903	6757
820.043	6658
820.184	6669
820.324	6563
820.465	6726
820.605	6662
820.746	6612
820.886	6490
821.026	6639
821.167	6734
821.307	6848
821.447	6825
821.588	6620
821.728	6551
821.868	6582
822.008	6350
822.149	6334
822.289	6353
822.429	6171
822.569	6091
822.709	6102
822.849	5992
822.99	5912
823.13	5965
823.27	5958
823.41	5847
823.55	5824
823.69	5821
823.83	5824
823.97	5710
824.11	5551
824.25	5539
824.389	5604
824.529	5619
824.669	5539
824.809	5634
824.949	5688
825.089	5623
825.228	5562
825.368	5387
825.508	5322
825.648	5315
825.787	5360
825.927	5379
826.067	5261
826.206	5280
826.346	5406
826.485	5452
826.625	5368
826.765	5547
826.904	5493
827.044	5280
827.183	5208
827.323	5162
827.462	5273
827.601	5201
827.741	5223
827.88	5212
828.02	5121
828.159	5258
828.298	5307
828.437	5337
828.577	5269
828.716	5539
828.855	5341
828.994	5212
829.134	5147
829.273	5197
829.412	5166
829.551	5155
829.69	5204
829.829	5284
829.968	5376
830.107	5280
830.246	5223
830.385	5162
830.524	5083
830.663	5102
830.802	4991
830.941	4885
831.08	4858
831.219	4984
831.357	4991
831.496	5201
831.635	4904
831.774	4858
831.913	4839
832.051	4782
832.19	4801
832.329	4847
832.467	4702
832.606	4656
832.744	4797
832.883	4736
833.022	4717
833.16	4793
833.299	4793
833.437	4828
833.576	4854
833.714	4828
833.852	4919
833.991	4927
834.129	4999
834.267	4957
834.406	4942
834.544	4984
834.682	4968
834.821	4976
834.959	5147
835.097	5025
835.235	5178
835.373	5105
835.511	5159
835.65	5041
835.788	5045
835.926	4927
836.064	4854
836.202	4896
836.34	5105
836.478	5250
836.615	5162
836.753	5193
836.891	5311
837.029	5261
837.167	5181
837.305	5189
837.443	5151
837.58	5037
837.718	5242
837.856	5178
837.993	5109
838.131	5258
838.269	5239
838.406	5235
838.544	5170
838.681	5045
838.819	5041
838.956	4885
839.094	4923
839.231	4965
839.369	5147
839.506	5414
839.643	5258
839.781	5105
839.918	5025
840.055	5105
840.193	5189
840.33	5113
840.467	5102
840.604	5174
840.742	5429
840.879	5098
841.016	5143
841.153	5174
841.29	5353
841.427	5383
841.564	5273
841.701	5334
841.838	5254
841.975	5254
842.112	5284
842.249	5170
842.385	5083
842.522	5360
842.659	5166
842.796	5151
842.933	5250
843.069	5117
843.206	5132
843.343	5357
843.479	5204
843.616	5239
843.752	5018
843.889	5006
844.025	5220
844.162	5060
844.298	5250
844.435	5094
844.571	5102
844.708	5212
844.844	5345
844.98	5379
845.117	5273
845.253	5166
845.389	5060
845.525	5162
845.661	5159
845.798	5075
845.934	5109
846.07	5105
846.206	5143
846.342	5296
846.478	5208
846.614	5041
846.75	4946
846.886	4934
847.022	5151
847.158	4984
847.294	5048
847.429	5124
847.565	5064
847.701	5303
847.837	4835
847.972	4828
848.108	4957
848.244	5022
848.379	4809
848.515	4774
848.65	4721
848.786	4755
848.921	4797
849.057	4870
849.192	4870
849.328	4847
849.463	4889
849.598	4831
849.734	4759
849.869	4717
850.004	4645
850.14	4660
850.275	4607
850.41	4523
850.545	4550
850.68	4577
850.815	4660
850.95	4675
851.085	4889
851.22	4759
851.355	4653
851.49	4615
851.625	4653
851.76	4656
851.895	4531
852.03	4516
852.165	4691
852.299	4702
852.434	4805
852.569	4683
852.703	4786
852.838	4858
852.973	4946
853.107	4900
853.242	4786
853.376	4679
853.511	4584
853.645	4653
853.78	4801
853.914	4694
854.048	4630
854.183	4668
854.317	4717
854.451	4850
854.585	4687
854.72	4641
854.854	4786
854.988	4561
855.122	4634
855.256	4550
855.39	4637
855.524	4774
855.658	4733
855.792	4748
855.926	4752
856.06	4714
856.194	4771
856.327	4717
856.461	4641
856.595	4615
856.729	4694
856.862	4767
856.996	4672
857.13	4721
857.263	4759
857.397	4714
857.53	4660
857.664	4740
857.797	4744
857.931	4790
858.064	4694
858.197	4809
858.331	4618
858.464	4626
858.597	4538
858.731	4679
858.864	4645
858.997	4569
859.13	4653
859.263	4660
859.396	4691
859.529	4637
859.662	4538
859.795	4558
859.928	4653
860.061	4786
860.194	4790
860.327	4599
860.46	4565
860.592	4706
860.725	4733
860.858	4691
860.99	4546
861.123	4531
861.256	4519
861.388	4580
861.521	5474
861.653	4485
861.786	4447
861.918	4497
862.05	4516
862.183	4523
862.315	4599
862.447	4691
862.58	4558
862.712	4413
862.844	4348
862.976	4478
863.108	4508
863.24	4767
863.372	4383
863.504	4405
863.636	4398
863.768	4474
863.9	4443
864.032	4363
864.164	4421
864.296	4535
864.428	4516
864.559	4561
864.691	4493
864.823	4478
864.954	4497
865.086	4481
865.217	4417
865.349	4409
865.48	4489
865.612	4516
865.743	4607
865.875	4474
866.006	4478
866.137	4462
866.269	4478
866.4	4428
866.531	4443
866.662	4417
866.793	4402
866.924	4424
867.055	4500
867.186	4432
867.317	4413
867.448	4421
867.579	4383
867.71	4409
867.841	4379
867.972	4466
868.103	4478
868.233	4443
868.364	4421
868.495	4500
868.625	4656
868.756	4752
868.886	4554
869.017	4584
869.147	4755
869.278	4816
869.408	4660
869.539	4607
869.669	4714
869.799	4668
869.929	4767
870.06	4725
870.19	4976
870.32	4965
870.45	4930
870.58	5025
870.71	5075
870.84	5113
870.97	4896
871.1	4870
871.23	5124
871.36	5124
871.489	5045
871.619	5079
871.749	5090
871.879	5162
872.008	5181
872.138	5098
872.267	4949
872.397	4900
872.526	4858
872.656	4752
872.785	4801
872.915	4972
873.044	5037
873.173	4957
873.303	4995
873.432	4930
873.561	4938
873.69	4854
873.819	4854
873.948	4923
874.077	4816
874.206	4763
874.335	4824
874.464	4889
874.593	5056
874.722	4972
874.851	5071
874.979	5033
875.108	5045
875.237	4927
875.365	4900
875.494	4885
875.623	4999
875.751	4820
875.88	4900
876.008	4984
876.136	5083
876.265	5181
876.393	5349
876.521	5216
876.65	5284
876.778	5189
876.906	5090
877.034	5029
877.162	5075
877.29	5014
877.418	5037
877.546	5022
877.674	5052
877.802	5064
877.93	5010
878.058	4938
878.185	4881
878.313	4934
878.441	4953
878.568	4824
878.696	4824
878.824	4965
878.951	4991
879.079	5109
879.206	5296
879.333	5056
879.461	5006
879.588	5022
879.715	5102
879.842	5227
879.97	5025
880.097	4786
880.224	4744
880.351	4790
880.478	4828
880.605	4797
880.732	4786
880.859	5105
880.986	4877
881.112	4896
881.239	4790
881.366	4664
881.493	4588
881.619	4569
881.746	4626
881.872	4611
881.999	4611
882.125	4687
882.252	4767
882.378	4850
882.505	4961
882.631	4786
882.757	4641
882.883	4774
883.01	4736
883.136	4664
883.262	4554
883.388	4599
883.514	4824
883.64	4911
883.766	4771
883.892	4675
884.018	4664
884.143	4877
884.269	5014
884.395	4717
884.52	4630
884.646	4664
884.772	4538
884.897	4607
885.023	4660
885.148	4778
885.274	4850
885.399	4786
885.524	4733
885.65	4706
885.775	4744
885.9	4702
886.025	4877
886.15	4786
886.275	4774
886.4	4683
886.525	4755
886.65	4660
886.775	4687
886.9	4934
887.025	5029
887.149	4797
887.274	4637
887.399	4577
887.523	4603
887.648	4580
887.773	4630
887.897	4793
888.021	4763
888.146	4691
888.27	4881
888.395	4915
888.519	4809
888.643	4828
888.767	4816
888.891	4714
889.015	4637
889.139	4672
889.263	4630
889.387	4698
889.511	4847
889.635	4828
889.759	4672
889.883	4649
890.006	4736
890.13	4877
890.254	4645
890.377	4672
890.501	4577
890.624	4535
890.748	4622
890.871	4508
890.995	4451
891.118	4402
891.241	4470
891.364	4554
891.488	4645
891.611	4489
891.734	4504
891.857	4618
891.98	4527
892.103	4641
892.226	4626
892.349	4478
892.471	4451
892.594	4565
892.717	4603
892.839	4546
892.962	4603
893.085	4694
893.207	4565
893.33	4443
893.452	4550
893.575	4634
893.697	4622
893.819	4812
893.941	4854
894.064	4721
894.186	4519
894.308	4542
894.43	4774
894.552	4820
894.674	4725
894.796	4596
894.918	4599
895.04	4531
895.161	4706
895.283	4706
895.405	4558
895.526	4618
895.648	4706
895.769	4702
895.891	4702
896.012	4740
896.134	4752
896.255	4656
896.376	4664
896.498	4660
896.619	4675
896.74	4603
896.861	4694
896.982	4938
897.103	5079
897.224	4805
897.345	4774
897.466	4683
897.587	4767
897.708	4828
897.828	4801
897.949	4649
898.07	4569
898.19	4626
898.311	4828
898.431	4649
898.552	4710
898.672	4786
898.792	4801
898.913	4748
899.033	4622
899.153	4512
899.273	4459
899.393	4462
899.513	4558
899.633	4512
899.753	4573
899.873	4535
899.993	4565
900.113	4542
900.232	4596
900.352	4538
900.472	4493
900.591	4417
900.711	4527
900.83	4497
900.95	4649
901.069	4706
901.189	4558
901.308	4367
901.427	4322
901.546	4363
901.665	4451
901.784	4531
901.904	4375
902.023	4337
902.141	4162
902.26	4147
902.379	4325
902.498	4253
902.617	4196
902.735	4341
902.854	4417
902.973	4371
903.091	4173
903.21	4181
903.328	4287
903.446	4284
903.565	4249
903.683	4341
903.801	4265
903.919	4383
904.038	4459
904.156	4284
904.274	4432
904.392	4424
904.51	4409
904.627	4462
904.745	4622
904.863	4611
904.981	4394
905.098	4329
905.216	4367
905.334	4459
905.451	4432
905.569	4436
905.686	4531
905.803	4546
905.921	4379
906.038	4550
906.155	4478
906.272	4424
906.389	4470
906.506	4363
906.623	4360
906.74	4405
906.857	4280
906.974	4363
907.091	4554
907.208	4664
907.324	4577
907.441	4451
907.557	4348
907.674	4352
907.79	4344
907.907	4356
908.023	4485
908.139	4519
908.256	4447
908.372	4470
908.488	4478
908.604	4318
908.72	4291
908.836	4371
908.952	4413
909.068	4413
909.184	4561
909.3	4462
909.415	4565
909.531	4542
909.647	4318
909.762	4371
909.878	4344
909.993	4386
910.108	4390
910.224	4462
910.339	4459
910.454	4394
910.57	4344
910.685	4337
910.8	4649
910.915	4580
911.03	4474
911.145	4337
911.259	4352
911.374	4379
911.489	4303
911.604	4272
911.718	4139
911.833	4143
911.947	4051
912.062	3998
912.176	4207
912.291	4249
912.405	4253
912.519	4413
912.633	4478
912.748	4379
912.862	4363
912.976	4204
913.09	4078
913.204	4200
913.318	4219
913.431	4409
913.545	4280
913.659	4421
913.772	4348
913.886	4223
914	4219
914.113	4356
914.226	4447
914.34	4390
914.453	4215
914.566	4440
914.68	4287
914.793	4363
914.906	4143
915.019	4086
915.132	4059
915.245	4223
915.358	4188
915.47	4215
915.583	4261
915.696	4295
915.809	4417
915.921	4409
916.034	4268
916.146	4249
916.259	4200
916.371	4394
916.483	4352
916.595	4268
916.708	4322
916.82	4295
916.932	4306
917.044	4352
917.156	4356
917.268	4234
917.38	4303
917.491	4303
917.603	4352
917.715	4443
917.826	4489
917.938	4421
918.049	4246
918.161	4367
918.272	4580
918.384	4577
918.495	4485
918.606	4337
918.717	4249
918.828	4367
918.939	4432
919.05	4284
919.161	4337
919.272	4158
919.383	4234
919.494	4470
919.604	4622
919.715	4394
919.826	4344
919.936	4447
920.047	4569
920.157	4508
920.267	4759
920.378	4569
920.488	4493
920.598	4763
920.708	4942
920.818	4866
920.928	4812
921.038	5022
921.148	4934
921.258	4679
921.368	4580
921.477	4546
921.587	4478
921.697	4451
921.806	4618
921.916	4447
922.025	4329
922.134	4314
922.244	4249
922.353	4390
922.462	4268
922.571	4169
922.68	4048
922.789	4040
922.898	4109
923.007	4044
923.116	4162
923.224	4135
923.333	4158
923.442	4017
923.55	4055
923.659	4101
923.767	4173
923.876	4036
923.984	4150
924.092	4082
924.201	4116
924.309	4150
924.417	4158
924.525	4154
924.633	4150
924.741	5105
924.849	3979
924.956	4188
925.064	4002
925.172	3960
925.279	4067
925.387	4097
925.494	4093
925.602	4234
925.709	4272
925.816	4078
925.924	4192
926.031	4265
926.138	4261
926.245	4230
926.352	4131
926.459	4284
926.566	4367
926.673	4253
926.779	4120
926.886	4090
926.993	4044
927.099	3972
927.206	4010
927.312	3972
927.419	4093
927.525	4093
927.631	4101
927.737	4051
927.843	3991
927.95	3884
928.056	4059
928.162	4055
928.267	4097
928.373	4771
928.479	4116
928.585	3888
928.69	4109
928.796	4112
928.901	3994
929.007	3918
929.112	4021
929.218	4006
929.323	4002
929.428	4010
929.533	4169
929.638	3937
929.743	3979
929.848	4082
929.953	4029
930.058	3964
930.163	3804
930.267	3915
930.372	4017
930.477	3827
930.581	4097
930.685	4002
930.79	3888
930.894	3945
930.998	3865
931.103	4044
931.207	3717
931.311	3789
931.415	3648
931.519	3553
931.623	3553
