Data from test_V78500241_1062.txt Node
Date: Fri Mar 25 16:56:23 CST 2022
User: usil
Spectrometer: V785-0024
Trigger mode: 0
Integration Time (sec): 4.000000E-1
Scans to average: 1
Nonlinearity correction enabled: false
Boxcar width: 0
Storing dark spectrum: false
XAxis mode: Wavelengths
Number of Pixels in Spectrum: 1024
>>>>>Begin Spectral Data<<<<<
801.071	8065
801.214	8054
801.356	7925
801.499	7833
801.641	7799
801.783	7738
801.926	8005
802.068	7936
802.211	7898
802.353	7947
802.496	7818
802.638	7951
802.78	7799
802.923	7925
803.065	7883
803.208	7898
803.35	7951
803.492	8157
803.635	8119
803.777	8046
803.919	8130
804.061	8434
804.204	8191
804.346	8081
804.488	7936
804.63	8157
804.773	8016
804.915	8043
805.057	8271
805.199	8172
805.341	8229
805.483	8267
805.626	8043
805.768	8123
805.91	8248
806.052	8248
806.194	8100
806.336	8339
806.478	8084
806.62	8024
806.762	8119
806.904	8275
807.046	8473
807.188	8320
807.33	8290
807.472	8381
807.614	8164
807.756	8130
807.898	7978
808.04	7868
808.182	7906
808.324	7947
808.465	7898
808.607	8058
808.749	8134
808.891	8161
809.033	8309
809.174	8191
809.316	8107
809.458	8115
809.6	7951
809.741	8024
809.883	8084
810.025	8115
810.166	8062
810.308	8031
810.45	8043
810.591	7852
810.733	7738
810.875	7636
811.016	7540
811.158	7533
811.299	7620
811.441	7655
811.582	7708
811.724	7563
811.865	7468
812.007	7510
812.148	7575
812.29	7662
812.431	7689
812.573	7830
812.714	7967
812.855	8161
812.997	8172
813.138	8317
813.279	8145
813.421	8107
813.562	8039
813.703	7902
813.845	7677
813.986	7430
814.127	7270
814.268	7183
814.41	7164
814.551	7088
814.692	7209
814.833	7000
814.974	7076
815.115	7069
815.256	6966
815.397	6920
815.539	6962
815.68	6806
815.821	6837
815.962	6833
816.103	6791
816.244	6726
816.385	6650
816.526	6642
816.666	6426
816.807	6300
816.948	6494
817.089	6479
817.23	6456
817.371	6353
817.512	6323
817.653	6380
817.793	6422
817.934	6388
818.075	6528
818.216	6426
818.356	6437
818.497	6266
818.638	6045
818.778	6163
818.919	6171
819.06	6136
819.2	6327
819.341	6277
819.481	6334
819.622	6506
819.762	6715
819.903	6707
820.043	6582
820.184	6540
820.324	6563
820.465	6669
820.605	6741
820.746	6627
820.886	6475
821.026	6635
821.167	6749
821.307	6700
821.447	6741
821.588	6582
821.728	6604
821.868	6460
822.008	6342
822.149	6342
822.289	6346
822.429	6155
822.569	6057
822.709	6095
822.849	5946
822.99	5882
823.13	5912
823.27	5946
823.41	5756
823.55	5783
823.69	5737
823.83	5783
823.97	5691
824.11	5509
824.25	5474
824.389	5501
824.529	5577
824.669	5554
824.809	5627
824.949	5699
825.089	5619
825.228	5528
825.368	5353
825.508	5296
825.648	5322
825.787	5341
825.927	5406
826.067	5330
826.206	5315
826.346	5406
826.485	5414
826.625	5429
826.765	5558
826.904	5478
827.044	5292
827.183	5121
827.323	5113
827.462	5193
827.601	5166
827.741	5181
827.88	5143
828.02	5105
828.159	5231
828.298	5277
828.437	5303
828.577	5303
828.716	5463
828.855	5315
828.994	5109
829.134	5155
829.273	5208
829.412	5117
829.551	5102
829.69	5159
829.829	5197
829.968	5398
830.107	5326
830.246	5254
830.385	5208
830.524	5090
830.663	5071
830.802	4980
830.941	4866
831.08	4904
831.219	4984
831.357	4953
831.496	5132
831.635	4927
831.774	4877
831.913	4820
832.051	4721
832.19	4759
832.329	4847
832.467	4675
832.606	4656
832.744	4698
832.883	4679
833.022	4748
833.16	4752
833.299	4873
833.437	4786
833.576	4771
833.714	4870
833.852	4866
833.991	4866
834.129	4938
834.267	4949
834.406	4961
834.544	4915
834.682	4965
834.821	4942
834.959	5162
835.097	4965
835.235	5185
835.373	5048
835.511	5136
835.65	4984
835.788	5037
835.926	4934
836.064	4877
836.202	4892
836.34	5174
836.478	5204
836.615	5102
836.753	5132
836.891	5273
837.029	5216
837.167	5151
837.305	5162
837.443	5151
837.58	5037
837.718	5231
837.856	5216
837.993	5143
838.131	5235
838.269	5204
838.406	5204
838.544	5162
838.681	4999
838.819	5006
838.956	4870
839.094	4904
839.231	4942
839.369	5041
839.506	5387
839.643	5223
839.781	5029
839.918	4968
840.055	5079
840.193	5094
840.33	5105
840.467	5124
840.604	5216
840.742	5421
840.879	5037
841.016	5094
841.153	5136
841.29	5376
841.427	5376
841.564	5292
841.701	5357
841.838	5288
841.975	5235
842.112	5303
842.249	5181
842.385	5083
842.522	5357
842.659	5147
842.796	5147
842.933	5185
843.069	5155
843.206	5105
843.343	5254
843.479	5178
843.616	5269
843.752	5056
843.889	5029
844.025	5220
844.162	4999
844.298	5208
844.435	5124
844.571	5052
844.708	5162
844.844	5258
844.98	5330
845.117	5261
845.253	5136
845.389	5079
845.525	5178
845.661	5136
845.798	5052
845.934	5132
846.07	4980
846.206	5178
846.342	5315
846.478	5151
846.614	5052
846.75	4942
846.886	4915
847.022	5166
847.158	5018
847.294	5064
847.429	5105
847.565	5033
847.701	5322
847.837	4805
847.972	4835
848.108	4961
848.244	4938
848.379	4763
848.515	4774
848.65	4691
848.786	4755
848.921	4763
849.057	4805
849.192	4923
849.328	4793
849.463	4854
849.598	4755
849.734	4740
849.869	4740
850.004	4622
850.14	4679
850.275	4596
850.41	4535
850.545	4527
850.68	4634
850.815	4622
850.95	4626
851.085	4774
851.22	4744
851.355	4653
851.49	4565
851.625	4565
851.76	4634
851.895	4497
852.03	4516
852.165	4664
852.299	4744
852.434	4801
852.569	4729
852.703	4710
852.838	4843
852.973	4892
853.107	4900
853.242	4687
853.376	4649
853.511	4538
853.645	4615
853.78	4771
853.914	4744
854.048	4660
854.183	4645
854.317	4672
854.451	4862
854.585	4721
854.72	4611
854.854	4767
854.988	4580
855.122	4607
855.256	4542
855.39	4634
855.524	4729
855.658	4687
855.792	4645
855.926	4721
856.06	4729
856.194	4797
856.327	4706
856.461	4641
856.595	4615
856.729	4626
856.862	4733
856.996	4687
857.13	4717
857.263	4752
857.397	4786
857.53	4637
857.664	4683
857.797	4733
857.931	4721
858.064	4691
858.197	4691
858.331	4580
858.464	4573
858.597	4497
858.731	4653
858.864	4577
858.997	4592
859.13	4668
859.263	4664
859.396	4687
859.529	4584
859.662	4508
859.795	4504
859.928	4565
860.061	4793
860.194	4771
860.327	4607
860.46	4542
860.592	4729
860.725	4721
860.858	4733
860.99	4580
861.123	4527
861.256	4478
861.388	4565
861.521	5284
861.653	4462
861.786	4428
861.918	4489
862.05	4474
862.183	4546
862.315	4584
862.447	4637
862.58	4565
862.712	4375
862.844	4348
862.976	4424
863.108	4497
863.24	4843
863.372	4287
863.504	4360
863.636	4367
863.768	4497
863.9	4466
864.032	4325
864.164	4394
864.296	4424
864.428	4519
864.559	4569
864.691	4519
864.823	4508
864.954	4481
865.086	4500
865.217	4447
865.349	4428
865.48	4440
865.612	4474
865.743	4630
865.875	4424
866.006	4428
866.137	4470
866.269	4443
866.4	4394
866.531	4440
866.662	4398
866.793	4398
866.924	4398
867.055	4497
867.186	4436
867.317	4436
867.448	4329
867.579	4398
867.71	4409
867.841	4337
867.972	4447
868.103	4455
868.233	4466
868.364	4436
868.495	4443
868.625	4691
868.756	4702
868.886	4535
869.017	4599
869.147	4740
869.278	4782
869.408	4653
869.539	4618
869.669	4706
869.799	4683
869.929	4744
870.06	4733
870.19	4930
870.32	4904
870.45	4900
870.58	4968
870.71	5071
870.84	5090
870.97	4976
871.1	4850
871.23	5105
871.36	5140
871.489	5041
871.619	5052
871.749	5041
871.879	5143
872.008	5185
872.138	5067
872.267	4953
872.397	4892
872.526	4805
872.656	4698
872.785	4797
872.915	4900
873.044	5018
873.173	4942
873.303	4961
873.432	4946
873.561	4885
873.69	4854
873.819	4843
873.948	4873
874.077	4755
874.206	4710
874.335	4752
874.464	4938
874.593	4999
874.722	4923
874.851	5083
874.979	5014
875.108	4999
875.237	4934
875.365	4873
875.494	4877
875.623	4942
875.751	4786
875.88	4877
876.008	4980
876.136	5052
876.265	5208
876.393	5322
876.521	5231
876.65	5155
876.778	5132
876.906	5003
877.034	4980
877.162	5048
877.29	4995
877.418	5048
877.546	5018
877.674	5006
877.802	4984
877.93	4995
878.058	4915
878.185	4885
878.313	5003
878.441	4953
878.568	4816
878.696	4892
878.824	4919
878.951	5014
879.079	5117
879.206	5277
879.333	5086
879.461	4957
879.588	4965
879.715	5064
879.842	5155
879.97	5006
880.097	4797
880.224	4763
880.351	4790
880.478	4816
880.605	4793
880.732	4774
880.859	5048
880.986	4892
881.112	4866
881.239	4786
881.366	4672
881.493	4630
881.619	4577
881.746	4596
881.872	4592
881.999	4660
882.125	4672
882.252	4759
882.378	4797
882.505	4976
882.631	4797
882.757	4672
882.883	4698
883.01	4767
883.136	4672
883.262	4599
883.388	4592
883.514	4828
883.64	4850
883.766	4782
883.892	4683
884.018	4694
884.143	4873
884.269	4946
884.395	4660
884.52	4637
884.646	4649
884.772	4603
884.897	4554
885.023	4668
885.148	4805
885.274	4900
885.399	4820
885.524	4733
885.65	4714
885.775	4748
885.9	4694
886.025	4809
886.15	4816
886.275	4725
886.4	4618
886.525	4660
886.65	4637
886.775	4679
886.9	4870
887.025	5048
887.149	4820
887.274	4645
887.399	4588
887.523	4603
887.648	4565
887.773	4603
887.897	4763
888.021	4797
888.146	4679
888.27	4805
888.395	4892
888.519	4790
888.643	4767
888.767	4797
888.891	4679
889.015	4584
889.139	4630
889.263	4588
889.387	4759
889.511	4866
889.635	4748
889.759	4618
889.883	4645
890.006	4706
890.13	4774
890.254	4634
890.377	4687
890.501	4523
890.624	4523
890.748	4645
890.871	4538
890.995	4421
891.118	4383
891.241	4519
891.364	4531
891.488	4618
891.611	4504
891.734	4508
891.857	4607
891.98	4580
892.103	4660
892.226	4599
892.349	4474
892.471	4421
892.594	4538
892.717	4558
892.839	4588
892.962	4546
893.085	4679
893.207	4561
893.33	4474
893.452	4474
893.575	4626
893.697	4599
893.819	4752
893.941	4866
894.064	4782
894.186	4569
894.308	4580
894.43	4736
894.552	4786
894.674	4759
894.796	4550
894.918	4554
895.04	4516
895.161	4729
895.283	4664
895.405	4569
895.526	4626
895.648	4698
895.769	4656
895.891	4683
896.012	4717
896.134	4702
896.255	4626
896.376	4580
896.498	4626
896.619	4630
896.74	4607
896.861	4672
896.982	4904
897.103	5029
897.224	4797
897.345	4744
897.466	4637
897.587	4702
897.708	4858
897.828	4801
897.949	4637
898.07	4622
898.19	4679
898.311	4835
898.431	4672
898.552	4721
898.672	4755
898.792	4740
898.913	4740
899.033	4626
899.153	4474
899.273	4459
899.393	4459
899.513	4481
899.633	4485
899.753	4538
899.873	4516
899.993	4565
900.113	4546
900.232	4588
900.352	4508
900.472	4504
900.591	4383
900.711	4504
900.83	4440
900.95	4630
901.069	4660
901.189	4504
901.308	4314
901.427	4325
901.546	4333
901.665	4493
901.784	4474
901.904	4348
902.023	4341
902.141	4173
902.26	4192
902.379	4287
902.498	4280
902.617	4185
902.735	4398
902.854	4443
902.973	4348
903.091	4230
903.21	4238
903.328	4291
903.446	4276
903.565	4291
903.683	4367
903.801	4276
903.919	4398
904.038	4428
904.156	4333
904.274	4440
904.392	4398
904.51	4432
904.627	4451
904.745	4531
904.863	4615
904.981	4409
905.098	4276
905.216	4348
905.334	4447
905.451	4459
905.569	4394
905.686	4542
905.803	4577
905.921	4379
906.038	4577
906.155	4447
906.272	4409
906.389	4481
906.506	4402
906.623	4375
906.74	4363
906.857	4272
906.974	4314
907.091	4512
907.208	4691
907.324	4550
907.441	4504
907.557	4310
907.674	4379
907.79	4303
907.907	4337
908.023	4432
908.139	4436
908.256	4462
908.372	4455
908.488	4432
908.604	4276
908.72	4329
908.836	4352
908.952	4371
909.068	4432
909.184	4550
909.3	4413
909.415	4565
909.531	4565
909.647	4363
909.762	4390
909.878	4337
909.993	4409
910.108	4356
910.224	4432
910.339	4481
910.454	4409
910.57	4363
910.685	4306
910.8	4649
910.915	4588
911.03	4546
911.145	4341
911.259	4310
911.374	4371
911.489	4261
911.604	4287
911.718	4147
911.833	4219
911.947	4048
912.062	4017
912.176	4200
912.291	4238
912.405	4242
912.519	4470
912.633	4527
912.748	4352
912.862	4329
912.976	4200
913.09	4051
913.204	4223
913.318	4261
913.431	4348
913.545	4348
913.659	4440
913.772	4341
913.886	4253
914	4166
914.113	4405
914.226	4413
914.34	4409
914.453	4265
914.566	4428
914.68	4272
914.793	4356
914.906	4158
915.019	4074
915.132	4086
915.245	4185
915.358	4192
915.47	4238
915.583	4196
915.696	4284
915.809	4405
915.921	4443
916.034	4238
916.146	4265
916.259	4215
916.371	4325
916.483	4341
916.595	4219
916.708	4310
916.82	4329
916.932	4299
917.044	4299
917.156	4299
917.268	4242
917.38	4227
917.491	4291
917.603	4352
917.715	4432
917.826	4428
917.938	4344
918.049	4215
918.161	4379
918.272	4508
918.384	4523
918.495	4447
918.606	4276
918.717	4223
918.828	4352
918.939	4360
919.05	4246
919.161	4325
919.272	4109
919.383	4227
919.494	4440
919.604	4626
919.715	4421
919.826	4348
919.936	4386
920.047	4478
920.157	4436
920.267	4668
920.378	4535
920.488	4523
920.598	4717
920.708	4873
920.818	4755
920.928	4721
921.038	4972
921.148	4873
921.258	4558
921.368	4531
921.477	4481
921.587	4489
921.697	4371
921.806	4531
921.916	4428
922.025	4238
922.134	4280
922.244	4211
922.353	4314
922.462	4169
922.571	4162
922.68	4013
922.789	3964
922.898	4048
923.007	4002
923.116	4059
923.224	4082
923.333	4017
923.442	4006
923.55	3987
923.659	4002
923.767	4086
923.876	3968
923.984	4093
924.092	4006
924.201	4063
924.309	4082
924.417	4063
924.525	4101
924.633	4128
924.741	5060
924.849	3926
924.956	4143
925.064	3960
925.172	3915
925.279	3949
925.387	4006
925.494	4078
925.602	4185
925.709	4143
925.816	4051
925.924	4093
926.031	4227
926.138	4143
926.245	4162
926.352	4021
926.459	4230
926.566	4329
926.673	4150
926.779	4101
926.886	4048
926.993	3930
927.099	3983
927.206	3903
927.312	3953
927.419	4044
927.525	4036
927.631	4109
927.737	3907
927.843	3934
927.95	3846
928.056	3934
928.162	4013
928.267	4112
928.373	4622
928.479	4147
928.585	3850
928.69	3994
928.796	4086
928.901	3930
929.007	3861
929.112	4017
929.218	3949
929.323	3968
929.428	3945
929.533	4082
929.638	3876
929.743	3945
929.848	4055
929.953	3983
930.058	3911
930.163	3785
930.267	3800
930.372	3956
930.477	3770
930.581	4055
930.685	3949
930.79	3793
930.894	3884
930.998	3827
931.103	4055
931.207	3713
931.311	3679
931.415	3667
931.519	3504
931.623	3610
