Data from test_V78500241_1409.txt Node
Date: Fri Mar 25 16:58:47 CST 2022
User: usil
Spectrometer: V785-0024
Trigger mode: 0
Integration Time (sec): 4.000000E-1
Scans to average: 1
Nonlinearity correction enabled: false
Boxcar width: 0
Storing dark spectrum: false
XAxis mode: Wavelengths
Number of Pixels in Spectrum: 1024
>>>>>Begin Spectral Data<<<<<
801.071	8016
801.214	8016
801.356	7837
801.499	7841
801.641	7772
801.783	7761
801.926	7951
802.068	7894
802.211	8020
802.353	7963
802.496	7803
802.638	7845
802.78	7909
802.923	7970
803.065	7925
803.208	7811
803.35	7940
803.492	8043
803.635	8142
803.777	8058
803.919	8157
804.061	8454
804.204	8142
804.346	8039
804.488	7959
804.63	8039
804.773	8058
804.915	8138
805.057	8271
805.199	8161
805.341	8195
805.483	8237
805.626	8202
805.768	8130
805.91	8214
806.052	8263
806.194	8088
806.336	8275
806.478	8069
806.62	8039
806.762	8107
806.904	8324
807.046	8480
807.188	8377
807.33	8237
807.472	8294
807.614	8195
807.756	8126
807.898	8020
808.04	7887
808.182	7951
808.324	7845
808.465	7917
808.607	8035
808.749	8130
808.891	8164
809.033	8271
809.174	8180
809.316	8062
809.458	8050
809.6	8035
809.741	7997
809.883	7993
810.025	8103
810.166	8027
810.308	8001
810.45	7967
810.591	7917
810.733	7666
810.875	7681
811.016	7453
811.158	7487
811.299	7613
811.441	7658
811.582	7594
811.724	7620
811.865	7480
812.007	7597
812.148	7540
812.29	7658
812.431	7708
812.573	7902
812.714	7967
812.855	8115
812.997	8153
813.138	8355
813.279	8229
813.421	8073
813.562	7944
813.703	7894
813.845	7670
813.986	7369
814.127	7221
814.268	7228
814.41	7145
814.551	7103
814.692	7255
814.833	7069
814.974	7080
815.115	7088
815.256	6958
815.397	6909
815.539	6939
815.68	6802
815.821	6757
815.962	6890
816.103	6806
816.244	6772
816.385	6620
816.526	6646
816.666	6479
816.807	6285
816.948	6403
817.089	6441
817.23	6353
817.371	6372
817.512	6445
817.653	6380
817.793	6407
817.934	6388
818.075	6407
818.216	6403
818.356	6433
818.497	6186
818.638	6152
818.778	6106
818.919	6125
819.06	6140
819.2	6239
819.341	6338
819.481	6361
819.622	6509
819.762	6738
819.903	6741
820.043	6665
820.184	6585
820.324	6555
820.465	6654
820.605	6669
820.746	6620
820.886	6483
821.026	6601
821.167	6734
821.307	6810
821.447	6730
821.588	6601
821.728	6456
821.868	6517
822.008	6353
822.149	6277
822.289	6304
822.429	6209
822.569	6106
822.709	6117
822.849	5878
822.99	5889
823.13	5927
823.27	5935
823.41	5805
823.55	5764
823.69	5760
823.83	5726
823.97	5615
824.11	5501
824.25	5471
824.389	5581
824.529	5551
824.669	5490
824.809	5619
824.949	5619
825.089	5638
825.228	5589
825.368	5391
825.508	5288
825.648	5341
825.787	5379
825.927	5376
826.067	5326
826.206	5322
826.346	5318
826.485	5379
826.625	5395
826.765	5562
826.904	5452
827.044	5193
827.183	5227
827.323	5132
827.462	5193
827.601	5166
827.741	5151
827.88	5201
828.02	5075
828.159	5235
828.298	5220
828.437	5337
828.577	5280
828.716	5474
828.855	5334
828.994	5132
829.134	5159
829.273	5181
829.412	5132
829.551	5113
829.69	5159
829.829	5246
829.968	5360
830.107	5288
830.246	5280
830.385	5136
830.524	5151
830.663	5075
830.802	4987
830.941	4900
831.08	4854
831.219	4938
831.357	4934
831.496	5143
831.635	4900
831.774	4866
831.913	4847
832.051	4740
832.19	4733
832.329	4843
832.467	4672
832.606	4668
832.744	4698
832.883	4748
833.022	4679
833.16	4774
833.299	4854
833.437	4797
833.576	4812
833.714	4835
833.852	4843
833.991	4866
834.129	4889
834.267	4961
834.406	4900
834.544	4934
834.682	5010
834.821	4934
834.959	5143
835.097	5018
835.235	5136
835.373	5033
835.511	5090
835.65	5029
835.788	4953
835.926	4911
836.064	4866
836.202	4911
836.34	5132
836.478	5185
836.615	5159
836.753	5178
836.891	5288
837.029	5239
837.167	5242
837.305	5121
837.443	5178
837.58	5113
837.718	5185
837.856	5174
837.993	5155
838.131	5231
838.269	5162
838.406	5178
838.544	5140
838.681	5025
838.819	4987
838.956	4885
839.094	4900
839.231	4949
839.369	5079
839.506	5402
839.643	5242
839.781	5086
839.918	5018
840.055	5079
840.193	5086
840.33	5033
840.467	5132
840.604	5147
840.742	5402
840.879	5060
841.016	5071
841.153	5166
841.29	5387
841.427	5315
841.564	5288
841.701	5334
841.838	5239
841.975	5201
842.112	5223
842.249	5170
842.385	5029
842.522	5322
842.659	5155
842.796	5086
842.933	5151
843.069	5162
843.206	5124
843.343	5315
843.479	5204
843.616	5220
843.752	5006
843.889	5014
844.025	5166
844.162	5006
844.298	5197
844.435	5033
844.571	5064
844.708	5204
844.844	5273
844.98	5303
845.117	5258
845.253	5090
845.389	5045
845.525	5121
845.661	5140
845.798	5037
845.934	5117
846.07	5014
846.206	5159
846.342	5273
846.478	5178
846.614	4987
846.75	4949
846.886	4919
847.022	5121
847.158	5022
847.294	5033
847.429	5067
847.565	5041
847.701	5322
847.837	4850
847.972	4759
848.108	4999
848.244	4904
848.379	4744
848.515	4698
848.65	4736
848.786	4752
848.921	4790
849.057	4847
849.192	4858
849.328	4850
849.463	4824
849.598	4801
849.734	4748
849.869	4660
850.004	4611
850.14	4710
850.275	4603
850.41	4470
850.545	4538
850.68	4565
850.815	4641
850.95	4577
851.085	4820
851.22	4725
851.355	4649
851.49	4599
851.625	4592
851.76	4649
851.895	4584
852.03	4538
852.165	4675
852.299	4706
852.434	4812
852.569	4744
852.703	4744
852.838	4824
852.973	4915
853.107	4934
853.242	4725
853.376	4672
853.511	4535
853.645	4622
853.78	4793
853.914	4668
854.048	4664
854.183	4622
854.317	4675
854.451	4835
854.585	4672
854.72	4561
854.854	4767
854.988	4588
855.122	4645
855.256	4542
855.39	4664
855.524	4763
855.658	4740
855.792	4679
855.926	4683
856.06	4729
856.194	4809
856.327	4698
856.461	4641
856.595	4573
856.729	4641
856.862	4729
856.996	4668
857.13	4702
857.263	4729
857.397	4797
857.53	4584
857.664	4721
857.797	4767
857.931	4816
858.064	4656
858.197	4721
858.331	4668
858.464	4573
858.597	4459
858.731	4622
858.864	4596
858.997	4588
859.13	4668
859.263	4653
859.396	4717
859.529	4561
859.662	4519
859.795	4516
859.928	4634
860.061	4782
860.194	4725
860.327	4607
860.46	4580
860.592	4710
860.725	4714
860.858	4736
860.99	4577
861.123	4489
861.256	4489
861.388	4611
861.521	5406
861.653	4489
861.786	4413
861.918	4428
862.05	4493
862.183	4550
862.315	4527
862.447	4649
862.58	4580
862.712	4371
862.844	4341
862.976	4481
863.108	4413
863.24	4881
863.372	4325
863.504	4417
863.636	4375
863.768	4436
863.9	4436
864.032	4398
864.164	4447
864.296	4451
864.428	4489
864.559	4519
864.691	4497
864.823	4531
864.954	4481
865.086	4474
865.217	4459
865.349	4402
865.48	4474
865.612	4512
865.743	4599
865.875	4478
866.006	4413
866.137	4421
866.269	4421
866.4	4398
866.531	4402
866.662	4383
866.793	4390
866.924	4405
867.055	4485
867.186	4455
867.317	4394
867.448	4325
867.579	4344
867.71	4375
867.841	4409
867.972	4417
868.103	4451
868.233	4466
868.364	4447
868.495	4474
868.625	4672
868.756	4752
868.886	4558
869.017	4561
869.147	4782
869.278	4778
869.408	4698
869.539	4618
869.669	4679
869.799	4660
869.929	4725
870.06	4675
870.19	4919
870.32	4881
870.45	4968
870.58	4976
870.71	5079
870.84	5029
870.97	4908
871.1	4873
871.23	5162
871.36	5064
871.489	5018
871.619	5067
871.749	5048
871.879	5098
872.008	5166
872.138	5006
872.267	4972
872.397	4786
872.526	4809
872.656	4706
872.785	4797
872.915	4942
873.044	5022
873.173	4938
873.303	4946
873.432	4934
873.561	4957
873.69	4862
873.819	4812
873.948	4904
874.077	4748
874.206	4706
874.335	4835
874.464	4873
874.593	5045
874.722	4961
874.851	5079
874.979	5060
875.108	5060
875.237	4885
875.365	4862
875.494	4801
875.623	4923
875.751	4797
875.88	4877
876.008	4968
876.136	4995
876.265	5174
876.393	5318
876.521	5216
876.65	5185
876.778	5155
876.906	5037
877.034	4995
877.162	5025
877.29	4968
877.418	5052
877.546	4999
877.674	4991
877.802	5014
877.93	4999
878.058	4919
878.185	4873
878.313	4938
878.441	4984
878.568	4759
878.696	4858
878.824	4923
878.951	4965
879.079	5060
879.206	5299
879.333	5052
879.461	4965
879.588	5037
879.715	5083
879.842	5204
879.97	4984
880.097	4790
880.224	4763
880.351	4771
880.478	4816
880.605	4831
880.732	4771
880.859	5056
880.986	4858
881.112	4946
881.239	4752
881.366	4675
881.493	4561
881.619	4569
881.746	4618
881.872	4603
881.999	4672
882.125	4672
882.252	4744
882.378	4790
882.505	4927
882.631	4729
882.757	4626
882.883	4755
883.01	4660
883.136	4687
883.262	4580
883.388	4596
883.514	4763
883.64	4854
883.766	4778
883.892	4672
884.018	4736
884.143	4870
884.269	4987
884.395	4634
884.52	4584
884.646	4698
884.772	4565
884.897	4558
885.023	4637
885.148	4801
885.274	4908
885.399	4805
885.524	4710
885.65	4664
885.775	4771
885.9	4748
886.025	4908
886.15	4812
886.275	4687
886.4	4702
886.525	4759
886.65	4706
886.775	4717
886.9	4934
887.025	5041
887.149	4809
887.274	4656
887.399	4637
887.523	4645
887.648	4584
887.773	4611
887.897	4759
888.021	4824
888.146	4675
888.27	4820
888.395	4873
888.519	4839
888.643	4847
888.767	4816
888.891	4717
889.015	4596
889.139	4702
889.263	4683
889.387	4763
889.511	4934
889.635	4831
889.759	4649
889.883	4675
890.006	4748
890.13	4915
890.254	4656
890.377	4679
890.501	4561
890.624	4527
890.748	4641
890.871	4565
890.995	4432
891.118	4421
891.241	4550
891.364	4622
891.488	4630
891.611	4580
891.734	4596
891.857	4615
891.98	4577
892.103	4664
892.226	4656
892.349	4550
892.471	4481
892.594	4573
892.717	4637
892.839	4577
892.962	4611
893.085	4702
893.207	4702
893.33	4478
893.452	4546
893.575	4740
893.697	4618
893.819	4816
893.941	4858
894.064	4866
894.186	4542
894.308	4561
894.43	4771
894.552	4843
894.674	4797
894.796	4592
894.918	4615
895.04	4558
895.161	4721
895.283	4687
895.405	4626
895.526	4672
895.648	4714
895.769	4736
895.891	4733
896.012	4782
896.134	4759
896.255	4668
896.376	4691
896.498	4672
896.619	4683
896.74	4618
896.861	4702
896.982	4995
897.103	5140
897.224	4847
897.345	4771
897.466	4694
897.587	4717
897.708	4877
897.828	4767
897.949	4736
898.07	4588
898.19	4691
898.311	4831
898.431	4729
898.552	4752
898.672	4824
898.792	4816
898.913	4755
899.033	4706
899.153	4512
899.273	4447
899.393	4546
899.513	4542
899.633	4588
899.753	4573
899.873	4512
899.993	4607
900.113	4531
900.232	4561
900.352	4558
900.472	4531
900.591	4459
900.711	4535
900.83	4470
900.95	4588
901.069	4767
901.189	4550
901.308	4398
901.427	4325
901.546	4348
901.665	4447
901.784	4569
901.904	4447
902.023	4325
902.141	4204
902.26	4200
902.379	4295
902.498	4272
902.617	4219
902.735	4375
902.854	4413
902.973	4409
903.091	4200
903.21	4272
903.328	4337
903.446	4291
903.565	4276
903.683	4360
903.801	4314
903.919	4394
904.038	4462
904.156	4314
904.274	4485
904.392	4424
904.51	4512
904.627	4485
904.745	4607
904.863	4656
904.981	4383
905.098	4306
905.216	4417
905.334	4436
905.451	4451
905.569	4451
905.686	4596
905.803	4554
905.921	4375
906.038	4580
906.155	4512
906.272	4383
906.389	4481
906.506	4390
906.623	4360
906.74	4417
906.857	4344
906.974	4421
907.091	4626
907.208	4679
907.324	4664
907.441	4519
907.557	4341
907.674	4379
907.79	4356
907.907	4413
908.023	4485
908.139	4573
908.256	4432
908.372	4497
908.488	4470
908.604	4428
908.72	4356
908.836	4383
908.952	4375
909.068	4459
909.184	4565
909.3	4497
909.415	4641
909.531	4577
909.647	4352
909.762	4417
909.878	4333
909.993	4459
910.108	4440
910.224	4394
910.339	4508
910.454	4402
910.57	4379
910.685	4348
910.8	4687
910.915	4637
911.03	4523
911.145	4375
911.259	4314
911.374	4402
911.489	4363
911.604	4322
911.718	4158
911.833	4223
911.947	4147
912.062	4082
912.176	4234
912.291	4276
912.405	4287
912.519	4459
912.633	4512
912.748	4386
912.862	4333
912.976	4173
913.09	4139
913.204	4166
913.318	4333
913.431	4402
913.545	4402
913.659	4474
913.772	4356
913.886	4249
914	4242
914.113	4405
914.226	4485
914.34	4390
914.453	4322
914.566	4428
914.68	4356
914.793	4379
914.906	4249
915.019	4158
915.132	4105
915.245	4211
915.358	4230
915.47	4265
915.583	4249
915.696	4352
915.809	4481
915.921	4447
916.034	4295
916.146	4272
916.259	4249
916.371	4402
916.483	4341
916.595	4291
916.708	4325
916.82	4360
916.932	4341
917.044	4352
917.156	4386
917.268	4257
917.38	4238
917.491	4238
917.603	4405
917.715	4428
917.826	4440
917.938	4352
918.049	4253
918.161	4432
918.272	4558
918.384	4531
918.495	4478
918.606	4306
918.717	4306
918.828	4363
918.939	4344
919.05	4299
919.161	4402
919.272	4112
919.383	4261
919.494	4436
919.604	4603
919.715	4436
919.826	4390
919.936	4466
920.047	4538
920.157	4478
920.267	4679
920.378	4538
920.488	4508
920.598	4660
920.708	4862
920.818	4759
920.928	4771
921.038	4938
921.148	4938
921.258	4603
921.368	4508
921.477	4516
921.587	4497
921.697	4424
921.806	4577
921.916	4432
922.025	4284
922.134	4280
922.244	4253
922.353	4329
922.462	4227
922.571	4112
922.68	4067
922.789	4025
922.898	4071
923.007	4002
923.116	4059
923.224	4097
923.333	4112
923.442	4025
923.55	4010
923.659	4036
923.767	4166
923.876	3998
923.984	4181
924.092	3987
924.201	4109
924.309	4124
924.417	4128
924.525	4116
924.633	4116
924.741	5102
924.849	3899
924.956	4116
925.064	3979
925.172	3918
925.279	4002
925.387	4055
925.494	4071
925.602	4169
925.709	4196
925.816	4051
925.924	4105
926.031	4249
926.138	4158
926.245	4196
926.352	4067
926.459	4284
926.566	4329
926.673	4246
926.779	4112
926.886	4105
926.993	4010
927.099	3991
927.206	3953
927.312	3964
927.419	4040
927.525	4032
927.631	4109
927.737	3968
927.843	3975
927.95	3835
928.056	4002
928.162	4055
928.267	4017
928.373	4664
928.479	4166
928.585	3915
928.69	4040
928.796	4078
928.901	3991
929.007	3865
929.112	4040
929.218	3975
929.323	3991
929.428	4002
929.533	4131
929.638	3911
929.743	3998
929.848	4063
929.953	4017
930.058	3964
930.163	3800
930.267	3869
930.372	3983
930.477	3823
930.581	4101
930.685	3968
930.79	3850
930.894	3865
930.998	3850
931.103	4074
931.207	3717
931.311	3720
931.415	3694
931.519	3534
931.623	3576
