Data from test_V78500241_383.txt Node
Date: Fri Mar 25 16:51:39 CST 2022
User: usil
Spectrometer: V785-0024
Trigger mode: 0
Integration Time (sec): 4.000000E-1
Scans to average: 1
Nonlinearity correction enabled: false
Boxcar width: 0
Storing dark spectrum: false
XAxis mode: Wavelengths
Number of Pixels in Spectrum: 1024
>>>>>Begin Spectral Data<<<<<
801.071	8088
801.214	7986
801.356	7928
801.499	7906
801.641	7875
801.783	7864
801.926	8012
802.068	8020
802.211	8050
802.353	7959
802.496	7928
802.638	7970
802.78	7925
802.923	7947
803.065	7841
803.208	7906
803.35	7936
803.492	8043
803.635	8176
803.777	8039
803.919	8092
804.061	8389
804.204	8172
804.346	8024
804.488	7963
804.63	8115
804.773	8035
804.915	8031
805.057	8332
805.199	8145
805.341	8187
805.483	8256
805.626	8069
805.768	8081
805.91	8126
806.052	8153
806.194	8103
806.336	8313
806.478	8180
806.62	8138
806.762	8149
806.904	8317
807.046	8484
807.188	8328
807.33	8248
807.472	8309
807.614	8164
807.756	8244
807.898	8035
808.04	7928
808.182	7928
808.324	7993
808.465	7970
808.607	8100
808.749	8168
808.891	8237
809.033	8317
809.174	8180
809.316	8039
809.458	8107
809.6	8001
809.741	8043
809.883	8084
810.025	8084
810.166	8119
810.308	8096
810.45	7974
810.591	7849
810.733	7814
810.875	7616
811.016	7514
811.158	7529
811.299	7647
811.441	7780
811.582	7769
811.724	7632
811.865	7559
812.007	7715
812.148	7605
812.29	7731
812.431	7769
812.573	7913
812.714	8058
812.855	8130
812.997	8233
813.138	8252
813.279	8176
813.421	8134
813.562	8016
813.703	7894
813.845	7864
813.986	7499
814.127	7350
814.268	7358
814.41	7236
814.551	7221
814.692	7221
814.833	7091
814.974	7110
815.115	7107
815.256	7057
815.397	6901
815.539	6958
815.68	6802
815.821	6757
815.962	6871
816.103	6897
816.244	6760
816.385	6623
816.526	6639
816.666	6452
816.807	6300
816.948	6513
817.089	6486
817.23	6429
817.371	6407
817.512	6433
817.653	6403
817.793	6376
817.934	6410
818.075	6475
818.216	6452
818.356	6361
818.497	6235
818.638	6102
818.778	6152
818.919	6159
819.06	6163
819.2	6289
819.341	6273
819.481	6452
819.622	6566
819.762	6703
819.903	6707
820.043	6623
820.184	6578
820.324	6612
820.465	6673
820.605	6684
820.746	6620
820.886	6506
821.026	6692
821.167	6753
821.307	6760
821.447	6753
821.588	6681
821.728	6597
821.868	6509
822.008	6308
822.149	6380
822.289	6388
822.429	6148
822.569	6148
822.709	6117
822.849	5973
822.99	5866
823.13	5885
823.27	5893
823.41	5817
823.55	5828
823.69	5718
823.83	5798
823.97	5699
824.11	5547
824.25	5528
824.389	5585
824.529	5611
824.669	5478
824.809	5661
824.949	5646
825.089	5596
825.228	5520
825.368	5425
825.508	5372
825.648	5296
825.787	5425
825.927	5402
826.067	5296
826.206	5280
826.346	5391
826.485	5436
826.625	5421
826.765	5566
826.904	5463
827.044	5216
827.183	5254
827.323	5162
827.462	5269
827.601	5208
827.741	5204
827.88	5208
828.02	5121
828.159	5235
828.298	5277
828.437	5334
828.577	5330
828.716	5509
828.855	5379
828.994	5189
829.134	5193
829.273	5185
829.412	5197
829.551	5170
829.69	5204
829.829	5311
829.968	5395
830.107	5261
830.246	5341
830.385	5216
830.524	5174
830.663	5090
830.802	5022
830.941	4908
831.08	4908
831.219	5010
831.357	5003
831.496	5181
831.635	4999
831.774	4900
831.913	4881
832.051	4771
832.19	4763
832.329	4919
832.467	4729
832.606	4691
832.744	4793
832.883	4778
833.022	4805
833.16	4877
833.299	4900
833.437	4793
833.576	4930
833.714	4927
833.852	4919
833.991	4934
834.129	5014
834.267	5041
834.406	4915
834.544	5006
834.682	5022
834.821	4999
834.959	5261
835.097	5018
835.235	5178
835.373	5151
835.511	5140
835.65	5113
835.788	5067
835.926	4949
836.064	4934
836.202	4984
836.34	5242
836.478	5307
836.615	5166
836.753	5235
836.891	5326
837.029	5258
837.167	5269
837.305	5223
837.443	5197
837.58	5098
837.718	5357
837.856	5227
837.993	5261
838.131	5341
838.269	5303
838.406	5227
838.544	5197
838.681	5075
838.819	5033
838.956	4995
839.094	4976
839.231	5048
839.369	5109
839.506	5414
839.643	5284
839.781	5109
839.918	5071
840.055	5117
840.193	5121
840.33	5155
840.467	5185
840.604	5246
840.742	5509
840.879	5083
841.016	5117
841.153	5216
841.29	5463
841.427	5421
841.564	5315
841.701	5383
841.838	5307
841.975	5315
842.112	5330
842.249	5170
842.385	5174
842.522	5341
842.659	5201
842.796	5121
842.933	5280
843.069	5197
843.206	5216
843.343	5372
843.479	5265
843.616	5303
843.752	5052
843.889	5056
844.025	5212
844.162	5075
844.298	5311
844.435	5098
844.571	5098
844.708	5280
844.844	5318
844.98	5421
845.117	5353
845.253	5170
845.389	5079
845.525	5220
845.661	5197
845.798	5105
845.934	5170
846.07	5140
846.206	5261
846.342	5349
846.478	5208
846.614	5025
846.75	5003
846.886	4961
847.022	5178
847.158	5090
847.294	5140
847.429	5204
847.565	5102
847.701	5395
847.837	4881
847.972	4828
848.108	4946
848.244	4976
848.379	4816
848.515	4763
848.65	4736
848.786	4767
848.921	4820
849.057	4843
849.192	4957
849.328	4835
849.463	4889
849.598	4881
849.734	4824
849.869	4752
850.004	4679
850.14	4748
850.275	4634
850.41	4603
850.545	4569
850.68	4634
850.815	4691
850.95	4683
851.085	4881
851.22	4771
851.355	4778
851.49	4660
851.625	4675
851.76	4649
851.895	4558
852.03	4561
852.165	4683
852.299	4736
852.434	4797
852.569	4767
852.703	4755
852.838	4877
852.973	5006
853.107	4965
853.242	4828
853.376	4717
853.511	4634
853.645	4645
853.78	4824
853.914	4767
854.048	4702
854.183	4694
854.317	4755
854.451	4892
854.585	4725
854.72	4691
854.854	4771
854.988	4592
855.122	4630
855.256	4569
855.39	4714
855.524	4839
855.658	4729
855.792	4752
855.926	4786
856.06	4812
856.194	4847
856.327	4675
856.461	4653
856.595	4664
856.729	4702
856.862	4820
856.996	4714
857.13	4755
857.263	4831
857.397	4835
857.53	4714
857.664	4748
857.797	4816
857.931	4858
858.064	4755
858.197	4767
858.331	4679
858.464	4599
858.597	4535
858.731	4656
858.864	4702
858.997	4611
859.13	4733
859.263	4733
859.396	4725
859.529	4588
859.662	4588
859.795	4611
859.928	4634
860.061	4816
860.194	4778
860.327	4691
860.46	4611
860.592	4736
860.725	4797
860.858	4755
860.99	4637
861.123	4569
861.256	4577
861.388	4668
861.521	5387
861.653	4527
861.786	4485
861.918	4535
862.05	4554
862.183	4618
862.315	4634
862.447	4702
862.58	4569
862.712	4432
862.844	4390
862.976	4508
863.108	4519
863.24	4801
863.372	4402
863.504	4455
863.636	4455
863.768	4493
863.9	4466
864.032	4405
864.164	4413
864.296	4538
864.428	4611
864.559	4630
864.691	4565
864.823	4558
864.954	4535
865.086	4516
865.217	4489
865.349	4451
865.48	4470
865.612	4611
865.743	4637
865.875	4538
866.006	4474
866.137	4538
866.269	4459
866.4	4436
866.531	4455
866.662	4497
866.793	4436
866.924	4455
867.055	4497
867.186	4500
867.317	4466
867.448	4409
867.579	4462
867.71	4440
867.841	4413
867.972	4546
868.103	4508
868.233	4474
868.364	4508
868.495	4542
868.625	4675
868.756	4763
868.886	4592
869.017	4664
869.147	4831
869.278	4767
869.408	4721
869.539	4656
869.669	4702
869.799	4656
869.929	4759
870.06	4763
870.19	4972
870.32	4946
870.45	4968
870.58	5052
870.71	5151
870.84	5128
870.97	4949
871.1	4949
871.23	5181
871.36	5193
871.489	5075
871.619	5151
871.749	5090
871.879	5113
872.008	5208
872.138	5113
872.267	4987
872.397	4915
872.526	4793
872.656	4774
872.785	4835
872.915	4995
873.044	5071
873.173	4980
873.303	5025
873.432	4957
873.561	4968
873.69	4946
873.819	4930
873.948	4976
874.077	4870
874.206	4843
874.335	4896
874.464	4942
874.593	5094
874.722	4930
874.851	5140
874.979	5075
875.108	5041
875.237	4972
875.365	4892
875.494	4908
875.623	5037
875.751	4885
875.88	4885
876.008	5010
876.136	5067
876.265	5277
876.393	5334
876.521	5292
876.65	5299
876.778	5201
876.906	5117
877.034	5045
877.162	5102
877.29	5006
877.418	5033
877.546	5113
877.674	5094
877.802	5037
877.93	5071
878.058	4919
878.185	4923
878.313	5014
878.441	4976
878.568	4847
878.696	4908
878.824	4972
878.951	5048
879.079	5151
879.206	5337
879.333	5162
879.461	5018
879.588	5006
879.715	5181
879.842	5212
879.97	4976
880.097	4801
880.224	4771
880.351	4892
880.478	4847
880.605	4820
880.732	4839
880.859	5098
880.986	4923
881.112	4946
881.239	4801
881.366	4710
881.493	4615
881.619	4634
881.746	4687
881.872	4683
881.999	4645
882.125	4771
882.252	4812
882.378	4889
882.505	4976
882.631	4870
882.757	4717
882.883	4778
883.01	4755
883.136	4725
883.262	4603
883.388	4656
883.514	4828
883.64	4889
883.766	4824
883.892	4687
884.018	4774
884.143	4927
884.269	5014
884.395	4721
884.52	4675
884.646	4702
884.772	4603
884.897	4599
885.023	4714
885.148	4843
885.274	4885
885.399	4854
885.524	4763
885.65	4706
885.775	4790
885.9	4721
886.025	4930
886.15	4820
886.275	4748
886.4	4683
886.525	4767
886.65	4710
886.775	4694
886.9	4949
887.025	5041
887.149	4843
887.274	4656
887.399	4615
887.523	4649
887.648	4660
887.773	4622
887.897	4736
888.021	4877
888.146	4710
888.27	4862
888.395	4919
888.519	4793
888.643	4835
888.767	4862
888.891	4698
889.015	4672
889.139	4653
889.263	4630
889.387	4752
889.511	4900
889.635	4809
889.759	4656
889.883	4687
890.006	4725
890.13	4850
890.254	4664
890.377	4687
890.501	4558
890.624	4588
890.748	4664
890.871	4516
890.995	4459
891.118	4428
891.241	4527
891.364	4531
891.488	4637
891.611	4478
891.734	4577
891.857	4641
891.98	4584
892.103	4675
892.226	4634
892.349	4565
892.471	4455
892.594	4592
892.717	4622
892.839	4580
892.962	4596
893.085	4691
893.207	4626
893.33	4485
893.452	4550
893.575	4733
893.697	4603
893.819	4828
893.941	4900
894.064	4767
894.186	4660
894.308	4580
894.43	4790
894.552	4828
894.674	4797
894.796	4561
894.918	4573
895.04	4573
895.161	4755
895.283	4660
895.405	4588
895.526	4653
895.648	4714
895.769	4714
895.891	4767
896.012	4782
896.134	4698
896.255	4683
896.376	4637
896.498	4706
896.619	4744
896.74	4592
896.861	4698
896.982	4972
897.103	5113
897.224	4862
897.345	4755
897.466	4683
897.587	4759
897.708	4877
897.828	4763
897.949	4656
898.07	4603
898.19	4694
898.311	4812
898.431	4740
898.552	4752
898.672	4843
898.792	4786
898.913	4744
899.033	4649
899.153	4546
899.273	4481
899.393	4508
899.513	4519
899.633	4577
899.753	4607
899.873	4519
899.993	4565
900.113	4535
900.232	4580
900.352	4508
900.472	4535
900.591	4413
900.711	4546
900.83	4405
900.95	4641
901.069	4668
901.189	4546
901.308	4360
901.427	4356
901.546	4405
901.665	4519
901.784	4569
901.904	4390
902.023	4367
902.141	4177
902.26	4204
902.379	4306
902.498	4299
902.617	4287
902.735	4421
902.854	4383
902.973	4394
903.091	4238
903.21	4291
903.328	4322
903.446	4333
903.565	4276
903.683	4352
903.801	4284
903.919	4424
904.038	4489
904.156	4367
904.274	4413
904.392	4459
904.51	4462
904.627	4504
904.745	4592
904.863	4687
904.981	4428
905.098	4318
905.216	4478
905.334	4489
905.451	4459
905.569	4485
905.686	4596
905.803	4588
905.921	4481
906.038	4573
906.155	4542
906.272	4481
906.389	4550
906.506	4390
906.623	4485
906.74	4447
906.857	4379
906.974	4417
907.091	4630
907.208	4774
907.324	4683
907.441	4588
907.557	4409
907.674	4402
907.79	4363
907.907	4447
908.023	4519
908.139	4565
908.256	4527
908.372	4497
908.488	4516
908.604	4386
908.72	4348
908.836	4440
908.952	4447
909.068	4493
909.184	4527
909.3	4561
909.415	4656
909.531	4596
909.647	4440
909.762	4398
909.878	4356
909.993	4455
910.108	4478
910.224	4466
910.339	4596
910.454	4417
910.57	4390
910.685	4360
910.8	4687
910.915	4653
911.03	4554
911.145	4386
911.259	4352
911.374	4394
911.489	4394
911.604	4371
911.718	4265
911.833	4265
911.947	4173
912.062	4093
912.176	4257
912.291	4303
912.405	4230
912.519	4531
912.633	4542
912.748	4379
912.862	4333
912.976	4287
913.09	4185
913.204	4230
913.318	4314
913.431	4375
913.545	4386
913.659	4493
913.772	4428
913.886	4318
914	4291
914.113	4390
914.226	4451
914.34	4390
914.453	4276
914.566	4459
914.68	4383
914.793	4405
914.906	4249
915.019	4173
915.132	4150
915.245	4192
915.358	4272
915.47	4253
915.583	4291
915.696	4322
915.809	4440
915.921	4470
916.034	4295
916.146	4310
916.259	4284
916.371	4421
916.483	4405
916.595	4295
916.708	4379
916.82	4428
916.932	4394
917.044	4375
917.156	4390
917.268	4265
917.38	4337
917.491	4303
917.603	4333
917.715	4455
917.826	4504
917.938	4383
918.049	4291
918.161	4447
918.272	4596
918.384	4588
918.495	4462
918.606	4318
918.717	4234
918.828	4428
918.939	4409
919.05	4310
919.161	4363
919.272	4207
919.383	4284
919.494	4459
919.604	4672
919.715	4451
919.826	4333
919.936	4424
920.047	4580
920.157	4504
920.267	4755
920.378	4611
920.488	4580
920.598	4820
920.708	4980
920.818	4774
920.928	4809
921.038	4999
921.148	4991
921.258	4683
921.368	4573
921.477	4500
921.587	4493
921.697	4417
921.806	4622
921.916	4474
922.025	4295
922.134	4303
922.244	4257
922.353	4360
922.462	4227
922.571	4185
922.68	4086
922.789	4006
922.898	4074
923.007	4051
923.116	4086
923.224	4109
923.333	4055
923.442	4021
923.55	4021
923.659	4078
923.767	4166
923.876	4067
923.984	4192
924.092	4063
924.201	4150
924.309	4131
924.417	4147
924.525	4124
924.633	4150
924.741	4930
924.849	3941
924.956	4112
925.064	3987
925.172	3956
925.279	3979
925.387	4097
925.494	4090
925.602	4230
925.709	4249
925.816	4051
925.924	4154
926.031	4268
926.138	4196
926.245	4227
926.352	4116
926.459	4287
926.566	4367
926.673	4169
926.779	4086
926.886	4116
926.993	3998
927.099	4017
927.206	3972
927.312	3968
927.419	4105
927.525	4109
927.631	4131
927.737	4021
927.843	3975
927.95	3880
928.056	3956
928.162	3998
928.267	4101
928.373	4714
928.479	4162
928.585	3930
928.69	4071
928.796	4131
928.901	3994
929.007	3896
929.112	4067
929.218	4006
929.323	3968
929.428	3987
929.533	4173
929.638	3949
929.743	4021
929.848	4048
929.953	4059
930.058	3968
930.163	3831
930.267	3873
930.372	4017
930.477	3865
930.581	4139
930.685	3987
930.79	3838
930.894	3911
930.998	3850
931.103	4101
931.207	3732
931.311	3759
931.415	3698
931.519	3618
931.623	3595
