Data from test_V78500241_502.txt Node
Date: Fri Mar 25 16:52:29 CST 2022
User: usil
Spectrometer: V785-0024
Trigger mode: 0
Integration Time (sec): 4.000000E-1
Scans to average: 1
Nonlinearity correction enabled: false
Boxcar width: 0
Storing dark spectrum: false
XAxis mode: Wavelengths
Number of Pixels in Spectrum: 1024
>>>>>Begin Spectral Data<<<<<
801.071	7959
801.214	7928
801.356	7830
801.499	7852
801.641	7761
801.783	7833
801.926	8016
802.068	7967
802.211	8046
802.353	7986
802.496	7887
802.638	7925
802.78	7921
802.923	7845
803.065	7856
803.208	7898
803.35	7883
803.492	8008
803.635	8096
803.777	7955
803.919	8100
804.061	8495
804.204	8164
804.346	8008
804.488	7951
804.63	8046
804.773	7989
804.915	8100
805.057	8370
805.199	8172
805.341	8282
805.483	8256
805.626	8123
805.768	8054
805.91	8191
806.052	8134
806.194	8107
806.336	8294
806.478	8149
806.62	8096
806.762	8157
806.904	8233
807.046	8393
807.188	8351
807.33	8214
807.472	8229
807.614	8115
807.756	8073
807.898	7997
808.04	7890
808.182	7951
808.324	7883
808.465	7871
808.607	8008
808.749	8027
808.891	8145
809.033	8309
809.174	8138
809.316	8050
809.458	8012
809.6	7970
809.741	7970
809.883	8005
810.025	8039
810.166	8008
810.308	7940
810.45	8008
810.591	7822
810.733	7700
810.875	7605
811.016	7499
811.158	7525
811.299	7632
811.441	7700
811.582	7613
811.724	7506
811.865	7540
812.007	7582
812.148	7613
812.29	7655
812.431	7734
812.573	7833
812.714	7989
812.855	8115
812.997	8282
813.138	8396
813.279	8172
813.421	8115
813.562	8027
813.703	7852
813.845	7761
813.986	7491
814.127	7354
814.268	7293
814.41	7206
814.551	7160
814.692	7202
814.833	7084
814.974	7042
815.115	7137
815.256	6977
815.397	6935
815.539	6966
815.68	6856
815.821	6856
815.962	6913
816.103	6871
816.244	6719
816.385	6681
816.526	6578
816.666	6475
816.807	6304
816.948	6429
817.089	6433
817.23	6437
817.371	6361
817.512	6308
817.653	6361
817.793	6361
817.934	6426
818.075	6452
818.216	6464
818.356	6361
818.497	6159
818.638	6106
818.778	6182
818.919	6117
819.06	6125
819.2	6247
819.341	6308
819.481	6353
819.622	6460
819.762	6688
819.903	6631
820.043	6525
820.184	6608
820.324	6528
820.465	6646
820.605	6662
820.746	6616
820.886	6467
821.026	6555
821.167	6692
821.307	6798
821.447	6730
821.588	6601
821.728	6574
821.868	6460
822.008	6281
822.149	6365
822.289	6327
822.429	6091
822.569	6125
822.709	6079
822.849	5935
822.99	5893
823.13	5901
823.27	5908
823.41	5741
823.55	5756
823.69	5699
823.83	5786
823.97	5695
824.11	5543
824.25	5486
824.389	5532
824.529	5611
824.669	5497
824.809	5615
824.949	5646
825.089	5611
825.228	5524
825.368	5402
825.508	5341
825.648	5277
825.787	5444
825.927	5406
826.067	5288
826.206	5284
826.346	5410
826.485	5406
826.625	5387
826.765	5505
826.904	5493
827.044	5239
827.183	5185
827.323	5140
827.462	5227
827.601	5162
827.741	5178
827.88	5193
828.02	5041
828.159	5197
828.298	5280
828.437	5303
828.577	5208
828.716	5425
828.855	5341
828.994	5109
829.134	5143
829.273	5174
829.412	5162
829.551	5105
829.69	5143
829.829	5246
829.968	5364
830.107	5261
830.246	5254
830.385	5174
830.524	5098
830.663	5025
830.802	4976
830.941	4866
831.08	4911
831.219	4972
831.357	5018
831.496	5170
831.635	4889
831.774	4858
831.913	4828
832.051	4736
832.19	4733
832.329	4850
832.467	4717
832.606	4664
832.744	4698
832.883	4752
833.022	4664
833.16	4801
833.299	4850
833.437	4793
833.576	4873
833.714	4854
833.852	4889
833.991	4892
834.129	4930
834.267	4938
834.406	4870
834.544	4911
834.682	4984
834.821	4946
834.959	5147
835.097	4938
835.235	5090
835.373	5067
835.511	5113
835.65	5029
835.788	5010
835.926	4866
836.064	4873
836.202	4824
836.34	5151
836.478	5181
836.615	5117
836.753	5204
836.891	5296
837.029	5254
837.167	5174
837.305	5128
837.443	5159
837.58	5083
837.718	5235
837.856	5147
837.993	5105
838.131	5231
838.269	5246
838.406	5162
838.544	5140
838.681	5045
838.819	4999
838.956	4934
839.094	4850
839.231	4984
839.369	5037
839.506	5444
839.643	5216
839.781	5048
839.918	5003
840.055	5071
840.193	5090
840.33	5075
840.467	5113
840.604	5159
840.742	5398
840.879	5117
841.016	5037
841.153	5121
841.29	5345
841.427	5334
841.564	5311
841.701	5337
841.838	5242
841.975	5250
842.112	5254
842.249	5159
842.385	5132
842.522	5337
842.659	5117
842.796	5159
842.933	5181
843.069	5159
843.206	5105
843.343	5280
843.479	5254
843.616	5277
843.752	5010
843.889	4953
844.025	5193
844.162	5010
844.298	5185
844.435	5075
844.571	5037
844.708	5151
844.844	5299
844.98	5280
845.117	5258
845.253	5079
845.389	5064
845.525	5166
845.661	5136
845.798	5014
845.934	5094
846.07	5056
846.206	5143
846.342	5273
846.478	5151
846.614	5010
846.75	5003
846.886	4968
847.022	5155
847.158	4987
847.294	5094
847.429	5105
847.565	5045
847.701	5322
847.837	4820
847.972	4778
848.108	4877
848.244	4889
848.379	4774
848.515	4771
848.65	4687
848.786	4755
848.921	4786
849.057	4885
849.192	4896
849.328	4805
849.463	4816
849.598	4748
849.734	4752
849.869	4694
850.004	4603
850.14	4691
850.275	4599
850.41	4478
850.545	4531
850.68	4618
850.815	4584
850.95	4607
851.085	4820
851.22	4721
851.355	4641
851.49	4577
851.625	4618
851.76	4561
851.895	4573
852.03	4500
852.165	4687
852.299	4706
852.434	4790
852.569	4736
852.703	4725
852.838	4854
852.973	4889
853.107	4824
853.242	4759
853.376	4672
853.511	4565
853.645	4603
853.78	4809
853.914	4645
854.048	4706
854.183	4645
854.317	4660
854.451	4831
854.585	4698
854.72	4618
854.854	4729
854.988	4603
855.122	4675
855.256	4523
855.39	4656
855.524	4797
855.658	4702
855.792	4721
855.926	4752
856.06	4759
856.194	4797
856.327	4714
856.461	4577
856.595	4637
856.729	4637
856.862	4790
856.996	4721
857.13	4752
857.263	4797
857.397	4847
857.53	4653
857.664	4679
857.797	4759
857.931	4793
858.064	4710
858.197	4809
858.331	4710
858.464	4672
858.597	4569
858.731	4698
858.864	4622
858.997	4637
859.13	4706
859.263	4725
859.396	4752
859.529	4634
859.662	4637
859.795	4577
859.928	4653
860.061	4797
860.194	4774
860.327	4672
860.46	4584
860.592	4752
860.725	4748
860.858	4748
860.99	4584
861.123	4508
861.256	4527
861.388	4702
861.521	5349
861.653	4504
861.786	4531
861.918	4558
862.05	4516
862.183	4603
862.315	4679
862.447	4691
862.58	4611
862.712	4451
862.844	4325
862.976	4531
863.108	4500
863.24	4805
863.372	4379
863.504	4481
863.636	4474
863.768	4519
863.9	4504
864.032	4371
864.164	4443
864.296	4569
864.428	4592
864.559	4615
864.691	4561
864.823	4542
864.954	4546
865.086	4573
865.217	4523
865.349	4455
865.48	4519
865.612	4504
865.743	4679
865.875	4523
866.006	4485
866.137	4428
866.269	4474
866.4	4523
866.531	4493
866.662	4417
866.793	4421
866.924	4470
867.055	4531
867.186	4485
867.317	4508
867.448	4440
867.579	4443
867.71	4440
867.841	4398
867.972	4481
868.103	4500
868.233	4481
868.364	4485
868.495	4500
868.625	4702
868.756	4759
868.886	4603
869.017	4653
869.147	4790
869.278	4812
869.408	4721
869.539	4717
869.669	4763
869.799	4683
869.929	4820
870.06	4786
870.19	4987
870.32	4953
870.45	5010
870.58	5033
870.71	5124
870.84	5121
870.97	4995
871.1	4923
871.23	5155
871.36	5174
871.489	5025
871.619	5117
871.749	5147
871.879	5181
872.008	5223
872.138	5033
872.267	5037
872.397	4847
872.526	4820
872.656	4793
872.785	4831
872.915	4972
873.044	5094
873.173	4957
873.303	4976
873.432	5060
873.561	4976
873.69	4896
873.819	4850
873.948	4915
874.077	4835
874.206	4714
874.335	4835
874.464	4949
874.593	5086
874.722	4968
874.851	5140
874.979	5075
875.108	5086
875.237	4927
875.365	4881
875.494	4911
875.623	5022
875.751	4904
875.88	4930
876.008	4995
876.136	5083
876.265	5193
876.393	5364
876.521	5288
876.65	5242
876.778	5162
876.906	5147
877.034	5052
877.162	5086
877.29	5067
877.418	5067
877.546	5067
877.674	5090
877.802	5075
877.93	5006
878.058	4949
878.185	4866
878.313	4984
878.441	4987
878.568	4847
878.696	4957
878.824	4980
878.951	5010
879.079	5166
879.206	5315
879.333	5102
879.461	5006
879.588	5064
879.715	5193
879.842	5296
879.97	4980
880.097	4797
880.224	4820
880.351	4858
880.478	4843
880.605	4828
880.732	4820
880.859	5086
880.986	4892
881.112	4919
881.239	4824
881.366	4691
881.493	4679
881.619	4603
881.746	4645
881.872	4664
881.999	4675
882.125	4729
882.252	4797
882.378	4843
882.505	4980
882.631	4839
882.757	4725
882.883	4790
883.01	4812
883.136	4675
883.262	4592
883.388	4691
883.514	4835
883.64	4862
883.766	4850
883.892	4729
884.018	4816
884.143	4892
884.269	5033
884.395	4748
884.52	4645
884.646	4733
884.772	4611
884.897	4588
885.023	4691
885.148	4793
885.274	4881
885.399	4873
885.524	4786
885.65	4736
885.775	4782
885.9	4744
886.025	4904
886.15	4824
886.275	4752
886.4	4694
886.525	4717
886.65	4740
886.775	4752
886.9	4980
887.025	5033
887.149	4839
887.274	4694
887.399	4611
887.523	4603
887.648	4580
887.773	4679
887.897	4771
888.021	4809
888.146	4714
888.27	4889
888.395	4908
888.519	4850
888.643	4850
888.767	4877
888.891	4710
889.015	4641
889.139	4656
889.263	4588
889.387	4763
889.511	4896
889.635	4820
889.759	4679
889.883	4664
890.006	4790
890.13	4820
890.254	4637
890.377	4721
890.501	4573
890.624	4584
890.748	4664
890.871	4512
890.995	4417
891.118	4440
891.241	4546
891.364	4577
891.488	4634
891.611	4519
891.734	4531
891.857	4618
891.98	4626
892.103	4675
892.226	4660
892.349	4550
892.471	4493
892.594	4596
892.717	4641
892.839	4592
892.962	4615
893.085	4664
893.207	4630
893.33	4508
893.452	4504
893.575	4698
893.697	4573
893.819	4847
893.941	4866
894.064	4805
894.186	4584
894.308	4611
894.43	4759
894.552	4858
894.674	4778
894.796	4531
894.918	4641
895.04	4626
895.161	4736
895.283	4717
895.405	4615
895.526	4641
895.648	4717
895.769	4664
895.891	4797
896.012	4767
896.134	4755
896.255	4702
896.376	4702
896.498	4611
896.619	4744
896.74	4645
896.861	4664
896.982	4965
897.103	5094
897.224	4847
897.345	4744
897.466	4694
897.587	4778
897.708	4870
897.828	4801
897.949	4729
898.07	4573
898.19	4668
898.311	4782
898.431	4656
898.552	4748
898.672	4843
898.792	4820
898.913	4793
899.033	4710
899.153	4546
899.273	4424
899.393	4531
899.513	4584
899.633	4497
899.753	4569
899.873	4538
899.993	4599
900.113	4546
900.232	4626
900.352	4577
900.472	4508
900.591	4443
900.711	4538
900.83	4466
900.95	4668
901.069	4759
901.189	4561
901.308	4417
901.427	4337
901.546	4409
901.665	4493
901.784	4546
901.904	4402
902.023	4371
902.141	4204
902.26	4196
902.379	4322
902.498	4249
902.617	4246
902.735	4402
902.854	4436
902.973	4390
903.091	4234
903.21	4261
903.328	4348
903.446	4284
903.565	4299
903.683	4394
903.801	4322
903.919	4443
904.038	4478
904.156	4371
904.274	4447
904.392	4470
904.51	4421
904.627	4485
904.745	4615
904.863	4607
904.981	4405
905.098	4314
905.216	4356
905.334	4462
905.451	4474
905.569	4447
905.686	4607
905.803	4550
905.921	4409
906.038	4569
906.155	4527
906.272	4413
906.389	4497
906.506	4367
906.623	4421
906.74	4371
906.857	4318
906.974	4402
907.091	4596
907.208	4744
907.324	4577
907.441	4527
907.557	4375
907.674	4421
907.79	4363
907.907	4417
908.023	4500
908.139	4493
908.256	4462
908.372	4519
908.488	4481
908.604	4344
908.72	4352
908.836	4405
908.952	4409
909.068	4424
909.184	4573
909.3	4474
909.415	4622
909.531	4554
909.647	4428
909.762	4371
909.878	4356
909.993	4417
910.108	4443
910.224	4379
910.339	4512
910.454	4356
910.57	4398
910.685	4322
910.8	4668
910.915	4645
911.03	4531
911.145	4363
911.259	4341
911.374	4371
911.489	4284
911.604	4306
911.718	4192
911.833	4242
911.947	4071
912.062	4036
912.176	4219
912.291	4276
912.405	4291
912.519	4519
912.633	4485
912.748	4428
912.862	4337
912.976	4253
913.09	4109
913.204	4204
913.318	4272
913.431	4379
913.545	4386
913.659	4466
913.772	4398
913.886	4261
914	4188
914.113	4436
914.226	4447
914.34	4432
914.453	4261
914.566	4462
914.68	4322
914.793	4322
914.906	4219
915.019	4128
915.132	4067
915.245	4169
915.358	4234
915.47	4257
915.583	4291
915.696	4371
915.809	4451
915.921	4383
916.034	4230
916.146	4257
916.259	4215
916.371	4409
916.483	4356
916.595	4280
916.708	4367
916.82	4322
916.932	4348
917.044	4356
917.156	4360
917.268	4268
917.38	4314
917.491	4265
917.603	4325
917.715	4402
917.826	4443
917.938	4371
918.049	4230
918.161	4424
918.272	4550
918.384	4561
918.495	4436
918.606	4306
918.717	4257
918.828	4409
918.939	4363
919.05	4299
919.161	4318
919.272	4124
919.383	4246
919.494	4481
919.604	4649
919.715	4462
919.826	4363
919.936	4402
920.047	4531
920.157	4485
920.267	4694
920.378	4584
920.488	4554
920.598	4740
920.708	4915
920.818	4809
920.928	4763
921.038	5010
921.148	4957
921.258	4634
921.368	4596
921.477	4493
921.587	4527
921.697	4379
921.806	4546
921.916	4481
922.025	4291
922.134	4230
922.244	4215
922.353	4348
922.462	4181
922.571	4101
922.68	4010
922.789	4002
922.898	4040
923.007	4013
923.116	4120
923.224	4032
923.333	4131
923.442	4006
923.55	4006
923.659	4048
923.767	4177
923.876	4063
923.984	4124
924.092	4055
924.201	4124
924.309	4109
924.417	4162
924.525	4120
924.633	4173
924.741	5056
924.849	3972
924.956	4124
925.064	3987
925.172	3930
925.279	3991
925.387	4078
925.494	4044
925.602	4238
925.709	4204
925.816	4112
925.924	4177
926.031	4272
926.138	4177
926.245	4242
926.352	4158
926.459	4272
926.566	4348
926.673	4257
926.779	4112
926.886	4120
926.993	4032
927.099	3998
927.206	3972
927.312	3994
927.419	4101
927.525	4040
927.631	4154
927.737	4055
927.843	3975
927.95	3956
928.056	3975
928.162	4093
928.267	4078
928.373	4721
928.479	4154
928.585	3922
928.69	4082
928.796	4101
928.901	4013
929.007	3918
929.112	3991
929.218	4082
929.323	4002
929.428	4002
929.533	4143
929.638	3941
929.743	4048
929.848	4093
929.953	4029
930.058	4010
930.163	3823
930.267	3865
930.372	4021
930.477	3903
930.581	4097
930.685	3975
930.79	3903
930.894	3953
930.998	3903
931.103	4082
931.207	3789
931.311	3755
931.415	3705
931.519	3591
931.623	3625
