Data from test_V78500241_1703.txt Node
Date: Fri Mar 25 17:00:50 CST 2022
User: usil
Spectrometer: V785-0024
Trigger mode: 0
Integration Time (sec): 4.000000E-1
Scans to average: 1
Nonlinearity correction enabled: false
Boxcar width: 0
Storing dark spectrum: false
XAxis mode: Wavelengths
Number of Pixels in Spectrum: 1024
>>>>>Begin Spectral Data<<<<<
801.071	7967
801.214	8024
801.356	7868
801.499	7841
801.641	7811
801.783	7822
801.926	7913
802.068	7921
802.211	7909
802.353	7989
802.496	7894
802.638	7784
802.78	7887
802.923	7898
803.065	7940
803.208	7883
803.35	7967
803.492	8081
803.635	8130
803.777	7959
803.919	8096
804.061	8461
804.204	8153
804.346	8024
804.488	7986
804.63	8103
804.773	8031
804.915	8138
805.057	8206
805.199	8096
805.341	8176
805.483	8210
805.626	8240
805.768	8153
805.91	8214
806.052	8191
806.194	8111
806.336	8271
806.478	8111
806.62	8050
806.762	8164
806.904	8267
807.046	8495
807.188	8389
807.33	8267
807.472	8404
807.614	8195
807.756	8134
807.898	7970
808.04	7890
808.182	7856
808.324	7879
808.465	7906
808.607	8062
808.749	8092
808.891	8119
809.033	8355
809.174	8229
809.316	8043
809.458	8096
809.6	7944
809.741	8100
809.883	8073
810.025	8084
810.166	8027
810.308	8073
810.45	7993
810.591	7860
810.733	7807
810.875	7677
811.016	7453
811.158	7514
811.299	7632
811.441	7746
811.582	7647
811.724	7571
811.865	7544
812.007	7586
812.148	7616
812.29	7609
812.431	7689
812.573	7822
812.714	7967
812.855	8050
812.997	8202
813.138	8332
813.279	8187
813.421	8107
813.562	7959
813.703	7887
813.845	7639
813.986	7362
814.127	7202
814.268	7206
814.41	7160
814.551	7129
814.692	7225
814.833	7046
814.974	7099
815.115	7198
815.256	6970
815.397	6924
815.539	6894
815.68	6810
815.821	6703
815.962	6871
816.103	6787
816.244	6677
816.385	6563
816.526	6540
816.666	6483
816.807	6289
816.948	6403
817.089	6441
817.23	6486
817.371	6388
817.512	6391
817.653	6357
817.793	6327
817.934	6399
818.075	6437
818.216	6388
818.356	6422
818.497	6239
818.638	6163
818.778	6053
818.919	6053
819.06	6121
819.2	6327
819.341	6308
819.481	6376
819.622	6544
819.762	6760
819.903	6696
820.043	6612
820.184	6509
820.324	6608
820.465	6703
820.605	6547
820.746	6654
820.886	6486
821.026	6639
821.167	6722
821.307	6760
821.447	6783
821.588	6654
821.728	6601
821.868	6486
822.008	6292
822.149	6369
822.289	6365
822.429	6144
822.569	6064
822.709	6125
822.849	5916
822.99	5920
823.13	5942
823.27	5908
823.41	5802
823.55	5786
823.69	5714
823.83	5779
823.97	5642
824.11	5501
824.25	5539
824.389	5532
824.529	5516
824.669	5501
824.809	5638
824.949	5703
825.089	5585
825.228	5509
825.368	5376
825.508	5326
825.648	5341
825.787	5368
825.927	5357
826.067	5357
826.206	5307
826.346	5368
826.485	5357
826.625	5410
826.765	5570
826.904	5398
827.044	5261
827.183	5197
827.323	5140
827.462	5254
827.601	5159
827.741	5185
827.88	5208
828.02	5124
828.159	5212
828.298	5311
828.437	5330
828.577	5239
828.716	5474
828.855	5337
828.994	5170
829.134	5143
829.273	5197
829.412	5170
829.551	5121
829.69	5178
829.829	5235
829.968	5383
830.107	5273
830.246	5254
830.385	5181
830.524	5102
830.663	5056
830.802	4995
830.941	4900
831.08	4866
831.219	4995
831.357	4930
831.496	5132
831.635	4896
831.774	4843
831.913	4809
832.051	4733
832.19	4744
832.329	4793
832.467	4683
832.606	4645
832.744	4660
832.883	4771
833.022	4691
833.16	4744
833.299	4820
833.437	4816
833.576	4843
833.714	4896
833.852	4847
833.991	4847
834.129	4953
834.267	4930
834.406	4881
834.544	4968
834.682	4911
834.821	4942
834.959	5166
835.097	4972
835.235	5109
835.373	5090
835.511	5079
835.65	5003
835.788	5003
835.926	4885
836.064	4828
836.202	4946
836.34	5143
836.478	5197
836.615	5159
836.753	5235
836.891	5303
837.029	5220
837.167	5178
837.305	5109
837.443	5124
837.58	5105
837.718	5296
837.856	5204
837.993	5098
838.131	5227
838.269	5181
838.406	5155
838.544	5117
838.681	5025
838.819	4999
838.956	4904
839.094	4877
839.231	4953
839.369	5029
839.506	5398
839.643	5235
839.781	5071
839.918	4972
840.055	5052
840.193	5056
840.33	5109
840.467	5113
840.604	5170
840.742	5467
840.879	5045
841.016	5098
841.153	5128
841.29	5376
841.427	5307
841.564	5288
841.701	5296
841.838	5288
841.975	5223
842.112	5212
842.249	5121
842.385	5132
842.522	5330
842.659	5159
842.796	5109
842.933	5174
843.069	5185
843.206	5166
843.343	5318
843.479	5239
843.616	5242
843.752	5033
843.889	5041
844.025	5231
844.162	5033
844.298	5201
844.435	5029
844.571	5079
844.708	5185
844.844	5311
844.98	5307
845.117	5330
845.253	5090
845.389	5064
845.525	5170
845.661	5067
845.798	5025
845.934	5128
846.07	5071
846.206	5147
846.342	5277
846.478	5147
846.614	4995
846.75	4961
846.886	4946
847.022	5193
847.158	5006
847.294	5045
847.429	5067
847.565	5056
847.701	5280
847.837	4843
847.972	4847
848.108	4984
848.244	4900
848.379	4801
848.515	4721
848.65	4706
848.786	4733
848.921	4771
849.057	4870
849.192	4885
849.328	4828
849.463	4809
849.598	4767
849.734	4752
849.869	4744
850.004	4577
850.14	4649
850.275	4634
850.41	4523
850.545	4592
850.68	4634
850.815	4645
850.95	4645
851.085	4824
851.22	4710
851.355	4675
851.49	4645
851.625	4637
851.76	4637
851.895	4569
852.03	4523
852.165	4637
852.299	4729
852.434	4744
852.569	4721
852.703	4736
852.838	4843
852.973	4930
853.107	4908
853.242	4706
853.376	4641
853.511	4546
853.645	4588
853.78	4786
853.914	4637
854.048	4664
854.183	4630
854.317	4736
854.451	4870
854.585	4630
854.72	4615
854.854	4755
854.988	4603
855.122	4615
855.256	4538
855.39	4645
855.524	4774
855.658	4717
855.792	4694
855.926	4755
856.06	4786
856.194	4820
856.327	4664
856.461	4599
856.595	4637
856.729	4653
856.862	4687
856.996	4664
857.13	4721
857.263	4752
857.397	4828
857.53	4664
857.664	4687
857.797	4721
857.931	4816
858.064	4618
858.197	4733
858.331	4660
858.464	4592
858.597	4535
858.731	4580
858.864	4596
858.997	4580
859.13	4672
859.263	4637
859.396	4702
859.529	4573
859.662	4580
859.795	4535
859.928	4630
860.061	4733
860.194	4774
860.327	4615
860.46	4550
860.592	4706
860.725	4683
860.858	4748
860.99	4516
861.123	4531
861.256	4550
861.388	4580
861.521	5242
861.653	4493
861.786	4428
861.918	4424
862.05	4500
862.183	4538
862.315	4535
862.447	4653
862.58	4565
862.712	4413
862.844	4303
862.976	4462
863.108	4413
863.24	4835
863.372	4265
863.504	4409
863.636	4428
863.768	4451
863.9	4394
864.032	4295
864.164	4409
864.296	4478
864.428	4554
864.559	4531
864.691	4599
864.823	4493
864.954	4462
865.086	4489
865.217	4432
865.349	4386
865.48	4466
865.612	4497
865.743	4592
865.875	4462
866.006	4421
866.137	4470
866.269	4443
866.4	4398
866.531	4462
866.662	4394
866.793	4405
866.924	4379
867.055	4470
867.186	4470
867.317	4440
867.448	4356
867.579	4394
867.71	4360
867.841	4333
867.972	4417
868.103	4462
868.233	4443
868.364	4386
868.495	4474
868.625	4618
868.756	4736
868.886	4561
869.017	4634
869.147	4771
869.278	4759
869.408	4664
869.539	4622
869.669	4721
869.799	4626
869.929	4740
870.06	4763
870.19	4915
870.32	4942
870.45	4930
870.58	4987
870.71	5117
870.84	5064
870.97	4908
871.1	4904
871.23	5090
871.36	5124
871.489	4991
871.619	5109
871.749	5086
871.879	5105
872.008	5140
872.138	5006
872.267	4980
872.397	4809
872.526	4793
872.656	4694
872.785	4850
872.915	4976
873.044	5045
873.173	4911
873.303	5033
873.432	4911
873.561	4927
873.69	4839
873.819	4839
873.948	4885
874.077	4774
874.206	4736
874.335	4839
874.464	4873
874.593	5056
874.722	4976
874.851	5155
874.979	5010
875.108	5022
875.237	4900
875.365	4866
875.494	4854
875.623	4976
875.751	4873
875.88	4900
876.008	4976
876.136	5022
876.265	5197
876.393	5318
876.521	5223
876.65	5197
876.778	5128
876.906	5033
877.034	5010
877.162	5022
877.29	5033
877.418	5098
877.546	5014
877.674	5003
877.802	5037
877.93	4995
878.058	4930
878.185	4873
878.313	4873
878.441	4904
878.568	4763
878.696	4858
878.824	4984
878.951	4980
879.079	5102
879.206	5273
879.333	5094
879.461	5014
879.588	5045
879.715	5098
879.842	5235
879.97	4980
880.097	4820
880.224	4763
880.351	4778
880.478	4850
880.605	4782
880.732	4790
880.859	5113
880.986	4946
881.112	4949
881.239	4759
881.366	4660
881.493	4580
881.619	4538
881.746	4645
881.872	4626
881.999	4691
882.125	4672
882.252	4736
882.378	4816
882.505	4934
882.631	4809
882.757	4656
882.883	4679
883.01	4672
883.136	4672
883.262	4645
883.388	4596
883.514	4835
883.64	4820
883.766	4809
883.892	4653
884.018	4733
884.143	4881
884.269	5033
884.395	4687
884.52	4656
884.646	4664
884.772	4523
884.897	4554
885.023	4698
885.148	4797
885.274	4812
885.399	4873
885.524	4725
885.65	4672
885.775	4729
885.9	4706
886.025	4850
886.15	4793
886.275	4740
886.4	4634
886.525	4721
886.65	4691
886.775	4702
886.9	4908
887.025	5041
887.149	4778
887.274	4653
887.399	4577
887.523	4607
887.648	4519
887.773	4656
887.897	4752
888.021	4733
888.146	4634
888.27	4797
888.395	4885
888.519	4771
888.643	4797
888.767	4847
888.891	4637
889.015	4599
889.139	4588
889.263	4599
889.387	4725
889.511	4843
889.635	4740
889.759	4645
889.883	4630
890.006	4691
890.13	4820
890.254	4561
890.377	4672
890.501	4546
890.624	4459
890.748	4649
890.871	4516
890.995	4443
891.118	4352
891.241	4542
891.364	4558
891.488	4592
891.611	4417
891.734	4569
891.857	4538
891.98	4519
892.103	4611
892.226	4569
892.349	4474
892.471	4405
892.594	4531
892.717	4588
892.839	4577
892.962	4588
893.085	4615
893.207	4618
893.33	4436
893.452	4478
893.575	4626
893.697	4630
893.819	4828
893.941	4854
894.064	4771
894.186	4599
894.308	4523
894.43	4637
894.552	4793
894.674	4729
894.796	4523
894.918	4603
895.04	4538
895.161	4748
895.283	4653
895.405	4584
895.526	4588
895.648	4664
895.769	4649
895.891	4683
896.012	4691
896.134	4710
896.255	4679
896.376	4645
896.498	4596
896.619	4668
896.74	4653
896.861	4637
896.982	4870
897.103	5090
897.224	4820
897.345	4752
897.466	4630
897.587	4694
897.708	4870
897.828	4759
897.949	4660
898.07	4584
898.19	4599
898.311	4824
898.431	4691
898.552	4752
898.672	4809
898.792	4778
898.913	4733
899.033	4660
899.153	4531
899.273	4337
899.393	4489
899.513	4531
899.633	4489
899.753	4481
899.873	4474
899.993	4565
900.113	4554
900.232	4596
900.352	4535
900.472	4459
900.591	4379
900.711	4481
900.83	4421
900.95	4603
901.069	4634
901.189	4538
901.308	4386
901.427	4333
901.546	4367
901.665	4478
901.784	4485
901.904	4440
902.023	4306
902.141	4181
902.26	4169
902.379	4299
902.498	4238
902.617	4204
902.735	4367
902.854	4421
902.973	4363
903.091	4196
903.21	4253
903.328	4303
903.446	4272
903.565	4238
903.683	4322
903.801	4314
903.919	4398
904.038	4436
904.156	4318
904.274	4424
904.392	4424
904.51	4398
904.627	4443
904.745	4573
904.863	4615
904.981	4394
905.098	4299
905.216	4360
905.334	4417
905.451	4405
905.569	4409
905.686	4569
905.803	4531
905.921	4390
906.038	4569
906.155	4447
906.272	4394
906.389	4451
906.506	4360
906.623	4341
906.74	4360
906.857	4337
906.974	4371
907.091	4550
907.208	4637
907.324	4561
907.441	4508
907.557	4337
907.674	4303
907.79	4310
907.907	4352
908.023	4432
908.139	4462
908.256	4398
908.372	4462
908.488	4440
908.604	4348
908.72	4299
908.836	4367
908.952	4314
909.068	4402
909.184	4531
909.3	4432
909.415	4569
909.531	4527
909.647	4356
909.762	4348
909.878	4314
909.993	4398
910.108	4417
910.224	4443
910.339	4470
910.454	4390
910.57	4402
910.685	4325
910.8	4668
910.915	4588
911.03	4478
911.145	4318
911.259	4295
911.374	4371
911.489	4337
911.604	4261
911.718	4124
911.833	4158
911.947	4086
912.062	4010
912.176	4188
912.291	4211
912.405	4215
912.519	4443
912.633	4478
912.748	4379
912.862	4295
912.976	4204
913.09	4112
913.204	4169
913.318	4227
913.431	4348
913.545	4367
913.659	4413
913.772	4363
913.886	4215
914	4181
914.113	4341
914.226	4421
914.34	4352
914.453	4185
914.566	4367
914.68	4276
914.793	4276
914.906	4135
915.019	4169
915.132	4074
915.245	4173
915.358	4185
915.47	4242
915.583	4223
915.696	4284
915.809	4421
915.921	4390
916.034	4272
916.146	4227
916.259	4181
916.371	4318
916.483	4325
916.595	4253
916.708	4306
916.82	4284
916.932	4318
917.044	4325
917.156	4284
917.268	4219
917.38	4287
917.491	4238
917.603	4356
917.715	4443
917.826	4432
917.938	4337
918.049	4253
918.161	4375
918.272	4470
918.384	4512
918.495	4436
918.606	4306
918.717	4280
918.828	4322
918.939	4341
919.05	4219
919.161	4329
919.272	4166
919.383	4207
919.494	4409
919.604	4615
919.715	4421
919.826	4295
919.936	4360
920.047	4474
920.157	4478
920.267	4611
920.378	4485
920.488	4459
920.598	4702
920.708	4870
920.818	4668
920.928	4790
921.038	4946
921.148	4934
921.258	4596
921.368	4527
921.477	4493
921.587	4470
921.697	4360
921.806	4512
921.916	4462
922.025	4276
922.134	4253
922.244	4246
922.353	4329
922.462	4169
922.571	4162
922.68	4002
922.789	3960
922.898	4025
923.007	4010
923.116	4147
923.224	4112
923.333	4078
923.442	3960
923.55	4021
923.659	4032
923.767	4105
923.876	4032
923.984	4097
924.092	4002
924.201	4131
924.309	4112
924.417	4131
924.525	4097
924.633	4120
924.741	4938
924.849	3964
924.956	4131
925.064	4013
925.172	3892
925.279	3983
925.387	4067
925.494	4093
925.602	4268
925.709	4219
925.816	4029
925.924	4173
926.031	4253
926.138	4196
926.245	4284
926.352	4150
926.459	4276
926.566	4383
926.673	4215
926.779	4116
926.886	4128
926.993	4025
927.099	3972
927.206	3968
927.312	3983
927.419	4120
927.525	4044
927.631	4158
927.737	3994
927.843	3994
927.95	3876
928.056	4002
928.162	4044
928.267	4139
928.373	4752
928.479	4207
928.585	3915
928.69	4051
928.796	4082
928.901	4017
929.007	3911
929.112	4029
929.218	4074
929.323	3972
929.428	3934
929.533	4154
929.638	3968
929.743	3998
929.848	4086
929.953	4040
930.058	3934
930.163	3800
930.267	3880
930.372	3991
930.477	3854
930.581	4135
930.685	3979
930.79	3850
930.894	3911
930.998	3918
931.103	4074
931.207	3781
931.311	3747
931.415	3717
931.519	3545
931.623	3584
