Data from test_V78500241_1347.txt Node
Date: Fri Mar 25 16:58:22 CST 2022
User: usil
Spectrometer: V785-0024
Trigger mode: 0
Integration Time (sec): 4.000000E-1
Scans to average: 1
Nonlinearity correction enabled: false
Boxcar width: 0
Storing dark spectrum: false
XAxis mode: Wavelengths
Number of Pixels in Spectrum: 1024
>>>>>Begin Spectral Data<<<<<
801.071	8016
801.214	8050
801.356	7947
801.499	7928
801.641	7792
801.783	7826
801.926	7951
802.068	7974
802.211	7970
802.353	8001
802.496	7780
802.638	7925
802.78	7955
802.923	7925
803.065	7909
803.208	7860
803.35	8016
803.492	8088
803.635	8161
803.777	8031
803.919	8119
804.061	8499
804.204	8111
804.346	8046
804.488	8024
804.63	8145
804.773	8058
804.915	8096
805.057	8313
805.199	8168
805.341	8233
805.483	8279
805.626	8248
805.768	8111
805.91	8271
806.052	8248
806.194	8142
806.336	8317
806.478	8176
806.62	8123
806.762	8161
806.904	8362
807.046	8514
807.188	8393
807.33	8370
807.472	8404
807.614	8199
807.756	8168
807.898	8020
808.04	7974
808.182	7898
808.324	7989
808.465	7997
808.607	8210
808.749	8126
808.891	8199
809.033	8282
809.174	8271
809.316	8100
809.458	8100
809.6	8035
809.741	8077
809.883	8069
810.025	8107
810.166	8092
810.308	8073
810.45	7989
810.591	7830
810.733	7712
810.875	7670
811.016	7559
811.158	7506
811.299	7616
811.441	7723
811.582	7712
811.724	7639
811.865	7620
812.007	7597
812.148	7647
812.29	7624
812.431	7788
812.573	7852
812.714	7989
812.855	8130
812.997	8275
813.138	8389
813.279	8286
813.421	8168
813.562	8123
813.703	7845
813.845	7795
813.986	7502
814.127	7297
814.268	7259
814.41	7171
814.551	7278
814.692	7198
814.833	7137
814.974	7099
815.115	7095
815.256	7023
815.397	6920
815.539	6977
815.68	6840
815.821	6882
815.962	6882
816.103	6852
816.244	6757
816.385	6593
816.526	6627
816.666	6498
816.807	6311
816.948	6399
817.089	6464
817.23	6521
817.371	6418
817.512	6448
817.653	6399
817.793	6384
817.934	6471
818.075	6494
818.216	6452
818.356	6414
818.497	6300
818.638	6167
818.778	6136
818.919	6098
819.06	6159
819.2	6327
819.341	6304
819.481	6414
819.622	6525
819.762	6753
819.903	6757
820.043	6658
820.184	6589
820.324	6639
820.465	6684
820.605	6692
820.746	6711
820.886	6559
821.026	6692
821.167	6673
821.307	6783
821.447	6753
821.588	6658
821.728	6559
821.868	6467
822.008	6331
822.149	6365
822.289	6395
822.429	6129
822.569	6064
822.709	6194
822.849	5954
822.99	5942
823.13	5912
823.27	5920
823.41	5783
823.55	5821
823.69	5809
823.83	5821
823.97	5680
824.11	5547
824.25	5501
824.389	5554
824.529	5661
824.669	5554
824.809	5604
824.949	5703
825.089	5665
825.228	5573
825.368	5421
825.508	5349
825.648	5372
825.787	5406
825.927	5444
826.067	5349
826.206	5322
826.346	5406
826.485	5459
826.625	5395
826.765	5573
826.904	5497
827.044	5318
827.183	5216
827.323	5159
827.462	5273
827.601	5197
827.741	5242
827.88	5269
828.02	5140
828.159	5280
828.298	5326
828.437	5376
828.577	5330
828.716	5474
828.855	5315
828.994	5208
829.134	5231
829.273	5155
829.412	5136
829.551	5166
829.69	5242
829.829	5246
829.968	5410
830.107	5307
830.246	5337
830.385	5181
830.524	5155
830.663	5079
830.802	5033
830.941	4934
831.08	4858
831.219	4999
831.357	4991
831.496	5193
831.635	4923
831.774	4816
831.913	4885
832.051	4736
832.19	4782
832.329	4843
832.467	4752
832.606	4615
832.744	4755
832.883	4763
833.022	4694
833.16	4873
833.299	4847
833.437	4843
833.576	4793
833.714	4873
833.852	4934
833.991	4908
834.129	4957
834.267	4919
834.406	4919
834.544	4980
834.682	5006
834.821	4953
834.959	5181
835.097	5037
835.235	5143
835.373	5075
835.511	5124
835.65	5052
835.788	5060
835.926	4942
836.064	4911
836.202	4881
836.34	5170
836.478	5216
836.615	5136
836.753	5231
836.891	5250
837.029	5261
837.167	5212
837.305	5155
837.443	5166
837.58	5098
837.718	5292
837.856	5220
837.993	5174
838.131	5258
838.269	5189
838.406	5250
838.544	5193
838.681	5041
838.819	5045
838.956	4870
839.094	4942
839.231	4980
839.369	5094
839.506	5429
839.643	5315
839.781	5079
839.918	5041
840.055	5094
840.193	5094
840.33	5102
840.467	5136
840.604	5174
840.742	5440
840.879	5067
841.016	5128
841.153	5136
841.29	5383
841.427	5349
841.564	5387
841.701	5402
841.838	5318
841.975	5216
842.112	5269
842.249	5170
842.385	5105
842.522	5372
842.659	5170
842.796	5166
842.933	5223
843.069	5170
843.206	5227
843.343	5299
843.479	5242
843.616	5280
843.752	5041
843.889	5025
844.025	5239
844.162	5048
844.298	5220
844.435	5083
844.571	5086
844.708	5185
844.844	5299
844.98	5334
845.117	5269
845.253	5113
845.389	5105
845.525	5170
845.661	5143
845.798	5041
845.934	5113
846.07	5083
846.206	5170
846.342	5296
846.478	5159
846.614	5075
846.75	4999
846.886	4934
847.022	5113
847.158	5041
847.294	5079
847.429	5071
847.565	5003
847.701	5330
847.837	4843
847.972	4866
848.108	4976
848.244	4923
848.379	4797
848.515	4759
848.65	4733
848.786	4740
848.921	4801
849.057	4904
849.192	4862
849.328	4843
849.463	4866
849.598	4843
849.734	4774
849.869	4714
850.004	4653
850.14	4649
850.275	4611
850.41	4493
850.545	4615
850.68	4622
850.815	4637
850.95	4637
851.085	4858
851.22	4763
851.355	4694
851.49	4607
851.625	4649
851.76	4660
851.895	4565
852.03	4523
852.165	4656
852.299	4721
852.434	4748
852.569	4801
852.703	4801
852.838	4847
852.973	4968
853.107	4900
853.242	4725
853.376	4675
853.511	4588
853.645	4615
853.78	4793
853.914	4725
854.048	4660
854.183	4649
854.317	4675
854.451	4816
854.585	4763
854.72	4626
854.854	4714
854.988	4634
855.122	4672
855.256	4550
855.39	4698
855.524	4809
855.658	4744
855.792	4672
855.926	4733
856.06	4854
856.194	4793
856.327	4687
856.461	4637
856.595	4634
856.729	4630
856.862	4721
856.996	4717
857.13	4714
857.263	4778
857.397	4850
857.53	4645
857.664	4729
857.797	4763
857.931	4774
858.064	4645
858.197	4733
858.331	4668
858.464	4637
858.597	4527
858.731	4622
858.864	4596
858.997	4550
859.13	4664
859.263	4683
859.396	4717
859.529	4603
859.662	4558
859.795	4550
859.928	4634
860.061	4778
860.194	4790
860.327	4641
860.46	4538
860.592	4706
860.725	4725
860.858	4767
860.99	4618
861.123	4569
861.256	4527
861.388	4626
861.521	5330
861.653	4443
861.786	4466
861.918	4478
862.05	4493
862.183	4573
862.315	4603
862.447	4637
862.58	4550
862.712	4386
862.844	4344
862.976	4485
863.108	4500
863.24	4877
863.372	4299
863.504	4421
863.636	4440
863.768	4443
863.9	4424
864.032	4386
864.164	4402
864.296	4497
864.428	4535
864.559	4508
864.691	4554
864.823	4527
864.954	4497
865.086	4523
865.217	4474
865.349	4413
865.48	4447
865.612	4462
865.743	4672
865.875	4459
866.006	4413
866.137	4451
866.269	4447
866.4	4402
866.531	4402
866.662	4383
866.793	4394
866.924	4455
867.055	4485
867.186	4428
867.317	4421
867.448	4417
867.579	4424
867.71	4352
867.841	4398
867.972	4451
868.103	4493
868.233	4474
868.364	4413
868.495	4451
868.625	4679
868.756	4759
868.886	4577
869.017	4584
869.147	4774
869.278	4752
869.408	4664
869.539	4664
869.669	4729
869.799	4622
869.929	4706
870.06	4744
870.19	4923
870.32	4919
870.45	4923
870.58	5010
870.71	5105
870.84	5067
870.97	5010
871.1	4927
871.23	5136
871.36	5109
871.489	5014
871.619	5056
871.749	5140
871.879	5060
872.008	5147
872.138	5048
872.267	5010
872.397	4820
872.526	4797
872.656	4736
872.785	4816
872.915	4953
873.044	4965
873.173	4953
873.303	4957
873.432	4923
873.561	4968
873.69	4847
873.819	4850
873.948	4934
874.077	4820
874.206	4816
874.335	4824
874.464	4911
874.593	5022
874.722	4984
874.851	5128
874.979	5086
875.108	5003
875.237	4923
875.365	4896
875.494	4877
875.623	4957
875.751	4847
875.88	4870
876.008	5033
876.136	5010
876.265	5197
876.393	5318
876.521	5235
876.65	5220
876.778	5155
876.906	5064
877.034	4976
877.162	4999
877.29	4980
877.418	5105
877.546	5048
877.674	5060
877.802	5064
877.93	4961
878.058	4930
878.185	4866
878.313	4980
878.441	4961
878.568	4793
878.696	4885
878.824	4896
878.951	5003
879.079	5170
879.206	5246
879.333	5117
879.461	5045
879.588	4946
879.715	5086
879.842	5212
879.97	4972
880.097	4778
880.224	4752
880.351	4812
880.478	4797
880.605	4763
880.732	4801
880.859	5033
880.986	4934
881.112	4908
881.239	4801
881.366	4675
881.493	4641
881.619	4603
881.746	4637
881.872	4668
881.999	4672
882.125	4679
882.252	4828
882.378	4824
882.505	4919
882.631	4812
882.757	4656
882.883	4714
883.01	4778
883.136	4618
883.262	4653
883.388	4618
883.514	4786
883.64	4843
883.766	4805
883.892	4668
884.018	4710
884.143	4900
884.269	5014
884.395	4672
884.52	4660
884.646	4668
884.772	4573
884.897	4558
885.023	4645
885.148	4812
885.274	4900
885.399	4828
885.524	4706
885.65	4736
885.775	4778
885.9	4778
886.025	4858
886.15	4831
886.275	4767
886.4	4653
886.525	4721
886.65	4679
886.775	4675
886.9	4896
887.025	4991
887.149	4828
887.274	4675
887.399	4592
887.523	4603
887.648	4550
887.773	4558
887.897	4755
888.021	4801
888.146	4668
888.27	4805
888.395	4923
888.519	4820
888.643	4812
888.767	4790
888.891	4725
889.015	4626
889.139	4668
889.263	4558
889.387	4714
889.511	4797
889.635	4816
889.759	4653
889.883	4626
890.006	4714
890.13	4797
890.254	4596
890.377	4691
890.501	4527
890.624	4485
890.748	4649
890.871	4493
890.995	4459
891.118	4367
891.241	4523
891.364	4531
891.488	4641
891.611	4424
891.734	4565
891.857	4660
891.98	4538
892.103	4618
892.226	4592
892.349	4550
892.471	4348
892.594	4504
892.717	4599
892.839	4535
892.962	4599
893.085	4675
893.207	4630
893.33	4470
893.452	4485
893.575	4653
893.697	4542
893.819	4809
893.941	4850
894.064	4755
894.186	4577
894.308	4573
894.43	4687
894.552	4797
894.674	4778
894.796	4596
894.918	4599
895.04	4558
895.161	4668
895.283	4675
895.405	4588
895.526	4649
895.648	4672
895.769	4656
895.891	4694
896.012	4729
896.134	4729
896.255	4637
896.376	4618
896.498	4622
896.619	4691
896.74	4622
896.861	4656
896.982	4896
897.103	5041
897.224	4816
897.345	4736
897.466	4637
897.587	4736
897.708	4843
897.828	4774
897.949	4675
898.07	4535
898.19	4641
898.311	4816
898.431	4653
898.552	4687
898.672	4793
898.792	4824
898.913	4733
899.033	4641
899.153	4478
899.273	4402
899.393	4443
899.513	4546
899.633	4516
899.753	4550
899.873	4542
899.993	4535
900.113	4538
900.232	4569
900.352	4535
900.472	4500
900.591	4386
900.711	4474
900.83	4462
900.95	4645
901.069	4668
901.189	4565
901.308	4398
901.427	4333
901.546	4383
901.665	4474
901.784	4493
901.904	4386
902.023	4363
902.141	4185
902.26	4154
902.379	4230
902.498	4261
902.617	4234
902.735	4363
902.854	4371
902.973	4421
903.091	4185
903.21	4234
903.328	4310
903.446	4276
903.565	4246
903.683	4303
903.801	4249
903.919	4360
904.038	4367
904.156	4291
904.274	4405
904.392	4398
904.51	4443
904.627	4474
904.745	4573
904.863	4618
904.981	4405
905.098	4310
905.216	4371
905.334	4428
905.451	4421
905.569	4455
905.686	4588
905.803	4565
905.921	4386
906.038	4554
906.155	4470
906.272	4383
906.389	4447
906.506	4272
906.623	4402
906.74	4371
906.857	4253
906.974	4360
907.091	4550
907.208	4672
907.324	4573
907.441	4497
907.557	4325
907.674	4341
907.79	4306
907.907	4360
908.023	4481
908.139	4451
908.256	4428
908.372	4470
908.488	4462
908.604	4306
908.72	4329
908.836	4398
908.952	4383
909.068	4413
909.184	4554
909.3	4466
909.415	4554
909.531	4561
909.647	4356
909.762	4329
909.878	4329
909.993	4398
910.108	4428
910.224	4413
910.339	4455
910.454	4367
910.57	4379
910.685	4303
910.8	4664
910.915	4592
911.03	4485
911.145	4310
911.259	4284
911.374	4333
911.489	4276
911.604	4257
911.718	4128
911.833	4230
911.947	4078
912.062	4032
912.176	4147
912.291	4223
912.405	4215
912.519	4481
912.633	4474
912.748	4383
912.862	4291
912.976	4219
913.09	4116
913.204	4162
913.318	4272
913.431	4375
913.545	4352
913.659	4405
913.772	4344
913.886	4242
914	4261
914.113	4360
914.226	4390
914.34	4390
914.453	4223
914.566	4390
914.68	4314
914.793	4341
914.906	4109
915.019	4101
915.132	4082
915.245	4169
915.358	4215
915.47	4268
915.583	4287
915.696	4341
915.809	4341
915.921	4386
916.034	4280
916.146	4310
916.259	4207
916.371	4314
916.483	4341
916.595	4253
916.708	4295
916.82	4280
916.932	4344
917.044	4360
917.156	4333
917.268	4204
917.38	4238
917.491	4268
917.603	4344
917.715	4398
917.826	4443
917.938	4310
918.049	4238
918.161	4402
918.272	4538
918.384	4489
918.495	4459
918.606	4344
918.717	4249
918.828	4333
918.939	4344
919.05	4242
919.161	4314
919.272	4105
919.383	4242
919.494	4428
919.604	4611
919.715	4421
919.826	4360
919.936	4409
920.047	4500
920.157	4459
920.267	4694
920.378	4554
920.488	4512
920.598	4725
920.708	4877
920.818	4733
920.928	4778
921.038	4919
921.148	4877
921.258	4683
921.368	4584
921.477	4493
921.587	4432
921.697	4337
921.806	4546
921.916	4390
922.025	4253
922.134	4276
922.244	4230
922.353	4329
922.462	4173
922.571	4078
922.68	4010
922.789	3937
922.898	4025
923.007	4010
923.116	4059
923.224	4063
923.333	4055
923.442	4013
923.55	3979
923.659	3983
923.767	4063
923.876	3987
923.984	4109
924.092	3979
924.201	4063
924.309	4032
924.417	4128
924.525	4040
924.633	4044
924.741	5025
924.849	3907
924.956	4105
925.064	3934
925.172	3892
925.279	3983
925.387	4029
925.494	4059
925.602	4238
925.709	4124
925.816	4044
925.924	4150
926.031	4219
926.138	4177
926.245	4188
926.352	4063
926.459	4249
926.566	4265
926.673	4230
926.779	4044
926.886	4051
926.993	3941
927.099	3949
927.206	3949
927.312	3911
927.419	4044
927.525	4013
927.631	4067
927.737	3949
927.843	3911
927.95	3846
928.056	3964
928.162	3968
928.267	4048
928.373	4603
928.479	4139
928.585	3827
928.69	4021
928.796	4025
928.901	3949
929.007	3865
929.112	3998
929.218	3941
929.323	3922
929.428	3934
929.533	4105
929.638	3930
929.743	3918
929.848	4051
929.953	4002
930.058	3903
930.163	3804
930.267	3819
930.372	3972
930.477	3793
930.581	4101
930.685	3899
930.79	3819
930.894	3842
930.998	3869
931.103	4002
931.207	3698
931.311	3709
931.415	3644
931.519	3526
931.623	3523
