Data from test_V78500241_574.txt Node
Date: Fri Mar 25 16:52:59 CST 2022
User: usil
Spectrometer: V785-0024
Trigger mode: 0
Integration Time (sec): 4.000000E-1
Scans to average: 1
Nonlinearity correction enabled: false
Boxcar width: 0
Storing dark spectrum: false
XAxis mode: Wavelengths
Number of Pixels in Spectrum: 1024
>>>>>Begin Spectral Data<<<<<
801.071	8103
801.214	8062
801.356	7837
801.499	7871
801.641	7826
801.783	7833
801.926	8092
802.068	7970
802.211	7986
802.353	8058
802.496	7894
802.638	7982
802.78	7932
802.923	7909
803.065	7845
803.208	7826
803.35	7978
803.492	8107
803.635	8187
803.777	8035
803.919	8134
804.061	8396
804.204	8183
804.346	8084
804.488	7951
804.63	8107
804.773	7959
804.915	8084
805.057	8298
805.199	8221
805.341	8225
805.483	8309
805.626	8199
805.768	8100
805.91	8157
806.052	8237
806.194	8081
806.336	8313
806.478	8134
806.62	8043
806.762	8210
806.904	8271
807.046	8404
807.188	8301
807.33	8374
807.472	8320
807.614	8221
807.756	8096
807.898	7993
808.04	7902
808.182	8012
808.324	7993
808.465	7928
808.607	8031
808.749	8138
808.891	8237
809.033	8282
809.174	8119
809.316	8100
809.458	8088
809.6	7989
809.741	8027
809.883	8050
810.025	8096
810.166	8103
810.308	8092
810.45	7997
810.591	7955
810.733	7761
810.875	7696
811.016	7594
811.158	7605
811.299	7670
811.441	7803
811.582	7727
811.724	7613
811.865	7552
812.007	7620
812.148	7689
812.29	7677
812.431	7780
812.573	7913
812.714	8024
812.855	8191
812.997	8240
813.138	8431
813.279	8214
813.421	8164
813.562	8119
813.703	7986
813.845	7879
813.986	7575
814.127	7343
814.268	7354
814.41	7247
814.551	7179
814.692	7270
814.833	7103
814.974	7091
815.115	7122
815.256	7008
815.397	6954
815.539	7008
815.68	6783
815.821	6840
815.962	6901
816.103	6882
816.244	6776
816.385	6696
816.526	6646
816.666	6604
816.807	6353
816.948	6490
817.089	6513
817.23	6456
817.371	6441
817.512	6410
817.653	6376
817.793	6437
817.934	6494
818.075	6494
818.216	6418
818.356	6429
818.497	6266
818.638	6110
818.778	6163
818.919	6205
819.06	6136
819.2	6334
819.341	6270
819.481	6399
819.622	6532
819.762	6753
819.903	6745
820.043	6604
820.184	6574
820.324	6585
820.465	6696
820.605	6677
820.746	6612
820.886	6525
821.026	6635
821.167	6711
821.307	6818
821.447	6749
821.588	6669
821.728	6604
821.868	6540
822.008	6323
822.149	6346
822.289	6338
822.429	6152
822.569	6148
822.709	6136
822.849	5969
822.99	5923
823.13	5923
823.27	5885
823.41	5767
823.55	5805
823.69	5722
823.83	5794
823.97	5703
824.11	5539
824.25	5566
824.389	5589
824.529	5596
824.669	5532
824.809	5646
824.949	5699
825.089	5634
825.228	5589
825.368	5402
825.508	5379
825.648	5410
825.787	5406
825.927	5406
826.067	5326
826.206	5322
826.346	5417
826.485	5414
826.625	5440
826.765	5573
826.904	5448
827.044	5227
827.183	5197
827.323	5159
827.462	5315
827.601	5231
827.741	5174
827.88	5223
828.02	5159
828.159	5269
828.298	5337
828.437	5322
828.577	5299
828.716	5482
828.855	5334
828.994	5197
829.134	5140
829.273	5174
829.412	5128
829.551	5174
829.69	5143
829.829	5231
829.968	5414
830.107	5227
830.246	5277
830.385	5189
830.524	5178
830.663	5113
830.802	5010
830.941	4892
831.08	4980
831.219	5006
831.357	4972
831.496	5193
831.635	5003
831.774	4885
831.913	4870
832.051	4748
832.19	4778
832.329	4877
832.467	4717
832.606	4679
832.744	4748
832.883	4759
833.022	4816
833.16	4812
833.299	4763
833.437	4805
833.576	4854
833.714	4892
833.852	4911
833.991	4957
834.129	5029
834.267	4972
834.406	4839
834.544	5041
834.682	5006
834.821	5029
834.959	5208
835.097	4991
835.235	5147
835.373	5128
835.511	5166
835.65	5060
835.788	5105
835.926	4908
836.064	4881
836.202	4961
836.34	5208
836.478	5277
836.615	5143
836.753	5242
836.891	5246
837.029	5330
837.167	5227
837.305	5181
837.443	5117
837.58	5117
837.718	5235
837.856	5166
837.993	5170
838.131	5235
838.269	5254
838.406	5216
838.544	5223
838.681	5060
838.819	5022
838.956	4930
839.094	4873
839.231	5003
839.369	5079
839.506	5452
839.643	5296
839.781	5136
839.918	5006
840.055	5181
840.193	5128
840.33	5178
840.467	5162
840.604	5166
840.742	5482
840.879	5067
841.016	5090
841.153	5124
841.29	5364
841.427	5360
841.564	5379
841.701	5364
841.838	5261
841.975	5242
842.112	5273
842.249	5132
842.385	5075
842.522	5353
842.659	5170
842.796	5140
842.933	5181
843.069	5227
843.206	5155
843.343	5273
843.479	5250
843.616	5250
843.752	5086
843.889	5025
844.025	5235
844.162	5045
844.298	5246
844.435	5147
844.571	5029
844.708	5201
844.844	5303
844.98	5273
845.117	5311
845.253	5193
845.389	5117
845.525	5109
845.661	5162
845.798	5064
845.934	5117
846.07	5052
846.206	5216
846.342	5299
846.478	5201
846.614	5075
846.75	4968
846.886	4938
847.022	5151
847.158	5003
847.294	5086
847.429	5128
847.565	5033
847.701	5318
847.837	4870
847.972	4831
848.108	4984
848.244	4965
848.379	4805
848.515	4698
848.65	4759
848.786	4763
848.921	4812
849.057	4866
849.192	4904
849.328	4831
849.463	4862
849.598	4847
849.734	4767
849.869	4717
850.004	4710
850.14	4664
850.275	4615
850.41	4535
850.545	4596
850.68	4637
850.815	4675
850.95	4653
851.085	4873
851.22	4774
851.355	4698
851.49	4592
851.625	4668
851.76	4649
851.895	4565
852.03	4569
852.165	4668
852.299	4687
852.434	4812
852.569	4767
852.703	4778
852.838	4892
852.973	4934
853.107	4908
853.242	4752
853.376	4668
853.511	4592
853.645	4626
853.78	4870
853.914	4721
854.048	4691
854.183	4691
854.317	4733
854.451	4862
854.585	4694
854.72	4641
854.854	4797
854.988	4660
855.122	4653
855.256	4573
855.39	4714
855.524	4759
855.658	4714
855.792	4714
855.926	4706
856.06	4778
856.194	4801
856.327	4698
856.461	4630
856.595	4698
856.729	4607
856.862	4759
856.996	4691
857.13	4744
857.263	4763
857.397	4839
857.53	4641
857.664	4782
857.797	4759
857.931	4843
858.064	4710
858.197	4752
858.331	4645
858.464	4603
858.597	4504
858.731	4694
858.864	4660
858.997	4561
859.13	4672
859.263	4634
859.396	4698
859.529	4603
859.662	4569
859.795	4531
859.928	4630
860.061	4782
860.194	4744
860.327	4660
860.46	4596
860.592	4710
860.725	4717
860.858	4748
860.99	4611
861.123	4531
861.256	4580
861.388	4641
861.521	5474
861.653	4546
861.786	4462
861.918	4481
862.05	4550
862.183	4535
862.315	4615
862.447	4626
862.58	4565
862.712	4436
862.844	4348
862.976	4519
863.108	4474
863.24	4904
863.372	4371
863.504	4417
863.636	4436
863.768	4546
863.9	4462
864.032	4398
864.164	4436
864.296	4470
864.428	4558
864.559	4637
864.691	4519
864.823	4577
864.954	4481
865.086	4542
865.217	4440
865.349	4466
865.48	4470
865.612	4504
865.743	4634
865.875	4489
866.006	4436
866.137	4497
866.269	4436
866.4	4462
866.531	4443
866.662	4421
866.793	4424
866.924	4455
867.055	4500
867.186	4462
867.317	4405
867.448	4394
867.579	4436
867.71	4413
867.841	4390
867.972	4516
868.103	4443
868.233	4466
868.364	4508
868.495	4550
868.625	4675
868.756	4801
868.886	4550
869.017	4626
869.147	4763
869.278	4786
869.408	4687
869.539	4618
869.669	4706
869.799	4683
869.929	4744
870.06	4752
870.19	4991
870.32	4923
870.45	4915
870.58	4991
870.71	5064
870.84	5124
870.97	4946
871.1	4839
871.23	5159
871.36	5147
871.489	5056
871.619	5045
871.749	5090
871.879	5132
872.008	5147
872.138	5045
872.267	4995
872.397	4885
872.526	4866
872.656	4725
872.785	4771
872.915	4961
873.044	5067
873.173	4953
873.303	4938
873.432	4965
873.561	4980
873.69	4873
873.819	4870
873.948	4889
874.077	4892
874.206	4729
874.335	4790
874.464	4953
874.593	5109
874.722	4976
874.851	5166
874.979	5071
875.108	5025
875.237	4908
875.365	4927
875.494	4862
875.623	4984
875.751	4831
875.88	4881
876.008	4953
876.136	5056
876.265	5250
876.393	5334
876.521	5242
876.65	5208
876.778	5155
876.906	5033
877.034	5022
877.162	5022
877.29	4999
877.418	5041
877.546	5041
877.674	5083
877.802	5018
877.93	5022
878.058	4961
878.185	4892
878.313	4942
878.441	4949
878.568	4850
878.696	4843
878.824	4980
878.951	5025
879.079	5212
879.206	5311
879.333	5086
879.461	4961
879.588	5003
879.715	5105
879.842	5250
879.97	4976
880.097	4809
880.224	4767
880.351	4850
880.478	4805
880.605	4843
880.732	4831
880.859	5113
880.986	4881
881.112	4904
881.239	4797
881.366	4717
881.493	4607
881.619	4584
881.746	4634
881.872	4679
881.999	4656
882.125	4706
882.252	4793
882.378	4881
882.505	5010
882.631	4805
882.757	4687
882.883	4710
883.01	4752
883.136	4672
883.262	4611
883.388	4607
883.514	4828
883.64	4850
883.766	4816
883.892	4649
884.018	4733
884.143	4850
884.269	4987
884.395	4679
884.52	4622
884.646	4664
884.772	4554
884.897	4565
885.023	4672
885.148	4744
885.274	4889
885.399	4828
885.524	4687
885.65	4698
885.775	4748
885.9	4687
886.025	4873
886.15	4858
886.275	4675
886.4	4675
886.525	4706
886.65	4691
886.775	4721
886.9	4915
887.025	5033
887.149	4828
887.274	4664
887.399	4550
887.523	4542
887.648	4596
887.773	4599
887.897	4725
888.021	4767
888.146	4698
888.27	4812
888.395	4896
888.519	4771
888.643	4839
888.767	4801
888.891	4656
889.015	4649
889.139	4630
889.263	4592
889.387	4797
889.511	4911
889.635	4809
889.759	4710
889.883	4672
890.006	4729
890.13	4850
890.254	4615
890.377	4645
890.501	4573
890.624	4516
890.748	4630
890.871	4592
890.995	4485
891.118	4417
891.241	4584
891.364	4519
891.488	4653
891.611	4546
891.734	4550
891.857	4656
891.98	4546
892.103	4660
892.226	4599
892.349	4538
892.471	4363
892.594	4596
892.717	4599
892.839	4577
892.962	4615
893.085	4706
893.207	4603
893.33	4459
893.452	4527
893.575	4637
893.697	4565
893.819	4797
893.941	4847
894.064	4771
894.186	4580
894.308	4546
894.43	4721
894.552	4839
894.674	4763
894.796	4561
894.918	4580
895.04	4607
895.161	4683
895.283	4721
895.405	4561
895.526	4599
895.648	4683
895.769	4710
895.891	4710
896.012	4729
896.134	4725
896.255	4706
896.376	4599
896.498	4668
896.619	4653
896.74	4626
896.861	4660
896.982	4938
897.103	5064
897.224	4793
897.345	4755
897.466	4664
897.587	4675
897.708	4911
897.828	4820
897.949	4672
898.07	4592
898.19	4672
898.311	4816
898.431	4672
898.552	4702
898.672	4778
898.792	4839
898.913	4729
899.033	4649
899.153	4554
899.273	4440
899.393	4489
899.513	4516
899.633	4516
899.753	4577
899.873	4489
899.993	4596
900.113	4527
900.232	4580
900.352	4519
900.472	4493
900.591	4383
900.711	4500
900.83	4383
900.95	4645
901.069	4683
901.189	4565
901.308	4348
901.427	4299
901.546	4405
901.665	4500
901.784	4538
901.904	4383
902.023	4284
902.141	4200
902.26	4177
902.379	4341
902.498	4242
902.617	4204
902.735	4413
902.854	4390
902.973	4306
903.091	4211
903.21	4230
903.328	4295
903.446	4299
903.565	4287
903.683	4333
903.801	4253
903.919	4363
904.038	4459
904.156	4325
904.274	4398
904.392	4424
904.51	4459
904.627	4481
904.745	4611
904.863	4656
904.981	4405
905.098	4303
905.216	4348
905.334	4417
905.451	4470
905.569	4417
905.686	4565
905.803	4519
905.921	4405
906.038	4550
906.155	4527
906.272	4421
906.389	4462
906.506	4325
906.623	4394
906.74	4421
906.857	4337
906.974	4341
907.091	4622
907.208	4668
907.324	4596
907.441	4500
907.557	4325
907.674	4356
907.79	4322
907.907	4409
908.023	4443
908.139	4459
908.256	4428
908.372	4390
908.488	4478
908.604	4352
908.72	4318
908.836	4386
908.952	4341
909.068	4421
909.184	4599
909.3	4462
909.415	4542
909.531	4596
909.647	4352
909.762	4360
909.878	4360
909.993	4432
910.108	4421
910.224	4421
910.339	4497
910.454	4462
910.57	4344
910.685	4303
910.8	4656
910.915	4584
911.03	4481
911.145	4306
911.259	4287
911.374	4360
911.489	4333
911.604	4265
911.718	4188
911.833	4219
911.947	4051
912.062	3994
912.176	4219
912.291	4249
912.405	4257
912.519	4489
912.633	4512
912.748	4390
912.862	4314
912.976	4192
913.09	4120
913.204	4192
913.318	4242
913.431	4413
913.545	4383
913.659	4436
913.772	4398
913.886	4268
914	4234
914.113	4379
914.226	4417
914.34	4379
914.453	4227
914.566	4424
914.68	4310
914.793	4329
914.906	4150
915.019	4158
915.132	4090
915.245	4173
915.358	4227
915.47	4280
915.583	4268
915.696	4257
915.809	4413
915.921	4440
916.034	4223
916.146	4227
916.259	4249
916.371	4383
916.483	4405
916.595	4314
916.708	4318
916.82	4356
916.932	4386
917.044	4310
917.156	4314
917.268	4227
917.38	4261
917.491	4234
917.603	4352
917.715	4421
917.826	4470
917.938	4352
918.049	4230
918.161	4352
918.272	4542
918.384	4535
918.495	4462
918.606	4318
918.717	4261
918.828	4287
918.939	4356
919.05	4242
919.161	4265
919.272	4139
919.383	4219
919.494	4455
919.604	4611
919.715	4447
919.826	4367
919.936	4375
920.047	4535
920.157	4500
920.267	4702
920.378	4565
920.488	4489
920.598	4721
920.708	4866
920.818	4721
920.928	4763
921.038	4919
921.148	4938
921.258	4626
921.368	4550
921.477	4504
921.587	4447
921.697	4379
921.806	4512
921.916	4459
922.025	4268
922.134	4261
922.244	4253
922.353	4383
922.462	4185
922.571	4124
922.68	3998
922.789	3941
922.898	4025
923.007	3983
923.116	4090
923.224	4051
923.333	4063
923.442	4029
923.55	4006
923.659	3987
923.767	4044
923.876	4002
923.984	4131
924.092	3991
924.201	4059
924.309	4093
924.417	4116
924.525	4071
924.633	4124
924.741	5048
924.849	3903
924.956	4131
925.064	3968
925.172	3930
925.279	3945
925.387	4086
925.494	4063
925.602	4227
925.709	4181
925.816	4032
925.924	4109
926.031	4238
926.138	4192
926.245	4207
926.352	4093
926.459	4303
926.566	4287
926.673	4192
926.779	4036
926.886	4078
926.993	3975
927.099	3941
927.206	3934
927.312	3960
927.419	4032
927.525	3998
927.631	4055
927.737	3930
927.843	3983
927.95	3831
928.056	3953
928.162	3998
928.267	4051
928.373	4675
928.479	4109
928.585	3865
928.69	4017
928.796	4093
928.901	3964
929.007	3873
929.112	3945
929.218	3972
929.323	3949
929.428	3926
929.533	4112
929.638	3949
929.743	3945
929.848	4032
929.953	3979
930.058	3949
930.163	3759
930.267	3842
930.372	4002
930.477	3842
930.581	4071
930.685	3937
930.79	3823
930.894	3934
930.998	3823
931.103	4029
931.207	3728
931.311	3740
931.415	3648
931.519	3526
931.623	3534
