Data from test_V78500241_1719.txt Node
Date: Fri Mar 25 17:00:57 CST 2022
User: usil
Spectrometer: V785-0024
Trigger mode: 0
Integration Time (sec): 4.000000E-1
Scans to average: 1
Nonlinearity correction enabled: false
Boxcar width: 0
Storing dark spectrum: false
XAxis mode: Wavelengths
Number of Pixels in Spectrum: 1024
>>>>>Begin Spectral Data<<<<<
801.071	8039
801.214	7986
801.356	7928
801.499	7772
801.641	7906
801.783	7860
801.926	8005
802.068	8024
802.211	8035
802.353	8005
802.496	7902
802.638	7856
802.78	7944
802.923	7894
803.065	7852
803.208	7898
803.35	7932
803.492	8058
803.635	8134
803.777	8016
803.919	8123
804.061	8465
804.204	8138
804.346	8073
804.488	7993
804.63	8027
804.773	8027
804.915	8126
805.057	8252
805.199	8240
805.341	8214
805.483	8252
805.626	8195
805.768	8172
805.91	8233
806.052	8248
806.194	8130
806.336	8237
806.478	8100
806.62	8005
806.762	8191
806.904	8305
807.046	8461
807.188	8423
807.33	8320
807.472	8271
807.614	8134
807.756	8191
807.898	7986
808.04	7868
808.182	7925
808.324	7871
808.465	7875
808.607	8058
808.749	8088
808.891	8225
809.033	8267
809.174	8248
809.316	8096
809.458	8046
809.6	8039
809.741	8077
809.883	8084
810.025	8073
810.166	8062
810.308	8058
810.45	8016
810.591	7852
810.733	7765
810.875	7753
811.016	7457
811.158	7426
811.299	7571
811.441	7700
811.582	7700
811.724	7540
811.865	7567
812.007	7628
812.148	7586
812.29	7647
812.431	7731
812.573	7879
812.714	7837
812.855	8111
812.997	8199
813.138	8389
813.279	8077
813.421	8111
813.562	7951
813.703	7818
813.845	7746
813.986	7419
814.127	7198
814.268	7175
814.41	7251
814.551	7221
814.692	7206
814.833	7114
814.974	7118
815.115	7160
815.256	6985
815.397	6897
815.539	6928
815.68	6863
815.821	6795
815.962	6856
816.103	6802
816.244	6711
816.385	6585
816.526	6601
816.666	6464
816.807	6300
816.948	6490
817.089	6506
817.23	6433
817.371	6346
817.512	6357
817.653	6471
817.793	6342
817.934	6418
818.075	6506
818.216	6376
818.356	6384
818.497	6285
818.638	6098
818.778	6175
818.919	6175
819.06	6148
819.2	6338
819.341	6353
819.481	6365
819.622	6536
819.762	6715
819.903	6726
820.043	6582
820.184	6540
820.324	6574
820.465	6703
820.605	6711
820.746	6654
820.886	6513
821.026	6654
821.167	6726
821.307	6734
821.447	6818
821.588	6635
821.728	6616
821.868	6513
822.008	6300
822.149	6361
822.289	6350
822.429	6152
822.569	6060
822.709	6114
822.849	5961
822.99	5923
823.13	5939
823.27	5893
823.41	5786
823.55	5783
823.69	5745
823.83	5775
823.97	5710
824.11	5539
824.25	5535
824.389	5570
824.529	5589
824.669	5551
824.809	5638
824.949	5665
825.089	5646
825.228	5589
825.368	5357
825.508	5334
825.648	5334
825.787	5402
825.927	5391
826.067	5296
826.206	5265
826.346	5372
826.485	5383
826.625	5459
826.765	5596
826.904	5505
827.044	5242
827.183	5178
827.323	5140
827.462	5315
827.601	5143
827.741	5201
827.88	5258
828.02	5128
828.159	5216
828.298	5311
828.437	5357
828.577	5292
828.716	5455
828.855	5353
828.994	5216
829.134	5151
829.273	5204
829.412	5166
829.551	5170
829.69	5162
829.829	5246
829.968	5357
830.107	5292
830.246	5288
830.385	5166
830.524	5170
830.663	5079
830.802	5010
830.941	4889
831.08	4870
831.219	5003
831.357	4927
831.496	5223
831.635	4908
831.774	4885
831.913	4824
832.051	4660
832.19	4694
832.329	4866
832.467	4733
832.606	4626
832.744	4771
832.883	4660
833.022	4710
833.16	4736
833.299	4793
833.437	4854
833.576	4828
833.714	4889
833.852	4881
833.991	4911
834.129	4972
834.267	4961
834.406	4866
834.544	4976
834.682	4991
834.821	4968
834.959	5185
835.097	4995
835.235	5117
835.373	5052
835.511	5094
835.65	5113
835.788	4980
835.926	4915
836.064	4889
836.202	4877
836.34	5094
836.478	5246
836.615	5083
836.753	5265
836.891	5299
837.029	5239
837.167	5174
837.305	5128
837.443	5128
837.58	5136
837.718	5246
837.856	5197
837.993	5147
838.131	5258
838.269	5273
838.406	5242
838.544	5166
838.681	5041
838.819	5037
838.956	4885
839.094	4938
839.231	4972
839.369	5086
839.506	5395
839.643	5258
839.781	5033
839.918	5041
840.055	5136
840.193	5098
840.33	5075
840.467	5140
840.604	5189
840.742	5452
840.879	5052
841.016	5064
841.153	5147
841.29	5372
841.427	5292
841.564	5337
841.701	5364
841.838	5239
841.975	5246
842.112	5269
842.249	5151
842.385	5155
842.522	5311
842.659	5105
842.796	5113
842.933	5197
843.069	5162
843.206	5128
843.343	5299
843.479	5201
843.616	5322
843.752	5041
843.889	5041
844.025	5250
844.162	5022
844.298	5147
844.435	5121
844.571	5033
844.708	5197
844.844	5330
844.98	5273
845.117	5318
845.253	5174
845.389	5083
845.525	5147
845.661	5174
845.798	5037
845.934	5121
846.07	5037
846.206	5189
846.342	5273
846.478	5162
846.614	5022
846.75	4949
846.886	4911
847.022	5151
847.158	4980
847.294	5075
847.429	5174
847.565	5006
847.701	5322
847.837	4885
847.972	4824
848.108	4965
848.244	4889
848.379	4752
848.515	4672
848.65	4721
848.786	4752
848.921	4790
849.057	4885
849.192	4923
849.328	4862
849.463	4816
849.598	4778
849.734	4721
849.869	4683
850.004	4622
850.14	4634
850.275	4630
850.41	4523
850.545	4592
850.68	4645
850.815	4611
850.95	4630
851.085	4862
851.22	4729
851.355	4645
851.49	4618
851.625	4656
851.76	4603
851.895	4565
852.03	4550
852.165	4641
852.299	4740
852.434	4782
852.569	4729
852.703	4767
852.838	4862
852.973	4877
853.107	4896
853.242	4721
853.376	4641
853.511	4535
853.645	4641
853.78	4752
853.914	4660
854.048	4637
854.183	4634
854.317	4668
854.451	4850
854.585	4679
854.72	4599
854.854	4744
854.988	4592
855.122	4634
855.256	4519
855.39	4710
855.524	4793
855.658	4717
855.792	4748
855.926	4767
856.06	4748
856.194	4824
856.327	4675
856.461	4603
856.595	4626
856.729	4649
856.862	4729
856.996	4714
857.13	4717
857.263	4767
857.397	4752
857.53	4634
857.664	4736
857.797	4786
857.931	4771
858.064	4649
858.197	4721
858.331	4626
858.464	4561
858.597	4550
858.731	4592
858.864	4645
858.997	4584
859.13	4653
859.263	4668
859.396	4664
859.529	4584
859.662	4561
859.795	4561
859.928	4656
860.061	4717
860.194	4782
860.327	4618
860.46	4542
860.592	4717
860.725	4714
860.858	4759
860.99	4592
861.123	4500
861.256	4542
861.388	4603
861.521	5201
861.653	4470
861.786	4455
861.918	4481
862.05	4497
862.183	4573
862.315	4573
862.447	4672
862.58	4588
862.712	4375
862.844	4341
862.976	4447
863.108	4436
863.24	4828
863.372	4314
863.504	4466
863.636	4371
863.768	4428
863.9	4383
864.032	4367
864.164	4390
864.296	4485
864.428	4565
864.559	4607
864.691	4584
864.823	4554
864.954	4508
865.086	4542
865.217	4474
865.349	4409
865.48	4424
865.612	4519
865.743	4626
865.875	4459
866.006	4432
866.137	4481
866.269	4481
866.4	4459
866.531	4440
866.662	4386
866.793	4390
866.924	4440
867.055	4516
867.186	4481
867.317	4417
867.448	4356
867.579	4363
867.71	4432
867.841	4386
867.972	4451
868.103	4451
868.233	4455
868.364	4440
868.495	4497
868.625	4672
868.756	4717
868.886	4542
869.017	4603
869.147	4710
869.278	4767
869.408	4645
869.539	4637
869.669	4714
869.799	4641
869.929	4752
870.06	4778
870.19	4942
870.32	4915
870.45	4900
870.58	5022
870.71	5117
870.84	5052
870.97	4965
871.1	4889
871.23	5128
871.36	5128
871.489	5079
871.619	5041
871.749	5098
871.879	5132
872.008	5208
872.138	5128
872.267	4949
872.397	4831
872.526	4839
872.656	4706
872.785	4824
872.915	4965
873.044	5014
873.173	4946
873.303	4976
873.432	4923
873.561	4930
873.69	4858
873.819	4839
873.948	4946
874.077	4793
874.206	4729
874.335	4828
874.464	4889
874.593	5086
874.722	4961
874.851	5105
874.979	5045
875.108	5048
875.237	4881
875.365	4839
875.494	4858
875.623	4930
875.751	4812
875.88	4881
876.008	4968
876.136	5079
876.265	5147
876.393	5326
876.521	5212
876.65	5246
876.778	5201
876.906	5079
877.034	5006
877.162	5037
877.29	4995
877.418	5022
877.546	5006
877.674	5132
877.802	5022
877.93	4946
878.058	4915
878.185	4870
878.313	5006
878.441	4976
878.568	4816
878.696	4843
878.824	4968
878.951	4927
879.079	5124
879.206	5185
879.333	5067
879.461	5022
879.588	5014
879.715	5102
879.842	5193
879.97	4965
880.097	4767
880.224	4721
880.351	4812
880.478	4843
880.605	4790
880.732	4835
880.859	5086
880.986	4923
881.112	4904
881.239	4805
881.366	4664
881.493	4641
881.619	4565
881.746	4596
881.872	4668
881.999	4656
882.125	4687
882.252	4767
882.378	4786
882.505	5014
882.631	4774
882.757	4702
882.883	4717
883.01	4710
883.136	4645
883.262	4626
883.388	4630
883.514	4801
883.64	4835
883.766	4771
883.892	4691
884.018	4759
884.143	4889
884.269	4976
884.395	4645
884.52	4611
884.646	4630
884.772	4565
884.897	4542
885.023	4641
885.148	4748
885.274	4870
885.399	4793
885.524	4702
885.65	4698
885.775	4793
885.9	4698
886.025	4831
886.15	4824
886.275	4706
886.4	4637
886.525	4717
886.65	4714
886.775	4740
886.9	4862
887.025	5014
887.149	4805
887.274	4672
887.399	4554
887.523	4584
887.648	4584
887.773	4615
887.897	4702
888.021	4805
888.146	4664
888.27	4786
888.395	4862
888.519	4831
888.643	4850
888.767	4801
888.891	4672
889.015	4569
889.139	4649
889.263	4584
889.387	4714
889.511	4828
889.635	4805
889.759	4637
889.883	4649
890.006	4660
890.13	4793
890.254	4611
890.377	4679
890.501	4535
890.624	4485
890.748	4637
890.871	4489
890.995	4424
891.118	4375
891.241	4519
891.364	4542
891.488	4649
891.611	4531
891.734	4519
891.857	4558
891.98	4558
892.103	4634
892.226	4550
892.349	4535
892.471	4413
892.594	4531
892.717	4592
892.839	4554
892.962	4626
893.085	4607
893.207	4569
893.33	4432
893.452	4523
893.575	4645
893.697	4592
893.819	4835
893.941	4809
894.064	4778
894.186	4573
894.308	4542
894.43	4733
894.552	4771
894.674	4748
894.796	4512
894.918	4561
895.04	4554
895.161	4672
895.283	4622
895.405	4577
895.526	4596
895.648	4679
895.769	4675
895.891	4683
896.012	4706
896.134	4710
896.255	4714
896.376	4603
896.498	4641
896.619	4660
896.74	4580
896.861	4630
896.982	4889
897.103	5079
897.224	4839
897.345	4786
897.466	4691
897.587	4683
897.708	4816
897.828	4782
897.949	4660
898.07	4558
898.19	4622
898.311	4828
898.431	4637
898.552	4729
898.672	4820
898.792	4767
898.913	4729
899.033	4649
899.153	4512
899.273	4432
899.393	4504
899.513	4584
899.633	4466
899.753	4523
899.873	4485
899.993	4584
900.113	4519
900.232	4596
900.352	4493
900.472	4554
900.591	4432
900.711	4470
900.83	4436
900.95	4641
901.069	4649
901.189	4542
901.308	4348
901.427	4314
901.546	4402
901.665	4474
901.784	4550
901.904	4390
902.023	4272
902.141	4139
902.26	4139
902.379	4295
902.498	4257
902.617	4230
902.735	4386
902.854	4375
902.973	4363
903.091	4219
903.21	4204
903.328	4268
903.446	4265
903.565	4204
903.683	4375
903.801	4246
903.919	4409
904.038	4402
904.156	4329
904.274	4470
904.392	4379
904.51	4440
904.627	4459
904.745	4569
904.863	4611
904.981	4360
905.098	4322
905.216	4363
905.334	4447
905.451	4436
905.569	4474
905.686	4558
905.803	4546
905.921	4417
906.038	4546
906.155	4485
906.272	4447
906.389	4478
906.506	4360
906.623	4356
906.74	4390
906.857	4303
906.974	4379
907.091	4561
907.208	4626
907.324	4599
907.441	4485
907.557	4352
907.674	4363
907.79	4341
907.907	4356
908.023	4523
908.139	4455
908.256	4402
908.372	4459
908.488	4474
908.604	4379
908.72	4318
908.836	4363
908.952	4386
909.068	4455
909.184	4550
909.3	4519
909.415	4542
909.531	4542
909.647	4318
909.762	4394
909.878	4371
909.993	4424
910.108	4421
910.224	4371
910.339	4466
910.454	4436
910.57	4367
910.685	4306
910.8	4603
910.915	4592
911.03	4497
911.145	4344
911.259	4348
911.374	4383
911.489	4280
911.604	4272
911.718	4169
911.833	4200
911.947	4116
912.062	4013
912.176	4200
912.291	4265
912.405	4223
912.519	4474
912.633	4504
912.748	4295
912.862	4318
912.976	4154
913.09	4036
913.204	4181
913.318	4200
913.431	4318
913.545	4379
913.659	4428
913.772	4352
913.886	4253
914	4227
914.113	4367
914.226	4443
914.34	4363
914.453	4230
914.566	4383
914.68	4310
914.793	4379
914.906	4196
915.019	4128
915.132	4093
915.245	4162
915.358	4211
915.47	4249
915.583	4257
915.696	4322
915.809	4440
915.921	4424
916.034	4253
916.146	4246
916.259	4192
916.371	4367
916.483	4325
916.595	4272
916.708	4310
916.82	4303
916.932	4363
917.044	4348
917.156	4341
917.268	4291
917.38	4257
917.491	4272
917.603	4314
917.715	4405
917.826	4428
917.938	4379
918.049	4276
918.161	4424
918.272	4519
918.384	4508
918.495	4428
918.606	4295
918.717	4227
918.828	4322
918.939	4383
919.05	4234
919.161	4352
919.272	4154
919.383	4215
919.494	4428
919.604	4626
919.715	4421
919.826	4383
919.936	4421
920.047	4523
920.157	4466
920.267	4683
920.378	4554
920.488	4516
920.598	4744
920.708	4908
920.818	4759
920.928	4767
921.038	4961
921.148	4949
921.258	4626
921.368	4558
921.477	4504
921.587	4474
921.697	4375
921.806	4573
921.916	4462
922.025	4284
922.134	4211
922.244	4238
922.353	4299
922.462	4192
922.571	4169
922.68	4021
922.789	3964
922.898	4025
923.007	3968
923.116	4074
923.224	4048
923.333	4071
923.442	3991
923.55	4029
923.659	4002
923.767	4124
923.876	4013
923.984	4135
924.092	3994
924.201	4074
924.309	4101
924.417	4135
924.525	4029
924.633	4082
924.741	4839
924.849	3899
924.956	4120
925.064	3949
925.172	3888
925.279	3899
925.387	4063
925.494	4017
925.602	4219
925.709	4143
925.816	4063
925.924	4078
926.031	4227
926.138	4131
926.245	4200
926.352	4112
926.459	4261
926.566	4325
926.673	4196
926.779	4120
926.886	4074
926.993	3972
927.099	3968
927.206	3922
927.312	3979
927.419	4021
927.525	3975
927.631	4078
927.737	3953
927.843	3968
927.95	3819
928.056	3964
928.162	3945
928.267	4013
928.373	4694
928.479	4128
928.585	3873
928.69	4048
928.796	4063
928.901	3953
929.007	3850
929.112	4010
929.218	3983
929.323	3945
929.428	3937
929.533	4101
929.638	3911
929.743	3945
929.848	3983
929.953	4025
930.058	3926
930.163	3766
930.267	3869
930.372	3983
930.477	3804
930.581	4090
930.685	3937
930.79	3812
930.894	3907
930.998	3838
931.103	4032
931.207	3724
931.311	3717
931.415	3701
931.519	3538
931.623	3564
