Data from test_V78500241_2535.txt Node
Date: Fri Mar 25 17:06:37 CST 2022
User: usil
Spectrometer: V785-0024
Trigger mode: 0
Integration Time (sec): 4.000000E-1
Scans to average: 1
Nonlinearity correction enabled: false
Boxcar width: 0
Storing dark spectrum: false
XAxis mode: Wavelengths
Number of Pixels in Spectrum: 1024
>>>>>Begin Spectral Data<<<<<
801.071	8020
801.214	8001
801.356	7852
801.499	7822
801.641	7795
801.783	7826
801.926	7993
802.068	7883
802.211	8039
802.353	7986
802.496	7947
802.638	7864
802.78	7917
802.923	7925
803.065	7890
803.208	7837
803.35	7978
803.492	8081
803.635	8172
803.777	8050
803.919	8103
804.061	8469
804.204	8183
804.346	8069
804.488	8073
804.63	8119
804.773	8065
804.915	8088
805.057	8355
805.199	8233
805.341	8229
805.483	8351
805.626	8332
805.768	8126
805.91	8187
806.052	8191
806.194	8176
806.336	8336
806.478	8187
806.62	8077
806.762	8206
806.904	8282
807.046	8503
807.188	8412
807.33	8294
807.472	8336
807.614	8191
807.756	8172
807.898	8031
808.04	7989
808.182	7898
808.324	7807
808.465	7917
808.607	8054
808.749	8164
808.891	8267
809.033	8347
809.174	8225
809.316	8084
809.458	8065
809.6	8062
809.741	7989
809.883	8035
810.025	8149
810.166	8073
810.308	8008
810.45	8069
810.591	7871
810.733	7746
810.875	7689
811.016	7571
811.158	7506
811.299	7636
811.441	7776
811.582	7685
811.724	7559
811.865	7567
812.007	7613
812.148	7594
812.29	7655
812.431	7746
812.573	7871
812.714	7993
812.855	8073
812.997	8187
813.138	8301
813.279	8153
813.421	8092
813.562	7978
813.703	7925
813.845	7700
813.986	7441
814.127	7346
814.268	7244
814.41	7225
814.551	7228
814.692	7232
814.833	7107
814.974	7179
815.115	7217
815.256	7050
815.397	6981
815.539	6985
815.68	6798
815.821	6825
815.962	6890
816.103	6802
816.244	6741
816.385	6639
816.526	6658
816.666	6532
816.807	6357
816.948	6445
817.089	6486
817.23	6452
817.371	6418
817.512	6414
817.653	6429
817.793	6353
817.934	6460
818.075	6517
818.216	6490
818.356	6414
818.497	6311
818.638	6152
818.778	6220
818.919	6178
819.06	6152
819.2	6388
819.341	6395
819.481	6441
819.622	6608
819.762	6726
819.903	6707
820.043	6623
820.184	6601
820.324	6593
820.465	6738
820.605	6707
820.746	6639
820.886	6536
821.026	6738
821.167	6760
821.307	6837
821.447	6760
821.588	6719
821.728	6612
821.868	6521
822.008	6331
822.149	6403
822.289	6346
822.429	6163
822.569	6136
822.709	6125
822.849	5923
822.99	5920
823.13	5935
823.27	5912
823.41	5817
823.55	5809
823.69	5786
823.83	5805
823.97	5684
824.11	5589
824.25	5528
824.389	5589
824.529	5627
824.669	5562
824.809	5699
824.949	5691
825.089	5668
825.228	5589
825.368	5425
825.508	5360
825.648	5341
825.787	5368
825.927	5391
826.067	5315
826.206	5322
826.346	5360
826.485	5421
826.625	5395
826.765	5570
826.904	5570
827.044	5284
827.183	5166
827.323	5147
827.462	5242
827.601	5162
827.741	5220
827.88	5212
828.02	5155
828.159	5242
828.298	5315
828.437	5330
828.577	5277
828.716	5493
828.855	5326
828.994	5151
829.134	5181
829.273	5181
829.412	5178
829.551	5128
829.69	5201
829.829	5288
829.968	5330
830.107	5280
830.246	5273
830.385	5220
830.524	5147
830.663	5140
830.802	5018
830.941	4915
831.08	4889
831.219	5014
831.357	4965
831.496	5136
831.635	4908
831.774	4892
831.913	4911
832.051	4755
832.19	4774
832.329	4854
832.467	4778
832.606	4672
832.744	4694
832.883	4664
833.022	4733
833.16	4767
833.299	4881
833.437	4847
833.576	4858
833.714	4919
833.852	4934
833.991	4885
834.129	4938
834.267	4984
834.406	4957
834.544	5006
834.682	4980
834.821	4915
834.959	5185
835.097	4976
835.235	5212
835.373	5090
835.511	5109
835.65	5048
835.788	5052
835.926	4915
836.064	4946
836.202	4946
836.34	5193
836.478	5220
836.615	5117
836.753	5212
836.891	5349
837.029	5273
837.167	5193
837.305	5193
837.443	5162
837.58	5094
837.718	5231
837.856	5201
837.993	5143
838.131	5277
838.269	5250
838.406	5227
838.544	5261
838.681	5083
838.819	5045
838.956	4900
839.094	4930
839.231	4980
839.369	5105
839.506	5436
839.643	5303
839.781	5045
839.918	5010
840.055	5090
840.193	5056
840.33	5121
840.467	5143
840.604	5155
840.742	5455
840.879	5071
841.016	5140
841.153	5140
841.29	5398
841.427	5357
841.564	5349
841.701	5357
841.838	5307
841.975	5242
842.112	5307
842.249	5128
842.385	5159
842.522	5303
842.659	5121
842.796	5189
842.933	5166
843.069	5109
843.206	5159
843.343	5284
843.479	5258
843.616	5273
843.752	5079
843.889	5048
844.025	5227
844.162	5003
844.298	5204
844.435	5090
844.571	5071
844.708	5174
844.844	5269
844.98	5353
845.117	5345
845.253	5193
845.389	5071
845.525	5220
845.661	5155
845.798	4995
845.934	5147
846.07	5090
846.206	5208
846.342	5296
846.478	5216
846.614	4991
846.75	4923
846.886	4961
847.022	5109
847.158	5025
847.294	5064
847.429	5121
847.565	5083
847.701	5337
847.837	4858
847.972	4805
848.108	4995
848.244	4866
848.379	4752
848.515	4736
848.65	4717
848.786	4755
848.921	4793
849.057	4847
849.192	4915
849.328	4759
849.463	4850
849.598	4812
849.734	4839
849.869	4710
850.004	4634
850.14	4687
850.275	4615
850.41	4580
850.545	4573
850.68	4596
850.815	4607
850.95	4653
851.085	4843
851.22	4797
851.355	4714
851.49	4630
851.625	4664
851.76	4691
851.895	4626
852.03	4535
852.165	4721
852.299	4736
852.434	4782
852.569	4752
852.703	4790
852.838	4934
852.973	4953
853.107	4961
853.242	4809
853.376	4717
853.511	4565
853.645	4645
853.78	4831
853.914	4744
854.048	4759
854.183	4653
854.317	4755
854.451	4930
854.585	4797
854.72	4702
854.854	4831
854.988	4626
855.122	4679
855.256	4596
855.39	4717
855.524	4862
855.658	4763
855.792	4755
855.926	4797
856.06	4790
856.194	4873
856.327	4740
856.461	4649
856.595	4675
856.729	4668
856.862	4801
856.996	4721
857.13	4763
857.263	4835
857.397	4843
857.53	4725
857.664	4729
857.797	4793
857.931	4816
858.064	4714
858.197	4850
858.331	4691
858.464	4683
858.597	4558
858.731	4641
858.864	4649
858.997	4710
859.13	4729
859.263	4706
859.396	4740
859.529	4607
859.662	4603
859.795	4580
859.928	4679
860.061	4763
860.194	4835
860.327	4653
860.46	4588
860.592	4729
860.725	4816
860.858	4698
860.99	4634
861.123	4527
861.256	4573
861.388	4672
861.521	5231
861.653	4542
861.786	4466
861.918	4474
862.05	4584
862.183	4577
862.315	4618
862.447	4717
862.58	4622
862.712	4421
862.844	4413
862.976	4527
863.108	4474
863.24	4824
863.372	4333
863.504	4459
863.636	4436
863.768	4485
863.9	4436
864.032	4386
864.164	4443
864.296	4554
864.428	4599
864.559	4569
864.691	4569
864.823	4542
864.954	4523
865.086	4573
865.217	4497
865.349	4432
865.48	4516
865.612	4531
865.743	4675
865.875	4504
866.006	4462
866.137	4508
866.269	4497
866.4	4508
866.531	4500
866.662	4466
866.793	4462
866.924	4470
867.055	4523
867.186	4516
867.317	4466
867.448	4402
867.579	4428
867.71	4421
867.841	4379
867.972	4497
868.103	4527
868.233	4481
868.364	4516
868.495	4535
868.625	4675
868.756	4786
868.886	4611
869.017	4702
869.147	4809
869.278	4763
869.408	4675
869.539	4664
869.669	4767
869.799	4679
869.929	4759
870.06	4763
870.19	5025
870.32	4965
870.45	4980
870.58	4987
870.71	5136
870.84	5124
870.97	4953
871.1	4984
871.23	5181
871.36	5121
871.489	5094
871.619	5136
871.749	5094
871.879	5143
872.008	5201
872.138	5136
872.267	5060
872.397	4896
872.526	4854
872.656	4771
872.785	4873
872.915	4957
873.044	5075
873.173	4965
873.303	5014
873.432	4949
873.561	4987
873.69	4904
873.819	4889
873.948	4946
874.077	4881
874.206	4812
874.335	4809
874.464	4946
874.593	5064
874.722	5045
874.851	5166
874.979	5079
875.108	5098
875.237	4957
875.365	4889
875.494	4911
875.623	4934
875.751	4877
875.88	4934
876.008	5006
876.136	5117
876.265	5223
876.393	5379
876.521	5250
876.65	5273
876.778	5197
876.906	5113
877.034	5086
877.162	5052
877.29	5003
877.418	5132
877.546	5090
877.674	5113
877.802	5067
877.93	5075
878.058	4999
878.185	4923
878.313	5037
878.441	5037
878.568	4862
878.696	4896
878.824	4980
878.951	5041
879.079	5178
879.206	5284
879.333	5143
879.461	5056
879.588	5018
879.715	5143
879.842	5250
879.97	5086
880.097	4809
880.224	4778
880.351	4835
880.478	4858
880.605	4816
880.732	4786
880.859	5117
880.986	4911
881.112	4949
881.239	4858
881.366	4725
881.493	4618
881.619	4634
881.746	4714
881.872	4683
881.999	4679
882.125	4691
882.252	4809
882.378	4858
882.505	4991
882.631	4831
882.757	4668
882.883	4790
883.01	4721
883.136	4668
883.262	4691
883.388	4630
883.514	4831
883.64	4862
883.766	4850
883.892	4717
884.018	4744
884.143	4904
884.269	5010
884.395	4691
884.52	4668
884.646	4687
884.772	4626
884.897	4580
885.023	4714
885.148	4801
885.274	4896
885.399	4809
885.524	4740
885.65	4656
885.775	4790
885.9	4767
886.025	4889
886.15	4782
886.275	4790
886.4	4641
886.525	4778
886.65	4740
886.775	4752
886.9	4938
887.025	5109
887.149	4824
887.274	4733
887.399	4603
887.523	4607
887.648	4618
887.773	4584
887.897	4744
888.021	4763
888.146	4733
888.27	4858
888.395	4892
888.519	4828
888.643	4889
888.767	4870
888.891	4736
889.015	4634
889.139	4634
889.263	4603
889.387	4740
889.511	4915
889.635	4835
889.759	4679
889.883	4637
890.006	4767
890.13	4835
890.254	4630
890.377	4736
890.501	4531
890.624	4523
890.748	4725
890.871	4504
890.995	4474
891.118	4421
891.241	4569
891.364	4542
891.488	4618
891.611	4550
891.734	4565
891.857	4618
891.98	4577
892.103	4683
892.226	4653
892.349	4599
892.471	4466
892.594	4573
892.717	4599
892.839	4577
892.962	4569
893.085	4729
893.207	4653
893.33	4459
893.452	4573
893.575	4675
893.697	4592
893.819	4835
893.941	4896
894.064	4759
894.186	4615
894.308	4607
894.43	4778
894.552	4877
894.674	4733
894.796	4603
894.918	4611
895.04	4637
895.161	4717
895.283	4679
895.405	4588
895.526	4634
895.648	4717
895.769	4721
895.891	4767
896.012	4767
896.134	4752
896.255	4679
896.376	4630
896.498	4656
896.619	4683
896.74	4637
896.861	4622
896.982	4942
897.103	5071
897.224	4847
897.345	4774
897.466	4702
897.587	4740
897.708	4938
897.828	4805
897.949	4691
898.07	4603
898.19	4664
898.311	4866
898.431	4656
898.552	4790
898.672	4862
898.792	4774
898.913	4729
899.033	4637
899.153	4561
899.273	4478
899.393	4474
899.513	4546
899.633	4558
899.753	4569
899.873	4550
899.993	4577
900.113	4542
900.232	4611
900.352	4550
900.472	4554
900.591	4398
900.711	4531
900.83	4455
900.95	4668
901.069	4714
901.189	4580
901.308	4379
901.427	4310
901.546	4428
901.665	4516
901.784	4573
901.904	4428
902.023	4337
902.141	4230
902.26	4249
902.379	4333
902.498	4257
902.617	4234
902.735	4432
902.854	4398
902.973	4405
903.091	4261
903.21	4219
903.328	4291
903.446	4261
903.565	4322
903.683	4398
903.801	4329
903.919	4398
904.038	4455
904.156	4367
904.274	4421
904.392	4421
904.51	4421
904.627	4512
904.745	4596
904.863	4653
904.981	4421
905.098	4329
905.216	4356
905.334	4432
905.451	4485
905.569	4436
905.686	4527
905.803	4607
905.921	4424
906.038	4561
906.155	4500
906.272	4394
906.389	4462
906.506	4386
906.623	4363
906.74	4375
906.857	4310
906.974	4394
907.091	4573
907.208	4675
907.324	4596
907.441	4527
907.557	4371
907.674	4409
907.79	4322
907.907	4440
908.023	4493
908.139	4516
908.256	4417
908.372	4466
908.488	4462
908.604	4375
908.72	4333
908.836	4398
908.952	4383
909.068	4489
909.184	4592
909.3	4516
909.415	4558
909.531	4596
909.647	4363
909.762	4375
909.878	4383
909.993	4436
910.108	4394
910.224	4447
910.339	4516
910.454	4462
910.57	4375
910.685	4310
910.8	4721
910.915	4588
911.03	4478
911.145	4348
911.259	4363
911.374	4383
911.489	4314
911.604	4280
911.718	4192
911.833	4200
911.947	4124
912.062	4082
912.176	4204
912.291	4223
912.405	4276
912.519	4428
912.633	4535
912.748	4455
912.862	4329
912.976	4227
913.09	4124
913.204	4192
913.318	4295
913.431	4363
913.545	4352
913.659	4436
913.772	4344
913.886	4253
914	4192
914.113	4409
914.226	4451
914.34	4394
914.453	4223
914.566	4424
914.68	4333
914.793	4379
914.906	4173
915.019	4192
915.132	4120
915.245	4196
915.358	4215
915.47	4306
915.583	4223
915.696	4318
915.809	4413
915.921	4428
916.034	4291
916.146	4261
916.259	4246
916.371	4398
916.483	4390
916.595	4303
916.708	4341
916.82	4352
916.932	4318
917.044	4367
917.156	4398
917.268	4234
917.38	4318
917.491	4310
917.603	4398
917.715	4432
917.826	4409
917.938	4341
918.049	4234
918.161	4394
918.272	4527
918.384	4554
918.495	4485
918.606	4341
918.717	4257
918.828	4333
918.939	4363
919.05	4291
919.161	4337
919.272	4150
919.383	4249
919.494	4462
919.604	4668
919.715	4440
919.826	4356
919.936	4421
920.047	4538
920.157	4554
920.267	4687
920.378	4592
920.488	4485
920.598	4691
920.708	4889
920.818	4759
920.928	4771
921.038	5018
921.148	4923
921.258	4603
921.368	4580
921.477	4489
921.587	4497
921.697	4413
921.806	4535
921.916	4413
922.025	4295
922.134	4257
922.244	4181
922.353	4348
922.462	4211
922.571	4150
922.68	3972
922.789	3987
922.898	4078
923.007	3987
923.116	4109
923.224	4120
923.333	4135
923.442	4021
923.55	3994
923.659	4029
923.767	4097
923.876	4025
923.984	4139
924.092	3994
924.201	4071
924.309	4105
924.417	4147
924.525	4093
924.633	4093
924.741	5025
924.849	3926
924.956	4109
925.064	3987
925.172	3907
925.279	3964
925.387	4090
925.494	4071
925.602	4223
925.709	4173
925.816	3998
925.924	4143
926.031	4200
926.138	4166
926.245	4223
926.352	4135
926.459	4280
926.566	4303
926.673	4139
926.779	4109
926.886	4078
926.993	3953
927.099	3945
927.206	3930
927.312	3922
927.419	4071
927.525	4048
927.631	4109
927.737	3972
927.843	3926
927.95	3865
928.056	3968
928.162	3972
928.267	4067
928.373	4573
928.479	4143
928.585	3873
928.69	4044
928.796	4120
928.901	4006
929.007	3823
929.112	3972
929.218	3994
929.323	3953
929.428	3930
929.533	4128
929.638	3949
929.743	3964
929.848	4051
929.953	3979
930.058	3926
930.163	3808
930.267	3808
930.372	3991
930.477	3808
930.581	4116
930.685	3941
930.79	3823
930.894	3922
930.998	3861
931.103	4082
931.207	3732
931.311	3694
931.415	3690
931.519	3477
931.623	3587
