Data from test_V78500241_849.txt Node
Date: Fri Mar 25 16:54:54 CST 2022
User: usil
Spectrometer: V785-0024
Trigger mode: 0
Integration Time (sec): 4.000000E-1
Scans to average: 1
Nonlinearity correction enabled: false
Boxcar width: 0
Storing dark spectrum: false
XAxis mode: Wavelengths
Number of Pixels in Spectrum: 1024
>>>>>Begin Spectral Data<<<<<
801.071	7978
801.214	8031
801.356	7841
801.499	7845
801.641	7750
801.783	7837
801.926	8008
802.068	7894
802.211	7875
802.353	7951
802.496	7776
802.638	7864
802.78	7879
802.923	7970
803.065	7879
803.208	7909
803.35	8012
803.492	8096
803.635	8161
803.777	8001
803.919	8054
804.061	8381
804.204	8149
804.346	8020
804.488	7989
804.63	8134
804.773	8012
804.915	8100
805.057	8282
805.199	8138
805.341	8164
805.483	8187
805.626	8187
805.768	8138
805.91	8130
806.052	8191
806.194	8046
806.336	8267
806.478	8062
806.62	8073
806.762	8084
806.904	8176
807.046	8400
807.188	8313
807.33	8286
807.472	8339
807.614	8088
807.756	8050
807.898	7951
808.04	7814
808.182	7898
808.324	7898
808.465	7814
808.607	7989
808.749	8046
808.891	8191
809.033	8309
809.174	8195
809.316	8119
809.458	8020
809.6	7955
809.741	8027
809.883	8012
810.025	8046
810.166	8043
810.308	8020
810.45	7967
810.591	7909
810.733	7750
810.875	7662
811.016	7480
811.158	7445
811.299	7540
811.441	7700
811.582	7636
811.724	7529
811.865	7544
812.007	7590
812.148	7575
812.29	7582
812.431	7738
812.573	7807
812.714	7917
812.855	8016
812.997	8259
813.138	8336
813.279	8161
813.421	8058
813.562	8024
813.703	7898
813.845	7837
813.986	7453
814.127	7217
814.268	7251
814.41	7156
814.551	7114
814.692	7141
814.833	7042
814.974	7031
815.115	7088
815.256	6966
815.397	6954
815.539	6924
815.68	6859
815.821	6802
815.962	6897
816.103	6795
816.244	6738
816.385	6608
816.526	6639
816.666	6540
816.807	6353
816.948	6380
817.089	6506
817.23	6395
817.371	6410
817.512	6353
817.653	6418
817.793	6334
817.934	6369
818.075	6467
818.216	6399
818.356	6422
818.497	6197
818.638	6072
818.778	6079
818.919	6106
819.06	6159
819.2	6281
819.341	6292
819.481	6372
819.622	6517
819.762	6696
819.903	6662
820.043	6635
820.184	6612
820.324	6582
820.465	6665
820.605	6639
820.746	6612
820.886	6479
821.026	6612
821.167	6673
821.307	6806
821.447	6745
821.588	6646
821.728	6589
821.868	6448
822.008	6319
822.149	6365
822.289	6311
822.429	6186
822.569	6057
822.709	6064
822.849	5878
822.99	5859
823.13	5904
823.27	5893
823.41	5798
823.55	5771
823.69	5764
823.83	5756
823.97	5672
824.11	5547
824.25	5497
824.389	5623
824.529	5585
824.669	5547
824.809	5638
824.949	5672
825.089	5608
825.228	5547
825.368	5383
825.508	5273
825.648	5303
825.787	5334
825.927	5341
826.067	5261
826.206	5258
826.346	5357
826.485	5353
826.625	5421
826.765	5524
826.904	5398
827.044	5212
827.183	5204
827.323	5098
827.462	5223
827.601	5151
827.741	5174
827.88	5220
828.02	5079
828.159	5189
828.298	5345
828.437	5345
828.577	5261
828.716	5459
828.855	5326
828.994	5128
829.134	5178
829.273	5189
829.412	5147
829.551	5151
829.69	5132
829.829	5250
829.968	5330
830.107	5288
830.246	5261
830.385	5166
830.524	5075
830.663	5094
830.802	4999
830.941	4877
831.08	4854
831.219	4949
831.357	4946
831.496	5124
831.635	4885
831.774	4854
831.913	4870
832.051	4710
832.19	4740
832.329	4831
832.467	4694
832.606	4626
832.744	4710
832.883	4733
833.022	4710
833.16	4771
833.299	4820
833.437	4835
833.576	4854
833.714	4858
833.852	4850
833.991	4881
834.129	4946
834.267	4957
834.406	4904
834.544	4942
834.682	4976
834.821	4919
834.959	5117
835.097	4957
835.235	5143
835.373	5064
835.511	5056
835.65	5010
835.788	5048
835.926	4908
836.064	4858
836.202	4968
836.34	5140
836.478	5201
836.615	5124
836.753	5174
836.891	5288
837.029	5235
837.167	5181
837.305	5124
837.443	5090
837.58	5048
837.718	5258
837.856	5181
837.993	5155
838.131	5178
838.269	5201
838.406	5220
838.544	5136
838.681	4972
838.819	4961
838.956	4858
839.094	4892
839.231	4923
839.369	5075
839.506	5417
839.643	5235
839.781	5022
839.918	5010
840.055	5048
840.193	5045
840.33	5113
840.467	5143
840.604	5197
840.742	5410
840.879	5048
841.016	5105
841.153	5140
841.29	5425
841.427	5307
841.564	5280
841.701	5368
841.838	5284
841.975	5193
842.112	5258
842.249	5079
842.385	5071
842.522	5292
842.659	5136
842.796	5121
842.933	5162
843.069	5151
843.206	5170
843.343	5299
843.479	5204
843.616	5299
843.752	5056
843.889	4957
844.025	5193
844.162	5029
844.298	5143
844.435	4999
844.571	5048
844.708	5246
844.844	5292
844.98	5364
845.117	5303
845.253	5140
845.389	5052
845.525	5155
845.661	5121
845.798	5003
845.934	5113
846.07	4995
846.206	5239
846.342	5223
846.478	5193
846.614	4995
846.75	4930
846.886	4972
847.022	5124
847.158	4968
847.294	5060
847.429	5113
847.565	5067
847.701	5349
847.837	4824
847.972	4771
848.108	4923
848.244	4915
848.379	4744
848.515	4675
848.65	4698
848.786	4748
848.921	4733
849.057	4881
849.192	4896
849.328	4801
849.463	4824
849.598	4797
849.734	4679
849.869	4683
850.004	4615
850.14	4649
850.275	4558
850.41	4542
850.545	4607
850.68	4573
850.815	4596
850.95	4622
851.085	4824
851.22	4714
851.355	4664
851.49	4584
851.625	4588
851.76	4622
851.895	4542
852.03	4577
852.165	4618
852.299	4733
852.434	4782
852.569	4744
852.703	4740
852.838	4801
852.973	4904
853.107	4908
853.242	4683
853.376	4634
853.511	4470
853.645	4607
853.78	4771
853.914	4615
854.048	4679
854.183	4622
854.317	4656
854.451	4839
854.585	4675
854.72	4618
854.854	4725
854.988	4577
855.122	4599
855.256	4493
855.39	4694
855.524	4805
855.658	4683
855.792	4725
855.926	4752
856.06	4717
856.194	4778
856.327	4675
856.461	4622
856.595	4634
856.729	4634
856.862	4733
856.996	4637
857.13	4672
857.263	4744
857.397	4797
857.53	4653
857.664	4717
857.797	4748
857.931	4744
858.064	4683
858.197	4752
858.331	4596
858.464	4588
858.597	4573
858.731	4626
858.864	4588
858.997	4637
859.13	4641
859.263	4683
859.396	4702
859.529	4622
859.662	4546
859.795	4508
859.928	4649
860.061	4767
860.194	4759
860.327	4550
860.46	4558
860.592	4660
860.725	4691
860.858	4721
860.99	4573
861.123	4512
861.256	4538
861.388	4660
861.521	5280
861.653	4500
861.786	4455
861.918	4424
862.05	4459
862.183	4516
862.315	4554
862.447	4592
862.58	4527
862.712	4394
862.844	4318
862.976	4478
863.108	4402
863.24	4736
863.372	4325
863.504	4356
863.636	4390
863.768	4470
863.9	4428
864.032	4379
864.164	4398
864.296	4455
864.428	4573
864.559	4519
864.691	4527
864.823	4546
864.954	4424
865.086	4516
865.217	4470
865.349	4421
865.48	4462
865.612	4497
865.743	4618
865.875	4485
866.006	4398
866.137	4478
866.269	4459
866.4	4413
866.531	4367
866.662	4413
866.793	4421
866.924	4409
867.055	4497
867.186	4386
867.317	4390
867.448	4344
867.579	4398
867.71	4352
867.841	4383
867.972	4402
868.103	4428
868.233	4421
868.364	4440
868.495	4432
868.625	4641
868.756	4782
868.886	4550
869.017	4622
869.147	4706
869.278	4721
869.408	4615
869.539	4649
869.669	4641
869.799	4645
869.929	4706
870.06	4759
870.19	4919
870.32	4908
870.45	4881
870.58	5022
870.71	5094
870.84	5109
870.97	4968
871.1	4908
871.23	5147
871.36	5075
871.489	4999
871.619	5067
871.749	5029
871.879	5079
872.008	5143
872.138	5029
872.267	4991
872.397	4831
872.526	4774
872.656	4660
872.785	4805
872.915	4949
873.044	4972
873.173	4923
873.303	4930
873.432	4984
873.561	4953
873.69	4877
873.819	4847
873.948	4854
874.077	4793
874.206	4759
874.335	4793
874.464	4927
874.593	5071
874.722	4942
874.851	5094
874.979	5022
875.108	5022
875.237	4885
875.365	4854
875.494	4820
875.623	4968
875.751	4786
875.88	4828
876.008	4942
876.136	5048
876.265	5147
876.393	5364
876.521	5197
876.65	5235
876.778	5109
876.906	5064
877.034	5041
877.162	5048
877.29	4976
877.418	5052
877.546	5060
877.674	5006
877.802	5048
877.93	4953
878.058	4885
878.185	4881
878.313	4911
878.441	4919
878.568	4774
878.696	4847
878.824	4927
878.951	4965
879.079	5086
879.206	5269
879.333	5105
879.461	5006
879.588	5003
879.715	5113
879.842	5265
879.97	4995
880.097	4782
880.224	4721
880.351	4828
880.478	4828
880.605	4816
880.732	4816
880.859	5033
880.986	4812
881.112	4885
881.239	4805
881.366	4691
881.493	4596
881.619	4607
881.746	4630
881.872	4626
881.999	4664
882.125	4710
882.252	4721
882.378	4835
882.505	4915
882.631	4797
882.757	4672
882.883	4710
883.01	4710
883.136	4641
883.262	4538
883.388	4603
883.514	4862
883.64	4866
883.766	4816
883.892	4679
884.018	4706
884.143	4843
884.269	5003
884.395	4660
884.52	4615
884.646	4603
884.772	4607
884.897	4535
885.023	4637
885.148	4763
885.274	4885
885.399	4763
885.524	4672
885.65	4664
885.775	4729
885.9	4653
886.025	4831
886.15	4774
886.275	4683
886.4	4717
886.525	4725
886.65	4687
886.775	4683
886.9	4896
887.025	5014
887.149	4824
887.274	4603
887.399	4565
887.523	4573
887.648	4558
887.773	4592
887.897	4805
888.021	4729
888.146	4660
888.27	4797
888.395	4877
888.519	4793
888.643	4771
888.767	4820
888.891	4687
889.015	4565
889.139	4630
889.263	4622
889.387	4767
889.511	4831
889.635	4740
889.759	4588
889.883	4637
890.006	4687
890.13	4873
890.254	4611
890.377	4687
890.501	4523
890.624	4531
890.748	4565
890.871	4512
890.995	4432
891.118	4383
891.241	4459
891.364	4542
891.488	4580
891.611	4485
891.734	4500
891.857	4596
891.98	4577
892.103	4645
892.226	4607
892.349	4519
892.471	4440
892.594	4527
892.717	4580
892.839	4626
892.962	4558
893.085	4626
893.207	4649
893.33	4447
893.452	4512
893.575	4626
893.697	4546
893.819	4790
893.941	4820
894.064	4717
894.186	4573
894.308	4542
894.43	4717
894.552	4759
894.674	4740
894.796	4527
894.918	4580
895.04	4512
895.161	4683
895.283	4637
895.405	4542
895.526	4645
895.648	4656
895.769	4656
895.891	4729
896.012	4714
896.134	4698
896.255	4592
896.376	4675
896.498	4641
896.619	4694
896.74	4607
896.861	4641
896.982	4892
897.103	5025
897.224	4816
897.345	4721
897.466	4687
897.587	4759
897.708	4797
897.828	4786
897.949	4615
898.07	4535
898.19	4611
898.311	4801
898.431	4607
898.552	4698
898.672	4816
898.792	4767
898.913	4748
899.033	4607
899.153	4500
899.273	4417
899.393	4443
899.513	4531
899.633	4466
899.753	4512
899.873	4516
899.993	4542
900.113	4500
900.232	4523
900.352	4527
900.472	4504
900.591	4402
900.711	4432
900.83	4405
900.95	4542
901.069	4683
901.189	4546
901.308	4417
901.427	4257
901.546	4383
901.665	4443
901.784	4527
901.904	4344
902.023	4268
902.141	4166
902.26	4135
902.379	4253
902.498	4242
902.617	4261
902.735	4379
902.854	4398
902.973	4318
903.091	4139
903.21	4204
903.328	4276
903.446	4253
903.565	4246
903.683	4314
903.801	4230
903.919	4363
904.038	4485
904.156	4291
904.274	4402
904.392	4375
904.51	4436
904.627	4451
904.745	4580
904.863	4599
904.981	4344
905.098	4318
905.216	4344
905.334	4405
905.451	4409
905.569	4436
905.686	4527
905.803	4516
905.921	4413
906.038	4569
906.155	4493
906.272	4379
906.389	4432
906.506	4363
906.623	4417
906.74	4455
906.857	4341
906.974	4318
907.091	4603
907.208	4656
907.324	4580
907.441	4508
907.557	4329
907.674	4363
907.79	4363
907.907	4394
908.023	4500
908.139	4489
908.256	4440
908.372	4478
908.488	4440
908.604	4386
908.72	4352
908.836	4443
908.952	4375
909.068	4432
909.184	4607
909.3	4489
909.415	4618
909.531	4588
909.647	4402
909.762	4447
909.878	4325
909.993	4523
910.108	4402
910.224	4466
910.339	4527
910.454	4417
910.57	4325
910.685	4337
910.8	4725
910.915	4637
911.03	4558
911.145	4352
911.259	4386
911.374	4367
911.489	4379
911.604	4310
911.718	4181
911.833	4204
911.947	4147
912.062	4074
912.176	4227
912.291	4306
912.405	4291
912.519	4508
912.633	4508
912.748	4413
912.862	4375
912.976	4230
913.09	4154
913.204	4207
913.318	4253
913.431	4428
913.545	4390
913.659	4440
913.772	4421
913.886	4291
914	4276
914.113	4417
914.226	4417
914.34	4409
914.453	4261
914.566	4455
914.68	4348
914.793	4299
914.906	4223
915.019	4181
915.132	4154
915.245	4227
915.358	4265
915.47	4291
915.583	4299
915.696	4363
915.809	4478
915.921	4485
916.034	4268
916.146	4306
916.259	4276
916.371	4402
916.483	4360
916.595	4322
916.708	4356
916.82	4341
916.932	4341
917.044	4337
917.156	4356
917.268	4299
917.38	4356
917.491	4352
917.603	4333
917.715	4466
917.826	4512
917.938	4386
918.049	4268
918.161	4405
918.272	4584
918.384	4516
918.495	4489
918.606	4390
918.717	4276
918.828	4363
918.939	4329
919.05	4299
919.161	4375
919.272	4166
919.383	4261
919.494	4508
919.604	4691
919.715	4436
919.826	4383
919.936	4436
920.047	4569
920.157	4508
920.267	4744
920.378	4599
920.488	4531
920.598	4706
920.708	4900
920.818	4824
920.928	4767
921.038	5006
921.148	4984
921.258	4607
921.368	4577
921.477	4535
921.587	4489
921.697	4417
921.806	4603
921.916	4462
922.025	4295
922.134	4306
922.244	4230
922.353	4360
922.462	4200
922.571	4169
922.68	4040
922.789	4036
922.898	4078
923.007	4006
923.116	4109
923.224	4082
923.333	4139
923.442	3945
923.55	4051
923.659	4036
923.767	4112
923.876	4006
923.984	4188
924.092	4017
924.201	4055
924.309	4078
924.417	4207
924.525	4048
924.633	4177
924.741	4908
924.849	3918
924.956	4177
925.064	3941
925.172	3903
925.279	3968
925.387	4105
925.494	4090
925.602	4219
925.709	4249
925.816	4090
925.924	4169
926.031	4219
926.138	4211
926.245	4207
926.352	4097
926.459	4265
926.566	4360
926.673	4185
926.779	4101
926.886	4059
926.993	3972
927.099	3987
927.206	3998
927.312	3968
927.419	4112
927.525	4067
927.631	4124
927.737	3991
927.843	4013
927.95	3896
928.056	3998
928.162	4013
928.267	4093
928.373	4736
928.479	4162
928.585	3915
928.69	4048
928.796	4086
928.901	4013
929.007	3899
929.112	4051
929.218	4036
929.323	3960
929.428	3960
929.533	4173
929.638	3937
929.743	4025
929.848	4063
929.953	4002
930.058	3968
930.163	3838
930.267	3865
930.372	3987
930.477	3846
930.581	4109
930.685	4002
930.79	3850
930.894	3926
930.998	3876
931.103	4044
931.207	3770
931.311	3747
931.415	3728
931.519	3576
931.623	3587
