Data from test_V78500241_2730.txt Node
Date: Fri Mar 25 17:07:59 CST 2022
User: usil
Spectrometer: V785-0024
Trigger mode: 0
Integration Time (sec): 4.000000E-1
Scans to average: 1
Nonlinearity correction enabled: false
Boxcar width: 0
Storing dark spectrum: false
XAxis mode: Wavelengths
Number of Pixels in Spectrum: 1024
>>>>>Begin Spectral Data<<<<<
801.071	8081
801.214	8031
801.356	7875
801.499	7940
801.641	7883
801.783	7894
801.926	8020
802.068	7982
802.211	8039
802.353	8103
802.496	8024
802.638	7944
802.78	8012
802.923	7944
803.065	7906
803.208	7944
803.35	8046
803.492	8142
803.635	8240
803.777	8130
803.919	8214
804.061	8541
804.204	8206
804.346	8081
804.488	8054
804.63	8180
804.773	8043
804.915	8164
805.057	8313
805.199	8244
805.341	8259
805.483	8298
805.626	8240
805.768	8191
805.91	8282
806.052	8298
806.194	8130
806.336	8332
806.478	8195
806.62	8088
806.762	8126
806.904	8301
807.046	8461
807.188	8328
807.33	8404
807.472	8412
807.614	8168
807.756	8225
807.898	7967
808.04	7871
808.182	7951
808.324	7993
808.465	7978
808.607	8176
808.749	8130
808.891	8240
809.033	8408
809.174	8294
809.316	8115
809.458	8020
809.6	8046
809.741	8088
809.883	8050
810.025	8206
810.166	8115
810.308	7997
810.45	8088
810.591	7856
810.733	7780
810.875	7799
811.016	7578
811.158	7540
811.299	7655
811.441	7742
811.582	7689
811.724	7620
811.865	7597
812.007	7609
812.148	7700
812.29	7693
812.431	7803
812.573	7871
812.714	8005
812.855	8138
812.997	8252
813.138	8313
813.279	8176
813.421	8134
813.562	8100
813.703	7967
813.845	7833
813.986	7620
814.127	7312
814.268	7285
814.41	7289
814.551	7171
814.692	7209
814.833	7084
814.974	7080
815.115	7141
815.256	6981
815.397	6966
815.539	7004
815.68	6894
815.821	6806
815.962	6897
816.103	6814
816.244	6734
816.385	6582
816.526	6700
816.666	6521
816.807	6350
816.948	6437
817.089	6513
817.23	6483
817.371	6395
817.512	6403
817.653	6426
817.793	6357
817.934	6479
818.075	6513
818.216	6418
818.356	6456
818.497	6247
818.638	6228
818.778	6254
818.919	6155
819.06	6163
819.2	6395
819.341	6376
819.481	6384
819.622	6555
819.762	6741
819.903	6719
820.043	6597
820.184	6669
820.324	6566
820.465	6726
820.605	6738
820.746	6658
820.886	6502
821.026	6673
821.167	6738
821.307	6798
821.447	6814
821.588	6757
821.728	6608
821.868	6517
822.008	6384
822.149	6376
822.289	6350
822.429	6125
822.569	6079
822.709	6167
822.849	5977
822.99	5954
823.13	5942
823.27	5946
823.41	5821
823.55	5824
823.69	5760
823.83	5783
823.97	5684
824.11	5577
824.25	5551
824.389	5604
824.529	5630
824.669	5547
824.809	5661
824.949	5691
825.089	5672
825.228	5600
825.368	5433
825.508	5379
825.648	5368
825.787	5379
825.927	5425
826.067	5345
826.206	5326
826.346	5410
826.485	5459
826.625	5452
826.765	5592
826.904	5493
827.044	5261
827.183	5273
827.323	5174
827.462	5334
827.601	5204
827.741	5242
827.88	5239
828.02	5166
828.159	5265
828.298	5349
828.437	5410
828.577	5318
828.716	5493
828.855	5349
828.994	5185
829.134	5185
829.273	5174
829.412	5121
829.551	5143
829.69	5140
829.829	5261
829.968	5387
830.107	5280
830.246	5277
830.385	5261
830.524	5136
830.663	5075
830.802	4980
830.941	4908
831.08	4949
831.219	4995
831.357	5010
831.496	5113
831.635	4930
831.774	4908
831.913	4885
832.051	4763
832.19	4824
832.329	4877
832.467	4710
832.606	4641
832.744	4740
832.883	4706
833.022	4748
833.16	4850
833.299	4797
833.437	4870
833.576	4847
833.714	4873
833.852	4866
833.991	4904
834.129	4961
834.267	4991
834.406	4949
834.544	5006
834.682	5010
834.821	4961
834.959	5155
835.097	5045
835.235	5189
835.373	5140
835.511	5109
835.65	5025
835.788	5067
835.926	4892
836.064	4904
836.202	4980
836.34	5178
836.478	5265
836.615	5174
836.753	5181
836.891	5307
837.029	5284
837.167	5170
837.305	5197
837.443	5181
837.58	5147
837.718	5292
837.856	5204
837.993	5143
838.131	5212
838.269	5208
838.406	5235
838.544	5159
838.681	5124
838.819	4980
838.956	4908
839.094	4927
839.231	4991
839.369	5159
839.506	5410
839.643	5280
839.781	5098
839.918	5018
840.055	5109
840.193	5143
840.33	5121
840.467	5174
840.604	5174
840.742	5505
840.879	5113
841.016	5075
841.153	5143
841.29	5406
841.427	5372
841.564	5345
841.701	5364
841.838	5299
841.975	5246
842.112	5261
842.249	5121
842.385	5094
842.522	5360
842.659	5201
842.796	5178
842.933	5246
843.069	5155
843.206	5197
843.343	5337
843.479	5280
843.616	5265
843.752	5052
843.889	5022
844.025	5269
844.162	5003
844.298	5197
844.435	5140
844.571	5010
844.708	5284
844.844	5337
844.98	5307
845.117	5303
845.253	5181
845.389	5136
845.525	5181
845.661	5132
845.798	5037
845.934	5136
846.07	5075
846.206	5227
846.342	5334
846.478	5250
846.614	5018
846.75	4995
846.886	4953
847.022	5170
847.158	5041
847.294	5064
847.429	5083
847.565	5033
847.701	5353
847.837	4923
847.972	4774
848.108	4984
848.244	4934
848.379	4805
848.515	4721
848.65	4721
848.786	4748
848.921	4729
849.057	4881
849.192	4957
849.328	4828
849.463	4873
849.598	4809
849.734	4782
849.869	4672
850.004	4622
850.14	4687
850.275	4626
850.41	4561
850.545	4569
850.68	4630
850.815	4641
850.95	4607
851.085	4839
851.22	4755
851.355	4675
851.49	4588
851.625	4618
851.76	4691
851.895	4569
852.03	4497
852.165	4694
852.299	4729
852.434	4774
852.569	4786
852.703	4759
852.838	4824
852.973	4965
853.107	4972
853.242	4752
853.376	4706
853.511	4535
853.645	4634
853.78	4831
853.914	4668
854.048	4687
854.183	4694
854.317	4698
854.451	4877
854.585	4698
854.72	4653
854.854	4744
854.988	4558
855.122	4683
855.256	4531
855.39	4694
855.524	4805
855.658	4778
855.792	4721
855.926	4752
856.06	4767
856.194	4797
856.327	4736
856.461	4618
856.595	4596
856.729	4691
856.862	4733
856.996	4714
857.13	4733
857.263	4759
857.397	4843
857.53	4615
857.664	4691
857.797	4782
857.931	4725
858.064	4725
858.197	4793
858.331	4660
858.464	4634
858.597	4527
858.731	4683
858.864	4599
858.997	4634
859.13	4660
859.263	4668
859.396	4698
859.529	4603
859.662	4577
859.795	4512
859.928	4626
860.061	4790
860.194	4752
860.327	4634
860.46	4580
860.592	4721
860.725	4736
860.858	4736
860.99	4550
861.123	4573
861.256	4535
861.388	4615
861.521	5296
861.653	4508
861.786	4428
861.918	4451
862.05	4508
862.183	4558
862.315	4611
862.447	4645
862.58	4569
862.712	4428
862.844	4329
862.976	4489
863.108	4466
863.24	4820
863.372	4383
863.504	4390
863.636	4428
863.768	4493
863.9	4462
864.032	4375
864.164	4402
864.296	4489
864.428	4542
864.559	4592
864.691	4523
864.823	4558
864.954	4470
865.086	4535
865.217	4474
865.349	4440
865.48	4455
865.612	4531
865.743	4668
865.875	4512
866.006	4443
866.137	4485
866.269	4443
866.4	4481
866.531	4432
866.662	4424
866.793	4424
866.924	4402
867.055	4550
867.186	4481
867.317	4417
867.448	4405
867.579	4417
867.71	4413
867.841	4409
867.972	4516
868.103	4508
868.233	4417
868.364	4417
868.495	4504
868.625	4668
868.756	4725
868.886	4580
869.017	4615
869.147	4786
869.278	4752
869.408	4660
869.539	4664
869.669	4771
869.799	4637
869.929	4725
870.06	4733
870.19	4934
870.32	4911
870.45	4961
870.58	5045
870.71	5102
870.84	5090
870.97	4930
871.1	4919
871.23	5174
871.36	5174
871.489	5018
871.619	5083
871.749	5083
871.879	5121
872.008	5212
872.138	5041
872.267	5003
872.397	4889
872.526	4816
872.656	4714
872.785	4877
872.915	4942
873.044	5033
873.173	4972
873.303	5018
873.432	4946
873.561	4965
873.69	4877
873.819	4953
873.948	4938
874.077	4801
874.206	4744
874.335	4790
874.464	4892
874.593	5056
874.722	4942
874.851	5128
874.979	5037
875.108	5025
875.237	4881
875.365	4854
875.494	4949
875.623	4987
875.751	4812
875.88	4908
876.008	5014
876.136	5033
876.265	5181
876.393	5307
876.521	5311
876.65	5246
876.778	5223
876.906	5102
877.034	5052
877.162	5098
877.29	4957
877.418	5048
877.546	5064
877.674	5022
877.802	5025
877.93	5003
878.058	4946
878.185	4923
878.313	4976
878.441	4968
878.568	4778
878.696	4919
878.824	4949
878.951	5018
879.079	5117
879.206	5315
879.333	5052
879.461	4999
879.588	4999
879.715	5090
879.842	5201
879.97	5102
880.097	4812
880.224	4774
880.351	4824
880.478	4809
880.605	4843
880.732	4812
880.859	5056
880.986	4896
881.112	4942
881.239	4812
881.366	4675
881.493	4588
881.619	4611
881.746	4672
881.872	4615
881.999	4645
882.125	4744
882.252	4778
882.378	4862
882.505	4957
882.631	4793
882.757	4672
882.883	4691
883.01	4786
883.136	4634
883.262	4592
883.388	4596
883.514	4831
883.64	4889
883.766	4847
883.892	4702
884.018	4786
884.143	4900
884.269	5018
884.395	4675
884.52	4634
884.646	4637
884.772	4611
884.897	4607
885.023	4679
885.148	4816
885.274	4839
885.399	4778
885.524	4702
885.65	4675
885.775	4733
885.9	4656
886.025	4877
886.15	4744
886.275	4702
886.4	4637
886.525	4706
886.65	4675
886.775	4687
886.9	4915
887.025	5033
887.149	4835
887.274	4641
887.399	4599
887.523	4592
887.648	4538
887.773	4592
887.897	4721
888.021	4782
888.146	4637
888.27	4847
888.395	4870
888.519	4793
888.643	4793
888.767	4858
888.891	4679
889.015	4554
889.139	4672
889.263	4645
889.387	4774
889.511	4854
889.635	4809
889.759	4664
889.883	4664
890.006	4782
890.13	4828
890.254	4588
890.377	4717
890.501	4538
890.624	4485
890.748	4637
890.871	4523
890.995	4424
891.118	4455
891.241	4535
891.364	4535
891.488	4611
891.611	4485
891.734	4546
891.857	4592
891.98	4603
892.103	4634
892.226	4550
892.349	4546
892.471	4440
892.594	4596
892.717	4577
892.839	4634
892.962	4607
893.085	4710
893.207	4573
893.33	4447
893.452	4516
893.575	4637
893.697	4599
893.819	4805
893.941	4805
894.064	4801
894.186	4615
894.308	4535
894.43	4736
894.552	4790
894.674	4778
894.796	4546
894.918	4535
895.04	4546
895.161	4679
895.283	4683
895.405	4546
895.526	4653
895.648	4675
895.769	4721
895.891	4702
896.012	4755
896.134	4710
896.255	4702
896.376	4687
896.498	4618
896.619	4645
896.74	4630
896.861	4679
896.982	4847
897.103	5067
897.224	4873
897.345	4744
897.466	4675
897.587	4706
897.708	4877
897.828	4816
897.949	4615
898.07	4489
898.19	4641
898.311	4835
898.431	4615
898.552	4725
898.672	4805
898.792	4824
898.913	4717
899.033	4622
899.153	4531
899.273	4424
899.393	4500
899.513	4535
899.633	4531
899.753	4546
899.873	4535
899.993	4538
900.113	4519
900.232	4558
900.352	4508
900.472	4508
900.591	4443
900.711	4478
900.83	4447
900.95	4599
901.069	4717
901.189	4516
901.308	4383
901.427	4348
901.546	4371
901.665	4459
901.784	4535
901.904	4455
902.023	4360
902.141	4196
902.26	4185
902.379	4318
902.498	4227
902.617	4249
902.735	4379
902.854	4402
902.973	4367
903.091	4230
903.21	4223
903.328	4344
903.446	4276
903.565	4272
903.683	4344
903.801	4276
903.919	4462
904.038	4421
904.156	4314
904.274	4421
904.392	4394
904.51	4462
904.627	4466
904.745	4577
904.863	4630
904.981	4394
905.098	4303
905.216	4371
905.334	4466
905.451	4451
905.569	4428
905.686	4550
905.803	4550
905.921	4379
906.038	4554
906.155	4474
906.272	4367
906.389	4489
906.506	4367
906.623	4413
906.74	4390
906.857	4276
906.974	4405
907.091	4542
907.208	4668
907.324	4580
907.441	4523
907.557	4325
907.674	4360
907.79	4303
907.907	4314
908.023	4474
908.139	4466
908.256	4371
908.372	4474
908.488	4455
908.604	4348
908.72	4363
908.836	4386
908.952	4402
909.068	4436
909.184	4603
909.3	4462
909.415	4577
909.531	4538
909.647	4379
909.762	4402
909.878	4356
909.993	4466
910.108	4417
910.224	4436
910.339	4451
910.454	4398
910.57	4371
910.685	4310
910.8	4675
910.915	4615
911.03	4421
911.145	4314
911.259	4371
911.374	4432
911.489	4367
911.604	4257
911.718	4169
911.833	4158
911.947	4101
912.062	4032
912.176	4166
912.291	4223
912.405	4249
912.519	4497
912.633	4508
912.748	4405
912.862	4318
912.976	4257
913.09	4101
913.204	4196
913.318	4211
913.431	4375
913.545	4402
913.659	4402
913.772	4375
913.886	4291
914	4234
914.113	4413
914.226	4440
914.34	4417
914.453	4265
914.566	4432
914.68	4306
914.793	4360
914.906	4150
915.019	4112
915.132	4067
915.245	4188
915.358	4166
915.47	4223
915.583	4249
915.696	4280
915.809	4432
915.921	4432
916.034	4253
916.146	4287
916.259	4230
916.371	4398
916.483	4333
916.595	4272
916.708	4341
916.82	4371
916.932	4371
917.044	4314
917.156	4322
917.268	4268
917.38	4306
917.491	4318
917.603	4344
917.715	4409
917.826	4421
917.938	4379
918.049	4272
918.161	4356
918.272	4554
918.384	4542
918.495	4481
918.606	4268
918.717	4299
918.828	4348
918.939	4356
919.05	4303
919.161	4337
919.272	4150
919.383	4238
919.494	4424
919.604	4611
919.715	4451
919.826	4306
919.936	4413
920.047	4523
920.157	4565
920.267	4710
920.378	4535
920.488	4542
920.598	4729
920.708	4881
920.818	4767
920.928	4805
921.038	4934
921.148	4923
921.258	4675
921.368	4531
921.477	4500
921.587	4440
921.697	4363
921.806	4573
921.916	4421
922.025	4284
922.134	4265
922.244	4227
922.353	4337
922.462	4207
922.571	4150
922.68	4017
922.789	3987
922.898	4059
923.007	3987
923.116	4101
923.224	4055
923.333	4116
923.442	4006
923.55	3983
923.659	4021
923.767	4063
923.876	4021
923.984	4162
924.092	3991
924.201	4109
924.309	4128
924.417	4093
924.525	4101
924.633	4120
924.741	5006
924.849	3930
924.956	4173
925.064	3998
925.172	3884
925.279	3968
925.387	4082
925.494	4025
925.602	4215
925.709	4238
925.816	4048
925.924	4135
926.031	4204
926.138	4185
926.245	4211
926.352	4074
926.459	4246
926.566	4295
926.673	4173
926.779	4067
926.886	4082
926.993	3945
927.099	3960
927.206	3918
927.312	3960
927.419	4078
927.525	4025
927.631	4116
927.737	3953
927.843	3922
927.95	3831
928.056	3987
928.162	3979
928.267	4078
928.373	4588
928.479	4131
928.585	3846
928.69	4013
928.796	4074
928.901	4002
929.007	3857
929.112	3991
929.218	3960
929.323	3964
929.428	3892
929.533	4093
929.638	3903
929.743	3941
929.848	4010
929.953	3979
930.058	3915
930.163	3800
930.267	3819
930.372	3956
930.477	3797
930.581	4139
930.685	3953
930.79	3785
930.894	3857
930.998	3808
931.103	4071
931.207	3736
931.311	3732
931.415	3690
931.519	3530
931.623	3564
