Data from test_V78500241_1535.txt Node
Date: Fri Mar 25 16:59:40 CST 2022
User: usil
Spectrometer: V785-0024
Trigger mode: 0
Integration Time (sec): 4.000000E-1
Scans to average: 1
Nonlinearity correction enabled: false
Boxcar width: 0
Storing dark spectrum: false
XAxis mode: Wavelengths
Number of Pixels in Spectrum: 1024
>>>>>Begin Spectral Data<<<<<
801.071	7986
801.214	8043
801.356	7940
801.499	7852
801.641	7822
801.783	7837
801.926	8012
802.068	7967
802.211	7978
802.353	7955
802.496	7830
802.638	7944
802.78	7955
802.923	7925
803.065	7875
803.208	7826
803.35	7982
803.492	8225
803.635	8168
803.777	8069
803.919	8164
804.061	8404
804.204	8130
804.346	8050
804.488	7940
804.63	8084
804.773	8016
804.915	8142
805.057	8309
805.199	8187
805.341	8218
805.483	8233
805.626	8149
805.768	8134
805.91	8153
806.052	8225
806.194	8149
806.336	8256
806.478	8145
806.62	8069
806.762	8126
806.904	8225
807.046	8488
807.188	8427
807.33	8309
807.472	8351
807.614	8126
807.756	8172
807.898	7940
808.04	7917
808.182	8016
808.324	7822
808.465	7898
808.607	8111
808.749	8145
808.891	8195
809.033	8279
809.174	8172
809.316	8054
809.458	8065
809.6	8012
809.741	8092
809.883	8069
810.025	8096
810.166	8100
810.308	8020
810.45	8054
810.591	7765
810.733	7708
810.875	7605
811.016	7571
811.158	7525
811.299	7647
811.441	7753
811.582	7674
811.724	7594
811.865	7567
812.007	7586
812.148	7578
812.29	7582
812.431	7807
812.573	7925
812.714	7970
812.855	8123
812.997	8210
813.138	8339
813.279	8191
813.421	8107
813.562	7959
813.703	7845
813.845	7708
813.986	7491
814.127	7232
814.268	7194
814.41	7152
814.551	7118
814.692	7244
814.833	7114
814.974	7145
815.115	7038
815.256	7008
815.397	6935
815.539	6977
815.68	6859
815.821	6791
815.962	6894
816.103	6840
816.244	6757
816.385	6597
816.526	6639
816.666	6464
816.807	6239
816.948	6433
817.089	6479
817.23	6471
817.371	6391
817.512	6422
817.653	6334
817.793	6380
817.934	6445
818.075	6441
818.216	6445
818.356	6407
818.497	6258
818.638	6144
818.778	6232
818.919	6133
819.06	6121
819.2	6357
819.341	6315
819.481	6369
819.622	6486
819.762	6757
819.903	6700
820.043	6700
820.184	6559
820.324	6627
820.465	6745
820.605	6741
820.746	6642
820.886	6506
821.026	6608
821.167	6745
821.307	6787
821.447	6745
821.588	6658
821.728	6540
821.868	6490
822.008	6334
822.149	6410
822.289	6331
822.429	6175
822.569	6072
822.709	6171
822.849	5950
822.99	5920
823.13	5889
823.27	5897
823.41	5764
823.55	5817
823.69	5805
823.83	5794
823.97	5710
824.11	5509
824.25	5528
824.389	5554
824.529	5627
824.669	5592
824.809	5623
824.949	5688
825.089	5604
825.228	5516
825.368	5417
825.508	5345
825.648	5307
825.787	5387
825.927	5330
826.067	5315
826.206	5284
826.346	5376
826.485	5398
826.625	5368
826.765	5535
826.904	5520
827.044	5261
827.183	5227
827.323	5094
827.462	5261
827.601	5159
827.741	5170
827.88	5239
828.02	5155
828.159	5216
828.298	5288
828.437	5345
828.577	5288
828.716	5528
828.855	5345
828.994	5155
829.134	5147
829.273	5208
829.412	5162
829.551	5132
829.69	5136
829.829	5280
829.968	5337
830.107	5296
830.246	5235
830.385	5185
830.524	5124
830.663	5064
830.802	5014
830.941	4946
831.08	4900
831.219	5014
831.357	4984
831.496	5185
831.635	4927
831.774	4892
831.913	4885
832.051	4729
832.19	4752
832.329	4797
832.467	4698
832.606	4634
832.744	4744
832.883	4740
833.022	4782
833.16	4774
833.299	4820
833.437	4812
833.576	4862
833.714	4824
833.852	4873
833.991	4881
834.129	4946
834.267	4965
834.406	4892
834.544	4976
834.682	5018
834.821	4972
834.959	5208
835.097	5006
835.235	5102
835.373	5067
835.511	5056
835.65	5025
835.788	5048
835.926	4877
836.064	4881
836.202	4847
836.34	5201
836.478	5181
836.615	5181
836.753	5189
836.891	5315
837.029	5181
837.167	5280
837.305	5197
837.443	5113
837.58	5090
837.718	5250
837.856	5193
837.993	5147
838.131	5212
838.269	5166
838.406	5216
838.544	5208
838.681	5010
838.819	4999
838.956	4885
839.094	4900
839.231	4995
839.369	5090
839.506	5410
839.643	5258
839.781	5045
839.918	5014
840.055	5079
840.193	5052
840.33	5117
840.467	5136
840.604	5204
840.742	5463
840.879	5033
841.016	5094
841.153	5159
841.29	5330
841.427	5364
841.564	5341
841.701	5326
841.838	5299
841.975	5197
842.112	5273
842.249	5140
842.385	5079
842.522	5254
842.659	5185
842.796	5162
842.933	5223
843.069	5208
843.206	5159
843.343	5284
843.479	5239
843.616	5296
843.752	5067
843.889	5045
844.025	5208
844.162	4995
844.298	5231
844.435	5056
844.571	5022
844.708	5223
844.844	5284
844.98	5330
845.117	5299
845.253	5151
845.389	5098
845.525	5166
845.661	5128
845.798	5022
845.934	5113
846.07	5052
846.206	5170
846.342	5299
846.478	5193
846.614	5022
846.75	4938
846.886	4949
847.022	5147
847.158	5010
847.294	5086
847.429	5094
847.565	5003
847.701	5337
847.837	4839
847.972	4752
848.108	4987
848.244	4953
848.379	4767
848.515	4736
848.65	4691
848.786	4733
848.921	4748
849.057	4904
849.192	4900
849.328	4831
849.463	4850
849.598	4778
849.734	4736
849.869	4687
850.004	4634
850.14	4683
850.275	4618
850.41	4519
850.545	4592
850.68	4603
850.815	4580
850.95	4653
851.085	4786
851.22	4763
851.355	4691
851.49	4596
851.625	4649
851.76	4641
851.895	4542
852.03	4527
852.165	4630
852.299	4706
852.434	4782
852.569	4717
852.703	4767
852.838	4797
852.973	4858
853.107	4911
853.242	4706
853.376	4694
853.511	4516
853.645	4611
853.78	4790
853.914	4675
854.048	4649
854.183	4630
854.317	4767
854.451	4870
854.585	4641
854.72	4672
854.854	4687
854.988	4596
855.122	4645
855.256	4504
855.39	4615
855.524	4774
855.658	4717
855.792	4645
855.926	4714
856.06	4767
856.194	4786
856.327	4668
856.461	4592
856.595	4577
856.729	4607
856.862	4755
856.996	4717
857.13	4767
857.263	4755
857.397	4767
857.53	4626
857.664	4740
857.797	4744
857.931	4755
858.064	4736
858.197	4744
858.331	4649
858.464	4641
858.597	4516
858.731	4675
858.864	4645
858.997	4588
859.13	4645
859.263	4653
859.396	4740
859.529	4615
859.662	4550
859.795	4523
859.928	4588
860.061	4755
860.194	4816
860.327	4558
860.46	4569
860.592	4725
860.725	4748
860.858	4752
860.99	4599
861.123	4523
861.256	4500
861.388	4656
861.521	5303
861.653	4466
861.786	4451
861.918	4447
862.05	4493
862.183	4565
862.315	4596
862.447	4618
862.58	4550
862.712	4436
862.844	4352
862.976	4466
863.108	4417
863.24	4748
863.372	4314
863.504	4394
863.636	4371
863.768	4493
863.9	4375
864.032	4348
864.164	4398
864.296	4451
864.428	4519
864.559	4558
864.691	4500
864.823	4508
864.954	4516
865.086	4493
865.217	4466
865.349	4455
865.48	4443
865.612	4489
865.743	4603
865.875	4459
866.006	4447
866.137	4474
866.269	4443
866.4	4375
866.531	4405
866.662	4356
866.793	4352
866.924	4443
867.055	4474
867.186	4455
867.317	4428
867.448	4360
867.579	4341
867.71	4363
867.841	4352
867.972	4489
868.103	4462
868.233	4451
868.364	4432
868.495	4470
868.625	4637
868.756	4714
868.886	4558
869.017	4599
869.147	4763
869.278	4790
869.408	4618
869.539	4626
869.669	4691
869.799	4683
869.929	4759
870.06	4744
870.19	4946
870.32	4953
870.45	4934
870.58	4987
870.71	5064
870.84	5079
870.97	4987
871.1	4881
871.23	5162
871.36	5113
871.489	5025
871.619	5113
871.749	5056
871.879	5079
872.008	5136
872.138	5041
872.267	4980
872.397	4839
872.526	4790
872.656	4672
872.785	4763
872.915	4900
873.044	5064
873.173	4934
873.303	4965
873.432	4984
873.561	5010
873.69	4885
873.819	4850
873.948	4866
874.077	4797
874.206	4809
874.335	4843
874.464	4911
874.593	5010
874.722	4911
874.851	5052
874.979	5064
875.108	4987
875.237	4991
875.365	4854
875.494	4847
875.623	4942
875.751	4797
875.88	4892
876.008	5003
876.136	5022
876.265	5197
876.393	5341
876.521	5265
876.65	5208
876.778	5174
876.906	5090
877.034	4995
877.162	4987
877.29	5014
877.418	5037
877.546	5064
877.674	5029
877.802	4995
877.93	5056
878.058	4908
878.185	4839
878.313	4953
878.441	4930
878.568	4824
878.696	4828
878.824	4987
878.951	4946
879.079	5098
879.206	5265
879.333	5109
879.461	4968
879.588	4991
879.715	5178
879.842	5216
879.97	4968
880.097	4755
880.224	4702
880.351	4816
880.478	4797
880.605	4809
880.732	4797
880.859	5060
880.986	4896
881.112	4946
881.239	4797
881.366	4660
881.493	4607
881.619	4603
881.746	4664
881.872	4660
881.999	4615
882.125	4710
882.252	4733
882.378	4759
882.505	5014
882.631	4755
882.757	4630
882.883	4702
883.01	4683
883.136	4653
883.262	4588
883.388	4599
883.514	4763
883.64	4850
883.766	4740
883.892	4615
884.018	4668
884.143	4866
884.269	4987
884.395	4637
884.52	4660
884.646	4649
884.772	4565
884.897	4546
885.023	4603
885.148	4744
885.274	4870
885.399	4790
885.524	4679
885.65	4725
885.775	4763
885.9	4729
886.025	4850
886.15	4759
886.275	4752
886.4	4634
886.525	4672
886.65	4691
886.775	4634
886.9	4904
887.025	4987
887.149	4812
887.274	4656
887.399	4599
887.523	4615
887.648	4607
887.773	4596
887.897	4733
888.021	4778
888.146	4649
888.27	4805
888.395	4908
888.519	4828
888.643	4797
888.767	4831
888.891	4645
889.015	4649
889.139	4641
889.263	4603
889.387	4736
889.511	4820
889.635	4820
889.759	4615
889.883	4622
890.006	4672
890.13	4854
890.254	4603
890.377	4717
890.501	4512
890.624	4497
890.748	4580
890.871	4489
890.995	4432
891.118	4360
891.241	4512
891.364	4523
891.488	4645
891.611	4474
891.734	4535
891.857	4618
891.98	4535
892.103	4634
892.226	4584
892.349	4497
892.471	4436
892.594	4546
892.717	4584
892.839	4558
892.962	4588
893.085	4653
893.207	4588
893.33	4481
893.452	4481
893.575	4641
893.697	4588
893.819	4805
893.941	4809
894.064	4729
894.186	4592
894.308	4577
894.43	4687
894.552	4790
894.674	4717
894.796	4489
894.918	4573
895.04	4577
895.161	4698
895.283	4641
895.405	4569
895.526	4653
895.648	4698
895.769	4679
895.891	4725
896.012	4706
896.134	4706
896.255	4679
896.376	4637
896.498	4592
896.619	4660
896.74	4569
896.861	4683
896.982	4873
897.103	5064
897.224	4835
897.345	4767
897.466	4698
897.587	4691
897.708	4847
897.828	4736
897.949	4683
898.07	4565
898.19	4588
898.311	4820
898.431	4683
898.552	4714
898.672	4831
898.792	4816
898.913	4748
899.033	4653
899.153	4523
899.273	4363
899.393	4489
899.513	4500
899.633	4535
899.753	4523
899.873	4519
899.993	4554
900.113	4508
900.232	4558
900.352	4538
900.472	4459
900.591	4402
900.711	4500
900.83	4447
900.95	4599
901.069	4721
901.189	4519
901.308	4344
901.427	4325
901.546	4421
901.665	4440
901.784	4523
901.904	4344
902.023	4303
902.141	4181
902.26	4177
902.379	4310
902.498	4234
902.617	4223
902.735	4344
902.854	4383
902.973	4344
903.091	4234
903.21	4234
903.328	4257
903.446	4257
903.565	4249
903.683	4394
903.801	4268
903.919	4424
904.038	4409
904.156	4291
904.274	4459
904.392	4417
904.51	4386
904.627	4417
904.745	4565
904.863	4622
904.981	4421
905.098	4284
905.216	4348
905.334	4417
905.451	4424
905.569	4443
905.686	4569
905.803	4542
905.921	4402
906.038	4558
906.155	4481
906.272	4394
906.389	4424
906.506	4352
906.623	4417
906.74	4390
906.857	4344
906.974	4371
907.091	4577
907.208	4668
907.324	4531
907.441	4489
907.557	4325
907.674	4356
907.79	4325
907.907	4386
908.023	4436
908.139	4459
908.256	4417
908.372	4466
908.488	4462
908.604	4375
908.72	4322
908.836	4371
908.952	4386
909.068	4440
909.184	4569
909.3	4489
909.415	4580
909.531	4580
909.647	4402
909.762	4367
909.878	4344
909.993	4398
910.108	4428
910.224	4417
910.339	4447
910.454	4424
910.57	4379
910.685	4284
910.8	4637
910.915	4622
911.03	4485
911.145	4325
911.259	4341
911.374	4352
911.489	4280
911.604	4314
911.718	4162
911.833	4211
911.947	4105
912.062	4029
912.176	4196
912.291	4261
912.405	4211
912.519	4455
912.633	4489
912.748	4367
912.862	4295
912.976	4166
913.09	4059
913.204	4173
913.318	4242
913.431	4375
913.545	4375
913.659	4443
913.772	4371
913.886	4230
914	4219
914.113	4363
914.226	4459
914.34	4383
914.453	4234
914.566	4466
914.68	4310
914.793	4360
914.906	4139
915.019	4139
915.132	4071
915.245	4162
915.358	4204
915.47	4230
915.583	4246
915.696	4287
915.809	4398
915.921	4417
916.034	4211
916.146	4238
916.259	4207
916.371	4352
916.483	4344
916.595	4227
916.708	4306
916.82	4341
916.932	4337
917.044	4318
917.156	4337
917.268	4166
917.38	4234
917.491	4287
917.603	4318
917.715	4428
917.826	4440
917.938	4325
918.049	4261
918.161	4337
918.272	4592
918.384	4538
918.495	4424
918.606	4272
918.717	4249
918.828	4344
918.939	4379
919.05	4219
919.161	4284
919.272	4124
919.383	4238
919.494	4436
919.604	4672
919.715	4394
919.826	4341
919.936	4398
920.047	4561
920.157	4497
920.267	4725
920.378	4546
920.488	4512
920.598	4691
920.708	4850
920.818	4740
920.928	4744
921.038	4953
921.148	4911
921.258	4603
921.368	4588
921.477	4508
921.587	4504
921.697	4383
921.806	4561
921.916	4402
922.025	4268
922.134	4272
922.244	4227
922.353	4344
922.462	4185
922.571	4090
922.68	4025
922.789	4002
922.898	4032
923.007	3945
923.116	4135
923.224	4051
923.333	4078
923.442	3945
923.55	3968
923.659	3979
923.767	4063
923.876	3972
923.984	4128
924.092	3979
924.201	4040
924.309	4071
924.417	4082
924.525	4071
924.633	4101
924.741	4889
924.849	3899
924.956	4120
925.064	3949
925.172	3892
925.279	3956
925.387	4067
925.494	4071
925.602	4181
925.709	4188
925.816	4059
925.924	4139
926.031	4249
926.138	4196
926.245	4211
926.352	4101
926.459	4211
926.566	4303
926.673	4150
926.779	4055
926.886	4051
926.993	3975
927.099	3975
927.206	3953
927.312	3880
927.419	4025
927.525	4048
927.631	4078
927.737	3937
927.843	3934
927.95	3850
928.056	3918
928.162	3983
928.267	4017
928.373	4554
928.479	4078
928.585	3850
928.69	4051
928.796	4086
928.901	3915
929.007	3892
929.112	4006
929.218	3956
929.323	3956
929.428	3949
929.533	4101
929.638	3915
929.743	3998
929.848	4055
929.953	4017
930.058	3949
930.163	3755
930.267	3831
930.372	3915
930.477	3808
930.581	4090
930.685	3930
930.79	3800
930.894	3892
930.998	3892
931.103	4029
931.207	3755
931.311	3705
931.415	3671
931.519	3523
931.623	3534
