Data from test_V78500241_1260.txt Node
Date: Fri Mar 25 16:57:45 CST 2022
User: usil
Spectrometer: V785-0024
Trigger mode: 0
Integration Time (sec): 4.000000E-1
Scans to average: 1
Nonlinearity correction enabled: false
Boxcar width: 0
Storing dark spectrum: false
XAxis mode: Wavelengths
Number of Pixels in Spectrum: 1024
>>>>>Begin Spectral Data<<<<<
801.071	7989
801.214	8016
801.356	7852
801.499	7833
801.641	7780
801.783	7833
801.926	7909
802.068	8016
802.211	7982
802.353	7970
802.496	7898
802.638	7837
802.78	7913
802.923	7928
803.065	7887
803.208	7833
803.35	7970
803.492	8062
803.635	8134
803.777	8005
803.919	8126
804.061	8480
804.204	8145
804.346	8058
804.488	7936
804.63	8149
804.773	8054
804.915	8172
805.057	8324
805.199	8123
805.341	8233
805.483	8221
805.626	8237
805.768	8172
805.91	8259
806.052	8183
806.194	8138
806.336	8206
806.478	8008
806.62	8062
806.762	8176
806.904	8298
807.046	8393
807.188	8271
807.33	8328
807.472	8366
807.614	8191
807.756	8062
807.898	8027
808.04	7898
808.182	7902
808.324	7913
808.465	7871
808.607	8088
808.749	8172
808.891	8195
809.033	8252
809.174	8187
809.316	8050
809.458	8027
809.6	8012
809.741	7944
809.883	7986
810.025	8088
810.166	8115
810.308	7993
810.45	8001
810.591	7887
810.733	7685
810.875	7616
811.016	7548
811.158	7464
811.299	7578
811.441	7731
811.582	7670
811.724	7609
811.865	7521
812.007	7510
812.148	7609
812.29	7715
812.431	7723
812.573	7879
812.714	8031
812.855	8016
812.997	8172
813.138	8377
813.279	8187
813.421	8103
813.562	7982
813.703	7833
813.845	7723
813.986	7460
814.127	7194
814.268	7156
814.41	7190
814.551	7095
814.692	7179
814.833	7042
814.974	7091
815.115	7122
815.256	6932
815.397	6871
815.539	6875
815.68	6810
815.821	6768
815.962	6806
816.103	6859
816.244	6753
816.385	6620
816.526	6570
816.666	6475
816.807	6315
816.948	6448
817.089	6467
817.23	6399
817.371	6338
817.512	6433
817.653	6342
817.793	6331
817.934	6414
818.075	6494
818.216	6399
818.356	6384
818.497	6243
818.638	6072
818.778	6190
818.919	6152
819.06	6106
819.2	6315
819.341	6319
819.481	6338
819.622	6475
819.762	6703
819.903	6669
820.043	6544
820.184	6559
820.324	6540
820.465	6722
820.605	6688
820.746	6627
820.886	6494
821.026	6650
821.167	6673
821.307	6745
821.447	6711
821.588	6642
821.728	6532
821.868	6506
822.008	6308
822.149	6319
822.289	6311
822.429	6171
822.569	6136
822.709	6098
822.849	5885
822.99	5878
823.13	5870
823.27	5916
823.41	5836
823.55	5805
823.69	5745
823.83	5726
823.97	5680
824.11	5493
824.25	5532
824.389	5524
824.529	5539
824.669	5528
824.809	5585
824.949	5688
825.089	5611
825.228	5482
825.368	5372
825.508	5311
825.648	5330
825.787	5353
825.927	5402
826.067	5235
826.206	5288
826.346	5364
826.485	5360
826.625	5387
826.765	5486
826.904	5482
827.044	5223
827.183	5174
827.323	5140
827.462	5223
827.601	5201
827.741	5147
827.88	5239
828.02	5136
828.159	5231
828.298	5303
828.437	5318
828.577	5315
828.716	5467
828.855	5299
828.994	5155
829.134	5105
829.273	5208
829.412	5060
829.551	5098
829.69	5162
829.829	5254
829.968	5349
830.107	5231
830.246	5326
830.385	5155
830.524	5140
830.663	5048
830.802	4957
830.941	4881
831.08	4862
831.219	5022
831.357	4930
831.496	5121
831.635	4900
831.774	4816
831.913	4850
832.051	4721
832.19	4763
832.329	4797
832.467	4679
832.606	4607
832.744	4740
832.883	4706
833.022	4683
833.16	4812
833.299	4790
833.437	4790
833.576	4839
833.714	4835
833.852	4862
833.991	4873
834.129	4980
834.267	4938
834.406	4919
834.544	4961
834.682	4991
834.821	4957
834.959	5102
835.097	5018
835.235	5132
835.373	5071
835.511	5022
835.65	4995
835.788	5033
835.926	4900
836.064	4862
836.202	4896
836.34	5121
836.478	5201
836.615	5075
836.753	5197
836.891	5284
837.029	5265
837.167	5151
837.305	5136
837.443	5140
837.58	5071
837.718	5239
837.856	5178
837.993	5117
838.131	5212
838.269	5178
838.406	5178
838.544	5162
838.681	5003
838.819	5014
838.956	4896
839.094	4915
839.231	5025
839.369	5006
839.506	5398
839.643	5239
839.781	5006
839.918	4961
840.055	5083
840.193	5075
840.33	5086
840.467	5117
840.604	5181
840.742	5402
840.879	5102
841.016	5083
841.153	5181
841.29	5330
841.427	5299
841.564	5360
841.701	5334
841.838	5273
841.975	5208
842.112	5242
842.249	5140
842.385	5086
842.522	5311
842.659	5174
842.796	5174
842.933	5185
843.069	5181
843.206	5098
843.343	5288
843.479	5204
843.616	5280
843.752	5037
843.889	5056
844.025	5197
844.162	5006
844.298	5151
844.435	5067
844.571	4987
844.708	5193
844.844	5258
844.98	5334
845.117	5311
845.253	5094
845.389	5075
845.525	5170
845.661	5121
845.798	4980
845.934	5124
846.07	4999
846.206	5197
846.342	5303
846.478	5170
846.614	5003
846.75	4946
846.886	4946
847.022	5105
847.158	5003
847.294	5045
847.429	5143
847.565	5041
847.701	5273
847.837	4835
847.972	4778
848.108	4965
848.244	4934
848.379	4801
848.515	4767
848.65	4660
848.786	4740
848.921	4801
849.057	4816
849.192	4923
849.328	4812
849.463	4816
849.598	4797
849.734	4763
849.869	4660
850.004	4603
850.14	4607
850.275	4615
850.41	4584
850.545	4569
850.68	4569
850.815	4618
850.95	4607
851.085	4870
851.22	4725
851.355	4668
851.49	4641
851.625	4603
851.76	4645
851.895	4512
852.03	4500
852.165	4656
852.299	4714
852.434	4767
852.569	4717
852.703	4744
852.838	4828
852.973	4896
853.107	4911
853.242	4759
853.376	4664
853.511	4588
853.645	4577
853.78	4714
853.914	4611
854.048	4668
854.183	4626
854.317	4691
854.451	4873
854.585	4637
854.72	4691
854.854	4736
854.988	4622
855.122	4645
855.256	4538
855.39	4615
855.524	4736
855.658	4698
855.792	4653
855.926	4645
856.06	4702
856.194	4820
856.327	4687
856.461	4599
856.595	4531
856.729	4630
856.862	4733
856.996	4656
857.13	4656
857.263	4744
857.397	4774
857.53	4603
857.664	4691
857.797	4744
857.931	4744
858.064	4698
858.197	4736
858.331	4641
858.464	4611
858.597	4485
858.731	4637
858.864	4630
858.997	4550
859.13	4675
859.263	4698
859.396	4706
859.529	4626
859.662	4474
859.795	4538
859.928	4656
860.061	4725
860.194	4782
860.327	4607
860.46	4538
860.592	4664
860.725	4706
860.858	4714
860.99	4626
861.123	4512
861.256	4516
861.388	4622
861.521	5292
861.653	4497
861.786	4436
861.918	4478
862.05	4485
862.183	4527
862.315	4577
862.447	4653
862.58	4531
862.712	4390
862.844	4337
862.976	4455
863.108	4455
863.24	4847
863.372	4287
863.504	4375
863.636	4360
863.768	4489
863.9	4402
864.032	4333
864.164	4348
864.296	4462
864.428	4542
864.559	4538
864.691	4481
864.823	4500
864.954	4500
865.086	4493
865.217	4493
865.349	4371
865.48	4451
865.612	4466
865.743	4603
865.875	4447
866.006	4386
866.137	4478
866.269	4440
866.4	4398
866.531	4409
866.662	4386
866.793	4459
866.924	4432
867.055	4493
867.186	4417
867.317	4455
867.448	4421
867.579	4375
867.71	4386
867.841	4379
867.972	4455
868.103	4424
868.233	4478
868.364	4436
868.495	4462
868.625	4634
868.756	4744
868.886	4573
869.017	4565
869.147	4714
869.278	4790
869.408	4656
869.539	4588
869.669	4721
869.799	4626
869.929	4748
870.06	4733
870.19	4911
870.32	4877
870.45	4904
870.58	4999
870.71	5090
870.84	5071
870.97	4949
871.1	4866
871.23	5113
871.36	5124
871.489	5052
871.619	5048
871.749	5094
871.879	5136
872.008	5079
872.138	4984
872.267	5025
872.397	4850
872.526	4805
872.656	4736
872.785	4774
872.915	4946
873.044	5048
873.173	4915
873.303	4968
873.432	4923
873.561	4968
873.69	4885
873.819	4755
873.948	4885
874.077	4816
874.206	4793
874.335	4828
874.464	4889
874.593	5022
874.722	4919
874.851	5037
874.979	5048
875.108	5033
875.237	4900
875.365	4919
875.494	4866
875.623	4942
875.751	4854
875.88	4862
876.008	5045
876.136	5018
876.265	5185
876.393	5299
876.521	5242
876.65	5223
876.778	5151
876.906	5060
877.034	5045
877.162	5033
877.29	4965
877.418	5056
877.546	5037
877.674	5052
877.802	5022
877.93	4987
878.058	4904
878.185	4835
878.313	5010
878.441	4919
878.568	4793
878.696	4877
878.824	4957
878.951	4942
879.079	5109
879.206	5265
879.333	5064
879.461	4927
879.588	4927
879.715	5086
879.842	5212
879.97	5006
880.097	4824
880.224	4748
880.351	4793
880.478	4820
880.605	4790
880.732	4740
880.859	5025
880.986	4892
881.112	4870
881.239	4752
881.366	4637
881.493	4588
881.619	4607
881.746	4607
881.872	4596
881.999	4637
882.125	4721
882.252	4714
882.378	4805
882.505	4930
882.631	4797
882.757	4694
882.883	4702
883.01	4725
883.136	4683
883.262	4599
883.388	4630
883.514	4801
883.64	4828
883.766	4786
883.892	4634
884.018	4691
884.143	4877
884.269	4984
884.395	4664
884.52	4615
884.646	4637
884.772	4569
884.897	4603
885.023	4672
885.148	4763
885.274	4847
885.399	4771
885.524	4694
885.65	4714
885.775	4752
885.9	4687
886.025	4809
886.15	4752
886.275	4736
886.4	4656
886.525	4656
886.65	4679
886.775	4714
886.9	4877
887.025	5086
887.149	4782
887.274	4702
887.399	4546
887.523	4637
887.648	4538
887.773	4599
887.897	4778
888.021	4706
888.146	4656
888.27	4820
888.395	4904
888.519	4744
888.643	4782
888.767	4793
888.891	4615
889.015	4565
889.139	4675
889.263	4577
889.387	4767
889.511	4809
889.635	4774
889.759	4592
889.883	4622
890.006	4725
890.13	4786
890.254	4550
890.377	4645
890.501	4519
890.624	4500
890.748	4626
890.871	4459
890.995	4428
891.118	4371
891.241	4531
891.364	4577
891.488	4584
891.611	4489
891.734	4546
891.857	4592
891.98	4558
892.103	4683
892.226	4561
892.349	4535
892.471	4398
892.594	4523
892.717	4580
892.839	4565
892.962	4577
893.085	4592
893.207	4588
893.33	4474
893.452	4527
893.575	4694
893.697	4603
893.819	4801
893.941	4797
894.064	4733
894.186	4561
894.308	4561
894.43	4698
894.552	4820
894.674	4740
894.796	4538
894.918	4538
895.04	4599
895.161	4698
895.283	4683
895.405	4558
895.526	4607
895.648	4694
895.769	4656
895.891	4653
896.012	4656
896.134	4691
896.255	4725
896.376	4637
896.498	4561
896.619	4679
896.74	4626
896.861	4637
896.982	4911
897.103	5029
897.224	4835
897.345	4729
897.466	4672
897.587	4725
897.708	4820
897.828	4759
897.949	4622
898.07	4535
898.19	4641
898.311	4809
898.431	4596
898.552	4752
898.672	4786
898.792	4824
898.913	4725
899.033	4588
899.153	4470
899.273	4432
899.393	4485
899.513	4531
899.633	4550
899.753	4577
899.873	4493
899.993	4550
900.113	4470
900.232	4569
900.352	4504
900.472	4474
900.591	4417
900.711	4504
900.83	4428
900.95	4630
901.069	4649
901.189	4527
901.308	4295
901.427	4295
901.546	4379
901.665	4466
901.784	4519
901.904	4413
902.023	4322
902.141	4169
902.26	4188
902.379	4287
902.498	4268
902.617	4219
902.735	4348
902.854	4405
902.973	4367
903.091	4204
903.21	4185
903.328	4329
903.446	4238
903.565	4200
903.683	4363
903.801	4249
903.919	4371
904.038	4455
904.156	4310
904.274	4424
904.392	4436
904.51	4379
904.627	4455
904.745	4573
904.863	4634
904.981	4356
905.098	4329
905.216	4367
905.334	4386
905.451	4474
905.569	4409
905.686	4508
905.803	4580
905.921	4409
906.038	4546
906.155	4489
906.272	4383
906.389	4485
906.506	4322
906.623	4329
906.74	4375
906.857	4314
906.974	4379
907.091	4516
907.208	4649
907.324	4599
907.441	4436
907.557	4398
907.674	4375
907.79	4318
907.907	4360
908.023	4485
908.139	4443
908.256	4432
908.372	4489
908.488	4447
908.604	4356
908.72	4314
908.836	4383
908.952	4352
909.068	4402
909.184	4554
909.3	4474
909.415	4580
909.531	4577
909.647	4314
909.762	4360
909.878	4344
909.993	4451
910.108	4379
910.224	4413
910.339	4455
910.454	4432
910.57	4367
910.685	4318
910.8	4649
910.915	4588
911.03	4436
911.145	4344
911.259	4329
911.374	4379
911.489	4333
911.604	4261
911.718	4162
911.833	4223
911.947	4055
912.062	4048
912.176	4192
912.291	4215
912.405	4192
912.519	4474
912.633	4504
912.748	4363
912.862	4287
912.976	4162
913.09	4097
913.204	4143
913.318	4246
913.431	4367
913.545	4325
913.659	4443
913.772	4360
913.886	4204
914	4215
914.113	4333
914.226	4428
914.34	4432
914.453	4219
914.566	4398
914.68	4299
914.793	4318
914.906	4131
915.019	4116
915.132	4097
915.245	4116
915.358	4238
915.47	4227
915.583	4223
915.696	4257
915.809	4375
915.921	4405
916.034	4219
916.146	4249
916.259	4173
916.371	4379
916.483	4299
916.595	4230
916.708	4303
916.82	4325
916.932	4291
917.044	4295
917.156	4360
917.268	4204
917.38	4238
917.491	4287
917.603	4299
917.715	4421
917.826	4371
917.938	4337
918.049	4234
918.161	4371
918.272	4535
918.384	4546
918.495	4402
918.606	4295
918.717	4223
918.828	4325
918.939	4390
919.05	4207
919.161	4322
919.272	4071
919.383	4249
919.494	4432
919.604	4611
919.715	4428
919.826	4322
919.936	4379
920.047	4527
920.157	4504
920.267	4675
920.378	4535
920.488	4493
920.598	4710
920.708	4877
920.818	4721
920.928	4755
921.038	4927
921.148	4900
921.258	4630
921.368	4546
921.477	4489
921.587	4455
921.697	4363
921.806	4516
921.916	4405
922.025	4253
922.134	4223
922.244	4246
922.353	4284
922.462	4154
922.571	4120
922.68	3983
922.789	4013
922.898	4032
923.007	3968
923.116	4074
923.224	4097
923.333	4055
923.442	3968
923.55	4021
923.659	4021
923.767	4078
923.876	4032
923.984	4101
924.092	3975
924.201	4078
924.309	4078
924.417	4086
924.525	4093
924.633	4101
924.741	5025
924.849	3949
924.956	4120
925.064	3975
925.172	3892
925.279	3937
925.387	4013
925.494	4063
925.602	4242
925.709	4192
925.816	4067
925.924	4131
926.031	4230
926.138	4162
926.245	4207
926.352	4101
926.459	4246
926.566	4295
926.673	4097
926.779	4044
926.886	4059
926.993	3979
927.099	3979
927.206	3896
927.312	3941
927.419	4063
927.525	4032
927.631	4105
927.737	3945
927.843	3941
927.95	3835
928.056	3979
928.162	3991
928.267	4059
928.373	4698
928.479	4101
928.585	3888
928.69	4013
928.796	4051
928.901	3983
929.007	3816
929.112	3994
929.218	3926
929.323	3956
929.428	3918
929.533	4139
929.638	3934
929.743	3979
929.848	4040
929.953	4013
930.058	3899
930.163	3762
930.267	3838
930.372	3972
930.477	3804
930.581	4093
930.685	3956
930.79	3842
930.894	3892
930.998	3838
931.103	4013
931.207	3667
931.311	3701
931.415	3675
931.519	3523
931.623	3534
