Data from test_V78500241_2122.txt Node
Date: Fri Mar 25 17:03:45 CST 2022
User: usil
Spectrometer: V785-0024
Trigger mode: 0
Integration Time (sec): 4.000000E-1
Scans to average: 1
Nonlinearity correction enabled: false
Boxcar width: 0
Storing dark spectrum: false
XAxis mode: Wavelengths
Number of Pixels in Spectrum: 1024
>>>>>Begin Spectral Data<<<<<
801.071	8001
801.214	7989
801.356	7864
801.499	7871
801.641	7871
801.783	7807
801.926	7932
802.068	7879
802.211	7967
802.353	7989
802.496	7894
802.638	7871
802.78	7837
802.923	7860
803.065	7845
803.208	7860
803.35	7959
803.492	8073
803.635	8233
803.777	8001
803.919	8130
804.061	8503
804.204	8180
804.346	8073
804.488	7936
804.63	8062
804.773	8012
804.915	8168
805.057	8286
805.199	8210
805.341	8267
805.483	8221
805.626	8168
805.768	8134
805.91	8199
806.052	8248
806.194	8130
806.336	8320
806.478	8096
806.62	8130
806.762	8069
806.904	8339
807.046	8511
807.188	8298
807.33	8301
807.472	8279
807.614	8149
807.756	8126
807.898	7936
808.04	7925
808.182	7883
808.324	7936
808.465	7883
808.607	8039
808.749	8046
808.891	8149
809.033	8244
809.174	8229
809.316	8065
809.458	8069
809.6	8035
809.741	8119
809.883	8016
810.025	8096
810.166	8073
810.308	8024
810.45	7963
810.591	7818
810.733	7742
810.875	7689
811.016	7495
811.158	7441
811.299	7563
811.441	7700
811.582	7594
811.724	7578
811.865	7582
812.007	7620
812.148	7567
812.29	7639
812.431	7776
812.573	7868
812.714	8005
812.855	8062
812.997	8233
813.138	8343
813.279	8153
813.421	8046
813.562	7913
813.703	7780
813.845	7700
813.986	7407
814.127	7198
814.268	7213
814.41	7171
814.551	7194
814.692	7240
814.833	7076
814.974	7129
815.115	7118
815.256	6958
815.397	6886
815.539	6951
815.68	6791
815.821	6779
815.962	6856
816.103	6757
816.244	6692
816.385	6627
816.526	6684
816.666	6426
816.807	6270
816.948	6384
817.089	6414
817.23	6460
817.371	6384
817.512	6372
817.653	6388
817.793	6323
817.934	6395
818.075	6456
818.216	6486
818.356	6403
818.497	6258
818.638	6072
818.778	6114
818.919	6133
819.06	6159
819.2	6235
819.341	6331
819.481	6391
819.622	6532
819.762	6745
819.903	6665
820.043	6498
820.184	6555
820.324	6589
820.465	6662
820.605	6623
820.746	6574
820.886	6433
821.026	6623
821.167	6738
821.307	6795
821.447	6776
821.588	6688
821.728	6506
821.868	6441
822.008	6311
822.149	6353
822.289	6308
822.429	6087
822.569	6053
822.709	6136
822.849	5889
822.99	5939
823.13	5904
823.27	5961
823.41	5832
823.55	5790
823.69	5729
823.83	5821
823.97	5646
824.11	5509
824.25	5512
824.389	5520
824.529	5547
824.669	5509
824.809	5573
824.949	5680
825.089	5600
825.228	5570
825.368	5402
825.508	5341
825.648	5353
825.787	5395
825.927	5345
826.067	5307
826.206	5265
826.346	5376
826.485	5410
826.625	5387
826.765	5554
826.904	5459
827.044	5231
827.183	5178
827.323	5060
827.462	5193
827.601	5201
827.741	5193
827.88	5227
828.02	5086
828.159	5208
828.298	5246
828.437	5322
828.577	5235
828.716	5452
828.855	5288
828.994	5166
829.134	5113
829.273	5155
829.412	5193
829.551	5151
829.69	5162
829.829	5231
829.968	5299
830.107	5261
830.246	5269
830.385	5181
830.524	5178
830.663	5052
830.802	4980
830.941	4911
831.08	4866
831.219	4987
831.357	4965
831.496	5102
831.635	4938
831.774	4816
831.913	4843
832.051	4717
832.19	4752
832.329	4889
832.467	4679
832.606	4641
832.744	4729
832.883	4679
833.022	4702
833.16	4812
833.299	4786
833.437	4870
833.576	4839
833.714	4858
833.852	4889
833.991	4854
834.129	4927
834.267	4930
834.406	4946
834.544	4991
834.682	4946
834.821	4987
834.959	5170
835.097	4980
835.235	5132
835.373	5113
835.511	5083
835.65	5010
835.788	5025
835.926	4904
836.064	4870
836.202	4934
836.34	5159
836.478	5216
836.615	5155
836.753	5151
836.891	5303
837.029	5254
837.167	5155
837.305	5124
837.443	5166
837.58	5102
837.718	5227
837.856	5109
837.993	5143
838.131	5261
838.269	5216
838.406	5223
838.544	5178
838.681	5037
838.819	4976
838.956	4881
839.094	4850
839.231	4987
839.369	5083
839.506	5414
839.643	5239
839.781	5060
839.918	4999
840.055	5079
840.193	5102
840.33	5105
840.467	5071
840.604	5124
840.742	5425
840.879	5029
841.016	5102
841.153	5147
841.29	5376
841.427	5318
841.564	5326
841.701	5326
841.838	5261
841.975	5216
842.112	5277
842.249	5113
842.385	5105
842.522	5311
842.659	5208
842.796	5121
842.933	5246
843.069	5128
843.206	5155
843.343	5284
843.479	5250
843.616	5273
843.752	5022
843.889	4953
844.025	5208
844.162	5029
844.298	5197
844.435	5014
844.571	5003
844.708	5212
844.844	5254
844.98	5311
845.117	5311
845.253	5132
845.389	5094
845.525	5159
845.661	5105
845.798	5056
845.934	5136
846.07	5045
846.206	5147
846.342	5250
846.478	5220
846.614	4995
846.75	4930
846.886	4938
847.022	5102
847.158	5018
847.294	5083
847.429	5124
847.565	5060
847.701	5277
847.837	4850
847.972	4748
848.108	4953
848.244	4877
848.379	4778
848.515	4786
848.65	4748
848.786	4763
848.921	4717
849.057	4866
849.192	4892
849.328	4820
849.463	4877
849.598	4809
849.734	4748
849.869	4706
850.004	4630
850.14	4679
850.275	4580
850.41	4470
850.545	4554
850.68	4611
850.815	4637
850.95	4630
851.085	4824
851.22	4729
851.355	4687
851.49	4607
851.625	4584
851.76	4603
851.895	4565
852.03	4565
852.165	4641
852.299	4729
852.434	4820
852.569	4668
852.703	4744
852.838	4782
852.973	4889
853.107	4900
853.242	4710
853.376	4664
853.511	4519
853.645	4599
853.78	4786
853.914	4687
854.048	4660
854.183	4596
854.317	4664
854.451	4820
854.585	4649
854.72	4637
854.854	4725
854.988	4584
855.122	4672
855.256	4504
855.39	4687
855.524	4782
855.658	4694
855.792	4694
855.926	4721
856.06	4786
856.194	4835
856.327	4675
856.461	4599
856.595	4611
856.729	4656
856.862	4759
856.996	4744
857.13	4656
857.263	4755
857.397	4797
857.53	4637
857.664	4744
857.797	4748
857.931	4752
858.064	4702
858.197	4759
858.331	4656
858.464	4641
858.597	4489
858.731	4580
858.864	4588
858.997	4641
859.13	4649
859.263	4641
859.396	4679
859.529	4611
859.662	4573
859.795	4535
859.928	4573
860.061	4767
860.194	4778
860.327	4558
860.46	4512
860.592	4714
860.725	4717
860.858	4740
860.99	4626
861.123	4516
861.256	4577
861.388	4573
861.521	5398
861.653	4462
861.786	4394
861.918	4402
862.05	4523
862.183	4554
862.315	4569
862.447	4607
862.58	4527
862.712	4409
862.844	4303
862.976	4443
863.108	4459
863.24	4744
863.372	4291
863.504	4417
863.636	4436
863.768	4432
863.9	4390
864.032	4371
864.164	4379
864.296	4436
864.428	4508
864.559	4577
864.691	4519
864.823	4462
864.954	4481
865.086	4546
865.217	4413
865.349	4356
865.48	4424
865.612	4531
865.743	4637
865.875	4459
866.006	4409
866.137	4432
866.269	4417
866.4	4432
866.531	4409
866.662	4390
866.793	4398
866.924	4421
867.055	4504
867.186	4455
867.317	4428
867.448	4402
867.579	4325
867.71	4379
867.841	4379
867.972	4474
868.103	4443
868.233	4451
868.364	4455
868.495	4474
868.625	4660
868.756	4797
868.886	4527
869.017	4611
869.147	4710
869.278	4801
869.408	4626
869.539	4626
869.669	4729
869.799	4691
869.929	4721
870.06	4748
870.19	4961
870.32	4915
870.45	4934
870.58	4999
870.71	5067
870.84	5132
870.97	4946
871.1	4854
871.23	5147
871.36	5136
871.489	5075
871.619	5010
871.749	5094
871.879	5136
872.008	5170
872.138	5014
872.267	4995
872.397	4858
872.526	4797
872.656	4679
872.785	4820
872.915	4991
873.044	5029
873.173	4934
873.303	4919
873.432	4930
873.561	4908
873.69	4850
873.819	4881
873.948	4896
874.077	4774
874.206	4736
874.335	4763
874.464	4915
874.593	5060
874.722	4942
874.851	5090
874.979	5052
875.108	5037
875.237	4885
875.365	4885
875.494	4892
875.623	4946
875.751	4805
875.88	4862
876.008	4946
876.136	5090
876.265	5220
876.393	5315
876.521	5258
876.65	5265
876.778	5155
876.906	5090
877.034	5003
877.162	5041
877.29	4965
877.418	4991
877.546	5041
877.674	5022
877.802	5022
877.93	4927
878.058	4923
878.185	4850
878.313	4957
878.441	4965
878.568	4767
878.696	4839
878.824	4927
878.951	4953
879.079	5102
879.206	5269
879.333	5147
879.461	5006
879.588	5033
879.715	5136
879.842	5197
879.97	4961
880.097	4835
880.224	4774
880.351	4847
880.478	4824
880.605	4843
880.732	4790
880.859	5086
880.986	4873
881.112	4908
881.239	4786
881.366	4653
881.493	4603
881.619	4592
881.746	4573
881.872	4630
881.999	4656
882.125	4656
882.252	4725
882.378	4809
882.505	4911
882.631	4763
882.757	4634
882.883	4736
883.01	4706
883.136	4618
883.262	4611
883.388	4584
883.514	4778
883.64	4824
883.766	4736
883.892	4660
884.018	4736
884.143	4835
884.269	4980
884.395	4710
884.52	4607
884.646	4660
884.772	4580
884.897	4554
885.023	4653
885.148	4786
885.274	4866
885.399	4748
885.524	4744
885.65	4668
885.775	4755
885.9	4763
886.025	4843
886.15	4812
886.275	4710
886.4	4637
886.525	4675
886.65	4694
886.775	4687
886.9	4896
887.025	5071
887.149	4831
887.274	4630
887.399	4596
887.523	4580
887.648	4603
887.773	4611
887.897	4702
888.021	4790
888.146	4649
888.27	4820
888.395	4892
888.519	4782
888.643	4835
888.767	4870
888.891	4702
889.015	4596
889.139	4668
889.263	4611
889.387	4752
889.511	4820
889.635	4793
889.759	4626
889.883	4660
890.006	4725
890.13	4801
890.254	4607
890.377	4618
890.501	4565
890.624	4535
890.748	4702
890.871	4519
890.995	4436
891.118	4405
891.241	4538
891.364	4550
891.488	4630
891.611	4550
891.734	4607
891.857	4687
891.98	4580
892.103	4668
892.226	4584
892.349	4538
892.471	4497
892.594	4592
892.717	4664
892.839	4653
892.962	4645
893.085	4733
893.207	4634
893.33	4455
893.452	4569
893.575	4721
893.697	4599
893.819	4843
893.941	4896
894.064	4816
894.186	4577
894.308	4653
894.43	4755
894.552	4862
894.674	4778
894.796	4577
894.918	4596
895.04	4599
895.161	4683
895.283	4706
895.405	4577
895.526	4615
895.648	4706
895.769	4736
895.891	4782
896.012	4767
896.134	4755
896.255	4694
896.376	4675
896.498	4645
896.619	4702
896.74	4637
896.861	4698
896.982	4953
897.103	5098
897.224	4854
897.345	4763
897.466	4698
897.587	4744
897.708	4885
897.828	4797
897.949	4706
898.07	4637
898.19	4706
898.311	4809
898.431	4683
898.552	4774
898.672	4812
898.792	4816
898.913	4725
899.033	4637
899.153	4558
899.273	4489
899.393	4546
899.513	4554
899.633	4546
899.753	4569
899.873	4546
899.993	4626
900.113	4588
900.232	4603
900.352	4573
900.472	4489
900.591	4428
900.711	4504
900.83	4481
900.95	4649
901.069	4748
901.189	4538
901.308	4390
901.427	4303
901.546	4405
901.665	4481
901.784	4531
901.904	4417
902.023	4394
902.141	4215
902.26	4196
902.379	4341
902.498	4276
902.617	4257
902.735	4390
902.854	4443
902.973	4398
903.091	4230
903.21	4257
903.328	4348
903.446	4303
903.565	4295
903.683	4413
903.801	4299
903.919	4417
904.038	4462
904.156	4360
904.274	4447
904.392	4386
904.51	4436
904.627	4485
904.745	4615
904.863	4634
904.981	4447
905.098	4325
905.216	4394
905.334	4440
905.451	4455
905.569	4459
905.686	4603
905.803	4535
905.921	4481
906.038	4550
906.155	4523
906.272	4424
906.389	4504
906.506	4402
906.623	4409
906.74	4402
906.857	4287
906.974	4405
907.091	4599
907.208	4694
907.324	4645
907.441	4516
907.557	4394
907.674	4322
907.79	4360
907.907	4428
908.023	4489
908.139	4481
908.256	4451
908.372	4485
908.488	4474
908.604	4386
908.72	4356
908.836	4409
908.952	4424
909.068	4489
909.184	4580
909.3	4455
909.415	4607
909.531	4584
909.647	4413
909.762	4398
909.878	4402
909.993	4455
910.108	4489
910.224	4417
910.339	4508
910.454	4440
910.57	4390
910.685	4344
910.8	4672
910.915	4641
911.03	4500
911.145	4360
911.259	4379
911.374	4386
911.489	4299
911.604	4322
911.718	4227
911.833	4227
911.947	4147
912.062	4036
912.176	4246
912.291	4284
912.405	4257
912.519	4508
912.633	4527
912.748	4409
912.862	4325
912.976	4299
913.09	4120
913.204	4207
913.318	4265
913.431	4413
913.545	4409
913.659	4474
913.772	4375
913.886	4287
914	4246
914.113	4417
914.226	4485
914.34	4421
914.453	4261
914.566	4474
914.68	4329
914.793	4360
914.906	4215
915.019	4143
915.132	4143
915.245	4211
915.358	4249
915.47	4249
915.583	4318
915.696	4291
915.809	4413
915.921	4462
916.034	4299
916.146	4268
916.259	4246
916.371	4390
916.483	4417
916.595	4234
916.708	4394
916.82	4341
916.932	4344
917.044	4398
917.156	4405
917.268	4230
917.38	4322
917.491	4268
917.603	4367
917.715	4451
917.826	4489
917.938	4394
918.049	4314
918.161	4428
918.272	4588
918.384	4561
918.495	4481
918.606	4314
918.717	4261
918.828	4367
918.939	4371
919.05	4242
919.161	4325
919.272	4181
919.383	4284
919.494	4485
919.604	4592
919.715	4451
919.826	4383
919.936	4440
920.047	4531
920.157	4504
920.267	4740
920.378	4538
920.488	4550
920.598	4717
920.708	4911
920.818	4752
920.928	4812
921.038	4953
921.148	4949
921.258	4653
921.368	4561
921.477	4561
921.587	4489
921.697	4375
921.806	4550
921.916	4493
922.025	4299
922.134	4314
922.244	4276
922.353	4284
922.462	4188
922.571	4154
922.68	4006
922.789	3987
922.898	4055
923.007	3987
923.116	4173
923.224	4105
923.333	4059
923.442	3998
923.55	3964
923.659	4059
923.767	4112
923.876	4010
923.984	4158
924.092	3994
924.201	4116
924.309	4116
924.417	4158
924.525	4048
924.633	4131
924.741	5014
924.849	3918
924.956	4109
925.064	3956
925.172	3915
925.279	3975
925.387	4055
925.494	4067
925.602	4242
925.709	4215
925.816	4051
925.924	4150
926.031	4246
926.138	4223
926.245	4223
926.352	4109
926.459	4211
926.566	4295
926.673	4154
926.779	4120
926.886	4082
926.993	3991
927.099	3983
927.206	3922
927.312	3960
927.419	4032
927.525	4029
927.631	4112
927.737	4002
927.843	3941
927.95	3861
928.056	3926
928.162	4006
928.267	4071
928.373	4622
928.479	4112
928.585	3880
928.69	4013
928.796	4101
928.901	3937
929.007	3884
929.112	4067
929.218	3998
929.323	3968
929.428	3975
929.533	4097
929.638	3968
929.743	3975
929.848	4082
929.953	4021
930.058	3968
930.163	3770
930.267	3846
930.372	4010
930.477	3838
930.581	4131
930.685	3949
930.79	3854
930.894	3937
930.998	3835
931.103	4013
931.207	3781
931.311	3740
931.415	3709
931.519	3561
931.623	3564
