Data from test_V78500241_890.txt Node
Date: Fri Mar 25 16:55:11 CST 2022
User: usil
Spectrometer: V785-0024
Trigger mode: 0
Integration Time (sec): 4.000000E-1
Scans to average: 1
Nonlinearity correction enabled: false
Boxcar width: 0
Storing dark spectrum: false
XAxis mode: Wavelengths
Number of Pixels in Spectrum: 1024
>>>>>Begin Spectral Data<<<<<
801.071	8046
801.214	8153
801.356	7871
801.499	7909
801.641	7780
801.783	7875
801.926	7974
802.068	7963
802.211	7974
802.353	7944
802.496	7852
802.638	7894
802.78	7868
802.923	7955
803.065	7902
803.208	7822
803.35	8054
803.492	8149
803.635	8092
803.777	8054
803.919	8084
804.061	8415
804.204	8176
804.346	8058
804.488	8001
804.63	8115
804.773	8073
804.915	8069
805.057	8244
805.199	8183
805.341	8298
805.483	8279
805.626	8256
805.768	8065
805.91	8210
806.052	8206
806.194	8092
806.336	8271
806.478	8119
806.62	8081
806.762	8103
806.904	8271
807.046	8454
807.188	8355
807.33	8347
807.472	8366
807.614	8153
807.756	8145
807.898	8035
808.04	7902
808.182	7875
808.324	7864
808.465	7913
808.607	8001
808.749	7986
808.891	8168
809.033	8294
809.174	8164
809.316	7986
809.458	8046
809.6	7947
809.741	8031
809.883	8084
810.025	8096
810.166	8103
810.308	7986
810.45	8031
810.591	7864
810.733	7681
810.875	7715
811.016	7525
811.158	7502
811.299	7578
811.441	7696
811.582	7674
811.724	7506
811.865	7449
812.007	7556
812.148	7586
812.29	7639
812.431	7719
812.573	7841
812.714	7947
812.855	8115
812.997	8172
813.138	8305
813.279	8202
813.421	8130
813.562	8005
813.703	7845
813.845	7803
813.986	7453
814.127	7301
814.268	7285
814.41	7149
814.551	7118
814.692	7133
814.833	7008
814.974	7080
815.115	7114
815.256	6897
815.397	6947
815.539	6947
815.68	6810
815.821	6806
815.962	6882
816.103	6791
816.244	6779
816.385	6631
816.526	6582
816.666	6483
816.807	6262
816.948	6422
817.089	6471
817.23	6452
817.371	6369
817.512	6361
817.653	6429
817.793	6338
817.934	6414
818.075	6437
818.216	6418
818.356	6395
818.497	6216
818.638	6152
818.778	6163
818.919	6068
819.06	6163
819.2	6304
819.341	6262
819.481	6308
819.622	6502
819.762	6669
819.903	6688
820.043	6544
820.184	6551
820.324	6578
820.465	6620
820.605	6669
820.746	6582
820.886	6506
821.026	6555
821.167	6631
821.307	6791
821.447	6703
821.588	6722
821.728	6532
821.868	6532
822.008	6300
822.149	6418
822.289	6384
822.429	6106
822.569	6049
822.709	6129
822.849	5863
822.99	5897
823.13	5920
823.27	5927
823.41	5832
823.55	5786
823.69	5745
823.83	5771
823.97	5710
824.11	5524
824.25	5505
824.389	5604
824.529	5589
824.669	5516
824.809	5646
824.949	5733
825.089	5623
825.228	5539
825.368	5455
825.508	5364
825.648	5376
825.787	5414
825.927	5383
826.067	5315
826.206	5265
826.346	5410
826.485	5410
826.625	5425
826.765	5558
826.904	5532
827.044	5330
827.183	5193
827.323	5189
827.462	5273
827.601	5193
827.741	5201
827.88	5227
828.02	5174
828.159	5231
828.298	5322
828.437	5379
828.577	5292
828.716	5505
828.855	5303
828.994	5166
829.134	5162
829.273	5216
829.412	5155
829.551	5181
829.69	5201
829.829	5307
829.968	5372
830.107	5246
830.246	5280
830.385	5212
830.524	5086
830.663	5105
830.802	4968
830.941	4900
831.08	4904
831.219	5018
831.357	4968
831.496	5162
831.635	5018
831.774	4805
831.913	4923
832.051	4744
832.19	4778
832.329	4885
832.467	4763
832.606	4668
832.744	4748
832.883	4778
833.022	4774
833.16	4790
833.299	4843
833.437	4862
833.576	4927
833.714	4843
833.852	4946
833.991	4896
834.129	4942
834.267	4999
834.406	4938
834.544	5006
834.682	5010
834.821	4984
834.959	5140
835.097	4984
835.235	5197
835.373	5102
835.511	5121
835.65	5098
835.788	5132
835.926	4915
836.064	4938
836.202	4980
836.34	5178
836.478	5239
836.615	5128
836.753	5212
836.891	5318
837.029	5261
837.167	5208
837.305	5197
837.443	5147
837.58	5136
837.718	5288
837.856	5197
837.993	5174
838.131	5235
838.269	5201
838.406	5246
838.544	5250
838.681	5022
838.819	5033
838.956	4885
839.094	4919
839.231	5041
839.369	5121
839.506	5406
839.643	5273
839.781	5117
839.918	5025
840.055	5162
840.193	5090
840.33	5185
840.467	5166
840.604	5220
840.742	5467
840.879	5105
841.016	5098
841.153	5235
841.29	5345
841.427	5391
841.564	5315
841.701	5414
841.838	5273
841.975	5273
842.112	5273
842.249	5155
842.385	5136
842.522	5318
842.659	5178
842.796	5174
842.933	5204
843.069	5204
843.206	5151
843.343	5326
843.479	5242
843.616	5254
843.752	5060
843.889	5048
844.025	5216
844.162	5014
844.298	5242
844.435	5105
844.571	5006
844.708	5216
844.844	5337
844.98	5330
845.117	5326
845.253	5166
845.389	5060
845.525	5136
845.661	5162
845.798	5102
845.934	5075
846.07	5037
846.206	5231
846.342	5292
846.478	5185
846.614	5067
846.75	5014
846.886	4976
847.022	5204
847.158	4968
847.294	5109
847.429	5178
847.565	5022
847.701	5379
847.837	4831
847.972	4877
848.108	4987
848.244	4968
848.379	4824
848.515	4725
848.65	4767
848.786	4736
848.921	4831
849.057	4885
849.192	4885
849.328	4801
849.463	4915
849.598	4790
849.734	4744
849.869	4687
850.004	4622
850.14	4672
850.275	4599
850.41	4584
850.545	4573
850.68	4630
850.815	4637
850.95	4706
851.085	4850
851.22	4721
851.355	4698
851.49	4611
851.625	4660
851.76	4668
851.895	4569
852.03	4558
852.165	4637
852.299	4767
852.434	4801
852.569	4748
852.703	4771
852.838	4854
852.973	4984
853.107	4908
853.242	4759
853.376	4694
853.511	4599
853.645	4615
853.78	4763
853.914	4755
854.048	4717
854.183	4645
854.317	4736
854.451	4847
854.585	4717
854.72	4653
854.854	4778
854.988	4611
855.122	4687
855.256	4527
855.39	4660
855.524	4771
855.658	4706
855.792	4675
855.926	4736
856.06	4805
856.194	4828
856.327	4725
856.461	4634
856.595	4596
856.729	4656
856.862	4816
856.996	4698
857.13	4717
857.263	4782
857.397	4831
857.53	4691
857.664	4725
857.797	4801
857.931	4771
858.064	4740
858.197	4778
858.331	4653
858.464	4660
858.597	4535
858.731	4649
858.864	4694
858.997	4588
859.13	4653
859.263	4653
859.396	4691
859.529	4622
859.662	4538
859.795	4584
859.928	4653
860.061	4790
860.194	4778
860.327	4664
860.46	4584
860.592	4771
860.725	4755
860.858	4748
860.99	4596
861.123	4527
861.256	4531
861.388	4630
861.521	5254
861.653	4519
861.786	4481
861.918	4451
862.05	4558
862.183	4535
862.315	4622
862.447	4683
862.58	4512
862.712	4432
862.844	4295
862.976	4538
863.108	4493
863.24	4816
863.372	4318
863.504	4440
863.636	4421
863.768	4535
863.9	4440
864.032	4363
864.164	4371
864.296	4413
864.428	4527
864.559	4573
864.691	4580
864.823	4535
864.954	4523
865.086	4462
865.217	4478
865.349	4451
865.48	4436
865.612	4535
865.743	4702
865.875	4504
866.006	4478
866.137	4497
866.269	4413
866.4	4447
866.531	4440
866.662	4398
866.793	4398
866.924	4417
867.055	4519
867.186	4508
867.317	4432
867.448	4413
867.579	4386
867.71	4371
867.841	4405
867.972	4459
868.103	4489
868.233	4493
868.364	4512
868.495	4538
868.625	4634
868.756	4752
868.886	4565
869.017	4592
869.147	4778
869.278	4771
869.408	4706
869.539	4622
869.669	4733
869.799	4660
869.929	4740
870.06	4744
870.19	4980
870.32	4930
870.45	4980
870.58	5033
870.71	5071
870.84	5124
870.97	4968
871.1	4930
871.23	5181
871.36	5155
871.489	5071
871.619	5075
871.749	5067
871.879	5159
872.008	5223
872.138	5056
872.267	4938
872.397	4866
872.526	4824
872.656	4733
872.785	4828
872.915	4965
873.044	5064
873.173	4942
873.303	4995
873.432	4949
873.561	4984
873.69	4930
873.819	4873
873.948	4919
874.077	4854
874.206	4759
874.335	4809
874.464	4949
874.593	5071
874.722	4987
874.851	5075
874.979	5086
875.108	5064
875.237	4927
875.365	4892
875.494	4900
875.623	4991
875.751	4805
875.88	4877
876.008	4991
876.136	5037
876.265	5265
876.393	5368
876.521	5296
876.65	5239
876.778	5128
876.906	5083
877.034	5033
877.162	5033
877.29	4991
877.418	5113
877.546	5079
877.674	5102
877.802	5045
877.93	4987
878.058	5003
878.185	4850
878.313	4953
878.441	4946
878.568	4763
878.696	4900
878.824	4946
878.951	5010
879.079	5121
879.206	5273
879.333	5128
879.461	4949
879.588	5029
879.715	5143
879.842	5204
879.97	4995
880.097	4771
880.224	4801
880.351	4816
880.478	4824
880.605	4824
880.732	4752
880.859	5109
880.986	4949
881.112	4900
881.239	4774
881.366	4683
881.493	4656
881.619	4611
881.746	4607
881.872	4698
881.999	4637
882.125	4668
882.252	4793
882.378	4862
882.505	4999
882.631	4812
882.757	4672
882.883	4729
883.01	4736
883.136	4687
883.262	4634
883.388	4611
883.514	4816
883.64	4854
883.766	4797
883.892	4694
884.018	4767
884.143	4847
884.269	4999
884.395	4698
884.52	4615
884.646	4634
884.772	4588
884.897	4584
885.023	4641
885.148	4763
885.274	4881
885.399	4824
885.524	4740
885.65	4710
885.775	4748
885.9	4778
886.025	4892
886.15	4759
886.275	4733
886.4	4641
886.525	4767
886.65	4687
886.775	4740
886.9	4915
887.025	5025
887.149	4862
887.274	4675
887.399	4546
887.523	4645
887.648	4611
887.773	4580
887.897	4793
888.021	4824
888.146	4687
888.27	4793
888.395	4900
888.519	4831
888.643	4812
888.767	4786
888.891	4664
889.015	4603
889.139	4641
889.263	4626
889.387	4763
889.511	4904
889.635	4809
889.759	4660
889.883	4599
890.006	4694
890.13	4889
890.254	4649
890.377	4687
890.501	4546
890.624	4519
890.748	4675
890.871	4489
890.995	4432
891.118	4394
891.241	4538
891.364	4584
891.488	4641
891.611	4481
891.734	4561
891.857	4615
891.98	4538
892.103	4672
892.226	4607
892.349	4523
892.471	4432
892.594	4558
892.717	4573
892.839	4603
892.962	4607
893.085	4634
893.207	4618
893.33	4508
893.452	4550
893.575	4687
893.697	4580
893.819	4805
893.941	4831
894.064	4793
894.186	4554
894.308	4542
894.43	4733
894.552	4831
894.674	4767
894.796	4535
894.918	4622
895.04	4618
895.161	4744
895.283	4679
895.405	4596
895.526	4672
895.648	4694
895.769	4653
895.891	4702
896.012	4736
896.134	4725
896.255	4675
896.376	4645
896.498	4660
896.619	4691
896.74	4615
896.861	4675
896.982	4965
897.103	5025
897.224	4854
897.345	4767
897.466	4653
897.587	4774
897.708	4847
897.828	4809
897.949	4664
898.07	4588
898.19	4622
898.311	4839
898.431	4694
898.552	4717
898.672	4782
898.792	4774
898.913	4733
899.033	4645
899.153	4504
899.273	4462
899.393	4485
899.513	4527
899.633	4531
899.753	4519
899.873	4497
899.993	4588
900.113	4531
900.232	4535
900.352	4592
900.472	4500
900.591	4409
900.711	4508
900.83	4481
900.95	4592
901.069	4694
901.189	4516
901.308	4329
901.427	4341
901.546	4383
901.665	4478
901.784	4523
901.904	4367
902.023	4299
902.141	4211
902.26	4169
902.379	4360
902.498	4253
902.617	4253
902.735	4386
902.854	4405
902.973	4379
903.091	4143
903.21	4238
903.328	4325
903.446	4284
903.565	4272
903.683	4352
903.801	4306
903.919	4405
904.038	4424
904.156	4367
904.274	4443
904.392	4409
904.51	4447
904.627	4447
904.745	4516
904.863	4634
904.981	4424
905.098	4238
905.216	4329
905.334	4409
905.451	4417
905.569	4409
905.686	4546
905.803	4550
905.921	4443
906.038	4592
906.155	4481
906.272	4413
906.389	4462
906.506	4348
906.623	4394
906.74	4371
906.857	4314
906.974	4363
907.091	4618
907.208	4645
907.324	4592
907.441	4508
907.557	4367
907.674	4337
907.79	4310
907.907	4413
908.023	4531
908.139	4489
908.256	4443
908.372	4485
908.488	4447
908.604	4352
908.72	4314
908.836	4398
908.952	4360
909.068	4421
909.184	4584
909.3	4493
909.415	4573
909.531	4535
909.647	4379
909.762	4348
909.878	4322
909.993	4432
910.108	4440
910.224	4440
910.339	4447
910.454	4394
910.57	4379
910.685	4318
910.8	4637
910.915	4622
911.03	4436
911.145	4322
911.259	4291
911.374	4341
911.489	4265
911.604	4246
911.718	4109
911.833	4215
911.947	4135
912.062	4010
912.176	4207
912.291	4200
912.405	4234
912.519	4489
912.633	4455
912.748	4337
912.862	4280
912.976	4211
913.09	4124
913.204	4150
913.318	4253
913.431	4352
913.545	4394
913.659	4409
913.772	4402
913.886	4291
914	4173
914.113	4344
914.226	4443
914.34	4394
914.453	4246
914.566	4428
914.68	4303
914.793	4333
914.906	4162
915.019	4112
915.132	4067
915.245	4192
915.358	4169
915.47	4242
915.583	4268
915.696	4295
915.809	4402
915.921	4405
916.034	4219
916.146	4268
916.259	4177
916.371	4352
916.483	4348
916.595	4284
916.708	4333
916.82	4280
916.932	4265
917.044	4314
917.156	4303
917.268	4192
917.38	4257
917.491	4268
917.603	4341
917.715	4398
917.826	4413
917.938	4333
918.049	4215
918.161	4421
918.272	4554
918.384	4569
918.495	4447
918.606	4295
918.717	4242
918.828	4337
918.939	4322
919.05	4253
919.161	4303
919.272	4128
919.383	4265
919.494	4421
919.604	4626
919.715	4455
919.826	4314
919.936	4379
920.047	4550
920.157	4508
920.267	4717
920.378	4504
920.488	4462
920.598	4694
920.708	4862
920.818	4759
920.928	4683
921.038	4972
921.148	4923
921.258	4580
921.368	4550
921.477	4497
921.587	4462
921.697	4363
921.806	4546
921.916	4443
922.025	4242
922.134	4253
922.244	4204
922.353	4291
922.462	4169
922.571	4093
922.68	3998
922.789	3945
922.898	4055
923.007	3972
923.116	4078
923.224	3998
923.333	4093
923.442	3979
923.55	3979
923.659	4010
923.767	4078
923.876	3968
923.984	4120
924.092	3945
924.201	4093
924.309	4105
924.417	4105
924.525	4040
924.633	4135
924.741	4889
924.849	3903
924.956	4128
925.064	3975
925.172	3865
925.279	3926
925.387	4051
925.494	4071
925.602	4181
925.709	4169
925.816	4017
925.924	4158
926.031	4223
926.138	4185
926.245	4188
926.352	4078
926.459	4261
926.566	4299
926.673	4143
926.779	4067
926.886	4078
926.993	3979
927.099	3949
927.206	3956
927.312	3945
927.419	4063
927.525	4086
927.631	4093
927.737	3983
927.843	3956
927.95	3819
928.056	3953
928.162	3987
928.267	4074
928.373	4542
928.479	4143
928.585	3861
928.69	3979
928.796	4029
928.901	4006
929.007	3842
929.112	4029
929.218	3983
929.323	3922
929.428	3956
929.533	4082
929.638	3850
929.743	3956
929.848	4025
929.953	3975
930.058	3960
930.163	3732
930.267	3865
930.372	3964
930.477	3880
930.581	4074
930.685	3964
930.79	3797
930.894	3888
930.998	3869
931.103	4021
931.207	3728
931.311	3698
931.415	3705
931.519	3504
931.623	3576
