Data from test_V78500241_389.txt Node
Date: Fri Mar 25 16:51:42 CST 2022
User: usil
Spectrometer: V785-0024
Trigger mode: 0
Integration Time (sec): 4.000000E-1
Scans to average: 1
Nonlinearity correction enabled: false
Boxcar width: 0
Storing dark spectrum: false
XAxis mode: Wavelengths
Number of Pixels in Spectrum: 1024
>>>>>Begin Spectral Data<<<<<
801.071	8081
801.214	8081
801.356	7970
801.499	7883
801.641	7898
801.783	7928
801.926	7982
802.068	8005
802.211	8035
802.353	8027
802.496	7917
802.638	7925
802.78	7974
802.923	7967
803.065	7894
803.208	7913
803.35	7909
803.492	8077
803.635	8134
803.777	8027
803.919	8126
804.061	8434
804.204	8107
804.346	8024
804.488	7890
804.63	8149
804.773	8001
804.915	8126
805.057	8336
805.199	8206
805.341	8221
805.483	8282
805.626	8233
805.768	8107
805.91	8161
806.052	8263
806.194	8005
806.336	8320
806.478	8237
806.62	8157
806.762	8275
806.904	8317
807.046	8438
807.188	8396
807.33	8218
807.472	8328
807.614	8206
807.756	8229
807.898	8134
808.04	7898
808.182	7963
808.324	7917
808.465	7944
808.607	8092
808.749	8142
808.891	8271
809.033	8362
809.174	8210
809.316	8138
809.458	8100
809.6	8031
809.741	8103
809.883	8081
810.025	8111
810.166	8168
810.308	8062
810.45	8024
810.591	7852
810.733	7803
810.875	7651
811.016	7514
811.158	7457
811.299	7620
811.441	7841
811.582	7700
811.724	7616
811.865	7609
812.007	7647
812.148	7601
812.29	7594
812.431	7803
812.573	7955
812.714	8027
812.855	8100
812.997	8218
813.138	8313
813.279	8225
813.421	8164
813.562	8031
813.703	7940
813.845	7852
813.986	7483
814.127	7373
814.268	7316
814.41	7206
814.551	7164
814.692	7240
814.833	7084
814.974	7076
815.115	7137
815.256	7000
815.397	6928
815.539	6954
815.68	6814
815.821	6749
815.962	6924
816.103	6856
816.244	6738
816.385	6688
816.526	6642
816.666	6532
816.807	6418
816.948	6486
817.089	6559
817.23	6388
817.371	6410
817.512	6350
817.653	6445
817.793	6376
817.934	6376
818.075	6460
818.216	6422
818.356	6418
818.497	6281
818.638	6155
818.778	6182
818.919	6159
819.06	6232
819.2	6350
819.341	6334
819.481	6361
819.622	6578
819.762	6757
819.903	6688
820.043	6631
820.184	6574
820.324	6555
820.465	6738
820.605	6692
820.746	6635
820.886	6506
821.026	6707
821.167	6734
821.307	6840
821.447	6802
821.588	6745
821.728	6513
821.868	6506
822.008	6296
822.149	6448
822.289	6323
822.429	6155
822.569	6072
822.709	6148
822.849	5950
822.99	5946
823.13	5984
823.27	5927
823.41	5752
823.55	5805
823.69	5790
823.83	5741
823.97	5649
824.11	5570
824.25	5562
824.389	5573
824.529	5566
824.669	5493
824.809	5653
824.949	5634
825.089	5680
825.228	5547
825.368	5402
825.508	5337
825.648	5349
825.787	5417
825.927	5436
826.067	5364
826.206	5345
826.346	5398
826.485	5459
826.625	5429
826.765	5630
826.904	5459
827.044	5265
827.183	5212
827.323	5174
827.462	5239
827.601	5242
827.741	5223
827.88	5265
828.02	5174
828.159	5296
828.298	5349
828.437	5433
828.577	5318
828.716	5471
828.855	5311
828.994	5208
829.134	5227
829.273	5239
829.412	5242
829.551	5201
829.69	5147
829.829	5284
829.968	5398
830.107	5303
830.246	5322
830.385	5254
830.524	5159
830.663	5121
830.802	4995
830.941	4961
831.08	4946
831.219	5029
831.357	5029
831.496	5197
831.635	4980
831.774	4881
831.913	4904
832.051	4812
832.19	4839
832.329	4908
832.467	4752
832.606	4664
832.744	4771
832.883	4778
833.022	4782
833.16	4843
833.299	4854
833.437	4828
833.576	4866
833.714	4919
833.852	4892
833.991	4904
834.129	4965
834.267	4999
834.406	4961
834.544	5041
834.682	4972
834.821	5018
834.959	5162
835.097	4976
835.235	5181
835.373	5124
835.511	5174
835.65	5060
835.788	5109
835.926	4927
836.064	4930
836.202	4885
836.34	5185
836.478	5303
836.615	5212
836.753	5254
836.891	5383
837.029	5265
837.167	5220
837.305	5197
837.443	5235
837.58	5143
837.718	5280
837.856	5307
837.993	5227
838.131	5307
838.269	5299
838.406	5265
838.544	5250
838.681	5064
838.819	5041
838.956	4946
839.094	4949
839.231	5056
839.369	5113
839.506	5444
839.643	5334
839.781	5124
839.918	5079
840.055	5140
840.193	5155
840.33	5159
840.467	5181
840.604	5216
840.742	5482
840.879	5121
841.016	5185
841.153	5185
841.29	5406
841.427	5391
841.564	5360
841.701	5429
841.838	5334
841.975	5265
842.112	5315
842.249	5193
842.385	5117
842.522	5410
842.659	5201
842.796	5201
842.933	5269
843.069	5204
843.206	5212
843.343	5330
843.479	5303
843.616	5341
843.752	5086
843.889	5025
844.025	5269
844.162	5143
844.298	5246
844.435	5109
844.571	5094
844.708	5170
844.844	5315
844.98	5372
845.117	5364
845.253	5178
845.389	5159
845.525	5151
845.661	5143
845.798	5056
845.934	5147
846.07	5094
846.206	5250
846.342	5277
846.478	5208
846.614	4968
846.75	4999
846.886	4987
847.022	5212
847.158	5083
847.294	5124
847.429	5159
847.565	5060
847.701	5379
847.837	4911
847.972	4847
848.108	5006
848.244	4980
848.379	4881
848.515	4771
848.65	4767
848.786	4736
848.921	4809
849.057	4850
849.192	4930
849.328	4843
849.463	4923
849.598	4790
849.734	4828
849.869	4740
850.004	4634
850.14	4702
850.275	4611
850.41	4584
850.545	4603
850.68	4641
850.815	4649
850.95	4645
851.085	4835
851.22	4805
851.355	4725
851.49	4649
851.625	4725
851.76	4626
851.895	4615
852.03	4569
852.165	4687
852.299	4774
852.434	4812
852.569	4774
852.703	4839
852.838	4904
852.973	4987
853.107	4980
853.242	4748
853.376	4710
853.511	4630
853.645	4687
853.78	4847
853.914	4771
854.048	4755
854.183	4687
854.317	4759
854.451	4892
854.585	4721
854.72	4641
854.854	4797
854.988	4626
855.122	4675
855.256	4523
855.39	4694
855.524	4831
855.658	4744
855.792	4733
855.926	4797
856.06	4797
856.194	4812
856.327	4733
856.461	4607
856.595	4679
856.729	4630
856.862	4809
856.996	4763
857.13	4805
857.263	4778
857.397	4900
857.53	4691
857.664	4801
857.797	4790
857.931	4809
858.064	4729
858.197	4752
858.331	4679
858.464	4656
858.597	4554
858.731	4694
858.864	4675
858.997	4630
859.13	4729
859.263	4664
859.396	4702
859.529	4649
859.662	4554
859.795	4569
859.928	4649
860.061	4812
860.194	4858
860.327	4637
860.46	4645
860.592	4763
860.725	4744
860.858	4839
860.99	4618
861.123	4558
861.256	4592
861.388	4611
861.521	5364
861.653	4527
861.786	4546
861.918	4500
862.05	4577
862.183	4611
862.315	4653
862.447	4683
862.58	4580
862.712	4440
862.844	4337
862.976	4474
863.108	4474
863.24	4824
863.372	4428
863.504	4447
863.636	4436
863.768	4462
863.9	4447
864.032	4421
864.164	4451
864.296	4497
864.428	4599
864.559	4603
864.691	4588
864.823	4561
864.954	4531
865.086	4565
865.217	4478
865.349	4443
865.48	4470
865.612	4519
865.743	4721
865.875	4523
866.006	4440
866.137	4504
866.269	4497
866.4	4535
866.531	4447
866.662	4363
866.793	4443
866.924	4428
867.055	4531
867.186	4538
867.317	4428
867.448	4428
867.579	4398
867.71	4440
867.841	4405
867.972	4497
868.103	4516
868.233	4478
868.364	4447
868.495	4478
868.625	4645
868.756	4786
868.886	4611
869.017	4592
869.147	4801
869.278	4790
869.408	4706
869.539	4653
869.669	4767
869.799	4698
869.929	4812
870.06	4755
870.19	4972
870.32	4930
870.45	4984
870.58	5064
870.71	5155
870.84	5174
870.97	4965
871.1	4904
871.23	5189
871.36	5147
871.489	5048
871.619	5083
871.749	5121
871.879	5155
872.008	5235
872.138	5113
872.267	4946
872.397	4889
872.526	4816
872.656	4755
872.785	4858
872.915	4999
873.044	5052
873.173	4930
873.303	4987
873.432	4999
873.561	4953
873.69	4896
873.819	4896
873.948	4911
874.077	4885
874.206	4755
874.335	4786
874.464	4953
874.593	5121
874.722	4961
874.851	5162
874.979	5090
875.108	5083
875.237	4942
875.365	4892
875.494	4934
875.623	5029
875.751	4927
875.88	4870
876.008	4999
876.136	5132
876.265	5216
876.393	5353
876.521	5220
876.65	5242
876.778	5235
876.906	5067
877.034	5033
877.162	5060
877.29	5086
877.418	5064
877.546	5075
877.674	5094
877.802	5079
877.93	5098
878.058	4942
878.185	4892
878.313	4991
878.441	4999
878.568	4793
878.696	4976
878.824	4995
878.951	5037
879.079	5136
879.206	5311
879.333	5140
879.461	5003
879.588	5029
879.715	5086
879.842	5239
879.97	5029
880.097	4786
880.224	4740
880.351	4854
880.478	4805
880.605	4824
880.732	4854
880.859	5143
880.986	4900
881.112	5010
881.239	4854
881.366	4710
881.493	4645
881.619	4622
881.746	4653
881.872	4687
881.999	4698
882.125	4725
882.252	4828
882.378	4877
882.505	4980
882.631	4843
882.757	4717
882.883	4755
883.01	4805
883.136	4721
883.262	4649
883.388	4622
883.514	4805
883.64	4896
883.766	4850
883.892	4710
884.018	4740
884.143	4965
884.269	5014
884.395	4691
884.52	4645
884.646	4664
884.772	4603
884.897	4565
885.023	4672
885.148	4843
885.274	4900
885.399	4858
885.524	4771
885.65	4706
885.775	4801
885.9	4786
886.025	4877
886.15	4820
886.275	4698
886.4	4656
886.525	4767
886.65	4721
886.775	4679
886.9	4957
887.025	5064
887.149	4850
887.274	4637
887.399	4611
887.523	4622
887.648	4618
887.773	4649
887.897	4744
888.021	4812
888.146	4694
888.27	4839
888.395	4919
888.519	4854
888.643	4797
888.767	4835
888.891	4691
889.015	4683
889.139	4694
889.263	4656
889.387	4809
889.511	4919
889.635	4828
889.759	4702
889.883	4702
890.006	4729
890.13	4831
890.254	4618
890.377	4714
890.501	4580
890.624	4573
890.748	4637
890.871	4516
890.995	4428
891.118	4405
891.241	4535
891.364	4542
891.488	4603
891.611	4497
891.734	4542
891.857	4626
891.98	4607
892.103	4668
892.226	4656
892.349	4550
892.471	4455
892.594	4611
892.717	4618
892.839	4573
892.962	4626
893.085	4679
893.207	4630
893.33	4489
893.452	4569
893.575	4679
893.697	4618
893.819	4816
893.941	4847
894.064	4831
894.186	4622
894.308	4615
894.43	4706
894.552	4850
894.674	4755
894.796	4584
894.918	4573
895.04	4664
895.161	4752
895.283	4694
895.405	4580
895.526	4660
895.648	4740
895.769	4736
895.891	4752
896.012	4729
896.134	4740
896.255	4679
896.376	4645
896.498	4622
896.619	4702
896.74	4630
896.861	4714
896.982	4987
897.103	5075
897.224	4820
897.345	4755
897.466	4710
897.587	4733
897.708	4927
897.828	4782
897.949	4736
898.07	4603
898.19	4706
898.311	4812
898.431	4721
898.552	4748
898.672	4824
898.792	4843
898.913	4763
899.033	4664
899.153	4546
899.273	4462
899.393	4497
899.513	4573
899.633	4500
899.753	4615
899.873	4508
899.993	4611
900.113	4558
900.232	4607
900.352	4527
900.472	4500
900.591	4443
900.711	4546
900.83	4451
900.95	4580
901.069	4733
901.189	4561
901.308	4383
901.427	4287
901.546	4360
901.665	4527
901.784	4542
901.904	4470
902.023	4337
902.141	4234
902.26	4230
902.379	4314
902.498	4287
902.617	4272
902.735	4402
902.854	4447
902.973	4356
903.091	4204
903.21	4249
903.328	4333
903.446	4295
903.565	4253
903.683	4371
903.801	4352
903.919	4413
904.038	4383
904.156	4329
904.274	4478
904.392	4413
904.51	4443
904.627	4523
904.745	4588
904.863	4615
904.981	4413
905.098	4375
905.216	4367
905.334	4455
905.451	4500
905.569	4516
905.686	4538
905.803	4554
905.921	4402
906.038	4535
906.155	4497
906.272	4459
906.389	4485
906.506	4371
906.623	4436
906.74	4383
906.857	4325
906.974	4394
907.091	4599
907.208	4717
907.324	4618
907.441	4500
907.557	4371
907.674	4394
907.79	4333
907.907	4424
908.023	4500
908.139	4500
908.256	4462
908.372	4478
908.488	4481
908.604	4394
908.72	4383
908.836	4409
908.952	4417
909.068	4497
909.184	4580
909.3	4497
909.415	4573
909.531	4580
909.647	4333
909.762	4379
909.878	4337
909.993	4459
910.108	4443
910.224	4466
910.339	4497
910.454	4451
910.57	4371
910.685	4341
910.8	4634
910.915	4596
911.03	4478
911.145	4356
911.259	4352
911.374	4367
911.489	4310
911.604	4306
911.718	4204
911.833	4223
911.947	4082
912.062	4051
912.176	4249
912.291	4253
912.405	4291
912.519	4527
912.633	4546
912.748	4386
912.862	4333
912.976	4242
913.09	4101
913.204	4143
913.318	4223
913.431	4386
913.545	4417
913.659	4474
913.772	4367
913.886	4268
914	4268
914.113	4379
914.226	4432
914.34	4386
914.453	4253
914.566	4424
914.68	4310
914.793	4383
914.906	4219
915.019	4143
915.132	4124
915.245	4215
915.358	4230
915.47	4257
915.583	4246
915.696	4310
915.809	4421
915.921	4428
916.034	4303
916.146	4265
916.259	4249
916.371	4367
916.483	4371
916.595	4204
916.708	4341
916.82	4322
916.932	4341
917.044	4344
917.156	4322
917.268	4280
917.38	4291
917.491	4280
917.603	4402
917.715	4386
917.826	4459
917.938	4352
918.049	4268
918.161	4394
918.272	4592
918.384	4592
918.495	4481
918.606	4329
918.717	4291
918.828	4337
918.939	4352
919.05	4280
919.161	4325
919.272	4158
919.383	4234
919.494	4497
919.604	4603
919.715	4447
919.826	4371
919.936	4394
920.047	4584
920.157	4455
920.267	4755
920.378	4527
920.488	4497
920.598	4759
920.708	4938
920.818	4801
920.928	4744
921.038	4965
921.148	4930
921.258	4626
921.368	4573
921.477	4523
921.587	4451
921.697	4348
921.806	4546
921.916	4462
922.025	4303
922.134	4299
922.244	4246
922.353	4348
922.462	4169
922.571	4105
922.68	3991
922.789	4044
922.898	4086
923.007	4021
923.116	4139
923.224	4093
923.333	4109
923.442	3983
923.55	3983
923.659	4044
923.767	4128
923.876	3998
923.984	4135
924.092	4048
924.201	4086
924.309	4109
924.417	4143
924.525	4101
924.633	4131
924.741	5105
924.849	3926
924.956	4196
925.064	3987
925.172	3922
925.279	3968
925.387	4071
925.494	4055
925.602	4230
925.709	4169
925.816	4051
925.924	4181
926.031	4230
926.138	4150
926.245	4219
926.352	4097
926.459	4234
926.566	4329
926.673	4188
926.779	4048
926.886	4067
926.993	3991
927.099	3983
927.206	3975
927.312	3937
927.419	4063
927.525	4082
927.631	4128
927.737	3972
927.843	3949
927.95	3892
928.056	3930
928.162	4002
928.267	4078
928.373	4736
928.479	4101
928.585	3797
928.69	4025
928.796	4105
928.901	3953
929.007	3869
929.112	4017
929.218	3960
929.323	3964
929.428	3915
929.533	4078
929.638	3934
929.743	3937
929.848	4025
929.953	3979
930.058	3964
930.163	3800
930.267	3850
930.372	4044
930.477	3816
930.581	4055
930.685	3972
930.79	3823
930.894	3911
930.998	3846
931.103	4032
931.207	3785
931.311	3698
931.415	3679
931.519	3504
931.623	3584
