Data from test_V78500241_279.txt Node
Date: Fri Mar 25 16:50:56 CST 2022
User: usil
Spectrometer: V785-0024
Trigger mode: 0
Integration Time (sec): 4.000000E-1
Scans to average: 1
Nonlinearity correction enabled: false
Boxcar width: 0
Storing dark spectrum: false
XAxis mode: Wavelengths
Number of Pixels in Spectrum: 1024
>>>>>Begin Spectral Data<<<<<
801.071	8130
801.214	8084
801.356	7925
801.499	7849
801.641	7795
801.783	7944
801.926	7947
802.068	7963
802.211	8043
802.353	8043
802.496	7856
802.638	7978
802.78	8043
802.923	8050
803.065	7909
803.208	7871
803.35	7974
803.492	8103
803.635	8157
803.777	7993
803.919	8195
804.061	8465
804.204	8142
804.346	8069
804.488	7959
804.63	8103
804.773	7986
804.915	8081
805.057	8218
805.199	8187
805.341	8210
805.483	8290
805.626	8161
805.768	8050
805.91	8161
806.052	8218
806.194	8172
806.336	8347
806.478	8180
806.62	8115
806.762	8180
806.904	8294
807.046	8503
807.188	8396
807.33	8301
807.472	8309
807.614	8138
807.756	8126
807.898	8031
808.04	7875
808.182	7898
808.324	7921
808.465	7967
808.607	8107
808.749	8157
808.891	8183
809.033	8275
809.174	8210
809.316	8149
809.458	8058
809.6	8035
809.741	8046
809.883	8016
810.025	8103
810.166	8092
810.308	8035
810.45	8035
810.591	7890
810.733	7753
810.875	7708
811.016	7499
811.158	7502
811.299	7609
811.441	7696
811.582	7742
811.724	7563
811.865	7571
812.007	7639
812.148	7590
812.29	7677
812.431	7750
812.573	7944
812.714	7925
812.855	8202
812.997	8233
813.138	8290
813.279	8176
813.421	8092
813.562	7951
813.703	7871
813.845	7792
813.986	7483
814.127	7270
814.268	7240
814.41	7255
814.551	7149
814.692	7213
814.833	7126
814.974	7114
815.115	7141
815.256	7031
815.397	6924
815.539	6943
815.68	6829
815.821	6760
815.962	6837
816.103	6837
816.244	6703
816.385	6646
816.526	6601
816.666	6521
816.807	6395
816.948	6452
817.089	6532
817.23	6445
817.371	6403
817.512	6410
817.653	6460
817.793	6361
817.934	6486
818.075	6456
818.216	6494
818.356	6418
818.497	6262
818.638	6114
818.778	6190
818.919	6163
819.06	6152
819.2	6319
819.341	6334
819.481	6399
819.622	6547
819.762	6730
819.903	6741
820.043	6635
820.184	6563
820.324	6570
820.465	6658
820.605	6658
820.746	6654
820.886	6513
821.026	6658
821.167	6677
821.307	6806
821.447	6783
821.588	6677
821.728	6604
821.868	6483
822.008	6292
822.149	6410
822.289	6418
822.429	6175
822.569	6083
822.709	6155
822.849	5977
822.99	5863
823.13	5893
823.27	5920
823.41	5817
823.55	5821
823.69	5824
823.83	5824
823.97	5634
824.11	5493
824.25	5539
824.389	5562
824.529	5619
824.669	5482
824.809	5684
824.949	5676
825.089	5672
825.228	5577
825.368	5429
825.508	5455
825.648	5360
825.787	5414
825.927	5436
826.067	5280
826.206	5265
826.346	5376
826.485	5398
826.625	5425
826.765	5543
826.904	5516
827.044	5261
827.183	5216
827.323	5162
827.462	5239
827.601	5185
827.741	5197
827.88	5235
828.02	5098
828.159	5288
828.298	5296
828.437	5345
828.577	5315
828.716	5467
828.855	5326
828.994	5197
829.134	5147
829.273	5201
829.412	5181
829.551	5166
829.69	5235
829.829	5220
829.968	5368
830.107	5315
830.246	5280
830.385	5159
830.524	5086
830.663	5128
830.802	4984
830.941	4904
831.08	4911
831.219	4987
831.357	4961
831.496	5178
831.635	4976
831.774	4862
831.913	4854
832.051	4767
832.19	4771
832.329	4854
832.467	4672
832.606	4706
832.744	4771
832.883	4755
833.022	4744
833.16	4774
833.299	4831
833.437	4816
833.576	4854
833.714	4801
833.852	4873
833.991	4873
834.129	4980
834.267	4927
834.406	4930
834.544	4980
834.682	5010
834.821	5041
834.959	5174
835.097	5033
835.235	5113
835.373	5140
835.511	5147
835.65	5022
835.788	5037
835.926	4847
836.064	4877
836.202	4934
836.34	5140
836.478	5258
836.615	5132
836.753	5204
836.891	5299
837.029	5246
837.167	5193
837.305	5166
837.443	5204
837.58	5079
837.718	5261
837.856	5231
837.993	5151
838.131	5273
838.269	5216
838.406	5227
838.544	5189
838.681	5014
838.819	4987
838.956	4885
839.094	4915
839.231	5003
839.369	5079
839.506	5471
839.643	5280
839.781	5067
839.918	5033
840.055	5113
840.193	5117
840.33	5132
840.467	5185
840.604	5220
840.742	5444
840.879	5090
841.016	5079
841.153	5223
841.29	5349
841.427	5334
841.564	5360
841.701	5322
841.838	5337
841.975	5227
842.112	5315
842.249	5109
842.385	5140
842.522	5337
842.659	5201
842.796	5185
842.933	5208
843.069	5170
843.206	5151
843.343	5315
843.479	5239
843.616	5254
843.752	5048
843.889	4995
844.025	5223
844.162	5071
844.298	5227
844.435	5113
844.571	5045
844.708	5227
844.844	5372
844.98	5391
845.117	5311
845.253	5223
845.389	5098
845.525	5132
845.661	5147
845.798	5060
845.934	5193
846.07	5090
846.206	5250
846.342	5311
846.478	5147
846.614	5067
846.75	4999
846.886	5003
847.022	5132
847.158	4984
847.294	5090
847.429	5132
847.565	5037
847.701	5322
847.837	4873
847.972	4854
848.108	4995
848.244	4927
848.379	4786
848.515	4778
848.65	4736
848.786	4767
848.921	4763
849.057	4866
849.192	4915
849.328	4866
849.463	4866
849.598	4774
849.734	4790
849.869	4683
850.004	4660
850.14	4641
850.275	4637
850.41	4550
850.545	4561
850.68	4580
850.815	4683
850.95	4615
851.085	4812
851.22	4736
851.355	4710
851.49	4649
851.625	4668
851.76	4656
851.895	4554
852.03	4577
852.165	4672
852.299	4736
852.434	4774
852.569	4729
852.703	4790
852.838	4854
852.973	4930
853.107	4923
853.242	4740
853.376	4653
853.511	4580
853.645	4637
853.78	4870
853.914	4672
854.048	4626
854.183	4649
854.317	4714
854.451	4820
854.585	4706
854.72	4634
854.854	4733
854.988	4649
855.122	4630
855.256	4519
855.39	4656
855.524	4790
855.658	4721
855.792	4687
855.926	4752
856.06	4714
856.194	4767
856.327	4706
856.461	4626
856.595	4637
856.729	4634
856.862	4744
856.996	4736
857.13	4721
857.263	4782
857.397	4801
857.53	4664
857.664	4710
857.797	4763
857.931	4831
858.064	4683
858.197	4748
858.331	4664
858.464	4596
858.597	4535
858.731	4626
858.864	4641
858.997	4577
859.13	4618
859.263	4653
859.396	4698
859.529	4577
859.662	4573
859.795	4546
859.928	4599
860.061	4793
860.194	4793
860.327	4637
860.46	4565
860.592	4702
860.725	4763
860.858	4752
860.99	4554
861.123	4523
861.256	4577
861.388	4611
861.521	5284
861.653	4489
861.786	4413
861.918	4440
862.05	4538
862.183	4558
862.315	4641
862.447	4668
862.58	4527
862.712	4318
862.844	4333
862.976	4462
863.108	4459
863.24	4870
863.372	4356
863.504	4402
863.636	4413
863.768	4500
863.9	4481
864.032	4409
864.164	4424
864.296	4493
864.428	4519
864.559	4546
864.691	4516
864.823	4538
864.954	4538
865.086	4516
865.217	4436
865.349	4451
865.48	4455
865.612	4470
865.743	4645
865.875	4432
866.006	4443
866.137	4459
866.269	4421
866.4	4504
866.531	4451
866.662	4451
866.793	4402
866.924	4413
867.055	4535
867.186	4413
867.317	4390
867.448	4352
867.579	4386
867.71	4432
867.841	4405
867.972	4493
868.103	4500
868.233	4493
868.364	4489
868.495	4527
868.625	4649
868.756	4816
868.886	4577
869.017	4588
869.147	4778
869.278	4679
869.408	4664
869.539	4630
869.669	4717
869.799	4630
869.929	4805
870.06	4790
870.19	5010
870.32	4892
870.45	4919
870.58	4995
870.71	5067
870.84	5109
870.97	4976
871.1	4877
871.23	5121
871.36	5151
871.489	5041
871.619	5098
871.749	5128
871.879	5124
872.008	5178
872.138	5025
872.267	4961
872.397	4850
872.526	4854
872.656	4767
872.785	4843
872.915	4965
873.044	5014
873.173	4961
873.303	4961
873.432	4919
873.561	4930
873.69	4904
873.819	4858
873.948	4934
874.077	4835
874.206	4725
874.335	4839
874.464	4862
874.593	5132
874.722	5006
874.851	5071
874.979	5022
875.108	5033
875.237	4930
875.365	4892
875.494	4911
875.623	4965
875.751	4862
875.88	4919
876.008	5010
876.136	5029
876.265	5204
876.393	5318
876.521	5269
876.65	5269
876.778	5201
876.906	5105
877.034	5022
877.162	5025
877.29	4995
877.418	5041
877.546	5014
877.674	5025
877.802	5067
877.93	5041
878.058	4987
878.185	4911
878.313	4961
878.441	4946
878.568	4828
878.696	4904
878.824	4968
878.951	5048
879.079	5193
879.206	5277
879.333	5147
879.461	4949
879.588	4953
879.715	5117
879.842	5212
879.97	4976
880.097	4729
880.224	4767
880.351	4774
880.478	4843
880.605	4858
880.732	4793
880.859	5124
880.986	4904
881.112	4862
881.239	4778
881.366	4714
881.493	4664
881.619	4554
881.746	4603
881.872	4611
881.999	4664
882.125	4710
882.252	4828
882.378	4809
882.505	4991
882.631	4782
882.757	4687
882.883	4744
883.01	4740
883.136	4702
883.262	4645
883.388	4641
883.514	4839
883.64	4835
883.766	4744
883.892	4664
884.018	4736
884.143	4881
884.269	4976
884.395	4714
884.52	4641
884.646	4656
884.772	4615
884.897	4569
885.023	4721
885.148	4793
885.274	4870
885.399	4805
885.524	4755
885.65	4740
885.775	4755
885.9	4748
886.025	4858
886.15	4744
886.275	4710
886.4	4675
886.525	4752
886.65	4706
886.775	4706
886.9	4915
887.025	5003
887.149	4790
887.274	4660
887.399	4573
887.523	4599
887.648	4603
887.773	4580
887.897	4809
888.021	4793
888.146	4672
888.27	4839
888.395	4911
888.519	4858
888.643	4816
888.767	4847
888.891	4668
889.015	4645
889.139	4660
889.263	4630
889.387	4797
889.511	4881
889.635	4805
889.759	4618
889.883	4615
890.006	4721
890.13	4839
890.254	4626
890.377	4668
890.501	4561
890.624	4523
890.748	4653
890.871	4565
890.995	4440
891.118	4432
891.241	4508
891.364	4523
891.488	4649
891.611	4516
891.734	4577
891.857	4622
891.98	4531
892.103	4668
892.226	4634
892.349	4504
892.471	4413
892.594	4531
892.717	4656
892.839	4603
892.962	4588
893.085	4626
893.207	4577
893.33	4462
893.452	4516
893.575	4664
893.697	4577
893.819	4790
893.941	4850
894.064	4809
894.186	4603
894.308	4546
894.43	4733
894.552	4839
894.674	4702
894.796	4561
894.918	4615
895.04	4561
895.161	4717
895.283	4645
895.405	4641
895.526	4649
895.648	4710
895.769	4687
895.891	4736
896.012	4675
896.134	4733
896.255	4710
896.376	4645
896.498	4615
896.619	4721
896.74	4599
896.861	4649
896.982	4965
897.103	5128
897.224	4870
897.345	4702
897.466	4618
897.587	4694
897.708	4900
897.828	4793
897.949	4653
898.07	4584
898.19	4694
898.311	4828
898.431	4710
898.552	4759
898.672	4797
898.792	4828
898.913	4721
899.033	4649
899.153	4580
899.273	4443
899.393	4519
899.513	4512
899.633	4512
899.753	4527
899.873	4550
899.993	4603
900.113	4504
900.232	4611
900.352	4554
900.472	4481
900.591	4428
900.711	4493
900.83	4451
900.95	4618
901.069	4706
901.189	4504
901.308	4356
901.427	4303
901.546	4402
901.665	4481
901.784	4516
901.904	4424
902.023	4303
902.141	4223
902.26	4150
902.379	4306
902.498	4287
902.617	4215
902.735	4405
902.854	4367
902.973	4417
903.091	4230
903.21	4242
903.328	4284
903.446	4249
903.565	4268
903.683	4363
903.801	4276
903.919	4402
904.038	4451
904.156	4341
904.274	4462
904.392	4394
904.51	4440
904.627	4432
904.745	4569
904.863	4622
904.981	4371
905.098	4306
905.216	4360
905.334	4413
905.451	4428
905.569	4428
905.686	4546
905.803	4611
905.921	4432
906.038	4531
906.155	4432
906.272	4398
906.389	4474
906.506	4337
906.623	4394
906.74	4405
906.857	4348
906.974	4367
907.091	4565
907.208	4675
907.324	4660
907.441	4516
907.557	4367
907.674	4363
907.79	4352
907.907	4375
908.023	4489
908.139	4493
908.256	4440
908.372	4462
908.488	4455
908.604	4375
908.72	4341
908.836	4367
908.952	4383
909.068	4443
909.184	4603
909.3	4474
909.415	4573
909.531	4497
909.647	4341
909.762	4398
909.878	4344
909.993	4428
910.108	4363
910.224	4432
910.339	4519
910.454	4379
910.57	4337
910.685	4318
910.8	4611
910.915	4622
911.03	4474
911.145	4337
911.259	4360
911.374	4402
911.489	4310
911.604	4284
911.718	4219
911.833	4192
911.947	4139
912.062	4021
912.176	4204
912.291	4257
912.405	4234
912.519	4470
912.633	4500
912.748	4440
912.862	4314
912.976	4192
913.09	4082
913.204	4181
913.318	4207
913.431	4390
913.545	4390
913.659	4443
913.772	4383
913.886	4246
914	4230
914.113	4344
914.226	4428
914.34	4402
914.453	4246
914.566	4402
914.68	4337
914.793	4322
914.906	4181
915.019	4135
915.132	4055
915.245	4177
915.358	4246
915.47	4246
915.583	4242
915.696	4261
915.809	4417
915.921	4443
916.034	4253
916.146	4234
916.259	4230
916.371	4386
916.483	4386
916.595	4246
916.708	4367
916.82	4310
916.932	4314
917.044	4299
917.156	4295
917.268	4227
917.38	4253
917.491	4280
917.603	4390
917.715	4474
917.826	4478
917.938	4379
918.049	4265
918.161	4371
918.272	4603
918.384	4580
918.495	4421
918.606	4287
918.717	4257
918.828	4341
918.939	4409
919.05	4265
919.161	4299
919.272	4112
919.383	4272
919.494	4421
919.604	4626
919.715	4413
919.826	4379
919.936	4424
920.047	4565
920.157	4481
920.267	4725
920.378	4527
920.488	4493
920.598	4706
920.708	4843
920.818	4763
920.928	4748
921.038	4984
921.148	4946
921.258	4584
921.368	4584
921.477	4504
921.587	4481
921.697	4405
921.806	4538
921.916	4417
922.025	4287
922.134	4299
922.244	4230
922.353	4329
922.462	4192
922.571	4128
922.68	4086
922.789	3998
922.898	4010
923.007	4002
923.116	4143
923.224	4074
923.333	4086
923.442	3994
923.55	4013
923.659	3994
923.767	4082
923.876	4021
923.984	4143
924.092	3968
924.201	4090
924.309	4105
924.417	4131
924.525	4055
924.633	4188
924.741	5022
924.849	3930
924.956	4169
925.064	3964
925.172	3915
925.279	3945
925.387	4090
925.494	4040
925.602	4135
925.709	4169
925.816	4017
925.924	4166
926.031	4227
926.138	4169
926.245	4185
926.352	4124
926.459	4268
926.566	4333
926.673	4173
926.779	4029
926.886	4082
926.993	3968
927.099	4006
927.206	3972
927.312	4002
927.419	4090
927.525	4051
927.631	4135
927.737	4006
927.843	3953
927.95	3812
928.056	3979
928.162	3983
928.267	4029
928.373	4725
928.479	4139
928.585	3861
928.69	4040
928.796	4101
928.901	4010
929.007	3880
929.112	3998
929.218	3979
929.323	3964
929.428	3972
929.533	4112
929.638	3983
929.743	3987
929.848	4044
929.953	4032
930.058	3937
930.163	3766
930.267	3823
930.372	3983
930.477	3857
930.581	4105
930.685	3987
930.79	3861
930.894	3884
930.998	3857
931.103	4025
931.207	3720
931.311	3686
931.415	3667
931.519	3507
931.623	3557
