Data from test_V78500241_2792.txt Node
Date: Fri Mar 25 17:08:24 CST 2022
User: usil
Spectrometer: V785-0024
Trigger mode: 0
Integration Time (sec): 4.000000E-1
Scans to average: 1
Nonlinearity correction enabled: false
Boxcar width: 0
Storing dark spectrum: false
XAxis mode: Wavelengths
Number of Pixels in Spectrum: 1024
>>>>>Begin Spectral Data<<<<<
801.071	7978
801.214	8005
801.356	7898
801.499	7879
801.641	7776
801.783	7887
801.926	7993
802.068	7970
802.211	7982
802.353	7982
802.496	7936
802.638	7989
802.78	7970
802.923	7978
803.065	7936
803.208	7868
803.35	8046
803.492	8153
803.635	8180
803.777	8088
803.919	8168
804.061	8473
804.204	8202
804.346	8107
804.488	8039
804.63	8157
804.773	8058
804.915	8081
805.057	8317
805.199	8138
805.341	8248
805.483	8339
805.626	8313
805.768	8157
805.91	8282
806.052	8244
806.194	8138
806.336	8347
806.478	8138
806.62	8100
806.762	8176
806.904	8282
807.046	8446
807.188	8393
807.33	8309
807.472	8286
807.614	8237
807.756	8157
807.898	8039
808.04	7913
808.182	7925
808.324	7917
808.465	7955
808.607	8107
808.749	8123
808.891	8286
809.033	8328
809.174	8267
809.316	8016
809.458	8088
809.6	8005
809.741	8084
809.883	8024
810.025	8126
810.166	8126
810.308	8012
810.45	8050
810.591	7868
810.733	7776
810.875	7753
811.016	7502
811.158	7544
811.299	7613
811.441	7742
811.582	7769
811.724	7594
811.865	7575
812.007	7639
812.148	7605
812.29	7628
812.431	7769
812.573	7928
812.714	8081
812.855	8172
812.997	8256
813.138	8320
813.279	8210
813.421	8134
813.562	7997
813.703	7890
813.845	7803
813.986	7487
814.127	7350
814.268	7285
814.41	7221
814.551	7232
814.692	7198
814.833	7061
814.974	7137
815.115	7183
815.256	6962
815.397	6939
815.539	6916
815.68	6848
815.821	6840
815.962	6856
816.103	6852
816.244	6673
816.385	6612
816.526	6658
816.666	6517
816.807	6327
816.948	6475
817.089	6532
817.23	6460
817.371	6429
817.512	6376
817.653	6399
817.793	6391
817.934	6471
818.075	6479
818.216	6456
818.356	6372
818.497	6281
818.638	6155
818.778	6159
818.919	6148
819.06	6201
819.2	6300
819.341	6327
819.481	6369
819.622	6570
819.762	6764
819.903	6711
820.043	6616
820.184	6627
820.324	6578
820.465	6753
820.605	6749
820.746	6711
820.886	6566
821.026	6665
821.167	6719
821.307	6795
821.447	6829
821.588	6684
821.728	6654
821.868	6456
822.008	6353
822.149	6407
822.289	6353
822.429	6140
822.569	6095
822.709	6155
822.849	5996
822.99	5897
823.13	5954
823.27	5946
823.41	5794
823.55	5771
823.69	5745
823.83	5817
823.97	5699
824.11	5535
824.25	5532
824.389	5630
824.529	5608
824.669	5524
824.809	5623
824.949	5665
825.089	5676
825.228	5558
825.368	5402
825.508	5368
825.648	5307
825.787	5414
825.927	5395
826.067	5315
826.206	5296
826.346	5349
826.485	5357
826.625	5379
826.765	5600
826.904	5512
827.044	5220
827.183	5231
827.323	5109
827.462	5284
827.601	5239
827.741	5250
827.88	5261
828.02	5159
828.159	5246
828.298	5372
828.437	5341
828.577	5277
828.716	5478
828.855	5337
828.994	5166
829.134	5189
829.273	5193
829.412	5162
829.551	5128
829.69	5174
829.829	5235
829.968	5440
830.107	5258
830.246	5265
830.385	5155
830.524	5151
830.663	5064
830.802	4968
830.941	4885
831.08	4927
831.219	5029
831.357	5006
831.496	5140
831.635	4957
831.774	4885
831.913	4854
832.051	4782
832.19	4790
832.329	4831
832.467	4698
832.606	4641
832.744	4774
832.883	4729
833.022	4782
833.16	4774
833.299	4801
833.437	4835
833.576	4858
833.714	4858
833.852	4870
833.991	4877
834.129	4980
834.267	4965
834.406	4900
834.544	4961
834.682	4980
834.821	5006
834.959	5170
835.097	5048
835.235	5174
835.373	5174
835.511	5121
835.65	5045
835.788	5003
835.926	4850
836.064	4911
836.202	4946
836.34	5208
836.478	5193
836.615	5143
836.753	5220
836.891	5326
837.029	5265
837.167	5227
837.305	5166
837.443	5189
837.58	5083
837.718	5269
837.856	5189
837.993	5170
838.131	5246
838.269	5201
838.406	5239
838.544	5178
838.681	5025
838.819	5041
838.956	4900
839.094	4904
839.231	5003
839.369	5056
839.506	5383
839.643	5231
839.781	5094
839.918	5064
840.055	5098
840.193	5071
840.33	5090
840.467	5151
840.604	5193
840.742	5448
840.879	5079
841.016	5109
841.153	5162
841.29	5414
841.427	5337
841.564	5303
841.701	5357
841.838	5284
841.975	5239
842.112	5273
842.249	5166
842.385	5090
842.522	5318
842.659	5170
842.796	5143
842.933	5220
843.069	5155
843.206	5197
843.343	5269
843.479	5204
843.616	5303
843.752	5060
843.889	4991
844.025	5170
844.162	5025
844.298	5220
844.435	5113
844.571	5060
844.708	5216
844.844	5364
844.98	5318
845.117	5299
845.253	5201
845.389	5086
845.525	5208
845.661	5170
845.798	5060
845.934	5102
846.07	5075
846.206	5250
846.342	5261
846.478	5201
846.614	5045
846.75	4980
846.886	4930
847.022	5132
847.158	5006
847.294	5075
847.429	5052
847.565	5045
847.701	5334
847.837	4877
847.972	4809
848.108	4949
848.244	4938
848.379	4778
848.515	4740
848.65	4691
848.786	4790
848.921	4816
849.057	4835
849.192	4923
849.328	4816
849.463	4797
849.598	4831
849.734	4752
849.869	4694
850.004	4596
850.14	4714
850.275	4573
850.41	4550
850.545	4577
850.68	4618
850.815	4592
850.95	4668
851.085	4870
851.22	4774
851.355	4717
851.49	4630
851.625	4641
851.76	4637
851.895	4531
852.03	4546
852.165	4660
852.299	4717
852.434	4797
852.569	4744
852.703	4763
852.838	4831
852.973	4942
853.107	4972
853.242	4710
853.376	4710
853.511	4588
853.645	4630
853.78	4820
853.914	4717
854.048	4641
854.183	4637
854.317	4706
854.451	4858
854.585	4683
854.72	4618
854.854	4752
854.988	4664
855.122	4675
855.256	4523
855.39	4611
855.524	4774
855.658	4698
855.792	4698
855.926	4725
856.06	4748
856.194	4820
856.327	4706
856.461	4630
856.595	4523
856.729	4607
856.862	4710
856.996	4717
857.13	4736
857.263	4748
857.397	4854
857.53	4634
857.664	4748
857.797	4790
857.931	4755
858.064	4694
858.197	4763
858.331	4706
858.464	4599
858.597	4542
858.731	4664
858.864	4611
858.997	4615
859.13	4683
859.263	4694
859.396	4691
859.529	4588
859.662	4542
859.795	4546
859.928	4641
860.061	4774
860.194	4786
860.327	4584
860.46	4596
860.592	4717
860.725	4702
860.858	4755
860.99	4554
861.123	4519
861.256	4554
861.388	4630
861.521	5318
861.653	4512
861.786	4443
861.918	4489
862.05	4531
862.183	4561
862.315	4603
862.447	4656
862.58	4550
862.712	4379
862.844	4295
862.976	4462
863.108	4443
863.24	4778
863.372	4367
863.504	4428
863.636	4421
863.768	4481
863.9	4462
864.032	4383
864.164	4470
864.296	4535
864.428	4558
864.559	4588
864.691	4538
864.823	4542
864.954	4485
865.086	4519
865.217	4489
865.349	4443
865.48	4440
865.612	4466
865.743	4622
865.875	4481
866.006	4440
866.137	4447
866.269	4447
866.4	4459
866.531	4436
866.662	4383
866.793	4383
866.924	4497
867.055	4504
867.186	4493
867.317	4386
867.448	4363
867.579	4398
867.71	4413
867.841	4348
867.972	4447
868.103	4436
868.233	4504
868.364	4459
868.495	4455
868.625	4679
868.756	4748
868.886	4603
869.017	4641
869.147	4702
869.278	4748
869.408	4626
869.539	4660
869.669	4748
869.799	4649
869.929	4771
870.06	4717
870.19	4976
870.32	4911
870.45	4938
870.58	4995
870.71	5067
870.84	5124
870.97	4942
871.1	4946
871.23	5098
871.36	5147
871.489	5052
871.619	5098
871.749	5045
871.879	5166
872.008	5162
872.138	5060
872.267	4980
872.397	4850
872.526	4771
872.656	4714
872.785	4816
872.915	4930
873.044	5018
873.173	4953
873.303	4942
873.432	4900
873.561	4927
873.69	4866
873.819	4870
873.948	4930
874.077	4835
874.206	4740
874.335	4816
874.464	4896
874.593	5094
874.722	4987
874.851	5143
874.979	5041
875.108	5037
875.237	4862
875.365	4881
875.494	4847
875.623	5014
875.751	4812
875.88	4915
876.008	4953
876.136	5052
876.265	5170
876.393	5334
876.521	5220
876.65	5216
876.778	5124
876.906	5056
877.034	5037
877.162	5064
877.29	4999
877.418	5075
877.546	5105
877.674	5075
877.802	5025
877.93	4999
878.058	4953
878.185	4862
878.313	4927
878.441	4995
878.568	4786
878.696	4927
878.824	4949
878.951	4984
879.079	5117
879.206	5273
879.333	5109
879.461	4980
879.588	4991
879.715	5113
879.842	5258
879.97	5022
880.097	4805
880.224	4721
880.351	4782
880.478	4805
880.605	4858
880.732	4774
880.859	5109
880.986	4904
881.112	4877
881.239	4778
881.366	4626
881.493	4618
881.619	4637
881.746	4668
881.872	4637
881.999	4660
882.125	4679
882.252	4782
882.378	4839
882.505	4957
882.631	4793
882.757	4679
882.883	4660
883.01	4774
883.136	4694
883.262	4637
883.388	4622
883.514	4858
883.64	4892
883.766	4778
883.892	4649
884.018	4752
884.143	4877
884.269	5003
884.395	4687
884.52	4656
884.646	4679
884.772	4588
884.897	4538
885.023	4675
885.148	4797
885.274	4858
885.399	4812
885.524	4736
885.65	4710
885.775	4725
885.9	4710
886.025	4862
886.15	4778
886.275	4714
886.4	4668
886.525	4714
886.65	4656
886.775	4710
886.9	4923
887.025	5056
887.149	4843
887.274	4656
887.399	4558
887.523	4580
887.648	4630
887.773	4630
887.897	4752
888.021	4752
888.146	4660
888.27	4816
888.395	4870
888.519	4801
888.643	4759
888.767	4828
888.891	4634
889.015	4565
889.139	4691
889.263	4622
889.387	4782
889.511	4896
889.635	4801
889.759	4599
889.883	4641
890.006	4774
890.13	4816
890.254	4656
890.377	4725
890.501	4523
890.624	4546
890.748	4577
890.871	4527
890.995	4436
891.118	4367
891.241	4535
891.364	4535
891.488	4668
891.611	4512
891.734	4550
891.857	4664
891.98	4550
892.103	4645
892.226	4580
892.349	4546
892.471	4470
892.594	4550
892.717	4527
892.839	4535
892.962	4546
893.085	4622
893.207	4588
893.33	4436
893.452	4531
893.575	4656
893.697	4531
893.819	4793
893.941	4835
894.064	4790
894.186	4607
894.308	4603
894.43	4755
894.552	4854
894.674	4736
894.796	4569
894.918	4546
895.04	4588
895.161	4691
895.283	4641
895.405	4569
895.526	4634
895.648	4717
895.769	4675
895.891	4729
896.012	4710
896.134	4698
896.255	4672
896.376	4615
896.498	4626
896.619	4664
896.74	4588
896.861	4626
896.982	4938
897.103	5067
897.224	4839
897.345	4752
897.466	4668
897.587	4793
897.708	4835
897.828	4759
897.949	4694
898.07	4535
898.19	4584
898.311	4889
898.431	4675
898.552	4717
898.672	4801
898.792	4854
898.913	4778
899.033	4656
899.153	4519
899.273	4409
899.393	4443
899.513	4546
899.633	4523
899.753	4523
899.873	4535
899.993	4558
900.113	4527
900.232	4584
900.352	4599
900.472	4493
900.591	4379
900.711	4451
900.83	4440
900.95	4561
901.069	4687
901.189	4558
901.308	4405
901.427	4314
901.546	4360
901.665	4455
901.784	4470
901.904	4337
902.023	4337
902.141	4181
902.26	4109
902.379	4367
902.498	4268
902.617	4219
902.735	4356
902.854	4405
902.973	4363
903.091	4204
903.21	4238
903.328	4276
903.446	4295
903.565	4265
903.683	4383
903.801	4299
903.919	4341
904.038	4402
904.156	4299
904.274	4466
904.392	4383
904.51	4474
904.627	4428
904.745	4607
904.863	4630
904.981	4363
905.098	4352
905.216	4310
905.334	4379
905.451	4402
905.569	4443
905.686	4538
905.803	4554
905.921	4402
906.038	4577
906.155	4462
906.272	4424
906.389	4432
906.506	4379
906.623	4360
906.74	4379
906.857	4375
906.974	4379
907.091	4592
907.208	4683
907.324	4546
907.441	4523
907.557	4356
907.674	4333
907.79	4344
907.907	4371
908.023	4459
908.139	4478
908.256	4440
908.372	4474
908.488	4428
908.604	4341
908.72	4299
908.836	4337
908.952	4363
909.068	4398
909.184	4611
909.3	4451
909.415	4546
909.531	4558
909.647	4356
909.762	4337
909.878	4356
909.993	4424
910.108	4367
910.224	4451
910.339	4481
910.454	4428
910.57	4329
910.685	4344
910.8	4618
910.915	4554
911.03	4508
911.145	4318
911.259	4348
911.374	4371
911.489	4333
911.604	4276
911.718	4173
911.833	4219
911.947	4086
912.062	3994
912.176	4215
912.291	4234
912.405	4268
912.519	4497
912.633	4508
912.748	4375
912.862	4363
912.976	4192
913.09	4109
913.204	4192
913.318	4249
913.431	4383
913.545	4360
913.659	4440
913.772	4333
913.886	4261
914	4234
914.113	4379
914.226	4436
914.34	4386
914.453	4265
914.566	4478
914.68	4318
914.793	4371
914.906	4188
915.019	4124
915.132	4074
915.245	4162
915.358	4215
915.47	4238
915.583	4287
915.696	4341
915.809	4421
915.921	4432
916.034	4268
916.146	4242
916.259	4234
916.371	4344
916.483	4367
916.595	4272
916.708	4337
916.82	4306
916.932	4398
917.044	4344
917.156	4337
917.268	4188
917.38	4306
917.491	4322
917.603	4363
917.715	4390
917.826	4432
917.938	4402
918.049	4219
918.161	4386
918.272	4527
918.384	4481
918.495	4485
918.606	4310
918.717	4238
918.828	4363
918.939	4367
919.05	4227
919.161	4318
919.272	4135
919.383	4230
919.494	4500
919.604	4641
919.715	4462
919.826	4310
919.936	4398
920.047	4531
920.157	4485
920.267	4683
920.378	4531
920.488	4504
920.598	4721
920.708	4923
920.818	4740
920.928	4740
921.038	5018
921.148	4957
921.258	4664
921.368	4538
921.477	4493
921.587	4443
921.697	4356
921.806	4554
921.916	4428
922.025	4280
922.134	4295
922.244	4211
922.353	4371
922.462	4196
922.571	4124
922.68	4013
922.789	4002
922.898	4048
923.007	3960
923.116	4128
923.224	4090
923.333	4090
923.442	4006
923.55	3991
923.659	4040
923.767	4128
923.876	4006
923.984	4173
924.092	4048
924.201	4086
924.309	4112
924.417	4105
924.525	4090
924.633	4086
924.741	4930
924.849	3926
924.956	4150
925.064	3994
925.172	3892
925.279	3987
925.387	4093
925.494	4044
925.602	4238
925.709	4166
925.816	4044
925.924	4150
926.031	4227
926.138	4204
926.245	4207
926.352	4086
926.459	4242
926.566	4310
926.673	4150
926.779	4063
926.886	4101
926.993	3994
927.099	3949
927.206	3911
927.312	3994
927.419	4029
927.525	4051
927.631	4147
927.737	3945
927.843	3926
927.95	3850
928.056	3926
928.162	3994
928.267	4093
928.373	4672
928.479	4169
928.585	3880
928.69	4040
928.796	4048
928.901	3983
929.007	3854
929.112	4032
929.218	3979
929.323	3968
929.428	3926
929.533	4124
929.638	3918
929.743	3968
929.848	4021
929.953	4010
930.058	3934
930.163	3774
930.267	3819
930.372	4010
930.477	3823
930.581	4071
930.685	3918
930.79	3857
930.894	3854
930.998	3850
931.103	4078
931.207	3728
931.311	3694
931.415	3679
931.519	3534
931.623	3614
