Data from test_V78500241_1548.txt Node
Date: Fri Mar 25 16:59:45 CST 2022
User: usil
Spectrometer: V785-0024
Trigger mode: 0
Integration Time (sec): 4.000000E-1
Scans to average: 1
Nonlinearity correction enabled: false
Boxcar width: 0
Storing dark spectrum: false
XAxis mode: Wavelengths
Number of Pixels in Spectrum: 1024
>>>>>Begin Spectral Data<<<<<
801.071	7986
801.214	8005
801.356	7902
801.499	7856
801.641	7757
801.783	7772
801.926	7917
802.068	7963
802.211	7963
802.353	8035
802.496	7795
802.638	7852
802.78	7917
802.923	7864
803.065	7765
803.208	7826
803.35	7959
803.492	8145
803.635	8126
803.777	7993
803.919	8111
804.061	8415
804.204	8153
804.346	7989
804.488	7963
804.63	8096
804.773	7982
804.915	8100
805.057	8218
805.199	8172
805.341	8138
805.483	8195
805.626	8199
805.768	8081
805.91	8153
806.052	8202
806.194	8130
806.336	8248
806.478	8058
806.62	8077
806.762	8103
806.904	8164
807.046	8434
807.188	8324
807.33	8313
807.472	8328
807.614	8199
807.756	8138
807.898	7947
808.04	7849
808.182	7860
808.324	7894
808.465	7883
808.607	8050
808.749	8142
808.891	8145
809.033	8279
809.174	8225
809.316	7947
809.458	8115
809.6	7989
809.741	7986
809.883	8016
810.025	8062
810.166	8069
810.308	8054
810.45	7982
810.591	7879
810.733	7708
810.875	7651
811.016	7491
811.158	7434
811.299	7597
811.441	7742
811.582	7613
811.724	7548
811.865	7578
812.007	7643
812.148	7563
812.29	7571
812.431	7784
812.573	7868
812.714	7947
812.855	8031
812.997	8214
813.138	8267
813.279	8153
813.421	8005
813.562	7932
813.703	7879
813.845	7693
813.986	7464
814.127	7274
814.268	7209
814.41	7129
814.551	7126
814.692	7183
814.833	7152
814.974	7118
815.115	7114
815.256	7023
815.397	6924
815.539	6947
815.68	6802
815.821	6791
815.962	6859
816.103	6776
816.244	6696
816.385	6669
816.526	6608
816.666	6490
816.807	6247
816.948	6346
817.089	6445
817.23	6407
817.371	6353
817.512	6380
817.653	6372
817.793	6346
817.934	6445
818.075	6517
818.216	6403
818.356	6452
818.497	6232
818.638	6117
818.778	6171
818.919	6152
819.06	6213
819.2	6357
819.341	6296
819.481	6361
819.622	6532
819.762	6726
819.903	6665
820.043	6521
820.184	6578
820.324	6509
820.465	6734
820.605	6715
820.746	6646
820.886	6494
821.026	6612
821.167	6692
821.307	6757
821.447	6772
821.588	6707
821.728	6597
821.868	6475
822.008	6251
822.149	6361
822.289	6380
822.429	6133
822.569	6057
822.709	6072
822.849	5904
822.99	5912
823.13	5942
823.27	5889
823.41	5771
823.55	5786
823.69	5745
823.83	5733
823.97	5638
824.11	5486
824.25	5501
824.389	5547
824.529	5577
824.669	5509
824.809	5615
824.949	5680
825.089	5649
825.228	5539
825.368	5349
825.508	5345
825.648	5330
825.787	5368
825.927	5353
826.067	5296
826.206	5311
826.346	5398
826.485	5391
826.625	5360
826.765	5543
826.904	5448
827.044	5235
827.183	5220
827.323	5067
827.462	5220
827.601	5197
827.741	5143
827.88	5212
828.02	5102
828.159	5254
828.298	5284
828.437	5322
828.577	5277
828.716	5493
828.855	5368
828.994	5216
829.134	5128
829.273	5128
829.412	5166
829.551	5151
829.69	5136
829.829	5208
829.968	5364
830.107	5250
830.246	5242
830.385	5178
830.524	5132
830.663	5102
830.802	4999
830.941	4904
831.08	4862
831.219	4946
831.357	4930
831.496	5197
831.635	4953
831.774	4862
831.913	4866
832.051	4710
832.19	4710
832.329	4873
832.467	4691
832.606	4637
832.744	4656
832.883	4721
833.022	4702
833.16	4763
833.299	4809
833.437	4797
833.576	4835
833.714	4850
833.852	4816
833.991	4839
834.129	4942
834.267	4942
834.406	4904
834.544	4984
834.682	4957
834.821	4953
834.959	5143
835.097	4980
835.235	5124
835.373	5090
835.511	5037
835.65	4991
835.788	4972
835.926	4881
836.064	4858
836.202	4870
836.34	5155
836.478	5227
836.615	5109
836.753	5231
836.891	5220
837.029	5242
837.167	5204
837.305	5155
837.443	5121
837.58	5048
837.718	5273
837.856	5143
837.993	5102
838.131	5204
838.269	5204
838.406	5201
838.544	5174
838.681	5022
838.819	5064
838.956	4885
839.094	4915
839.231	4991
839.369	5090
839.506	5433
839.643	5265
839.781	5056
839.918	4965
840.055	5102
840.193	5102
840.33	5102
840.467	5117
840.604	5166
840.742	5459
840.879	5083
841.016	5094
841.153	5181
841.29	5376
841.427	5334
841.564	5303
841.701	5349
841.838	5265
841.975	5265
842.112	5250
842.249	5181
842.385	5170
842.522	5349
842.659	5132
842.796	5166
842.933	5151
843.069	5113
843.206	5151
843.343	5227
843.479	5208
843.616	5296
843.752	5022
843.889	5010
844.025	5227
844.162	5056
844.298	5216
844.435	5060
844.571	5067
844.708	5220
844.844	5208
844.98	5372
845.117	5277
845.253	5113
845.389	5052
845.525	5124
845.661	5090
845.798	4999
845.934	5109
846.07	5010
846.206	5166
846.342	5322
846.478	5113
846.614	5041
846.75	4953
846.886	4885
847.022	5124
847.158	5052
847.294	5052
847.429	5105
847.565	5048
847.701	5315
847.837	4873
847.972	4816
848.108	4946
848.244	4900
848.379	4812
848.515	4717
848.65	4748
848.786	4763
848.921	4774
849.057	4858
849.192	4889
849.328	4774
849.463	4786
849.598	4790
849.734	4759
849.869	4675
850.004	4615
850.14	4641
850.275	4554
850.41	4516
850.545	4577
850.68	4573
850.815	4565
850.95	4630
851.085	4816
851.22	4714
851.355	4679
851.49	4596
851.625	4634
851.76	4664
851.895	4546
852.03	4531
852.165	4637
852.299	4706
852.434	4752
852.569	4691
852.703	4809
852.838	4866
852.973	4919
853.107	4934
853.242	4748
853.376	4717
853.511	4580
853.645	4588
853.78	4778
853.914	4683
854.048	4675
854.183	4668
854.317	4672
854.451	4790
854.585	4672
854.72	4649
854.854	4752
854.988	4653
855.122	4634
855.256	4519
855.39	4649
855.524	4736
855.658	4698
855.792	4645
855.926	4740
856.06	4755
856.194	4805
856.327	4691
856.461	4588
856.595	4599
856.729	4622
856.862	4748
856.996	4683
857.13	4694
857.263	4744
857.397	4774
857.53	4588
857.664	4702
857.797	4755
857.931	4809
858.064	4641
858.197	4702
858.331	4630
858.464	4675
858.597	4558
858.731	4641
858.864	4615
858.997	4584
859.13	4645
859.263	4656
859.396	4675
859.529	4550
859.662	4508
859.795	4527
859.928	4618
860.061	4752
860.194	4763
860.327	4569
860.46	4599
860.592	4679
860.725	4683
860.858	4687
860.99	4554
861.123	4523
861.256	4512
861.388	4599
861.521	5223
861.653	4474
861.786	4394
861.918	4421
862.05	4527
862.183	4512
862.315	4573
862.447	4596
862.58	4546
862.712	4447
862.844	4280
862.976	4474
863.108	4432
863.24	4824
863.372	4325
863.504	4394
863.636	4390
863.768	4466
863.9	4432
864.032	4386
864.164	4421
864.296	4512
864.428	4577
864.559	4569
864.691	4493
864.823	4527
864.954	4519
865.086	4455
865.217	4443
865.349	4398
865.48	4436
865.612	4455
865.743	4599
865.875	4432
866.006	4428
866.137	4474
866.269	4436
866.4	4405
866.531	4390
866.662	4405
866.793	4398
866.924	4440
867.055	4512
867.186	4436
867.317	4432
867.448	4341
867.579	4379
867.71	4386
867.841	4375
867.972	4421
868.103	4459
868.233	4459
868.364	4413
868.495	4466
868.625	4596
868.756	4763
868.886	4561
869.017	4599
869.147	4771
869.278	4763
869.408	4645
869.539	4645
869.669	4660
869.799	4687
869.929	4748
870.06	4717
870.19	4934
870.32	4889
870.45	4911
870.58	5025
870.71	5124
870.84	5067
870.97	4908
871.1	4885
871.23	5117
871.36	5121
871.489	4999
871.619	5003
871.749	5086
871.879	5155
872.008	5212
872.138	5037
872.267	4995
872.397	4835
872.526	4812
872.656	4691
872.785	4790
872.915	4957
873.044	5014
873.173	4930
873.303	4938
873.432	4923
873.561	4900
873.69	4839
873.819	4835
873.948	4938
874.077	4812
874.206	4752
874.335	4786
874.464	4911
874.593	5033
874.722	4957
874.851	5109
874.979	5052
875.108	5010
875.237	4873
875.365	4835
875.494	4919
875.623	4949
875.751	4847
875.88	4896
876.008	4942
876.136	5048
876.265	5181
876.393	5387
876.521	5216
876.65	5212
876.778	5159
876.906	5056
877.034	5018
877.162	5014
877.29	4972
877.418	5056
877.546	5003
877.674	5060
877.802	5033
877.93	4961
878.058	4915
878.185	4885
878.313	4911
878.441	4911
878.568	4850
878.696	4885
878.824	4934
878.951	4946
879.079	5117
879.206	5303
879.333	5079
879.461	4980
879.588	5018
879.715	5109
879.842	5250
879.97	4999
880.097	4767
880.224	4763
880.351	4778
880.478	4805
880.605	4786
880.732	4786
880.859	5098
880.986	4862
881.112	4915
881.239	4839
881.366	4683
881.493	4645
881.619	4599
881.746	4615
881.872	4618
881.999	4664
882.125	4714
882.252	4759
882.378	4831
882.505	4919
882.631	4778
882.757	4675
882.883	4717
883.01	4740
883.136	4653
883.262	4584
883.388	4618
883.514	4782
883.64	4908
883.766	4782
883.892	4687
884.018	4729
884.143	4877
884.269	5003
884.395	4668
884.52	4611
884.646	4641
884.772	4592
884.897	4542
885.023	4668
885.148	4721
885.274	4820
885.399	4782
885.524	4706
885.65	4653
885.775	4759
885.9	4771
886.025	4866
886.15	4805
886.275	4733
886.4	4649
886.525	4672
886.65	4656
886.775	4656
886.9	4919
887.025	5029
887.149	4740
887.274	4641
887.399	4607
887.523	4615
887.648	4618
887.773	4588
887.897	4740
888.021	4858
888.146	4691
888.27	4843
888.395	4892
888.519	4820
888.643	4820
888.767	4782
888.891	4656
889.015	4645
889.139	4641
889.263	4592
889.387	4767
889.511	4854
889.635	4782
889.759	4656
889.883	4656
890.006	4698
890.13	4809
890.254	4611
890.377	4626
890.501	4538
890.624	4481
890.748	4698
890.871	4554
890.995	4478
891.118	4398
891.241	4512
891.364	4554
891.488	4630
891.611	4512
891.734	4504
891.857	4630
891.98	4546
892.103	4573
892.226	4573
892.349	4542
892.471	4413
892.594	4508
892.717	4580
892.839	4542
892.962	4611
893.085	4637
893.207	4558
893.33	4485
893.452	4489
893.575	4683
893.697	4569
893.819	4748
893.941	4812
894.064	4771
894.186	4596
894.308	4592
894.43	4710
894.552	4812
894.674	4771
894.796	4542
894.918	4615
895.04	4535
895.161	4668
895.283	4645
895.405	4580
895.526	4603
895.648	4637
895.769	4675
895.891	4675
896.012	4717
896.134	4694
896.255	4656
896.376	4664
896.498	4637
896.619	4683
896.74	4592
896.861	4691
896.982	4839
897.103	5033
897.224	4801
897.345	4721
897.466	4653
897.587	4744
897.708	4835
897.828	4706
897.949	4584
898.07	4527
898.19	4672
898.311	4771
898.431	4634
898.552	4691
898.672	4843
898.792	4744
898.913	4717
899.033	4637
899.153	4493
899.273	4386
899.393	4527
899.513	4508
899.633	4504
899.753	4481
899.873	4508
899.993	4622
900.113	4569
900.232	4618
900.352	4508
900.472	4478
900.591	4367
900.711	4481
900.83	4462
900.95	4596
901.069	4683
901.189	4531
901.308	4356
901.427	4280
901.546	4329
901.665	4440
901.784	4500
901.904	4367
902.023	4306
902.141	4177
902.26	4116
902.379	4310
902.498	4265
902.617	4227
902.735	4348
902.854	4367
902.973	4333
903.091	4223
903.21	4223
903.328	4310
903.446	4299
903.565	4272
903.683	4322
903.801	4291
903.919	4371
904.038	4424
904.156	4314
904.274	4421
904.392	4405
904.51	4451
904.627	4485
904.745	4599
904.863	4656
904.981	4356
905.098	4265
905.216	4348
905.334	4402
905.451	4421
905.569	4413
905.686	4531
905.803	4573
905.921	4379
906.038	4584
906.155	4417
906.272	4383
906.389	4459
906.506	4390
906.623	4348
906.74	4348
906.857	4299
906.974	4383
907.091	4519
907.208	4691
907.324	4565
907.441	4466
907.557	4284
907.674	4333
907.79	4322
907.907	4421
908.023	4485
908.139	4550
908.256	4455
908.372	4489
908.488	4459
908.604	4352
908.72	4318
908.836	4383
908.952	4390
909.068	4443
909.184	4577
909.3	4459
909.415	4569
909.531	4531
909.647	4367
909.762	4379
909.878	4329
909.993	4413
910.108	4375
910.224	4398
910.339	4466
910.454	4363
910.57	4341
910.685	4291
910.8	4592
910.915	4599
911.03	4451
911.145	4318
911.259	4356
911.374	4360
911.489	4257
911.604	4261
911.718	4124
911.833	4227
911.947	4093
912.062	4006
912.176	4169
912.291	4246
912.405	4268
912.519	4470
912.633	4478
912.748	4356
912.862	4303
912.976	4181
913.09	4093
913.204	4177
913.318	4227
913.431	4352
913.545	4371
913.659	4371
913.772	4409
913.886	4280
914	4181
914.113	4379
914.226	4398
914.34	4409
914.453	4230
914.566	4409
914.68	4249
914.793	4306
914.906	4169
915.019	4109
915.132	4116
915.245	4169
915.358	4192
915.47	4181
915.583	4242
915.696	4306
915.809	4424
915.921	4394
916.034	4238
916.146	4314
916.259	4230
916.371	4371
916.483	4344
916.595	4268
916.708	4318
916.82	4280
916.932	4333
917.044	4325
917.156	4318
917.268	4185
917.38	4261
917.491	4272
917.603	4337
917.715	4432
917.826	4451
917.938	4344
918.049	4230
918.161	4383
918.272	4497
918.384	4500
918.495	4478
918.606	4295
918.717	4223
918.828	4322
918.939	4325
919.05	4268
919.161	4318
919.272	4166
919.383	4219
919.494	4470
919.604	4630
919.715	4421
919.826	4356
919.936	4386
920.047	4535
920.157	4489
920.267	4694
920.378	4558
920.488	4478
920.598	4778
920.708	4896
920.818	4755
920.928	4767
921.038	4953
921.148	4870
921.258	4573
921.368	4565
921.477	4516
921.587	4455
921.697	4360
921.806	4535
921.916	4466
922.025	4291
922.134	4265
922.244	4242
922.353	4272
922.462	4207
922.571	4116
922.68	4021
922.789	3998
922.898	4029
923.007	3972
923.116	4059
923.224	4086
923.333	4071
923.442	3968
923.55	3968
923.659	4044
923.767	4051
923.876	3960
923.984	4143
924.092	3956
924.201	4105
924.309	4105
924.417	4131
924.525	4036
924.633	4124
924.741	4824
924.849	3930
924.956	4135
925.064	3968
925.172	3896
925.279	3983
925.387	4036
925.494	4063
925.602	4185
925.709	4204
925.816	4032
925.924	4109
926.031	4207
926.138	4154
926.245	4200
926.352	4078
926.459	4242
926.566	4337
926.673	4147
926.779	4067
926.886	4090
926.993	3983
927.099	3964
927.206	3907
927.312	3930
927.419	4048
927.525	4044
927.631	4086
927.737	3964
927.843	3922
927.95	3823
928.056	3926
928.162	3987
928.267	4093
928.373	4558
928.479	4109
928.585	3865
928.69	4025
928.796	4040
928.901	3972
929.007	3857
929.112	3983
929.218	3987
929.323	3892
929.428	3972
929.533	4120
929.638	3876
929.743	3953
929.848	4063
929.953	4002
930.058	3956
930.163	3781
930.267	3880
930.372	3964
930.477	3835
930.581	4071
930.685	3911
930.79	3819
930.894	3861
930.998	3838
931.103	4067
931.207	3679
931.311	3675
931.415	3671
931.519	3488
931.623	3549
