Data from test_V78500241_703.txt Node
Date: Fri Mar 25 16:53:53 CST 2022
User: usil
Spectrometer: V785-0024
Trigger mode: 0
Integration Time (sec): 4.000000E-1
Scans to average: 1
Nonlinearity correction enabled: false
Boxcar width: 0
Storing dark spectrum: false
XAxis mode: Wavelengths
Number of Pixels in Spectrum: 1024
>>>>>Begin Spectral Data<<<<<
801.071	8005
801.214	8001
801.356	7841
801.499	7875
801.641	7795
801.783	7833
801.926	7967
802.068	7925
802.211	7963
802.353	7890
802.496	7894
802.638	7890
802.78	7883
802.923	7940
803.065	7807
803.208	7860
803.35	7909
803.492	8123
803.635	8130
803.777	8020
803.919	8138
804.061	8400
804.204	8153
804.346	8024
804.488	7921
804.63	8012
804.773	8008
804.915	8046
805.057	8218
805.199	8119
805.341	8164
805.483	8233
805.626	8168
805.768	8123
805.91	8176
806.052	8206
806.194	8107
806.336	8275
806.478	8161
806.62	7997
806.762	8103
806.904	8259
807.046	8438
807.188	8385
807.33	8313
807.472	8389
807.614	8168
807.756	8092
807.898	8012
808.04	7818
808.182	7898
808.324	7833
808.465	7875
808.607	8054
808.749	8107
808.891	8240
809.033	8298
809.174	8172
809.316	7947
809.458	8062
809.6	7978
809.741	8024
809.883	7986
810.025	8031
810.166	8149
810.308	8005
810.45	8031
810.591	7841
810.733	7708
810.875	7685
811.016	7472
811.158	7460
811.299	7582
811.441	7704
811.582	7681
811.724	7499
811.865	7510
812.007	7609
812.148	7540
812.29	7586
812.431	7700
812.573	7811
812.714	7902
812.855	8134
812.997	8180
813.138	8351
813.279	8164
813.421	8084
813.562	7997
813.703	7860
813.845	7799
813.986	7464
814.127	7247
814.268	7244
814.41	7206
814.551	7084
814.692	7152
814.833	7042
814.974	7103
815.115	7149
815.256	6962
815.397	6913
815.539	6939
815.68	6840
815.821	6806
815.962	6913
816.103	6821
816.244	6726
816.385	6627
816.526	6662
816.666	6483
816.807	6254
816.948	6399
817.089	6399
817.23	6388
817.371	6376
817.512	6391
817.653	6410
817.793	6342
817.934	6445
818.075	6426
818.216	6460
818.356	6334
818.497	6194
818.638	6140
818.778	6163
818.919	6114
819.06	6144
819.2	6247
819.341	6323
819.481	6331
819.622	6479
819.762	6700
819.903	6719
820.043	6536
820.184	6525
820.324	6532
820.465	6612
820.605	6658
820.746	6608
820.886	6467
821.026	6673
821.167	6669
821.307	6776
821.447	6768
821.588	6662
821.728	6532
821.868	6388
822.008	6300
822.149	6365
822.289	6300
822.429	6140
822.569	6117
822.709	6102
822.849	5870
822.99	5882
823.13	5923
823.27	5870
823.41	5813
823.55	5786
823.69	5756
823.83	5779
823.97	5611
824.11	5558
824.25	5493
824.389	5532
824.529	5543
824.669	5493
824.809	5665
824.949	5585
825.089	5608
825.228	5543
825.368	5387
825.508	5341
825.648	5311
825.787	5357
825.927	5379
826.067	5330
826.206	5265
826.346	5353
826.485	5414
826.625	5341
826.765	5547
826.904	5482
827.044	5239
827.183	5242
827.323	5124
827.462	5277
827.601	5166
827.741	5151
827.88	5220
828.02	5105
828.159	5280
828.298	5258
828.437	5341
828.577	5235
828.716	5516
828.855	5322
828.994	5174
829.134	5086
829.273	5140
829.412	5143
829.551	5098
829.69	5151
829.829	5239
829.968	5326
830.107	5235
830.246	5227
830.385	5162
830.524	5090
830.663	5060
830.802	4968
830.941	4908
831.08	4847
831.219	4953
831.357	4957
831.496	5151
831.635	4949
831.774	4805
831.913	4828
832.051	4748
832.19	4729
832.329	4812
832.467	4702
832.606	4645
832.744	4675
832.883	4771
833.022	4698
833.16	4786
833.299	4755
833.437	4790
833.576	4824
833.714	4850
833.852	4854
833.991	4885
834.129	4908
834.267	4923
834.406	4881
834.544	5014
834.682	4995
834.821	4923
834.959	5166
835.097	4965
835.235	5162
835.373	5075
835.511	5113
835.65	5003
835.788	5029
835.926	4892
836.064	4908
836.202	4919
836.34	5208
836.478	5185
836.615	5102
836.753	5189
836.891	5269
837.029	5235
837.167	5151
837.305	5170
837.443	5128
837.58	5029
837.718	5280
837.856	5185
837.993	5117
838.131	5235
838.269	5185
838.406	5189
838.544	5223
838.681	5067
838.819	5090
838.956	4923
839.094	4904
839.231	5006
839.369	5109
839.506	5440
839.643	5296
839.781	5037
839.918	5010
840.055	5102
840.193	5105
840.33	5121
840.467	5105
840.604	5212
840.742	5459
840.879	5132
841.016	5048
841.153	5181
841.29	5341
841.427	5318
841.564	5239
841.701	5349
841.838	5246
841.975	5189
842.112	5242
842.249	5136
842.385	5155
842.522	5273
842.659	5143
842.796	5132
842.933	5193
843.069	5109
843.206	5185
843.343	5254
843.479	5216
843.616	5269
843.752	5025
843.889	5025
844.025	5208
844.162	5045
844.298	5250
844.435	5090
844.571	4991
844.708	5162
844.844	5326
844.98	5303
845.117	5288
845.253	5147
845.389	5045
845.525	5159
845.661	5143
845.798	5029
845.934	5121
846.07	5006
846.206	5189
846.342	5231
846.478	5162
846.614	5029
846.75	4965
846.886	4976
847.022	5121
847.158	4999
847.294	5079
847.429	5090
847.565	5029
847.701	5265
847.837	4870
847.972	4812
848.108	4930
848.244	4911
848.379	4809
848.515	4706
848.65	4740
848.786	4755
848.921	4748
849.057	4847
849.192	4858
849.328	4828
849.463	4767
849.598	4740
849.734	4782
849.869	4687
850.004	4649
850.14	4649
850.275	4626
850.41	4500
850.545	4561
850.68	4592
850.815	4607
850.95	4634
851.085	4820
851.22	4729
851.355	4672
851.49	4637
851.625	4660
851.76	4641
851.895	4569
852.03	4512
852.165	4668
852.299	4714
852.434	4797
852.569	4733
852.703	4721
852.838	4835
852.973	4930
853.107	4881
853.242	4755
853.376	4653
853.511	4569
853.645	4645
853.78	4771
853.914	4687
854.048	4672
854.183	4656
854.317	4748
854.451	4801
854.585	4668
854.72	4641
854.854	4752
854.988	4580
855.122	4649
855.256	4504
855.39	4672
855.524	4828
855.658	4782
855.792	4717
855.926	4721
856.06	4763
856.194	4790
856.327	4714
856.461	4577
856.595	4588
856.729	4607
856.862	4698
856.996	4687
857.13	4721
857.263	4740
857.397	4771
857.53	4618
857.664	4717
857.797	4721
857.931	4778
858.064	4649
858.197	4710
858.331	4653
858.464	4599
858.597	4508
858.731	4645
858.864	4641
858.997	4622
859.13	4615
859.263	4645
859.396	4694
859.529	4618
859.662	4577
859.795	4546
859.928	4611
860.061	4729
860.194	4759
860.327	4561
860.46	4573
860.592	4736
860.725	4717
860.858	4691
860.99	4565
861.123	4519
861.256	4527
861.388	4596
861.521	5337
861.653	4508
861.786	4421
861.918	4470
862.05	4519
862.183	4550
862.315	4561
862.447	4687
862.58	4542
862.712	4375
862.844	4367
862.976	4470
863.108	4451
863.24	4828
863.372	4303
863.504	4398
863.636	4379
863.768	4489
863.9	4440
864.032	4356
864.164	4451
864.296	4466
864.428	4599
864.559	4519
864.691	4542
864.823	4535
864.954	4500
865.086	4497
865.217	4462
865.349	4421
865.48	4432
865.612	4497
865.743	4637
865.875	4413
866.006	4459
866.137	4451
866.269	4424
866.4	4440
866.531	4440
866.662	4394
866.793	4386
866.924	4363
867.055	4512
867.186	4436
867.317	4421
867.448	4322
867.579	4367
867.71	4421
867.841	4367
867.972	4421
868.103	4447
868.233	4459
868.364	4455
868.495	4500
868.625	4679
868.756	4736
868.886	4538
869.017	4611
869.147	4740
869.278	4729
869.408	4618
869.539	4618
869.669	4675
869.799	4675
869.929	4721
870.06	4714
870.19	4976
870.32	4915
870.45	4892
870.58	4965
870.71	5075
870.84	5071
870.97	4919
871.1	4828
871.23	5098
871.36	5128
871.489	5014
871.619	5014
871.749	5105
871.879	5132
872.008	5170
872.138	5079
872.267	5033
872.397	4828
872.526	4850
872.656	4706
872.785	4717
872.915	4968
873.044	4984
873.173	4923
873.303	5010
873.432	4930
873.561	4919
873.69	4877
873.819	4835
873.948	4885
874.077	4812
874.206	4767
874.335	4752
874.464	4919
874.593	4995
874.722	4949
874.851	5029
874.979	5064
875.108	5045
875.237	4942
875.365	4870
875.494	4900
875.623	4999
875.751	4805
875.88	4854
876.008	4911
876.136	4980
876.265	5174
876.393	5311
876.521	5250
876.65	5223
876.778	5185
876.906	5102
877.034	5006
877.162	5075
877.29	4953
877.418	5064
877.546	5022
877.674	5003
877.802	4984
877.93	4984
878.058	4961
878.185	4900
878.313	4980
878.441	4927
878.568	4843
878.696	4873
878.824	4957
878.951	4987
879.079	5121
879.206	5269
879.333	5121
879.461	4980
879.588	4930
879.715	5102
879.842	5223
879.97	4976
880.097	4828
880.224	4710
880.351	4721
880.478	4797
880.605	4778
880.732	4793
880.859	5083
880.986	4870
881.112	4885
881.239	4763
881.366	4634
881.493	4615
881.619	4580
881.746	4649
881.872	4653
881.999	4611
882.125	4714
882.252	4797
882.378	4816
882.505	4919
882.631	4793
882.757	4618
882.883	4714
883.01	4706
883.136	4694
883.262	4535
883.388	4615
883.514	4797
883.64	4866
883.766	4805
883.892	4656
884.018	4710
884.143	4873
884.269	5006
884.395	4656
884.52	4626
884.646	4626
884.772	4622
884.897	4527
885.023	4675
885.148	4740
885.274	4831
885.399	4809
885.524	4660
885.65	4664
885.775	4721
885.9	4698
886.025	4885
886.15	4744
886.275	4721
886.4	4675
886.525	4736
886.65	4641
886.775	4691
886.9	4866
887.025	5022
887.149	4797
887.274	4664
887.399	4554
887.523	4577
887.648	4603
887.773	4599
887.897	4778
888.021	4797
888.146	4679
888.27	4828
888.395	4858
888.519	4759
888.643	4850
888.767	4839
888.891	4615
889.015	4626
889.139	4656
889.263	4565
889.387	4729
889.511	4854
889.635	4820
889.759	4641
889.883	4626
890.006	4736
890.13	4820
890.254	4611
890.377	4626
890.501	4535
890.624	4542
890.748	4664
890.871	4485
890.995	4440
891.118	4386
891.241	4535
891.364	4588
891.488	4668
891.611	4466
891.734	4538
891.857	4588
891.98	4569
892.103	4672
892.226	4596
892.349	4489
892.471	4459
892.594	4569
892.717	4569
892.839	4577
892.962	4573
893.085	4649
893.207	4630
893.33	4466
893.452	4500
893.575	4679
893.697	4573
893.819	4828
893.941	4790
894.064	4733
894.186	4607
894.308	4535
894.43	4740
894.552	4782
894.674	4725
894.796	4527
894.918	4626
895.04	4535
895.161	4672
895.283	4626
895.405	4603
895.526	4618
895.648	4687
895.769	4672
895.891	4698
896.012	4683
896.134	4698
896.255	4630
896.376	4637
896.498	4580
896.619	4683
896.74	4645
896.861	4630
896.982	4915
897.103	5071
897.224	4839
897.345	4725
897.466	4649
897.587	4752
897.708	4911
897.828	4782
897.949	4668
898.07	4573
898.19	4649
898.311	4793
898.431	4702
898.552	4748
898.672	4831
898.792	4858
898.913	4820
899.033	4603
899.153	4451
899.273	4440
899.393	4535
899.513	4531
899.633	4580
899.753	4512
899.873	4550
899.993	4588
900.113	4550
900.232	4542
900.352	4561
900.472	4512
900.591	4390
900.711	4451
900.83	4451
900.95	4596
901.069	4645
901.189	4512
901.308	4379
901.427	4314
901.546	4367
901.665	4478
901.784	4512
901.904	4329
902.023	4333
902.141	4196
902.26	4169
902.379	4291
902.498	4219
902.617	4227
902.735	4356
902.854	4375
902.973	4341
903.091	4204
903.21	4219
903.328	4276
903.446	4284
903.565	4223
903.683	4314
903.801	4242
903.919	4440
904.038	4386
904.156	4310
904.274	4390
904.392	4379
904.51	4413
904.627	4447
904.745	4596
904.863	4626
904.981	4379
905.098	4333
905.216	4367
905.334	4409
905.451	4447
905.569	4421
905.686	4546
905.803	4569
905.921	4402
906.038	4508
906.155	4497
906.272	4398
906.389	4462
906.506	4341
906.623	4466
906.74	4386
906.857	4291
906.974	4390
907.091	4577
907.208	4672
907.324	4577
907.441	4470
907.557	4303
907.674	4287
907.79	4272
907.907	4348
908.023	4523
908.139	4462
908.256	4443
908.372	4447
908.488	4493
908.604	4322
908.72	4337
908.836	4383
908.952	4352
909.068	4394
909.184	4565
909.3	4500
909.415	4596
909.531	4546
909.647	4363
909.762	4360
909.878	4375
909.993	4459
910.108	4451
910.224	4424
910.339	4466
910.454	4394
910.57	4360
910.685	4318
910.8	4634
910.915	4542
911.03	4493
911.145	4322
911.259	4325
911.374	4367
911.489	4310
911.604	4295
911.718	4204
911.833	4207
911.947	4097
912.062	4021
912.176	4249
912.291	4242
912.405	4299
912.519	4455
912.633	4466
912.748	4390
912.862	4291
912.976	4169
913.09	4090
913.204	4192
913.318	4272
913.431	4341
913.545	4352
913.659	4424
913.772	4318
913.886	4238
914	4219
914.113	4352
914.226	4451
914.34	4394
914.453	4234
914.566	4409
914.68	4314
914.793	4318
914.906	4158
915.019	4166
915.132	4120
915.245	4207
915.358	4162
915.47	4253
915.583	4230
915.696	4303
915.809	4360
915.921	4470
916.034	4230
916.146	4253
916.259	4200
916.371	4390
916.483	4318
916.595	4272
916.708	4333
916.82	4291
916.932	4341
917.044	4390
917.156	4295
917.268	4215
917.38	4246
917.491	4280
917.603	4386
917.715	4424
917.826	4367
917.938	4310
918.049	4268
918.161	4356
918.272	4542
918.384	4561
918.495	4470
918.606	4295
918.717	4246
918.828	4268
918.939	4405
919.05	4280
919.161	4394
919.272	4090
919.383	4192
919.494	4432
919.604	4580
919.715	4451
919.826	4325
919.936	4424
920.047	4523
920.157	4470
920.267	4679
920.378	4573
920.488	4474
920.598	4721
920.708	4847
920.818	4736
920.928	4767
921.038	4991
921.148	4908
921.258	4653
921.368	4577
921.477	4478
921.587	4519
921.697	4371
921.806	4550
921.916	4432
922.025	4261
922.134	4310
922.244	4246
922.353	4360
922.462	4162
922.571	4093
922.68	3972
922.789	3991
922.898	4025
923.007	3998
923.116	4059
923.224	4040
923.333	4086
923.442	3975
923.55	4002
923.659	4074
923.767	4128
923.876	3979
923.984	4074
924.092	3972
924.201	4074
924.309	4101
924.417	4124
924.525	4032
924.633	4131
924.741	5014
924.849	3922
924.956	4162
925.064	3956
925.172	3896
925.279	3941
925.387	4086
925.494	4048
925.602	4249
925.709	4162
925.816	4021
925.924	4120
926.031	4230
926.138	4173
926.245	4154
926.352	4082
926.459	4249
926.566	4310
926.673	4135
926.779	4093
926.886	4074
926.993	3998
927.099	3975
927.206	3934
927.312	3926
927.419	4040
927.525	4025
927.631	4097
927.737	4002
927.843	3926
927.95	3831
928.056	3956
928.162	3983
928.267	4013
928.373	4660
928.479	4112
928.585	3880
928.69	4032
928.796	4067
928.901	4006
929.007	3831
929.112	3987
929.218	3926
929.323	3975
929.428	3869
929.533	4067
929.638	3888
929.743	3979
929.848	4021
929.953	4006
930.058	3899
930.163	3747
930.267	3835
930.372	4013
930.477	3831
930.581	4063
930.685	3956
930.79	3831
930.894	3838
930.998	3816
931.103	4021
931.207	3755
931.311	3709
931.415	3675
931.519	3557
931.623	3542
