Data from test_V78500241_1959.txt Node
Date: Fri Mar 25 17:02:37 CST 2022
User: usil
Spectrometer: V785-0024
Trigger mode: 0
Integration Time (sec): 4.000000E-1
Scans to average: 1
Nonlinearity correction enabled: false
Boxcar width: 0
Storing dark spectrum: false
XAxis mode: Wavelengths
Number of Pixels in Spectrum: 1024
>>>>>Begin Spectral Data<<<<<
801.071	7955
801.214	7989
801.356	7890
801.499	7845
801.641	7776
801.783	7822
801.926	7970
802.068	7936
802.211	8039
802.353	7970
802.496	7822
802.638	7871
802.78	7864
802.923	7955
803.065	7871
803.208	7845
803.35	7932
803.492	8096
803.635	8050
803.777	8005
803.919	8176
804.061	8438
804.204	8168
804.346	8050
804.488	7951
804.63	8024
804.773	7951
804.915	8035
805.057	8248
805.199	8172
805.341	8183
805.483	8221
805.626	8134
805.768	8058
805.91	8214
806.052	8183
806.194	8100
806.336	8256
806.478	8081
806.62	8043
806.762	8073
806.904	8271
807.046	8450
807.188	8332
807.33	8252
807.472	8351
807.614	8153
807.756	8054
807.898	8005
808.04	7837
808.182	7890
808.324	7845
808.465	7928
808.607	8035
808.749	8081
808.891	8210
809.033	8320
809.174	8153
809.316	8043
809.458	8031
809.6	8005
809.741	8062
809.883	8016
810.025	8027
810.166	8054
810.308	7959
810.45	8035
810.591	7871
810.733	7670
810.875	7677
811.016	7548
811.158	7495
811.299	7506
811.441	7647
811.582	7613
811.724	7582
811.865	7491
812.007	7571
812.148	7586
812.29	7559
812.431	7708
812.573	7826
812.714	8001
812.855	8065
812.997	8240
813.138	8324
813.279	8172
813.421	8031
813.562	7940
813.703	7833
813.845	7715
813.986	7449
814.127	7228
814.268	7179
814.41	7133
814.551	7198
814.692	7202
814.833	7065
814.974	7103
815.115	7080
815.256	6958
815.397	6897
815.539	6909
815.68	6753
815.821	6730
815.962	6852
816.103	6833
816.244	6722
816.385	6604
816.526	6566
816.666	6498
816.807	6281
816.948	6429
817.089	6437
817.23	6407
817.371	6407
817.512	6395
817.653	6426
817.793	6319
817.934	6369
818.075	6456
818.216	6422
818.356	6346
818.497	6273
818.638	6125
818.778	6114
818.919	6121
819.06	6136
819.2	6292
819.341	6300
819.481	6376
819.622	6536
819.762	6749
819.903	6597
820.043	6551
820.184	6578
820.324	6601
820.465	6669
820.605	6654
820.746	6616
820.886	6532
821.026	6665
821.167	6673
821.307	6760
821.447	6772
821.588	6684
821.728	6517
821.868	6471
822.008	6323
822.149	6357
822.289	6315
822.429	6163
822.569	6068
822.709	6140
822.849	5931
822.99	5885
823.13	5927
823.27	5897
823.41	5779
823.55	5824
823.69	5779
823.83	5752
823.97	5657
824.11	5566
824.25	5497
824.389	5554
824.529	5581
824.669	5512
824.809	5615
824.949	5672
825.089	5619
825.228	5570
825.368	5395
825.508	5364
825.648	5364
825.787	5402
825.927	5391
826.067	5318
826.206	5296
826.346	5345
826.485	5383
826.625	5376
826.765	5474
826.904	5467
827.044	5239
827.183	5162
827.323	5143
827.462	5273
827.601	5143
827.741	5166
827.88	5185
828.02	5132
828.159	5208
828.298	5311
828.437	5330
828.577	5280
828.716	5452
828.855	5292
828.994	5143
829.134	5147
829.273	5204
829.412	5204
829.551	5147
829.69	5155
829.829	5227
829.968	5322
830.107	5277
830.246	5250
830.385	5189
830.524	5056
830.663	5018
830.802	4911
830.941	4877
831.08	4831
831.219	4946
831.357	4987
831.496	5151
831.635	4900
831.774	4801
831.913	4797
832.051	4717
832.19	4736
832.329	4820
832.467	4694
832.606	4641
832.744	4717
832.883	4694
833.022	4679
833.16	4801
833.299	4820
833.437	4786
833.576	4839
833.714	4835
833.852	4828
833.991	4892
834.129	4999
834.267	4911
834.406	4889
834.544	4927
834.682	4961
834.821	4934
834.959	5178
835.097	4980
835.235	5090
835.373	5045
835.511	5064
835.65	5010
835.788	4999
835.926	4919
836.064	4835
836.202	4885
836.34	5132
836.478	5223
836.615	5117
836.753	5151
836.891	5246
837.029	5254
837.167	5208
837.305	5151
837.443	5117
837.58	5105
837.718	5204
837.856	5170
837.993	5102
838.131	5204
838.269	5143
838.406	5155
838.544	5155
838.681	4999
838.819	5014
838.956	4877
839.094	4908
839.231	4942
839.369	5094
839.506	5436
839.643	5269
839.781	5014
839.918	4972
840.055	5117
840.193	5140
840.33	5098
840.467	5109
840.604	5185
840.742	5448
840.879	5045
841.016	5025
841.153	5155
841.29	5398
841.427	5288
841.564	5315
841.701	5357
841.838	5265
841.975	5223
842.112	5235
842.249	5159
842.385	5113
842.522	5345
842.659	5140
842.796	5159
842.933	5136
843.069	5117
843.206	5121
843.343	5280
843.479	5197
843.616	5239
843.752	5094
843.889	5048
844.025	5216
844.162	5037
844.298	5197
844.435	5075
844.571	5064
844.708	5143
844.844	5273
844.98	5284
845.117	5246
845.253	5147
845.389	5029
845.525	5189
845.661	5098
845.798	5037
845.934	5140
846.07	5014
846.206	5155
846.342	5296
846.478	5166
846.614	5052
846.75	4965
846.886	4923
847.022	5124
847.158	4984
847.294	5060
847.429	5064
847.565	5060
847.701	5292
847.837	4839
847.972	4843
848.108	4930
848.244	4961
848.379	4797
848.515	4710
848.65	4637
848.786	4725
848.921	4801
849.057	4847
849.192	4896
849.328	4805
849.463	4797
849.598	4778
849.734	4793
849.869	4683
850.004	4645
850.14	4634
850.275	4584
850.41	4523
850.545	4512
850.68	4615
850.815	4626
850.95	4637
851.085	4816
851.22	4725
851.355	4645
851.49	4611
851.625	4664
851.76	4637
851.895	4565
852.03	4519
852.165	4584
852.299	4698
852.434	4744
852.569	4755
852.703	4854
852.838	4850
852.973	4938
853.107	4927
853.242	4721
853.376	4714
853.511	4542
853.645	4596
853.78	4812
853.914	4717
854.048	4660
854.183	4679
854.317	4679
854.451	4812
854.585	4691
854.72	4645
854.854	4725
854.988	4569
855.122	4645
855.256	4523
855.39	4649
855.524	4710
855.658	4740
855.792	4653
855.926	4740
856.06	4801
856.194	4858
856.327	4691
856.461	4607
856.595	4584
856.729	4607
856.862	4744
856.996	4721
857.13	4774
857.263	4721
857.397	4793
857.53	4637
857.664	4691
857.797	4744
857.931	4748
858.064	4706
858.197	4759
858.331	4637
858.464	4637
858.597	4554
858.731	4656
858.864	4630
858.997	4516
859.13	4653
859.263	4611
859.396	4691
859.529	4558
859.662	4554
859.795	4550
859.928	4584
860.061	4702
860.194	4790
860.327	4580
860.46	4558
860.592	4668
860.725	4733
860.858	4733
860.99	4573
861.123	4481
861.256	4535
861.388	4599
861.521	5269
861.653	4497
861.786	4474
861.918	4417
862.05	4512
862.183	4573
862.315	4592
862.447	4618
862.58	4573
862.712	4341
862.844	4314
862.976	4462
863.108	4428
863.24	4733
863.372	4356
863.504	4398
863.636	4440
863.768	4523
863.9	4432
864.032	4371
864.164	4402
864.296	4436
864.428	4577
864.559	4561
864.691	4508
864.823	4527
864.954	4424
865.086	4508
865.217	4493
865.349	4402
865.48	4485
865.612	4481
865.743	4611
865.875	4451
866.006	4421
866.137	4447
866.269	4489
866.4	4432
866.531	4459
866.662	4402
866.793	4383
866.924	4436
867.055	4478
867.186	4478
867.317	4459
867.448	4455
867.579	4363
867.71	4417
867.841	4383
867.972	4413
868.103	4462
868.233	4455
868.364	4421
868.495	4504
868.625	4679
868.756	4729
868.886	4584
869.017	4596
869.147	4774
869.278	4748
869.408	4656
869.539	4584
869.669	4736
869.799	4702
869.929	4755
870.06	4740
870.19	4961
870.32	4938
870.45	4942
870.58	4965
870.71	5083
870.84	5045
870.97	4930
871.1	4835
871.23	5132
871.36	5102
871.489	5003
871.619	5094
871.749	5102
871.879	5121
872.008	5166
872.138	5041
872.267	4984
872.397	4835
872.526	4828
872.656	4729
872.785	4843
872.915	4965
873.044	4980
873.173	4938
873.303	5006
873.432	4946
873.561	4991
873.69	4873
873.819	4858
873.948	4870
874.077	4786
874.206	4698
874.335	4805
874.464	4911
874.593	5060
874.722	4965
874.851	5018
874.979	5056
875.108	4972
875.237	4911
875.365	4870
875.494	4870
875.623	4946
875.751	4862
875.88	4862
876.008	4976
876.136	5067
876.265	5212
876.393	5334
876.521	5299
876.65	5174
876.778	5155
876.906	5052
877.034	5022
877.162	5033
877.29	4968
877.418	5025
877.546	5014
877.674	5071
877.802	4968
877.93	5003
878.058	4900
878.185	4847
878.313	4991
878.441	4946
878.568	4824
878.696	4870
878.824	4946
878.951	5006
879.079	5124
879.206	5231
879.333	5128
879.461	4980
879.588	4953
879.715	5109
879.842	5197
879.97	5048
880.097	4828
880.224	4774
880.351	4824
880.478	4782
880.605	4774
880.732	4812
880.859	5117
880.986	4862
881.112	4911
881.239	4782
881.366	4717
881.493	4618
881.619	4603
881.746	4569
881.872	4615
881.999	4656
882.125	4679
882.252	4767
882.378	4816
882.505	4972
882.631	4797
882.757	4698
882.883	4725
883.01	4752
883.136	4698
883.262	4580
883.388	4599
883.514	4774
883.64	4877
883.766	4782
883.892	4656
884.018	4656
884.143	4870
884.269	5014
884.395	4649
884.52	4622
884.646	4634
884.772	4546
884.897	4550
885.023	4668
885.148	4759
885.274	4870
885.399	4816
885.524	4687
885.65	4683
885.775	4744
885.9	4691
886.025	4873
886.15	4778
886.275	4706
886.4	4683
886.525	4752
886.65	4725
886.775	4687
886.9	4927
887.025	4991
887.149	4805
887.274	4668
887.399	4592
887.523	4615
887.648	4588
887.773	4618
887.897	4744
888.021	4786
888.146	4683
888.27	4771
888.395	4850
888.519	4797
888.643	4843
888.767	4858
888.891	4672
889.015	4569
889.139	4641
889.263	4599
889.387	4778
889.511	4862
889.635	4801
889.759	4664
889.883	4626
890.006	4706
890.13	4870
890.254	4607
890.377	4721
890.501	4573
890.624	4554
890.748	4672
890.871	4531
890.995	4436
891.118	4405
891.241	4531
891.364	4508
891.488	4596
891.611	4481
891.734	4554
891.857	4611
891.98	4542
892.103	4596
892.226	4603
892.349	4523
892.471	4409
892.594	4542
892.717	4649
892.839	4561
892.962	4577
893.085	4660
893.207	4630
893.33	4466
893.452	4554
893.575	4675
893.697	4577
893.819	4828
893.941	4790
894.064	4782
894.186	4577
894.308	4542
894.43	4672
894.552	4812
894.674	4710
894.796	4569
894.918	4573
895.04	4561
895.161	4630
895.283	4691
895.405	4550
895.526	4664
895.648	4698
895.769	4687
895.891	4698
896.012	4759
896.134	4755
896.255	4664
896.376	4656
896.498	4596
896.619	4641
896.74	4607
896.861	4672
896.982	4896
897.103	5064
897.224	4843
897.345	4687
897.466	4675
897.587	4736
897.708	4858
897.828	4782
897.949	4687
898.07	4580
898.19	4656
898.311	4824
898.431	4687
898.552	4736
898.672	4786
898.792	4786
898.913	4721
899.033	4634
899.153	4474
899.273	4432
899.393	4531
899.513	4519
899.633	4500
899.753	4569
899.873	4569
899.993	4550
900.113	4535
900.232	4592
900.352	4554
900.472	4447
900.591	4402
900.711	4462
900.83	4447
900.95	4565
901.069	4691
901.189	4508
901.308	4337
901.427	4325
901.546	4363
901.665	4493
901.784	4519
901.904	4356
902.023	4367
902.141	4185
902.26	4173
902.379	4325
902.498	4261
902.617	4177
902.735	4356
902.854	4375
902.973	4295
903.091	4242
903.21	4207
903.328	4265
903.446	4287
903.565	4238
903.683	4322
903.801	4238
903.919	4360
904.038	4474
904.156	4352
904.274	4394
904.392	4394
904.51	4421
904.627	4409
904.745	4573
904.863	4558
904.981	4363
905.098	4287
905.216	4394
905.334	4417
905.451	4459
905.569	4440
905.686	4569
905.803	4542
905.921	4421
906.038	4573
906.155	4478
906.272	4421
906.389	4485
906.506	4341
906.623	4375
906.74	4413
906.857	4291
906.974	4356
907.091	4573
907.208	4653
907.324	4569
907.441	4489
907.557	4325
907.674	4333
907.79	4284
907.907	4360
908.023	4493
908.139	4508
908.256	4462
908.372	4440
908.488	4424
908.604	4363
908.72	4306
908.836	4329
908.952	4367
909.068	4436
909.184	4561
909.3	4481
909.415	4645
909.531	4535
909.647	4341
909.762	4360
909.878	4306
909.993	4447
910.108	4417
910.224	4405
910.339	4455
910.454	4405
910.57	4360
910.685	4337
910.8	4580
910.915	4607
911.03	4462
911.145	4299
911.259	4318
911.374	4348
911.489	4291
911.604	4276
911.718	4162
911.833	4181
911.947	4063
912.062	3983
912.176	4211
912.291	4230
912.405	4253
912.519	4451
912.633	4474
912.748	4341
912.862	4310
912.976	4200
913.09	4090
913.204	4196
913.318	4272
913.431	4344
913.545	4352
913.659	4424
913.772	4329
913.886	4246
914	4207
914.113	4421
914.226	4367
914.34	4390
914.453	4230
914.566	4424
914.68	4303
914.793	4333
914.906	4124
915.019	4097
915.132	4055
915.245	4147
915.358	4211
915.47	4261
915.583	4234
915.696	4325
915.809	4371
915.921	4375
916.034	4230
916.146	4211
916.259	4242
916.371	4344
916.483	4341
916.595	4227
916.708	4299
916.82	4314
916.932	4341
917.044	4333
917.156	4337
917.268	4246
917.38	4249
917.491	4284
917.603	4314
917.715	4398
917.826	4443
917.938	4352
918.049	4215
918.161	4432
918.272	4523
918.384	4535
918.495	4485
918.606	4287
918.717	4219
918.828	4341
918.939	4329
919.05	4249
919.161	4329
919.272	4135
919.383	4246
919.494	4421
919.604	4653
919.715	4474
919.826	4398
919.936	4394
920.047	4527
920.157	4481
920.267	4706
920.378	4527
920.488	4474
920.598	4729
920.708	4854
920.818	4748
920.928	4759
921.038	4934
921.148	4911
921.258	4611
921.368	4577
921.477	4485
921.587	4489
921.697	4352
921.806	4535
921.916	4402
922.025	4253
922.134	4253
922.244	4265
922.353	4333
922.462	4150
922.571	4154
922.68	4040
922.789	3979
922.898	4017
923.007	3960
923.116	4112
923.224	4051
923.333	4090
923.442	3964
923.55	4002
923.659	4051
923.767	4086
923.876	3968
923.984	4101
924.092	4006
924.201	4067
924.309	4109
924.417	4166
924.525	4139
924.633	4139
924.741	5067
924.849	3892
924.956	4109
925.064	3926
925.172	3922
925.279	3968
925.387	4048
925.494	4025
925.602	4211
925.709	4188
925.816	4029
925.924	4116
926.031	4211
926.138	4154
926.245	4204
926.352	4112
926.459	4238
926.566	4322
926.673	4128
926.779	4093
926.886	4048
926.993	3956
927.099	3968
927.206	3934
927.312	3945
927.419	4025
927.525	3987
927.631	4097
927.737	3934
927.843	3926
927.95	3831
928.056	3949
928.162	4002
928.267	4078
928.373	4531
928.479	4131
928.585	3842
928.69	3987
928.796	4025
928.901	3968
929.007	3823
929.112	3983
929.218	3960
929.323	3953
929.428	3911
929.533	4109
929.638	3873
929.743	3941
929.848	4055
929.953	4021
930.058	3865
930.163	3789
930.267	3838
930.372	3953
930.477	3800
930.581	4067
930.685	3945
930.79	3816
930.894	3873
930.998	3869
931.103	3994
931.207	3690
931.311	3720
931.415	3671
931.519	3488
931.623	3542
