Data from test_V78500241_2657.txt Node
Date: Fri Mar 25 17:07:28 CST 2022
User: usil
Spectrometer: V785-0024
Trigger mode: 0
Integration Time (sec): 4.000000E-1
Scans to average: 1
Nonlinearity correction enabled: false
Boxcar width: 0
Storing dark spectrum: false
XAxis mode: Wavelengths
Number of Pixels in Spectrum: 1024
>>>>>Begin Spectral Data<<<<<
801.071	8084
801.214	7982
801.356	7906
801.499	7879
801.641	7879
801.783	7875
801.926	7955
802.068	7955
802.211	7986
802.353	8096
802.496	7894
802.638	7913
802.78	7947
802.923	7974
803.065	7868
803.208	7898
803.35	8031
803.492	8111
803.635	8130
803.777	8092
803.919	8119
804.061	8419
804.204	8153
804.346	8100
804.488	7944
804.63	8069
804.773	8058
804.915	8191
805.057	8263
805.199	8225
805.341	8275
805.483	8385
805.626	8237
805.768	8142
805.91	8279
806.052	8168
806.194	8100
806.336	8313
806.478	8134
806.62	8024
806.762	8103
806.904	8252
807.046	8431
807.188	8377
807.33	8339
807.472	8343
807.614	8149
807.756	8202
807.898	8001
808.04	7841
808.182	7928
808.324	7849
808.465	7890
808.607	8119
808.749	8115
808.891	8244
809.033	8286
809.174	8248
809.316	8058
809.458	8111
809.6	8123
809.741	8088
809.883	8020
810.025	8142
810.166	8069
810.308	8065
810.45	8005
810.591	7868
810.733	7708
810.875	7677
811.016	7529
811.158	7483
811.299	7628
811.441	7818
811.582	7715
811.724	7620
811.865	7571
812.007	7658
812.148	7666
812.29	7658
812.431	7856
812.573	7928
812.714	7959
812.855	8153
812.997	8237
813.138	8381
813.279	8218
813.421	8142
813.562	8077
813.703	7871
813.845	7708
813.986	7400
814.127	7274
814.268	7278
814.41	7202
814.551	7206
814.692	7247
814.833	7122
814.974	7110
815.115	7168
815.256	7034
815.397	7004
815.539	6875
815.68	6840
815.821	6814
815.962	6863
816.103	6863
816.244	6726
816.385	6707
816.526	6673
816.666	6589
816.807	6323
816.948	6490
817.089	6490
817.23	6448
817.371	6410
817.512	6433
817.653	6372
817.793	6353
817.934	6486
818.075	6544
818.216	6418
818.356	6384
818.497	6273
818.638	6133
818.778	6178
818.919	6171
819.06	6144
819.2	6384
819.341	6369
819.481	6391
819.622	6589
819.762	6776
819.903	6688
820.043	6620
820.184	6650
820.324	6627
820.465	6715
820.605	6707
820.746	6684
820.886	6570
821.026	6707
821.167	6715
821.307	6787
821.447	6730
821.588	6688
821.728	6631
821.868	6502
822.008	6327
822.149	6342
822.289	6399
822.429	6216
822.569	6163
822.709	6117
822.849	5942
822.99	5927
823.13	5977
823.27	5996
823.41	5859
823.55	5805
823.69	5783
823.83	5779
823.97	5710
824.11	5551
824.25	5619
824.389	5566
824.529	5627
824.669	5581
824.809	5684
824.949	5634
825.089	5608
825.228	5547
825.368	5448
825.508	5414
825.648	5318
825.787	5376
825.927	5330
826.067	5326
826.206	5299
826.346	5391
826.485	5505
826.625	5448
826.765	5570
826.904	5528
827.044	5277
827.183	5166
827.323	5151
827.462	5288
827.601	5204
827.741	5201
827.88	5201
828.02	5140
828.159	5280
828.298	5341
828.437	5322
828.577	5360
828.716	5490
828.855	5299
828.994	5189
829.134	5185
829.273	5235
829.412	5201
829.551	5159
829.69	5197
829.829	5246
829.968	5387
830.107	5269
830.246	5239
830.385	5174
830.524	5159
830.663	5094
830.802	4953
830.941	4908
831.08	4908
831.219	4991
831.357	4968
831.496	5178
831.635	4892
831.774	4835
831.913	4870
832.051	4748
832.19	4771
832.329	4862
832.467	4736
832.606	4691
832.744	4721
832.883	4729
833.022	4736
833.16	4774
833.299	4809
833.437	4919
833.576	4850
833.714	4896
833.852	4881
833.991	4919
834.129	4976
834.267	4946
834.406	4892
834.544	4965
834.682	5003
834.821	4995
834.959	5170
835.097	5003
835.235	5155
835.373	5117
835.511	5121
835.65	5045
835.788	5048
835.926	4946
836.064	4892
836.202	4908
836.34	5181
836.478	5239
836.615	5147
836.753	5204
836.891	5288
837.029	5284
837.167	5204
837.305	5178
837.443	5223
837.58	5098
837.718	5269
837.856	5208
837.993	5117
838.131	5242
838.269	5201
838.406	5220
838.544	5201
838.681	5037
838.819	5056
838.956	4911
839.094	4980
839.231	5060
839.369	5136
839.506	5429
839.643	5269
839.781	5079
839.918	5014
840.055	5109
840.193	5147
840.33	5113
840.467	5178
840.604	5159
840.742	5410
840.879	5124
841.016	5102
841.153	5166
841.29	5414
841.427	5330
841.564	5318
841.701	5315
841.838	5315
841.975	5231
842.112	5246
842.249	5155
842.385	5155
842.522	5307
842.659	5155
842.796	5136
842.933	5216
843.069	5147
843.206	5155
843.343	5337
843.479	5204
843.616	5269
843.752	5094
843.889	5048
844.025	5250
844.162	5037
844.298	5220
844.435	5071
844.571	5090
844.708	5197
844.844	5265
844.98	5345
845.117	5318
845.253	5185
845.389	5083
845.525	5174
845.661	5189
845.798	5060
845.934	5151
846.07	5090
846.206	5216
846.342	5315
846.478	5178
846.614	5033
846.75	4976
846.886	4957
847.022	5185
847.158	5086
847.294	5060
847.429	5083
847.565	5033
847.701	5307
847.837	4835
847.972	4782
848.108	4980
848.244	4923
848.379	4755
848.515	4740
848.65	4733
848.786	4782
848.921	4809
849.057	4873
849.192	4904
849.328	4839
849.463	4908
849.598	4831
849.734	4812
849.869	4698
850.004	4634
850.14	4702
850.275	4630
850.41	4558
850.545	4615
850.68	4626
850.815	4645
850.95	4725
851.085	4889
851.22	4752
851.355	4694
851.49	4653
851.625	4683
851.76	4683
851.895	4558
852.03	4569
852.165	4660
852.299	4748
852.434	4786
852.569	4858
852.703	4824
852.838	4877
852.973	4946
853.107	4972
853.242	4767
853.376	4755
853.511	4588
853.645	4634
853.78	4873
853.914	4694
854.048	4736
854.183	4653
854.317	4767
854.451	4870
854.585	4752
854.72	4721
854.854	4790
854.988	4641
855.122	4656
855.256	4561
855.39	4725
855.524	4877
855.658	4744
855.792	4691
855.926	4774
856.06	4816
856.194	4866
856.327	4759
856.461	4668
856.595	4687
856.729	4641
856.862	4763
856.996	4767
857.13	4805
857.263	4835
857.397	4831
857.53	4714
857.664	4774
857.797	4850
857.931	4835
858.064	4744
858.197	4755
858.331	4649
858.464	4649
858.597	4550
858.731	4683
858.864	4641
858.997	4645
859.13	4687
859.263	4721
859.396	4729
859.529	4675
859.662	4611
859.795	4592
859.928	4660
860.061	4812
860.194	4831
860.327	4599
860.46	4607
860.592	4748
860.725	4755
860.858	4786
860.99	4603
861.123	4599
861.256	4550
861.388	4687
861.521	5440
861.653	4493
861.786	4497
861.918	4500
862.05	4573
862.183	4554
862.315	4649
862.447	4660
862.58	4618
862.712	4440
862.844	4337
862.976	4558
863.108	4504
863.24	4763
863.372	4405
863.504	4462
863.636	4409
863.768	4535
863.9	4470
864.032	4386
864.164	4462
864.296	4497
864.428	4577
864.559	4592
864.691	4618
864.823	4580
864.954	4508
865.086	4535
865.217	4459
865.349	4409
865.48	4516
865.612	4546
865.743	4645
865.875	4512
866.006	4474
866.137	4489
866.269	4497
866.4	4500
866.531	4417
866.662	4428
866.793	4432
866.924	4451
867.055	4493
867.186	4459
867.317	4504
867.448	4371
867.579	4405
867.71	4436
867.841	4409
867.972	4504
868.103	4466
868.233	4504
868.364	4489
868.495	4580
868.625	4729
868.756	4805
868.886	4634
869.017	4645
869.147	4797
869.278	4793
869.408	4698
869.539	4679
869.669	4748
869.799	4702
869.929	4786
870.06	4759
870.19	5022
870.32	4938
870.45	4995
870.58	5071
870.71	5105
870.84	5121
870.97	5006
871.1	4965
871.23	5185
871.36	5208
871.489	5041
871.619	5113
871.749	5086
871.879	5155
872.008	5197
872.138	5102
872.267	5022
872.397	4942
872.526	4828
872.656	4736
872.785	4824
872.915	5060
873.044	5105
873.173	5006
873.303	4968
873.432	4999
873.561	4965
873.69	4896
873.819	4896
873.948	4968
874.077	4824
874.206	4828
874.335	4828
874.464	4991
874.593	5075
874.722	4976
874.851	5128
874.979	5086
875.108	5037
875.237	4965
875.365	4949
875.494	4942
875.623	5014
875.751	4866
875.88	4896
876.008	4968
876.136	5079
876.265	5239
876.393	5395
876.521	5307
876.65	5280
876.778	5216
876.906	5102
877.034	5010
877.162	5086
877.29	5014
877.418	5113
877.546	5086
877.674	5075
877.802	5079
877.93	5067
878.058	4968
878.185	4911
878.313	5010
878.441	5010
878.568	4870
878.696	4881
878.824	5003
878.951	5029
879.079	5174
879.206	5334
879.333	5140
879.461	5003
879.588	5003
879.715	5174
879.842	5280
879.97	5056
880.097	4801
880.224	4774
880.351	4847
880.478	4854
880.605	4824
880.732	4835
880.859	5098
880.986	4957
881.112	5003
881.239	4797
881.366	4706
881.493	4634
881.619	4565
881.746	4679
881.872	4698
881.999	4717
882.125	4706
882.252	4820
882.378	4820
882.505	4976
882.631	4797
882.757	4736
882.883	4793
883.01	4717
883.136	4729
883.262	4691
883.388	4668
883.514	4828
883.64	4870
883.766	4847
883.892	4748
884.018	4733
884.143	4938
884.269	4991
884.395	4687
884.52	4630
884.646	4672
884.772	4603
884.897	4592
885.023	4721
885.148	4790
885.274	4934
885.399	4843
885.524	4736
885.65	4767
885.775	4793
885.9	4717
886.025	4900
886.15	4828
886.275	4725
886.4	4698
886.525	4767
886.65	4714
886.775	4733
886.9	4942
887.025	5052
887.149	4835
887.274	4683
887.399	4626
887.523	4653
887.648	4626
887.773	4577
887.897	4790
888.021	4774
888.146	4725
888.27	4870
888.395	4896
888.519	4771
888.643	4797
888.767	4854
888.891	4744
889.015	4664
889.139	4641
889.263	4672
889.387	4809
889.511	4896
889.635	4820
889.759	4645
889.883	4649
890.006	4763
890.13	4824
890.254	4675
890.377	4702
890.501	4596
890.624	4489
890.748	4675
890.871	4516
890.995	4443
891.118	4390
891.241	4523
891.364	4592
891.488	4641
891.611	4527
891.734	4558
891.857	4641
891.98	4554
892.103	4664
892.226	4615
892.349	4577
892.471	4459
892.594	4584
892.717	4596
892.839	4584
892.962	4618
893.085	4675
893.207	4626
893.33	4504
893.452	4531
893.575	4679
893.697	4630
893.819	4809
893.941	4870
894.064	4759
894.186	4580
894.308	4577
894.43	4752
894.552	4862
894.674	4793
894.796	4588
894.918	4618
895.04	4626
895.161	4721
895.283	4664
895.405	4634
895.526	4668
895.648	4714
895.769	4733
895.891	4752
896.012	4771
896.134	4759
896.255	4710
896.376	4656
896.498	4634
896.619	4702
896.74	4645
896.861	4691
896.982	4953
897.103	5067
897.224	4831
897.345	4748
897.466	4668
897.587	4721
897.708	4835
897.828	4812
897.949	4721
898.07	4603
898.19	4675
898.311	4877
898.431	4660
898.552	4763
898.672	4828
898.792	4809
898.913	4748
899.033	4679
899.153	4531
899.273	4447
899.393	4558
899.513	4550
899.633	4512
899.753	4542
899.873	4508
899.993	4588
900.113	4519
900.232	4611
900.352	4569
900.472	4493
900.591	4421
900.711	4546
900.83	4470
900.95	4641
901.069	4694
901.189	4565
901.308	4432
901.427	4356
901.546	4394
901.665	4447
901.784	4470
901.904	4394
902.023	4284
902.141	4227
902.26	4181
902.379	4325
902.498	4318
902.617	4219
902.735	4413
902.854	4394
902.973	4390
903.091	4246
903.21	4265
903.328	4287
903.446	4325
903.565	4284
903.683	4390
903.801	4291
903.919	4455
904.038	4451
904.156	4398
904.274	4481
904.392	4436
904.51	4394
904.627	4462
904.745	4577
904.863	4687
904.981	4462
905.098	4348
905.216	4447
905.334	4421
905.451	4508
905.569	4478
905.686	4577
905.803	4561
905.921	4409
906.038	4611
906.155	4485
906.272	4489
906.389	4516
906.506	4424
906.623	4413
906.74	4413
906.857	4352
906.974	4402
907.091	4653
907.208	4645
907.324	4649
907.441	4527
907.557	4367
907.674	4386
907.79	4299
907.907	4443
908.023	4466
908.139	4516
908.256	4470
908.372	4500
908.488	4478
908.604	4375
908.72	4329
908.836	4424
908.952	4409
909.068	4459
909.184	4558
909.3	4485
909.415	4558
909.531	4603
909.647	4383
909.762	4337
909.878	4348
909.993	4459
910.108	4432
910.224	4405
910.339	4478
910.454	4379
910.57	4383
910.685	4344
910.8	4668
910.915	4634
911.03	4512
911.145	4325
911.259	4333
911.374	4394
911.489	4352
911.604	4280
911.718	4230
911.833	4192
911.947	4090
912.062	4013
912.176	4223
912.291	4242
912.405	4280
912.519	4455
912.633	4527
912.748	4432
912.862	4322
912.976	4185
913.09	4131
913.204	4150
913.318	4246
913.431	4375
913.545	4417
913.659	4466
913.772	4402
913.886	4280
914	4246
914.113	4436
914.226	4459
914.34	4386
914.453	4253
914.566	4459
914.68	4341
914.793	4310
914.906	4166
915.019	4173
915.132	4078
915.245	4223
915.358	4230
915.47	4272
915.583	4284
915.696	4276
915.809	4424
915.921	4421
916.034	4303
916.146	4284
916.259	4284
916.371	4375
916.483	4375
916.595	4299
916.708	4363
916.82	4360
916.932	4291
917.044	4325
917.156	4356
917.268	4230
917.38	4303
917.491	4314
917.603	4344
917.715	4413
917.826	4451
917.938	4337
918.049	4257
918.161	4428
918.272	4580
918.384	4535
918.495	4424
918.606	4291
918.717	4272
918.828	4375
918.939	4383
919.05	4211
919.161	4348
919.272	4154
919.383	4253
919.494	4413
919.604	4634
919.715	4417
919.826	4363
919.936	4413
920.047	4527
920.157	4523
920.267	4710
920.378	4542
920.488	4542
920.598	4714
920.708	4927
920.818	4782
920.928	4778
921.038	4949
921.148	4896
921.258	4645
921.368	4561
921.477	4519
921.587	4447
921.697	4386
921.806	4596
921.916	4398
922.025	4284
922.134	4230
922.244	4215
922.353	4367
922.462	4207
922.571	4154
922.68	4032
922.789	4002
922.898	4040
923.007	4029
923.116	4109
923.224	4078
923.333	4074
923.442	4036
923.55	3987
923.659	4029
923.767	4112
923.876	4025
923.984	4143
924.092	3994
924.201	4086
924.309	4101
924.417	4158
924.525	4090
924.633	4128
924.741	5033
924.849	3945
924.956	4188
925.064	3937
925.172	3949
925.279	3956
925.387	4071
925.494	4040
925.602	4249
925.709	4204
925.816	4055
925.924	4150
926.031	4223
926.138	4196
926.245	4242
926.352	4105
926.459	4249
926.566	4280
926.673	4196
926.779	4105
926.886	4120
926.993	3998
927.099	3975
927.206	3922
927.312	3956
927.419	4013
927.525	4029
927.631	4124
927.737	4010
927.843	3930
927.95	3854
928.056	3926
928.162	3964
928.267	4086
928.373	4637
928.479	4158
928.585	3926
928.69	4032
928.796	4055
928.901	3987
929.007	3846
929.112	4017
929.218	4002
929.323	3941
929.428	3941
929.533	4112
929.638	3922
929.743	3964
929.848	4074
929.953	4010
930.058	3937
930.163	3770
930.267	3869
930.372	3960
930.477	3819
930.581	4131
930.685	3983
930.79	3804
930.894	3896
930.998	3930
931.103	4063
931.207	3732
931.311	3732
931.415	3648
931.519	3557
931.623	3542
