Data from test_V78500241_155.txt Node
Date: Fri Mar 25 16:50:04 CST 2022
User: usil
Spectrometer: V785-0024
Trigger mode: 0
Integration Time (sec): 4.000000E-1
Scans to average: 1
Nonlinearity correction enabled: false
Boxcar width: 0
Storing dark spectrum: false
XAxis mode: Wavelengths
Number of Pixels in Spectrum: 1024
>>>>>Begin Spectral Data<<<<<
801.071	8043
801.214	7986
801.356	7887
801.499	7803
801.641	7814
801.783	7917
801.926	8046
802.068	7989
802.211	8005
802.353	7997
802.496	7932
802.638	7909
802.78	7887
802.923	7974
803.065	7856
803.208	7849
803.35	7951
803.492	8115
803.635	8107
803.777	8001
803.919	8058
804.061	8358
804.204	8096
804.346	7986
804.488	7970
804.63	8058
804.773	7951
804.915	8096
805.057	8248
805.199	8126
805.341	8130
805.483	8286
805.626	8176
805.768	8161
805.91	8187
806.052	8259
806.194	8111
806.336	8298
806.478	8149
806.62	8035
806.762	8069
806.904	8263
807.046	8355
807.188	8313
807.33	8248
807.472	8301
807.614	8161
807.756	8111
807.898	8008
808.04	7917
808.182	7875
808.324	7906
808.465	7879
808.607	8081
808.749	8145
808.891	8237
809.033	8320
809.174	8252
809.316	8096
809.458	8081
809.6	8012
809.741	8081
809.883	8081
810.025	8100
810.166	8058
810.308	8039
810.45	7993
810.591	7925
810.733	7807
810.875	7734
811.016	7537
811.158	7502
811.299	7605
811.441	7769
811.582	7731
811.724	7639
811.865	7586
812.007	7632
812.148	7677
812.29	7712
812.431	7807
812.573	7970
812.714	8024
812.855	8176
812.997	8317
813.138	8374
813.279	8206
813.421	8221
813.562	8115
813.703	7928
813.845	7780
813.986	7495
814.127	7308
814.268	7289
814.41	7324
814.551	7152
814.692	7228
814.833	7160
814.974	7221
815.115	7217
815.256	6966
815.397	6958
815.539	6932
815.68	6833
815.821	6795
815.962	6840
816.103	6814
816.244	6749
816.385	6631
816.526	6684
816.666	6536
816.807	6357
816.948	6437
817.089	6525
817.23	6506
817.371	6395
817.512	6372
817.653	6414
817.793	6369
817.934	6388
818.075	6433
818.216	6448
818.356	6410
818.497	6262
818.638	6144
818.778	6167
818.919	6136
819.06	6136
819.2	6403
819.341	6395
819.481	6353
819.622	6551
819.762	6783
819.903	6677
820.043	6623
820.184	6585
820.324	6650
820.465	6669
820.605	6741
820.746	6665
820.886	6547
821.026	6722
821.167	6764
821.307	6825
821.447	6787
821.588	6692
821.728	6589
821.868	6528
822.008	6350
822.149	6464
822.289	6369
822.429	6224
822.569	6110
822.709	6125
822.849	5942
822.99	5946
823.13	5935
823.27	5904
823.41	5798
823.55	5802
823.69	5809
823.83	5836
823.97	5733
824.11	5566
824.25	5581
824.389	5551
824.529	5611
824.669	5585
824.809	5695
824.949	5665
825.089	5642
825.228	5562
825.368	5417
825.508	5383
825.648	5398
825.787	5398
825.927	5330
826.067	5288
826.206	5265
826.346	5395
826.485	5440
826.625	5387
826.765	5539
826.904	5490
827.044	5246
827.183	5189
827.323	5136
827.462	5223
827.601	5189
827.741	5239
827.88	5258
828.02	5113
828.159	5261
828.298	5337
828.437	5334
828.577	5296
828.716	5505
828.855	5376
828.994	5181
829.134	5155
829.273	5269
829.412	5166
829.551	5189
829.69	5220
829.829	5265
829.968	5368
830.107	5307
830.246	5337
830.385	5189
830.524	5166
830.663	5140
830.802	4999
830.941	4927
831.08	4896
831.219	4999
831.357	5041
831.496	5181
831.635	4965
831.774	4847
831.913	4892
832.051	4755
832.19	4721
832.329	4866
832.467	4736
832.606	4615
832.744	4733
832.883	4752
833.022	4736
833.16	4843
833.299	4866
833.437	4850
833.576	4782
833.714	4858
833.852	4919
833.991	4885
834.129	4976
834.267	4949
834.406	4919
834.544	5048
834.682	4991
834.821	5003
834.959	5162
835.097	4995
835.235	5201
835.373	5105
835.511	5132
835.65	5037
835.788	5037
835.926	4923
836.064	4904
836.202	4942
836.34	5204
836.478	5242
836.615	5193
836.753	5254
836.891	5296
837.029	5273
837.167	5212
837.305	5128
837.443	5140
837.58	5117
837.718	5288
837.856	5189
837.993	5201
838.131	5223
838.269	5246
838.406	5242
838.544	5227
838.681	5079
838.819	5086
838.956	4938
839.094	4866
839.231	5018
839.369	5147
839.506	5440
839.643	5261
839.781	5090
839.918	5029
840.055	5140
840.193	5128
840.33	5136
840.467	5124
840.604	5216
840.742	5474
840.879	5113
841.016	5086
841.153	5162
841.29	5387
841.427	5379
841.564	5337
841.701	5330
841.838	5296
841.975	5265
842.112	5296
842.249	5147
842.385	5128
842.522	5436
842.659	5189
842.796	5155
842.933	5223
843.069	5166
843.206	5178
843.343	5311
843.479	5227
843.616	5265
843.752	5083
843.889	4957
844.025	5178
844.162	5052
844.298	5162
844.435	5056
844.571	5060
844.708	5246
844.844	5326
844.98	5337
845.117	5357
845.253	5159
845.389	5109
845.525	5181
845.661	5151
845.798	5045
845.934	5124
846.07	5052
846.206	5143
846.342	5296
846.478	5170
846.614	5056
846.75	4980
846.886	4927
847.022	5105
847.158	4972
847.294	5079
847.429	5193
847.565	5083
847.701	5330
847.837	4877
847.972	4835
848.108	4965
848.244	4976
848.379	4790
848.515	4782
848.65	4736
848.786	4752
848.921	4778
849.057	4885
849.192	4923
849.328	4831
849.463	4881
849.598	4790
849.734	4778
849.869	4725
850.004	4634
850.14	4649
850.275	4618
850.41	4519
850.545	4599
850.68	4577
850.815	4691
850.95	4672
851.085	4862
851.22	4748
851.355	4675
851.49	4672
851.625	4645
851.76	4656
851.895	4584
852.03	4577
852.165	4653
852.299	4740
852.434	4778
852.569	4771
852.703	4755
852.838	4854
852.973	4987
853.107	4930
853.242	4733
853.376	4748
853.511	4565
853.645	4641
853.78	4801
853.914	4679
854.048	4653
854.183	4672
854.317	4683
854.451	4850
854.585	4672
854.72	4687
854.854	4740
854.988	4687
855.122	4653
855.256	4561
855.39	4653
855.524	4839
855.658	4736
855.792	4733
855.926	4755
856.06	4771
856.194	4820
856.327	4721
856.461	4607
856.595	4626
856.729	4729
856.862	4793
856.996	4710
857.13	4725
857.263	4782
857.397	4778
857.53	4675
857.664	4759
857.797	4786
857.931	4763
858.064	4679
858.197	4748
858.331	4687
858.464	4615
858.597	4546
858.731	4656
858.864	4691
858.997	4611
859.13	4672
859.263	4721
859.396	4725
859.529	4577
859.662	4550
859.795	4565
859.928	4653
860.061	4755
860.194	4759
860.327	4626
860.46	4641
860.592	4717
860.725	4702
860.858	4744
860.99	4580
861.123	4519
861.256	4558
861.388	4641
861.521	5406
861.653	4470
861.786	4451
861.918	4474
862.05	4531
862.183	4531
862.315	4592
862.447	4675
862.58	4542
862.712	4443
862.844	4333
862.976	4508
863.108	4451
863.24	4927
863.372	4348
863.504	4447
863.636	4421
863.768	4554
863.9	4462
864.032	4413
864.164	4405
864.296	4497
864.428	4516
864.559	4584
864.691	4542
864.823	4569
864.954	4512
865.086	4504
865.217	4497
865.349	4421
865.48	4440
865.612	4493
865.743	4634
865.875	4470
866.006	4424
866.137	4497
866.269	4447
866.4	4485
866.531	4500
866.662	4390
866.793	4398
866.924	4424
867.055	4519
867.186	4500
867.317	4481
867.448	4474
867.579	4413
867.71	4386
867.841	4398
867.972	4504
868.103	4478
868.233	4451
868.364	4447
868.495	4516
868.625	4694
868.756	4786
868.886	4527
869.017	4637
869.147	4759
869.278	4771
869.408	4626
869.539	4626
869.669	4752
869.799	4702
869.929	4778
870.06	4714
870.19	4949
870.32	4953
870.45	4930
870.58	5022
870.71	5132
870.84	5075
870.97	4976
871.1	4930
871.23	5117
871.36	5174
871.489	5033
871.619	5132
871.749	5052
871.879	5170
872.008	5204
872.138	5071
872.267	5033
872.397	4812
872.526	4778
872.656	4774
872.785	4805
872.915	4965
873.044	5075
873.173	4949
873.303	4911
873.432	4938
873.561	4984
873.69	4923
873.819	4847
873.948	4927
874.077	4828
874.206	4771
874.335	4793
874.464	4946
874.593	5098
874.722	4934
874.851	5132
874.979	5045
875.108	5045
875.237	4915
875.365	4889
875.494	4862
875.623	4972
875.751	4847
875.88	4915
876.008	4980
876.136	5018
876.265	5162
876.393	5349
876.521	5307
876.65	5273
876.778	5208
876.906	5079
877.034	5052
877.162	5086
877.29	4999
877.418	5109
877.546	5117
877.674	5094
877.802	5052
877.93	5071
878.058	4927
878.185	4904
878.313	4984
878.441	5003
878.568	4763
878.696	4889
878.824	4934
878.951	4965
879.079	5147
879.206	5326
879.333	5121
879.461	5045
879.588	5037
879.715	5113
879.842	5227
879.97	5025
880.097	4801
880.224	4763
880.351	4812
880.478	4854
880.605	4847
880.732	4752
880.859	5109
880.986	4908
881.112	4881
881.239	4820
881.366	4668
881.493	4664
881.619	4580
881.746	4637
881.872	4622
881.999	4660
882.125	4706
882.252	4744
882.378	4873
882.505	4949
882.631	4839
882.757	4683
882.883	4752
883.01	4744
883.136	4679
883.262	4596
883.388	4603
883.514	4892
883.64	4843
883.766	4809
883.892	4698
884.018	4774
884.143	4889
884.269	5003
884.395	4725
884.52	4679
884.646	4653
884.772	4615
884.897	4577
885.023	4725
885.148	4854
885.274	4904
885.399	4816
885.524	4725
885.65	4717
885.775	4740
885.9	4820
886.025	4892
886.15	4786
886.275	4733
886.4	4717
886.525	4717
886.65	4725
886.775	4717
886.9	4911
887.025	5060
887.149	4831
887.274	4672
887.399	4592
887.523	4607
887.648	4588
887.773	4630
887.897	4801
888.021	4824
888.146	4664
888.27	4820
888.395	4915
888.519	4858
888.643	4847
888.767	4854
888.891	4687
889.015	4634
889.139	4691
889.263	4615
889.387	4759
889.511	4850
889.635	4843
889.759	4664
889.883	4653
890.006	4744
890.13	4812
890.254	4592
890.377	4733
890.501	4546
890.624	4542
890.748	4637
890.871	4508
890.995	4462
891.118	4356
891.241	4577
891.364	4558
891.488	4630
891.611	4561
891.734	4542
891.857	4599
891.98	4542
892.103	4626
892.226	4596
892.349	4542
892.471	4443
892.594	4542
892.717	4615
892.839	4565
892.962	4645
893.085	4744
893.207	4645
893.33	4478
893.452	4561
893.575	4694
893.697	4615
893.819	4778
893.941	4858
894.064	4805
894.186	4626
894.308	4603
894.43	4721
894.552	4831
894.674	4793
894.796	4588
894.918	4577
895.04	4603
895.161	4721
895.283	4630
895.405	4603
895.526	4641
895.648	4710
895.769	4717
895.891	4740
896.012	4774
896.134	4805
896.255	4660
896.376	4630
896.498	4607
896.619	4672
896.74	4584
896.861	4622
896.982	4999
897.103	5071
897.224	4847
897.345	4782
897.466	4714
897.587	4763
897.708	4805
897.828	4778
897.949	4687
898.07	4588
898.19	4645
898.311	4843
898.431	4694
898.552	4740
898.672	4835
898.792	4824
898.913	4759
899.033	4626
899.153	4497
899.273	4440
899.393	4478
899.513	4531
899.633	4516
899.753	4592
899.873	4485
899.993	4603
900.113	4569
900.232	4592
900.352	4512
900.472	4512
900.591	4409
900.711	4542
900.83	4402
900.95	4622
901.069	4717
901.189	4542
901.308	4356
901.427	4295
901.546	4405
901.665	4474
901.784	4512
901.904	4436
902.023	4348
902.141	4223
902.26	4207
902.379	4337
902.498	4238
902.617	4227
902.735	4398
902.854	4436
902.973	4386
903.091	4185
903.21	4272
903.328	4287
903.446	4284
903.565	4227
903.683	4379
903.801	4268
903.919	4383
904.038	4443
904.156	4329
904.274	4432
904.392	4440
904.51	4417
904.627	4527
904.745	4584
904.863	4668
904.981	4451
905.098	4341
905.216	4367
905.334	4478
905.451	4481
905.569	4481
905.686	4561
905.803	4584
905.921	4455
906.038	4535
906.155	4478
906.272	4409
906.389	4455
906.506	4363
906.623	4409
906.74	4348
906.857	4329
906.974	4390
907.091	4554
907.208	4672
907.324	4630
907.441	4512
907.557	4360
907.674	4409
907.79	4337
907.907	4386
908.023	4489
908.139	4481
908.256	4455
908.372	4497
908.488	4489
908.604	4383
908.72	4352
908.836	4409
908.952	4409
909.068	4390
909.184	4615
909.3	4504
909.415	4561
909.531	4592
909.647	4341
909.762	4352
909.878	4379
909.993	4436
910.108	4421
910.224	4409
910.339	4516
910.454	4478
910.57	4375
910.685	4284
910.8	4660
910.915	4668
911.03	4542
911.145	4310
911.259	4291
911.374	4386
911.489	4306
911.604	4284
911.718	4177
911.833	4207
911.947	4071
912.062	4074
912.176	4200
912.291	4253
912.405	4265
912.519	4523
912.633	4554
912.748	4371
912.862	4337
912.976	4211
913.09	4116
913.204	4188
913.318	4310
913.431	4405
913.545	4371
913.659	4417
913.772	4371
913.886	4242
914	4162
914.113	4413
914.226	4421
914.34	4436
914.453	4196
914.566	4451
914.68	4310
914.793	4291
914.906	4169
915.019	4158
915.132	4101
915.245	4215
915.358	4219
915.47	4215
915.583	4280
915.696	4265
915.809	4417
915.921	4428
916.034	4284
916.146	4249
916.259	4192
916.371	4386
916.483	4337
916.595	4337
916.708	4375
916.82	4360
916.932	4344
917.044	4303
917.156	4371
917.268	4276
917.38	4333
917.491	4325
917.603	4329
917.715	4428
917.826	4459
917.938	4390
918.049	4268
918.161	4424
918.272	4516
918.384	4519
918.495	4455
918.606	4291
918.717	4227
918.828	4356
918.939	4402
919.05	4325
919.161	4344
919.272	4150
919.383	4257
919.494	4459
919.604	4634
919.715	4451
919.826	4341
919.936	4402
920.047	4489
920.157	4535
920.267	4721
920.378	4599
920.488	4519
920.598	4691
920.708	4877
920.818	4736
920.928	4793
921.038	4965
921.148	4946
921.258	4660
921.368	4592
921.477	4527
921.587	4485
921.697	4394
921.806	4607
921.916	4398
922.025	4287
922.134	4314
922.244	4207
922.353	4280
922.462	4200
922.571	4120
922.68	4006
922.789	4032
922.898	4044
923.007	3994
923.116	4101
923.224	4112
923.333	4109
923.442	3972
923.55	4044
923.659	4067
923.767	4112
923.876	4048
923.984	4154
924.092	4010
924.201	4109
924.309	4090
924.417	4120
924.525	4082
924.633	4143
924.741	4889
924.849	3915
924.956	4135
925.064	3960
925.172	3945
925.279	3968
925.387	4055
925.494	4055
925.602	4238
925.709	4185
925.816	4044
925.924	4166
926.031	4223
926.138	4173
926.245	4211
926.352	4101
926.459	4276
926.566	4314
926.673	4139
926.779	4124
926.886	4124
926.993	4002
927.099	3983
927.206	3972
927.312	3960
927.419	4044
927.525	4040
927.631	4109
927.737	3956
927.843	3949
927.95	3846
928.056	3968
928.162	4013
928.267	4093
928.373	4691
928.479	4131
928.585	3876
928.69	4021
928.796	4051
928.901	3975
929.007	3857
929.112	3998
929.218	3994
929.323	3987
929.428	3987
929.533	4097
929.638	3903
929.743	3979
929.848	4051
929.953	4002
930.058	3896
930.163	3751
930.267	3850
930.372	3941
930.477	3850
930.581	4055
930.685	3964
930.79	3827
930.894	3915
930.998	3846
931.103	4032
931.207	3743
931.311	3701
931.415	3713
931.519	3545
931.623	3576
