Data from test_V78500241_2000.txt Node
Date: Fri Mar 25 17:02:54 CST 2022
User: usil
Spectrometer: V785-0024
Trigger mode: 0
Integration Time (sec): 4.000000E-1
Scans to average: 1
Nonlinearity correction enabled: false
Boxcar width: 0
Storing dark spectrum: false
XAxis mode: Wavelengths
Number of Pixels in Spectrum: 1024
>>>>>Begin Spectral Data<<<<<
801.071	7970
801.214	7974
801.356	7830
801.499	7864
801.641	7715
801.783	7868
801.926	7936
802.068	7936
802.211	7970
802.353	8020
802.496	7833
802.638	7860
802.78	7837
802.923	7940
803.065	7856
803.208	7887
803.35	7944
803.492	8039
803.635	8107
803.777	7967
803.919	8100
804.061	8507
804.204	8191
804.346	8065
804.488	8027
804.63	8054
804.773	7997
804.915	8065
805.057	8210
805.199	8229
805.341	8221
805.483	8248
805.626	8191
805.768	8142
805.91	8267
806.052	8218
806.194	8157
806.336	8328
806.478	8149
806.62	8054
806.762	8103
806.904	8324
807.046	8465
807.188	8385
807.33	8328
807.472	8313
807.614	8142
807.756	8130
807.898	8005
808.04	7890
808.182	7887
808.324	7841
808.465	7947
808.607	8050
808.749	8111
808.891	8172
809.033	8271
809.174	8214
809.316	8065
809.458	8130
809.6	7986
809.741	8100
809.883	8039
810.025	8107
810.166	8008
810.308	8043
810.45	7974
810.591	7799
810.733	7811
810.875	7575
811.016	7506
811.158	7468
811.299	7533
811.441	7693
811.582	7704
811.724	7586
811.865	7483
812.007	7552
812.148	7647
812.29	7693
812.431	7708
812.573	7902
812.714	7967
812.855	8119
812.997	8187
813.138	8267
813.279	8199
813.421	8081
813.562	7936
813.703	7811
813.845	7776
813.986	7365
814.127	7312
814.268	7240
814.41	7149
814.551	7228
814.692	7217
814.833	7080
814.974	7118
815.115	7149
815.256	6928
815.397	6882
815.539	6928
815.68	6810
815.821	6684
815.962	6859
816.103	6787
816.244	6741
816.385	6658
816.526	6540
816.666	6479
816.807	6319
816.948	6369
817.089	6410
817.23	6414
817.371	6391
817.512	6399
817.653	6403
817.793	6395
817.934	6376
818.075	6471
818.216	6445
818.356	6395
818.497	6300
818.638	6152
818.778	6117
818.919	6140
819.06	6178
819.2	6350
819.341	6285
819.481	6342
819.622	6532
819.762	6753
819.903	6730
820.043	6616
820.184	6563
820.324	6582
820.465	6734
820.605	6703
820.746	6597
820.886	6509
821.026	6658
821.167	6711
821.307	6738
821.447	6783
821.588	6669
821.728	6608
821.868	6509
822.008	6331
822.149	6361
822.289	6365
822.429	6102
822.569	6110
822.709	6144
822.849	5954
822.99	5984
823.13	5916
823.27	5897
823.41	5767
823.55	5771
823.69	5752
823.83	5824
823.97	5680
824.11	5512
824.25	5520
824.389	5524
824.529	5577
824.669	5516
824.809	5611
824.949	5661
825.089	5627
825.228	5600
825.368	5395
825.508	5357
825.648	5357
825.787	5433
825.927	5341
826.067	5265
826.206	5288
826.346	5398
826.485	5433
826.625	5337
826.765	5573
826.904	5486
827.044	5227
827.183	5204
827.323	5117
827.462	5307
827.601	5159
827.741	5170
827.88	5258
828.02	5121
828.159	5231
828.298	5280
828.437	5360
828.577	5277
828.716	5505
828.855	5379
828.994	5136
829.134	5159
829.273	5185
829.412	5113
829.551	5162
829.69	5136
829.829	5227
829.968	5383
830.107	5280
830.246	5265
830.385	5147
830.524	5094
830.663	5067
830.802	4980
830.941	4889
831.08	4900
831.219	5041
831.357	5018
831.496	5174
831.635	4927
831.774	4812
831.913	4862
832.051	4729
832.19	4740
832.329	4847
832.467	4687
832.606	4618
832.744	4691
832.883	4771
833.022	4714
833.16	4816
833.299	4858
833.437	4812
833.576	4858
833.714	4889
833.852	4843
833.991	4866
834.129	4919
834.267	4965
834.406	4911
834.544	5006
834.682	4991
834.821	4919
834.959	5155
835.097	4995
835.235	5109
835.373	5079
835.511	5105
835.65	5041
835.788	5022
835.926	4873
836.064	4854
836.202	4915
836.34	5185
836.478	5246
836.615	5136
836.753	5246
836.891	5307
837.029	5239
837.167	5201
837.305	5132
837.443	5136
837.58	5014
837.718	5258
837.856	5121
837.993	5170
838.131	5299
838.269	5208
838.406	5185
838.544	5204
838.681	5029
838.819	5006
838.956	4896
839.094	4900
839.231	4968
839.369	5094
839.506	5414
839.643	5307
839.781	5060
839.918	5025
840.055	5075
840.193	5094
840.33	5166
840.467	5189
840.604	5235
840.742	5410
840.879	5079
841.016	5102
841.153	5170
841.29	5376
841.427	5318
841.564	5273
841.701	5360
841.838	5208
841.975	5223
842.112	5296
842.249	5147
842.385	5147
842.522	5360
842.659	5159
842.796	5147
842.933	5212
843.069	5143
843.206	5143
843.343	5311
843.479	5227
843.616	5254
843.752	5052
843.889	5022
844.025	5231
844.162	5052
844.298	5265
844.435	5048
844.571	5105
844.708	5170
844.844	5284
844.98	5326
845.117	5261
845.253	5136
845.389	5102
845.525	5102
845.661	5121
845.798	5014
845.934	5162
846.07	5010
846.206	5197
846.342	5307
846.478	5185
846.614	5010
846.75	4991
846.886	5018
847.022	5155
847.158	5045
847.294	5041
847.429	5128
847.565	5048
847.701	5292
847.837	4873
847.972	4816
848.108	4923
848.244	4923
848.379	4778
848.515	4729
848.65	4729
848.786	4759
848.921	4721
849.057	4919
849.192	4850
849.328	4812
849.463	4828
849.598	4782
849.734	4736
849.869	4660
850.004	4637
850.14	4664
850.275	4592
850.41	4565
850.545	4596
850.68	4592
850.815	4664
850.95	4596
851.085	4816
851.22	4759
851.355	4694
851.49	4622
851.625	4622
851.76	4599
851.895	4573
852.03	4508
852.165	4630
852.299	4744
852.434	4801
852.569	4714
852.703	4759
852.838	4782
852.973	4881
853.107	4908
853.242	4710
853.376	4660
853.511	4561
853.645	4584
853.78	4786
853.914	4717
854.048	4668
854.183	4615
854.317	4725
854.451	4816
854.585	4694
854.72	4683
854.854	4736
854.988	4584
855.122	4649
855.256	4500
855.39	4653
855.524	4755
855.658	4748
855.792	4694
855.926	4725
856.06	4752
856.194	4805
856.327	4660
856.461	4603
856.595	4611
856.729	4603
856.862	4744
856.996	4611
857.13	4687
857.263	4744
857.397	4801
857.53	4588
857.664	4679
857.797	4721
857.931	4786
858.064	4710
858.197	4736
858.331	4592
858.464	4584
858.597	4508
858.731	4672
858.864	4653
858.997	4588
859.13	4622
859.263	4687
859.396	4710
859.529	4599
859.662	4550
859.795	4489
859.928	4634
860.061	4755
860.194	4805
860.327	4618
860.46	4580
860.592	4668
860.725	4672
860.858	4721
860.99	4558
861.123	4550
861.256	4500
861.388	4592
861.521	5170
861.653	4462
861.786	4478
861.918	4447
862.05	4527
862.183	4573
862.315	4656
862.447	4622
862.58	4558
862.712	4394
862.844	4291
862.976	4474
863.108	4436
863.24	4729
863.372	4363
863.504	4379
863.636	4421
863.768	4451
863.9	4394
864.032	4386
864.164	4424
864.296	4481
864.428	4474
864.559	4569
864.691	4531
864.823	4478
864.954	4474
865.086	4523
865.217	4440
865.349	4428
865.48	4443
865.612	4493
865.743	4580
865.875	4470
866.006	4386
866.137	4466
866.269	4459
866.4	4481
866.531	4405
866.662	4379
866.793	4394
866.924	4417
867.055	4474
867.186	4474
867.317	4398
867.448	4390
867.579	4398
867.71	4356
867.841	4390
867.972	4409
868.103	4424
868.233	4417
868.364	4478
868.495	4504
868.625	4656
868.756	4736
868.886	4531
869.017	4630
869.147	4763
869.278	4786
869.408	4641
869.539	4649
869.669	4733
869.799	4679
869.929	4767
870.06	4714
870.19	4987
870.32	4885
870.45	4911
870.58	5022
870.71	5109
870.84	5056
870.97	4938
871.1	4892
871.23	5109
871.36	5098
871.489	5022
871.619	5029
871.749	5094
871.879	5117
872.008	5197
872.138	5048
872.267	4987
872.397	4854
872.526	4771
872.656	4675
872.785	4816
872.915	4987
873.044	4999
873.173	4946
873.303	4961
873.432	4949
873.561	4968
873.69	4820
873.819	4847
873.948	4904
874.077	4809
874.206	4752
874.335	4824
874.464	4927
874.593	5048
874.722	4946
874.851	5056
874.979	5045
875.108	5025
875.237	4908
875.365	4854
875.494	4854
875.623	4965
875.751	4843
875.88	4850
876.008	4991
876.136	5003
876.265	5197
876.393	5357
876.521	5261
876.65	5185
876.778	5136
876.906	5083
877.034	4980
877.162	5045
877.29	4965
877.418	5022
877.546	5006
877.674	5041
877.802	4991
877.93	4968
878.058	4896
878.185	4854
878.313	4968
878.441	4919
878.568	4820
878.696	4873
878.824	4957
878.951	4984
879.079	5128
879.206	5265
879.333	5113
879.461	5003
879.588	5018
879.715	5102
879.842	5216
879.97	5010
880.097	4759
880.224	4729
880.351	4771
880.478	4843
880.605	4763
880.732	4831
880.859	5094
880.986	4873
881.112	4889
881.239	4790
881.366	4626
881.493	4596
881.619	4577
881.746	4588
881.872	4630
881.999	4683
882.125	4675
882.252	4767
882.378	4816
882.505	4953
882.631	4805
882.757	4668
882.883	4729
883.01	4752
883.136	4660
883.262	4634
883.388	4611
883.514	4767
883.64	4870
883.766	4793
883.892	4649
884.018	4664
884.143	4854
884.269	4976
884.395	4752
884.52	4626
884.646	4668
884.772	4641
884.897	4550
885.023	4687
885.148	4767
885.274	4858
885.399	4847
885.524	4706
885.65	4645
885.775	4725
885.9	4706
886.025	4900
886.15	4805
886.275	4702
886.4	4618
886.525	4710
886.65	4698
886.775	4702
886.9	4919
887.025	5025
887.149	4740
887.274	4660
887.399	4580
887.523	4656
887.648	4554
887.773	4565
887.897	4748
888.021	4740
888.146	4687
888.27	4805
888.395	4862
888.519	4782
888.643	4801
888.767	4835
888.891	4698
889.015	4607
889.139	4615
889.263	4622
889.387	4740
889.511	4820
889.635	4774
889.759	4611
889.883	4637
890.006	4698
890.13	4862
890.254	4592
890.377	4668
890.501	4565
890.624	4516
890.748	4615
890.871	4478
890.995	4413
891.118	4348
891.241	4516
891.364	4569
891.488	4653
891.611	4523
891.734	4554
891.857	4611
891.98	4580
892.103	4637
892.226	4573
892.349	4500
892.471	4398
892.594	4523
892.717	4573
892.839	4592
892.962	4618
893.085	4702
893.207	4569
893.33	4466
893.452	4508
893.575	4664
893.697	4569
893.819	4790
893.941	4839
894.064	4782
894.186	4580
894.308	4546
894.43	4736
894.552	4843
894.674	4797
894.796	4550
894.918	4584
895.04	4577
895.161	4694
895.283	4637
895.405	4588
895.526	4645
895.648	4698
895.769	4698
895.891	4714
896.012	4752
896.134	4748
896.255	4683
896.376	4626
896.498	4561
896.619	4733
896.74	4618
896.861	4656
896.982	4889
897.103	5010
897.224	4835
897.345	4748
897.466	4702
897.587	4702
897.708	4793
897.828	4805
897.949	4645
898.07	4554
898.19	4664
898.311	4763
898.431	4672
898.552	4755
898.672	4828
898.792	4793
898.913	4736
899.033	4580
899.153	4497
899.273	4443
899.393	4478
899.513	4546
899.633	4542
899.753	4535
899.873	4519
899.993	4573
900.113	4512
900.232	4588
900.352	4542
900.472	4497
900.591	4428
900.711	4516
900.83	4432
900.95	4653
901.069	4664
901.189	4497
901.308	4390
901.427	4314
901.546	4367
901.665	4451
901.784	4519
901.904	4356
902.023	4333
902.141	4177
902.26	4154
902.379	4284
902.498	4227
902.617	4242
902.735	4356
902.854	4398
902.973	4375
903.091	4215
903.21	4234
903.328	4287
903.446	4287
903.565	4234
903.683	4413
903.801	4314
903.919	4360
904.038	4417
904.156	4318
904.274	4405
904.392	4390
904.51	4405
904.627	4440
904.745	4523
904.863	4603
904.981	4409
905.098	4284
905.216	4360
905.334	4379
905.451	4402
905.569	4451
905.686	4584
905.803	4546
905.921	4402
906.038	4546
906.155	4481
906.272	4428
906.389	4485
906.506	4325
906.623	4360
906.74	4375
906.857	4284
906.974	4375
907.091	4550
907.208	4649
907.324	4607
907.441	4462
907.557	4360
907.674	4295
907.79	4341
907.907	4360
908.023	4462
908.139	4493
908.256	4394
908.372	4523
908.488	4443
908.604	4360
908.72	4367
908.836	4333
908.952	4344
909.068	4489
909.184	4596
909.3	4512
909.415	4531
909.531	4599
909.647	4348
909.762	4394
909.878	4337
909.993	4421
910.108	4379
910.224	4383
910.339	4455
910.454	4356
910.57	4360
910.685	4352
910.8	4615
910.915	4561
911.03	4470
911.145	4329
911.259	4295
911.374	4360
911.489	4299
911.604	4272
911.718	4188
911.833	4219
911.947	4093
912.062	4051
912.176	4192
912.291	4261
912.405	4219
912.519	4470
912.633	4504
912.748	4360
912.862	4280
912.976	4169
913.09	4105
913.204	4169
913.318	4249
913.431	4367
913.545	4356
913.659	4424
913.772	4341
913.886	4223
914	4185
914.113	4405
914.226	4405
914.34	4398
914.453	4223
914.566	4440
914.68	4325
914.793	4333
914.906	4192
915.019	4116
915.132	4090
915.245	4169
915.358	4242
915.47	4223
915.583	4310
915.696	4322
915.809	4432
915.921	4462
916.034	4257
916.146	4261
916.259	4227
916.371	4375
916.483	4322
916.595	4261
916.708	4379
916.82	4360
916.932	4295
917.044	4337
917.156	4295
917.268	4211
917.38	4322
917.491	4276
917.603	4363
917.715	4466
917.826	4394
917.938	4379
918.049	4238
918.161	4360
918.272	4565
918.384	4500
918.495	4493
918.606	4284
918.717	4223
918.828	4352
918.939	4348
919.05	4303
919.161	4295
919.272	4105
919.383	4230
919.494	4424
919.604	4615
919.715	4379
919.826	4329
919.936	4432
920.047	4577
920.157	4474
920.267	4736
920.378	4531
920.488	4500
920.598	4706
920.708	4854
920.818	4736
920.928	4767
921.038	4919
921.148	4949
921.258	4660
921.368	4546
921.477	4474
921.587	4470
921.697	4367
921.806	4558
921.916	4432
922.025	4276
922.134	4265
922.244	4230
922.353	4322
922.462	4204
922.571	4147
922.68	4006
922.789	3968
922.898	4055
923.007	3998
923.116	4150
923.224	4093
923.333	4036
923.442	3956
923.55	3968
923.659	4021
923.767	4071
923.876	4017
923.984	4135
924.092	4002
924.201	4059
924.309	4112
924.417	4120
924.525	4086
924.633	4120
924.741	5029
924.849	3865
924.956	4150
925.064	3922
925.172	3918
925.279	3979
925.387	4044
925.494	4029
925.602	4253
925.709	4185
925.816	4048
925.924	4154
926.031	4181
926.138	4185
926.245	4227
926.352	4051
926.459	4249
926.566	4322
926.673	4116
926.779	4078
926.886	4074
926.993	3994
927.099	3964
927.206	3934
927.312	3975
927.419	4082
927.525	4044
927.631	4093
927.737	3922
927.843	3968
927.95	3873
928.056	3979
928.162	4017
928.267	4078
928.373	4592
928.479	4078
928.585	3835
928.69	3987
928.796	4120
928.901	3953
929.007	3808
929.112	3960
929.218	3945
929.323	3941
929.428	3983
929.533	4101
929.638	3915
929.743	3960
929.848	4044
929.953	4002
930.058	3949
930.163	3770
930.267	3823
930.372	3994
930.477	3789
930.581	4082
930.685	3937
930.79	3755
930.894	3880
930.998	3865
931.103	4048
931.207	3743
931.311	3679
931.415	3648
931.519	3526
931.623	3542
