Data from test_V78500241_2219.txt Node
Date: Fri Mar 25 17:04:25 CST 2022
User: usil
Spectrometer: V785-0024
Trigger mode: 0
Integration Time (sec): 4.000000E-1
Scans to average: 1
Nonlinearity correction enabled: false
Boxcar width: 0
Storing dark spectrum: false
XAxis mode: Wavelengths
Number of Pixels in Spectrum: 1024
>>>>>Begin Spectral Data<<<<<
801.071	8046
801.214	7967
801.356	7932
801.499	7799
801.641	7856
801.783	7871
801.926	7970
802.068	7902
802.211	8012
802.353	8069
802.496	7936
802.638	7898
802.78	7913
802.923	7906
803.065	7875
803.208	7868
803.35	7974
803.492	8111
803.635	8142
803.777	8058
803.919	8142
804.061	8476
804.204	8134
804.346	8077
804.488	7982
804.63	8126
804.773	7959
804.915	8043
805.057	8351
805.199	8214
805.341	8187
805.483	8282
805.626	8324
805.768	8134
805.91	8157
806.052	8142
806.194	8142
806.336	8313
806.478	8153
806.62	8092
806.762	8100
806.904	8229
807.046	8404
807.188	8412
807.33	8347
807.472	8381
807.614	8180
807.756	8183
807.898	7986
808.04	7959
808.182	7871
808.324	7921
808.465	7989
808.607	8001
808.749	8229
808.891	8149
809.033	8298
809.174	8199
809.316	8096
809.458	8100
809.6	8008
809.741	8039
809.883	8024
810.025	8081
810.166	8039
810.308	7997
810.45	7951
810.591	7894
810.733	7746
810.875	7670
811.016	7476
811.158	7453
811.299	7586
811.441	7693
811.582	7643
811.724	7548
811.865	7540
812.007	7590
812.148	7586
812.29	7601
812.431	7784
812.573	7902
812.714	7982
812.855	8024
812.997	8271
813.138	8259
813.279	8096
813.421	8134
813.562	7902
813.703	7807
813.845	7769
813.986	7422
814.127	7266
814.268	7183
814.41	7213
814.551	7149
814.692	7209
814.833	7042
814.974	7137
815.115	7129
815.256	6970
815.397	6947
815.539	6958
815.68	6715
815.821	6798
815.962	6833
816.103	6867
816.244	6677
816.385	6650
816.526	6616
816.666	6464
816.807	6319
816.948	6448
817.089	6483
817.23	6441
817.371	6388
817.512	6350
817.653	6350
817.793	6380
817.934	6365
818.075	6467
818.216	6486
818.356	6429
818.497	6277
818.638	6175
818.778	6136
818.919	6182
819.06	6178
819.2	6350
819.341	6365
819.481	6304
819.622	6498
819.762	6779
819.903	6703
820.043	6635
820.184	6555
820.324	6563
820.465	6700
820.605	6639
820.746	6627
820.886	6517
821.026	6673
821.167	6707
821.307	6859
821.447	6795
821.588	6646
821.728	6547
821.868	6452
822.008	6289
822.149	6365
822.289	6361
822.429	6175
822.569	6076
822.709	6140
822.849	5965
822.99	5882
823.13	5954
823.27	5908
823.41	5832
823.55	5821
823.69	5779
823.83	5741
823.97	5619
824.11	5623
824.25	5539
824.389	5573
824.529	5577
824.669	5501
824.809	5596
824.949	5623
825.089	5608
825.228	5627
825.368	5379
825.508	5349
825.648	5334
825.787	5402
825.927	5364
826.067	5360
826.206	5326
826.346	5395
826.485	5368
826.625	5452
826.765	5611
826.904	5455
827.044	5269
827.183	5181
827.323	5151
827.462	5246
827.601	5124
827.741	5132
827.88	5185
828.02	5121
828.159	5246
828.298	5341
828.437	5345
828.577	5284
828.716	5455
828.855	5311
828.994	5159
829.134	5162
829.273	5178
829.412	5151
829.551	5170
829.69	5223
829.829	5204
829.968	5337
830.107	5288
830.246	5292
830.385	5231
830.524	5159
830.663	5090
830.802	4968
830.941	4896
831.08	4820
831.219	4972
831.357	4995
831.496	5193
831.635	4991
831.774	4843
831.913	4870
832.051	4759
832.19	4714
832.329	4862
832.467	4721
832.606	4660
832.744	4672
832.883	4710
833.022	4740
833.16	4759
833.299	4809
833.437	4809
833.576	4858
833.714	4831
833.852	4896
833.991	4835
834.129	4961
834.267	4946
834.406	4927
834.544	4976
834.682	4995
834.821	4908
834.959	5174
835.097	5022
835.235	5132
835.373	5128
835.511	5162
835.65	5083
835.788	5056
835.926	4873
836.064	4873
836.202	4927
836.34	5151
836.478	5235
836.615	5143
836.753	5204
836.891	5288
837.029	5258
837.167	5197
837.305	5181
837.443	5181
837.58	5109
837.718	5239
837.856	5162
837.993	5159
838.131	5242
838.269	5201
838.406	5204
838.544	5124
838.681	5041
838.819	5067
838.956	4908
839.094	4866
839.231	4972
839.369	5067
839.506	5395
839.643	5296
839.781	5136
839.918	5014
840.055	5109
840.193	5098
840.33	5094
840.467	5121
840.604	5216
840.742	5433
840.879	5140
841.016	5094
841.153	5124
841.29	5326
841.427	5337
841.564	5364
841.701	5383
841.838	5315
841.975	5227
842.112	5235
842.249	5181
842.385	5105
842.522	5349
842.659	5170
842.796	5151
842.933	5212
843.069	5143
843.206	5140
843.343	5235
843.479	5242
843.616	5261
843.752	5041
843.889	4999
844.025	5258
844.162	4987
844.298	5231
844.435	5102
844.571	5029
844.708	5201
844.844	5318
844.98	5341
845.117	5303
845.253	5162
845.389	5113
845.525	5178
845.661	5117
845.798	5079
845.934	5136
846.07	5071
846.206	5261
846.342	5292
846.478	5204
846.614	5048
846.75	4984
846.886	4923
847.022	5143
847.158	5056
847.294	5056
847.429	5075
847.565	4995
847.701	5330
847.837	4824
847.972	4831
848.108	4942
848.244	4991
848.379	4805
848.515	4710
848.65	4752
848.786	4771
848.921	4714
849.057	4820
849.192	4919
849.328	4831
849.463	4900
849.598	4805
849.734	4839
849.869	4721
850.004	4603
850.14	4733
850.275	4599
850.41	4542
850.545	4561
850.68	4622
850.815	4626
850.95	4630
851.085	4866
851.22	4801
851.355	4649
851.49	4580
851.625	4649
851.76	4622
851.895	4546
852.03	4523
852.165	4656
852.299	4721
852.434	4759
852.569	4774
852.703	4797
852.838	4850
852.973	4866
853.107	4885
853.242	4759
853.376	4656
853.511	4569
853.645	4599
853.78	4812
853.914	4660
854.048	4660
854.183	4607
854.317	4721
854.451	4797
854.585	4721
854.72	4668
854.854	4729
854.988	4592
855.122	4615
855.256	4508
855.39	4626
855.524	4790
855.658	4714
855.792	4664
855.926	4740
856.06	4759
856.194	4790
856.327	4733
856.461	4630
856.595	4630
856.729	4660
856.862	4748
856.996	4664
857.13	4687
857.263	4797
857.397	4828
857.53	4615
857.664	4721
857.797	4740
857.931	4778
858.064	4710
858.197	4752
858.331	4649
858.464	4611
858.597	4554
858.731	4599
858.864	4637
858.997	4622
859.13	4645
859.263	4668
859.396	4668
859.529	4618
859.662	4542
859.795	4554
859.928	4584
860.061	4774
860.194	4763
860.327	4584
860.46	4554
860.592	4694
860.725	4679
860.858	4714
860.99	4584
861.123	4470
861.256	4508
861.388	4607
861.521	5288
861.653	4470
861.786	4455
861.918	4440
862.05	4504
862.183	4584
862.315	4615
862.447	4672
862.58	4558
862.712	4402
862.844	4344
862.976	4508
863.108	4417
863.24	4904
863.372	4329
863.504	4436
863.636	4402
863.768	4504
863.9	4432
864.032	4356
864.164	4478
864.296	4485
864.428	4535
864.559	4542
864.691	4500
864.823	4538
864.954	4478
865.086	4516
865.217	4451
865.349	4398
865.48	4421
865.612	4462
865.743	4592
865.875	4455
866.006	4386
866.137	4462
866.269	4417
866.4	4447
866.531	4402
866.662	4394
866.793	4367
866.924	4451
867.055	4527
867.186	4417
867.317	4413
867.448	4386
867.579	4379
867.71	4424
867.841	4405
867.972	4447
868.103	4417
868.233	4474
868.364	4440
868.495	4573
868.625	4607
868.756	4767
868.886	4538
869.017	4645
869.147	4767
869.278	4763
869.408	4683
869.539	4626
869.669	4664
869.799	4656
869.929	4710
870.06	4729
870.19	4915
870.32	4911
870.45	4965
870.58	4938
870.71	5056
870.84	5037
870.97	4980
871.1	4889
871.23	5132
871.36	5117
871.489	4999
871.619	5083
871.749	5113
871.879	5086
872.008	5201
872.138	5090
872.267	5014
872.397	4828
872.526	4782
872.656	4752
872.785	4767
872.915	4934
873.044	5052
873.173	4934
873.303	4972
873.432	4980
873.561	4946
873.69	4885
873.819	4816
873.948	4896
874.077	4816
874.206	4812
874.335	4847
874.464	4919
874.593	5045
874.722	4953
874.851	5052
874.979	5105
875.108	4999
875.237	4934
875.365	4862
875.494	4904
875.623	4980
875.751	4839
875.88	4904
876.008	5018
876.136	4999
876.265	5155
876.393	5322
876.521	5269
876.65	5204
876.778	5166
876.906	5037
877.034	5033
877.162	5083
877.29	4930
877.418	5033
877.546	5060
877.674	5041
877.802	5060
877.93	5022
878.058	4919
878.185	4835
878.313	5022
878.441	4927
878.568	4831
878.696	4877
878.824	4949
878.951	4965
879.079	5105
879.206	5322
879.333	5113
879.461	4889
879.588	4972
879.715	5090
879.842	5216
879.97	5029
880.097	4763
880.224	4801
880.351	4771
880.478	4809
880.605	4805
880.732	4797
880.859	5090
880.986	4862
881.112	4919
881.239	4778
881.366	4664
881.493	4637
881.619	4603
881.746	4649
881.872	4679
881.999	4664
882.125	4687
882.252	4801
882.378	4812
882.505	4938
882.631	4793
882.757	4668
882.883	4710
883.01	4687
883.136	4649
883.262	4577
883.388	4618
883.514	4797
883.64	4850
883.766	4801
883.892	4660
884.018	4687
884.143	4908
884.269	4957
884.395	4672
884.52	4626
884.646	4668
884.772	4588
884.897	4607
885.023	4611
885.148	4774
885.274	4843
885.399	4824
885.524	4641
885.65	4687
885.775	4729
885.9	4698
886.025	4854
886.15	4733
886.275	4740
886.4	4668
886.525	4706
886.65	4653
886.775	4691
886.9	4942
887.025	5037
887.149	4828
887.274	4656
887.399	4538
887.523	4599
887.648	4599
887.773	4550
887.897	4782
888.021	4774
888.146	4725
888.27	4854
888.395	4885
888.519	4755
888.643	4790
888.767	4824
888.891	4668
889.015	4618
889.139	4683
889.263	4599
889.387	4733
889.511	4831
889.635	4774
889.759	4653
889.883	4645
890.006	4691
890.13	4816
890.254	4588
890.377	4702
890.501	4546
890.624	4531
890.748	4603
890.871	4489
890.995	4447
891.118	4386
891.241	4497
891.364	4565
891.488	4626
891.611	4508
891.734	4512
891.857	4611
891.98	4622
892.103	4668
892.226	4622
892.349	4535
892.471	4386
892.594	4565
892.717	4603
892.839	4573
892.962	4516
893.085	4668
893.207	4637
893.33	4447
893.452	4535
893.575	4721
893.697	4573
893.819	4782
893.941	4862
894.064	4778
894.186	4592
894.308	4577
894.43	4752
894.552	4850
894.674	4767
894.796	4523
894.918	4694
895.04	4577
895.161	4706
895.283	4626
895.405	4588
895.526	4607
895.648	4664
895.769	4706
895.891	4717
896.012	4729
896.134	4752
896.255	4653
896.376	4660
896.498	4584
896.619	4691
896.74	4599
896.861	4691
896.982	4908
897.103	5094
897.224	4782
897.345	4763
897.466	4630
897.587	4717
897.708	4839
897.828	4782
897.949	4710
898.07	4588
898.19	4653
898.311	4870
898.431	4664
898.552	4740
898.672	4797
898.792	4786
898.913	4729
899.033	4618
899.153	4485
899.273	4424
899.393	4447
899.513	4546
899.633	4504
899.753	4516
899.873	4527
899.993	4577
900.113	4599
900.232	4584
900.352	4538
900.472	4519
900.591	4440
900.711	4489
900.83	4421
900.95	4664
901.069	4683
901.189	4519
901.308	4344
901.427	4356
901.546	4409
901.665	4466
901.784	4504
901.904	4386
902.023	4352
902.141	4181
902.26	4112
902.379	4280
902.498	4227
902.617	4211
902.735	4402
902.854	4428
902.973	4341
903.091	4230
903.21	4215
903.328	4318
903.446	4246
903.565	4268
903.683	4379
903.801	4280
903.919	4379
904.038	4462
904.156	4276
904.274	4459
904.392	4405
904.51	4394
904.627	4459
904.745	4561
904.863	4637
904.981	4398
905.098	4299
905.216	4363
905.334	4421
905.451	4443
905.569	4440
905.686	4626
905.803	4550
905.921	4481
906.038	4573
906.155	4462
906.272	4386
906.389	4451
906.506	4367
906.623	4386
906.74	4398
906.857	4299
906.974	4379
907.091	4565
907.208	4710
907.324	4577
907.441	4512
907.557	4375
907.674	4318
907.79	4341
907.907	4386
908.023	4535
908.139	4447
908.256	4440
908.372	4485
908.488	4478
908.604	4379
908.72	4318
908.836	4352
908.952	4371
909.068	4424
909.184	4527
909.3	4542
909.415	4603
909.531	4519
909.647	4371
909.762	4318
909.878	4356
909.993	4424
910.108	4348
910.224	4394
910.339	4508
910.454	4428
910.57	4375
910.685	4268
910.8	4641
910.915	4554
911.03	4481
911.145	4306
911.259	4375
911.374	4348
911.489	4306
911.604	4318
911.718	4158
911.833	4120
911.947	4048
912.062	4074
912.176	4219
912.291	4234
912.405	4253
912.519	4470
912.633	4440
912.748	4375
912.862	4341
912.976	4200
913.09	4082
913.204	4169
913.318	4299
913.431	4337
913.545	4402
913.659	4390
913.772	4363
913.886	4238
914	4196
914.113	4367
914.226	4383
914.34	4409
914.453	4242
914.566	4421
914.68	4272
914.793	4295
914.906	4150
915.019	4120
915.132	4090
915.245	4101
915.358	4200
915.47	4192
915.583	4265
915.696	4276
915.809	4436
915.921	4421
916.034	4238
916.146	4253
916.259	4261
916.371	4379
916.483	4383
916.595	4211
916.708	4284
916.82	4314
916.932	4284
917.044	4318
917.156	4348
917.268	4234
917.38	4276
917.491	4265
917.603	4344
917.715	4428
917.826	4443
917.938	4337
918.049	4204
918.161	4394
918.272	4523
918.384	4512
918.495	4421
918.606	4276
918.717	4261
918.828	4356
918.939	4371
919.05	4272
919.161	4318
919.272	4120
919.383	4192
919.494	4436
919.604	4626
919.715	4440
919.826	4348
919.936	4409
920.047	4504
920.157	4485
920.267	4714
920.378	4542
920.488	4500
920.598	4706
920.708	4854
920.818	4767
920.928	4767
921.038	4961
921.148	4896
921.258	4653
921.368	4561
921.477	4546
921.587	4424
921.697	4409
921.806	4531
921.916	4405
922.025	4276
922.134	4249
922.244	4242
922.353	4337
922.462	4207
922.571	4139
922.68	4036
922.789	3922
922.898	4074
923.007	4013
923.116	4067
923.224	4040
923.333	4048
923.442	4013
923.55	4017
923.659	4029
923.767	4082
923.876	4010
923.984	4124
924.092	3983
924.201	4086
924.309	4090
924.417	4090
924.525	4071
924.633	4040
924.741	5014
924.849	3911
924.956	4105
925.064	3979
925.172	3884
925.279	3968
925.387	4036
925.494	4048
925.602	4196
925.709	4230
925.816	4051
925.924	4154
926.031	4257
926.138	4173
926.245	4230
926.352	4101
926.459	4265
926.566	4242
926.673	4139
926.779	4071
926.886	4078
926.993	3960
927.099	3972
927.206	3915
927.312	3930
927.419	4059
927.525	4017
927.631	4044
927.737	3983
927.843	3991
927.95	3800
928.056	3934
928.162	4006
928.267	4078
928.373	4672
928.479	4090
928.585	3884
928.69	4036
928.796	4082
928.901	3972
929.007	3835
929.112	3998
929.218	3983
929.323	3968
929.428	3968
929.533	4063
929.638	3915
929.743	3934
929.848	4044
929.953	3968
930.058	3888
930.163	3770
930.267	3835
930.372	4017
930.477	3789
930.581	4105
930.685	3972
930.79	3808
930.894	3903
930.998	3861
931.103	4044
931.207	3720
931.311	3652
931.415	3682
931.519	3545
931.623	3530
