Data from test_V78500241_2560.txt Node
Date: Fri Mar 25 17:06:48 CST 2022
User: usil
Spectrometer: V785-0024
Trigger mode: 0
Integration Time (sec): 4.000000E-1
Scans to average: 1
Nonlinearity correction enabled: false
Boxcar width: 0
Storing dark spectrum: false
XAxis mode: Wavelengths
Number of Pixels in Spectrum: 1024
>>>>>Begin Spectral Data<<<<<
801.071	8043
801.214	8027
801.356	7894
801.499	7814
801.641	7776
801.783	7830
801.926	8016
802.068	7936
802.211	7986
802.353	7967
802.496	7837
802.638	7864
802.78	7959
802.923	7940
803.065	7913
803.208	7864
803.35	7944
803.492	8138
803.635	8172
803.777	8084
803.919	8111
804.061	8465
804.204	8088
804.346	8012
804.488	7974
804.63	8077
804.773	8024
804.915	8161
805.057	8301
805.199	8199
805.341	8202
805.483	8263
805.626	8275
805.768	8183
805.91	8233
806.052	8206
806.194	8065
806.336	8248
806.478	8103
806.62	8073
806.762	8149
806.904	8290
807.046	8465
807.188	8366
807.33	8351
807.472	8347
807.614	8145
807.756	8115
807.898	8024
808.04	7868
808.182	7909
808.324	7894
808.465	7925
808.607	8058
808.749	8111
808.891	8153
809.033	8309
809.174	8225
809.316	8077
809.458	8092
809.6	7974
809.741	8077
809.883	8024
810.025	8096
810.166	8100
810.308	8100
810.45	8001
810.591	7894
810.733	7795
810.875	7693
811.016	7483
811.158	7453
811.299	7632
811.441	7719
811.582	7719
811.724	7578
811.865	7472
812.007	7636
812.148	7624
812.29	7586
812.431	7814
812.573	7856
812.714	7989
812.855	8092
812.997	8161
813.138	8305
813.279	8161
813.421	8088
813.562	7974
813.703	7849
813.845	7757
813.986	7487
814.127	7305
814.268	7240
814.41	7171
814.551	7225
814.692	7194
814.833	7046
814.974	7114
815.115	7061
815.256	6981
815.397	6890
815.539	6958
815.68	6814
815.821	6829
815.962	6901
816.103	6757
816.244	6741
816.385	6601
816.526	6593
816.666	6486
816.807	6270
816.948	6475
817.089	6525
817.23	6452
817.371	6433
817.512	6403
817.653	6395
817.793	6410
817.934	6391
818.075	6456
818.216	6410
818.356	6437
818.497	6235
818.638	6163
818.778	6140
818.919	6148
819.06	6167
819.2	6311
819.341	6369
819.481	6395
819.622	6525
819.762	6764
819.903	6722
820.043	6616
820.184	6604
820.324	6570
820.465	6738
820.605	6677
820.746	6589
820.886	6566
821.026	6753
821.167	6745
821.307	6783
821.447	6734
821.588	6669
821.728	6536
821.868	6547
822.008	6346
822.149	6384
822.289	6342
822.429	6133
822.569	6140
822.709	6129
822.849	5969
822.99	5908
823.13	5977
823.27	5878
823.41	5817
823.55	5748
823.69	5745
823.83	5817
823.97	5676
824.11	5528
824.25	5512
824.389	5554
824.529	5589
824.669	5566
824.809	5653
824.949	5672
825.089	5649
825.228	5455
825.368	5395
825.508	5353
825.648	5326
825.787	5345
825.927	5414
826.067	5349
826.206	5330
826.346	5414
826.485	5387
826.625	5417
826.765	5535
826.904	5509
827.044	5204
827.183	5208
827.323	5162
827.462	5239
827.601	5185
827.741	5204
827.88	5204
828.02	5132
828.159	5212
828.298	5341
828.437	5364
828.577	5277
828.716	5490
828.855	5326
828.994	5235
829.134	5128
829.273	5147
829.412	5136
829.551	5143
829.69	5155
829.829	5231
829.968	5349
830.107	5258
830.246	5326
830.385	5208
830.524	5162
830.663	5075
830.802	5003
830.941	4824
831.08	4885
831.219	5006
831.357	4957
831.496	5117
831.635	4949
831.774	4858
831.913	4873
832.051	4744
832.19	4706
832.329	4812
832.467	4664
832.606	4672
832.744	4774
832.883	4679
833.022	4702
833.16	4771
833.299	4782
833.437	4782
833.576	4843
833.714	4835
833.852	4858
833.991	4889
834.129	4965
834.267	4900
834.406	4889
834.544	4972
834.682	5029
834.821	5006
834.959	5147
835.097	4976
835.235	5147
835.373	5045
835.511	5117
835.65	5029
835.788	4995
835.926	4915
836.064	4820
836.202	4915
836.34	5143
836.478	5239
836.615	5117
836.753	5185
836.891	5227
837.029	5227
837.167	5208
837.305	5140
837.443	5147
837.58	5140
837.718	5258
837.856	5204
837.993	5090
838.131	5261
838.269	5204
838.406	5216
838.544	5181
838.681	5018
838.819	5006
838.956	4915
839.094	4938
839.231	4980
839.369	5079
839.506	5436
839.643	5330
839.781	5056
839.918	5045
840.055	5048
840.193	5083
840.33	5090
840.467	5136
840.604	5185
840.742	5421
840.879	5094
841.016	5052
841.153	5140
841.29	5410
841.427	5379
841.564	5318
841.701	5326
841.838	5303
841.975	5204
842.112	5303
842.249	5140
842.385	5109
842.522	5296
842.659	5178
842.796	5105
842.933	5109
843.069	5128
843.206	5159
843.343	5227
843.479	5220
843.616	5231
843.752	5033
843.889	4999
844.025	5204
844.162	5048
844.298	5193
844.435	5018
844.571	5029
844.708	5197
844.844	5311
844.98	5311
845.117	5269
845.253	5136
845.389	5060
845.525	5113
845.661	5124
845.798	5045
845.934	5128
846.07	5067
846.206	5140
846.342	5296
846.478	5121
846.614	5010
846.75	4930
846.886	4976
847.022	5102
847.158	5090
847.294	5018
847.429	5022
847.565	5064
847.701	5299
847.837	4854
847.972	4816
848.108	4965
848.244	4919
848.379	4763
848.515	4744
848.65	4717
848.786	4774
848.921	4816
849.057	4824
849.192	4881
849.328	4824
849.463	4889
849.598	4820
849.734	4755
849.869	4672
850.004	4603
850.14	4714
850.275	4611
850.41	4504
850.545	4508
850.68	4588
850.815	4634
850.95	4641
851.085	4850
851.22	4744
851.355	4653
851.49	4580
851.625	4634
851.76	4626
851.895	4573
852.03	4527
852.165	4641
852.299	4778
852.434	4793
852.569	4729
852.703	4733
852.838	4797
852.973	4908
853.107	4896
853.242	4717
853.376	4645
853.511	4542
853.645	4649
853.78	4759
853.914	4721
854.048	4675
854.183	4664
854.317	4698
854.451	4816
854.585	4679
854.72	4637
854.854	4755
854.988	4573
855.122	4664
855.256	4542
855.39	4660
855.524	4755
855.658	4714
855.792	4607
855.926	4759
856.06	4725
856.194	4824
856.327	4656
856.461	4622
856.595	4611
856.729	4607
856.862	4790
856.996	4679
857.13	4706
857.263	4744
857.397	4820
857.53	4596
857.664	4702
857.797	4793
857.931	4782
858.064	4660
858.197	4740
858.331	4637
858.464	4588
858.597	4489
858.731	4645
858.864	4691
858.997	4550
859.13	4637
859.263	4672
859.396	4641
859.529	4599
859.662	4561
859.795	4519
859.928	4615
860.061	4729
860.194	4790
860.327	4618
860.46	4527
860.592	4679
860.725	4694
860.858	4740
860.99	4565
861.123	4554
861.256	4596
861.388	4630
861.521	5288
861.653	4497
861.786	4424
861.918	4417
862.05	4535
862.183	4531
862.315	4622
862.447	4615
862.58	4535
862.712	4394
862.844	4360
862.976	4466
863.108	4447
863.24	4763
863.372	4356
863.504	4409
863.636	4424
863.768	4485
863.9	4398
864.032	4363
864.164	4379
864.296	4447
864.428	4584
864.559	4599
864.691	4497
864.823	4558
864.954	4493
865.086	4519
865.217	4451
865.349	4443
865.48	4451
865.612	4508
865.743	4622
865.875	4455
866.006	4356
866.137	4428
866.269	4417
866.4	4402
866.531	4398
866.662	4375
866.793	4402
866.924	4398
867.055	4497
867.186	4462
867.317	4428
867.448	4375
867.579	4375
867.71	4337
867.841	4394
867.972	4474
868.103	4497
868.233	4508
868.364	4459
868.495	4519
868.625	4679
868.756	4767
868.886	4523
869.017	4637
869.147	4767
869.278	4793
869.408	4672
869.539	4637
869.669	4672
869.799	4641
869.929	4782
870.06	4706
870.19	4968
870.32	4885
870.45	4923
870.58	5006
870.71	5136
870.84	5109
870.97	4949
871.1	4896
871.23	5151
871.36	5109
871.489	5041
871.619	5048
871.749	5086
871.879	5170
872.008	5197
872.138	5037
872.267	4938
872.397	4881
872.526	4797
872.656	4733
872.785	4809
872.915	4980
873.044	4991
873.173	4938
873.303	4980
873.432	4911
873.561	4927
873.69	4885
873.819	4934
873.948	4908
874.077	4835
874.206	4767
874.335	4820
874.464	4942
874.593	5117
874.722	4934
874.851	5109
874.979	5094
875.108	5037
875.237	4911
875.365	4900
875.494	4881
875.623	4930
875.751	4797
875.88	4885
876.008	4984
876.136	5025
876.265	5155
876.393	5349
876.521	5204
876.65	5204
876.778	5140
876.906	5075
877.034	4987
877.162	5022
877.29	5010
877.418	5048
877.546	5033
877.674	4995
877.802	5064
877.93	5003
878.058	4984
878.185	4938
878.313	4984
878.441	4961
878.568	4797
878.696	4858
878.824	4949
878.951	4976
879.079	5128
879.206	5269
879.333	5029
879.461	4938
879.588	5014
879.715	5098
879.842	5208
879.97	5033
880.097	4797
880.224	4733
880.351	4790
880.478	4801
880.605	4805
880.732	4767
880.859	5060
880.986	4862
881.112	4866
881.239	4755
881.366	4698
881.493	4622
881.619	4573
881.746	4618
881.872	4672
881.999	4603
882.125	4672
882.252	4771
882.378	4809
882.505	4946
882.631	4786
882.757	4660
882.883	4698
883.01	4733
883.136	4664
883.262	4577
883.388	4626
883.514	4824
883.64	4816
883.766	4793
883.892	4649
884.018	4694
884.143	4919
884.269	5003
884.395	4634
884.52	4641
884.646	4645
884.772	4622
884.897	4577
885.023	4641
885.148	4771
885.274	4854
885.399	4733
885.524	4714
885.65	4721
885.775	4710
885.9	4672
886.025	4824
886.15	4767
886.275	4675
886.4	4637
886.525	4740
886.65	4660
886.775	4622
886.9	4877
887.025	5025
887.149	4816
887.274	4668
887.399	4596
887.523	4615
887.648	4546
887.773	4599
887.897	4733
888.021	4759
888.146	4672
888.27	4824
888.395	4896
888.519	4805
888.643	4816
888.767	4820
888.891	4691
889.015	4580
889.139	4660
889.263	4599
889.387	4755
889.511	4828
889.635	4774
889.759	4694
889.883	4645
890.006	4725
890.13	4828
890.254	4599
890.377	4710
890.501	4588
890.624	4538
890.748	4645
890.871	4565
890.995	4466
891.118	4394
891.241	4485
891.364	4550
891.488	4634
891.611	4542
891.734	4561
891.857	4641
891.98	4596
892.103	4675
892.226	4615
892.349	4542
892.471	4459
892.594	4577
892.717	4634
892.839	4618
892.962	4645
893.085	4706
893.207	4664
893.33	4500
893.452	4527
893.575	4660
893.697	4641
893.819	4820
893.941	4881
894.064	4820
894.186	4641
894.308	4573
894.43	4736
894.552	4866
894.674	4782
894.796	4599
894.918	4626
895.04	4611
895.161	4755
895.283	4710
895.405	4550
895.526	4733
895.648	4759
895.769	4767
895.891	4717
896.012	4748
896.134	4744
896.255	4672
896.376	4668
896.498	4664
896.619	4767
896.74	4675
896.861	4672
896.982	4995
897.103	5128
897.224	4870
897.345	4793
897.466	4744
897.587	4763
897.708	4919
897.828	4812
897.949	4710
898.07	4588
898.19	4687
898.311	4870
898.431	4755
898.552	4801
898.672	4824
898.792	4843
898.913	4790
899.033	4668
899.153	4580
899.273	4535
899.393	4527
899.513	4527
899.633	4538
899.753	4615
899.873	4550
899.993	4607
900.113	4584
900.232	4618
900.352	4554
900.472	4584
900.591	4497
900.711	4523
900.83	4474
900.95	4622
901.069	4683
901.189	4554
901.308	4447
901.427	4352
901.546	4440
901.665	4542
901.784	4554
901.904	4405
902.023	4367
902.141	4223
902.26	4219
902.379	4363
902.498	4268
902.617	4276
902.735	4394
902.854	4436
902.973	4390
903.091	4246
903.21	4227
903.328	4337
903.446	4310
903.565	4291
903.683	4348
903.801	4352
903.919	4451
904.038	4451
904.156	4303
904.274	4523
904.392	4386
904.51	4478
904.627	4512
904.745	4596
904.863	4683
904.981	4428
905.098	4356
905.216	4428
905.334	4455
905.451	4459
905.569	4527
905.686	4588
905.803	4603
905.921	4421
906.038	4558
906.155	4459
906.272	4447
906.389	4500
906.506	4402
906.623	4390
906.74	4421
906.857	4356
906.974	4421
907.091	4615
907.208	4714
907.324	4584
907.441	4504
907.557	4360
907.674	4379
907.79	4405
907.907	4462
908.023	4497
908.139	4512
908.256	4447
908.372	4489
908.488	4455
908.604	4390
908.72	4394
908.836	4394
908.952	4383
909.068	4481
909.184	4622
909.3	4554
909.415	4626
909.531	4584
909.647	4409
909.762	4402
909.878	4390
909.993	4447
910.108	4470
910.224	4497
910.339	4527
910.454	4432
910.57	4375
910.685	4280
910.8	4740
910.915	4656
911.03	4497
911.145	4402
911.259	4383
911.374	4386
911.489	4337
911.604	4295
911.718	4223
911.833	4280
911.947	4116
912.062	4040
912.176	4272
912.291	4268
912.405	4310
912.519	4489
912.633	4489
912.748	4413
912.862	4375
912.976	4234
913.09	4105
913.204	4219
913.318	4314
913.431	4443
913.545	4379
913.659	4470
913.772	4390
913.886	4261
914	4261
914.113	4394
914.226	4459
914.34	4421
914.453	4265
914.566	4485
914.68	4318
914.793	4352
914.906	4188
915.019	4158
915.132	4048
915.245	4253
915.358	4265
915.47	4284
915.583	4306
915.696	4367
915.809	4413
915.921	4516
916.034	4287
916.146	4341
916.259	4276
916.371	4417
916.483	4428
916.595	4318
916.708	4341
916.82	4367
916.932	4341
917.044	4379
917.156	4299
917.268	4257
917.38	4329
917.491	4295
917.603	4363
917.715	4436
917.826	4508
917.938	4360
918.049	4303
918.161	4455
918.272	4561
918.384	4535
918.495	4474
918.606	4337
918.717	4284
918.828	4432
918.939	4375
919.05	4291
919.161	4306
919.272	4120
919.383	4257
919.494	4451
919.604	4710
919.715	4493
919.826	4417
919.936	4375
920.047	4592
920.157	4489
920.267	4706
920.378	4580
920.488	4516
920.598	4733
920.708	4900
920.818	4778
920.928	4816
921.038	5045
921.148	4953
921.258	4634
921.368	4584
921.477	4554
921.587	4447
921.697	4455
921.806	4542
921.916	4493
922.025	4303
922.134	4310
922.244	4257
922.353	4360
922.462	4230
922.571	4166
922.68	4055
922.789	4067
922.898	4128
923.007	4036
923.116	4112
923.224	4120
923.333	4071
923.442	3994
923.55	4013
923.659	4021
923.767	4143
923.876	4044
923.984	4131
924.092	3987
924.201	4135
924.309	4078
924.417	4188
924.525	4086
924.633	4124
924.741	5086
924.849	3960
924.956	4158
925.064	3987
925.172	3926
925.279	3991
925.387	4067
925.494	4105
925.602	4303
925.709	4200
925.816	4097
925.924	4185
926.031	4215
926.138	4223
926.245	4192
926.352	4154
926.459	4261
926.566	4337
926.673	4135
926.779	4116
926.886	4063
926.993	4040
927.099	3979
927.206	3945
927.312	3960
927.419	4097
927.525	4044
927.631	4063
927.737	3960
927.843	3926
927.95	3857
928.056	3987
928.162	3987
928.267	4036
928.373	4630
928.479	4135
928.585	3884
928.69	4025
928.796	4071
928.901	4044
929.007	3865
929.112	4040
929.218	3998
929.323	3983
929.428	3987
929.533	4067
929.638	3960
929.743	4010
929.848	4055
929.953	4040
930.058	3991
930.163	3812
930.267	3835
930.372	4017
930.477	3838
930.581	4135
930.685	3968
930.79	3812
930.894	3876
930.998	3865
931.103	4063
931.207	3724
931.311	3755
931.415	3686
931.519	3538
931.623	3561
