Data from test_V78500241_292.txt Node
Date: Fri Mar 25 16:51:02 CST 2022
User: usil
Spectrometer: V785-0024
Trigger mode: 0
Integration Time (sec): 4.000000E-1
Scans to average: 1
Nonlinearity correction enabled: false
Boxcar width: 0
Storing dark spectrum: false
XAxis mode: Wavelengths
Number of Pixels in Spectrum: 1024
>>>>>Begin Spectral Data<<<<<
801.071	7989
801.214	7963
801.356	7898
801.499	7944
801.641	7837
801.783	7852
801.926	8020
802.068	7928
802.211	8012
802.353	7974
802.496	7936
802.638	7883
802.78	8008
802.923	7921
803.065	7913
803.208	7795
803.35	8020
803.492	8103
803.635	8157
803.777	8012
803.919	8176
804.061	8454
804.204	8138
804.346	8096
804.488	7902
804.63	8115
804.773	8050
804.915	8115
805.057	8298
805.199	8214
805.341	8237
805.483	8290
805.626	8145
805.768	8096
805.91	8176
806.052	8195
806.194	8134
806.336	8320
806.478	8138
806.62	8107
806.762	8172
806.904	8240
807.046	8427
807.188	8408
807.33	8324
807.472	8298
807.614	8126
807.756	8145
807.898	8035
808.04	7860
808.182	7940
808.324	7913
808.465	7887
808.607	8046
808.749	8119
808.891	8195
809.033	8347
809.174	8202
809.316	8039
809.458	8039
809.6	7989
809.741	8046
809.883	7970
810.025	8126
810.166	8157
810.308	8024
810.45	8027
810.591	7879
810.733	7753
810.875	7700
811.016	7548
811.158	7487
811.299	7616
811.441	7746
811.582	7708
811.724	7590
811.865	7514
812.007	7636
812.148	7548
812.29	7655
812.431	7746
812.573	7887
812.714	7974
812.855	8180
812.997	8176
813.138	8343
813.279	8187
813.421	8119
813.562	8024
813.703	7830
813.845	7792
813.986	7468
814.127	7228
814.268	7278
814.41	7160
814.551	7156
814.692	7187
814.833	7072
814.974	7110
815.115	7084
815.256	6947
815.397	6890
815.539	6943
815.68	6913
815.821	6776
815.962	6924
816.103	6814
816.244	6730
816.385	6635
816.526	6620
816.666	6509
816.807	6331
816.948	6502
817.089	6475
817.23	6486
817.371	6445
817.512	6376
817.653	6410
817.793	6338
817.934	6460
818.075	6471
818.216	6456
818.356	6475
818.497	6273
818.638	6095
818.778	6163
818.919	6110
819.06	6136
819.2	6304
819.341	6334
819.481	6350
819.622	6517
819.762	6703
819.903	6703
820.043	6658
820.184	6559
820.324	6593
820.465	6677
820.605	6654
820.746	6620
820.886	6517
821.026	6688
821.167	6681
821.307	6810
821.447	6814
821.588	6646
821.728	6612
821.868	6479
822.008	6346
822.149	6334
822.289	6327
822.429	6190
822.569	6133
822.709	6159
822.849	5920
822.99	5923
823.13	5889
823.27	5935
823.41	5863
823.55	5783
823.69	5752
823.83	5779
823.97	5665
824.11	5558
824.25	5459
824.389	5554
824.529	5623
824.669	5566
824.809	5668
824.949	5653
825.089	5680
825.228	5627
825.368	5379
825.508	5368
825.648	5326
825.787	5387
825.927	5395
826.067	5364
826.206	5303
826.346	5402
826.485	5410
826.625	5429
826.765	5532
826.904	5493
827.044	5212
827.183	5216
827.323	5197
827.462	5277
827.601	5178
827.741	5155
827.88	5227
828.02	5075
828.159	5235
828.298	5299
828.437	5459
828.577	5254
828.716	5558
828.855	5353
828.994	5197
829.134	5048
829.273	5204
829.412	5178
829.551	5121
829.69	5201
829.829	5258
829.968	5383
830.107	5284
830.246	5341
830.385	5227
830.524	5170
830.663	5045
830.802	5014
830.941	4896
831.08	4885
831.219	5010
831.357	4976
831.496	5231
831.635	4991
831.774	4850
831.913	4854
832.051	4733
832.19	4733
832.329	4877
832.467	4698
832.606	4660
832.744	4710
832.883	4755
833.022	4763
833.16	4866
833.299	4828
833.437	4835
833.576	4843
833.714	4831
833.852	4881
833.991	4870
834.129	4984
834.267	4995
834.406	4927
834.544	5014
834.682	4980
834.821	4965
834.959	5181
835.097	5018
835.235	5170
835.373	5060
835.511	5117
835.65	5041
835.788	5014
835.926	4923
836.064	4850
836.202	4892
836.34	5178
836.478	5231
836.615	5147
836.753	5258
836.891	5326
837.029	5185
837.167	5235
837.305	5189
837.443	5151
837.58	5090
837.718	5261
837.856	5242
837.993	5166
838.131	5288
838.269	5208
838.406	5235
838.544	5201
838.681	5083
838.819	4999
838.956	4919
839.094	4904
839.231	4995
839.369	5079
839.506	5414
839.643	5288
839.781	5018
839.918	5037
840.055	5041
840.193	5109
840.33	5136
840.467	5159
840.604	5178
840.742	5482
840.879	5090
841.016	5132
841.153	5124
841.29	5330
841.427	5357
841.564	5345
841.701	5387
841.838	5292
841.975	5269
842.112	5261
842.249	5109
842.385	5113
842.522	5364
842.659	5223
842.796	5181
842.933	5231
843.069	5197
843.206	5185
843.343	5322
843.479	5250
843.616	5242
843.752	5064
843.889	5006
844.025	5246
844.162	5048
844.298	5193
844.435	5060
844.571	5056
844.708	5197
844.844	5326
844.98	5326
845.117	5246
845.253	5098
845.389	5075
845.525	5151
845.661	5181
845.798	5003
845.934	5136
846.07	5045
846.206	5216
846.342	5307
846.478	5216
846.614	5071
846.75	4946
846.886	4946
847.022	5178
847.158	5071
847.294	5045
847.429	5128
847.565	5045
847.701	5337
847.837	4854
847.972	4824
848.108	4972
848.244	4938
848.379	4793
848.515	4755
848.65	4702
848.786	4717
848.921	4778
849.057	4896
849.192	4870
849.328	4801
849.463	4908
849.598	4790
849.734	4774
849.869	4710
850.004	4630
850.14	4653
850.275	4611
850.41	4542
850.545	4577
850.68	4603
850.815	4618
850.95	4653
851.085	4881
851.22	4790
851.355	4679
851.49	4603
851.625	4634
851.76	4679
851.895	4611
852.03	4550
852.165	4630
852.299	4733
852.434	4801
852.569	4767
852.703	4771
852.838	4850
852.973	4957
853.107	4938
853.242	4786
853.376	4672
853.511	4577
853.645	4577
853.78	4767
853.914	4672
854.048	4675
854.183	4675
854.317	4744
854.451	4881
854.585	4706
854.72	4660
854.854	4752
854.988	4607
855.122	4653
855.256	4516
855.39	4622
855.524	4771
855.658	4691
855.792	4691
855.926	4721
856.06	4725
856.194	4786
856.327	4675
856.461	4641
856.595	4596
856.729	4649
856.862	4801
856.996	4706
857.13	4729
857.263	4706
857.397	4797
857.53	4649
857.664	4706
857.797	4771
857.931	4786
858.064	4698
858.197	4736
858.331	4584
858.464	4596
858.597	4523
858.731	4588
858.864	4660
858.997	4584
859.13	4725
859.263	4668
859.396	4679
859.529	4641
859.662	4607
859.795	4569
859.928	4630
860.061	4774
860.194	4748
860.327	4607
860.46	4592
860.592	4687
860.725	4694
860.858	4736
860.99	4584
861.123	4500
861.256	4546
861.388	4607
861.521	5353
861.653	4443
861.786	4440
861.918	4447
862.05	4527
862.183	4580
862.315	4634
862.447	4668
862.58	4592
862.712	4413
862.844	4299
862.976	4474
863.108	4443
863.24	4900
863.372	4341
863.504	4417
863.636	4470
863.768	4485
863.9	4428
864.032	4375
864.164	4421
864.296	4470
864.428	4546
864.559	4523
864.691	4546
864.823	4527
864.954	4516
865.086	4569
865.217	4500
865.349	4451
865.48	4462
865.612	4466
865.743	4649
865.875	4405
866.006	4466
866.137	4459
866.269	4424
866.4	4421
866.531	4455
866.662	4375
866.793	4367
866.924	4421
867.055	4466
867.186	4432
867.317	4402
867.448	4360
867.579	4371
867.71	4398
867.841	4398
867.972	4493
868.103	4451
868.233	4478
868.364	4481
868.495	4497
868.625	4698
868.756	4683
868.886	4573
869.017	4611
869.147	4793
869.278	4793
869.408	4649
869.539	4687
869.669	4740
869.799	4691
869.929	4736
870.06	4744
870.19	4942
870.32	4961
870.45	4927
870.58	4980
870.71	5109
870.84	5102
870.97	4961
871.1	4923
871.23	5193
871.36	5166
871.489	5018
871.619	5121
871.749	5083
871.879	5189
872.008	5151
872.138	5060
872.267	4995
872.397	4858
872.526	4824
872.656	4694
872.785	4812
872.915	4946
873.044	5048
873.173	4934
873.303	5018
873.432	4961
873.561	4980
873.69	4881
873.819	4904
873.948	4904
874.077	4835
874.206	4790
874.335	4839
874.464	4911
874.593	5121
874.722	4972
874.851	5105
874.979	5094
875.108	5018
875.237	4957
875.365	4908
875.494	4946
875.623	4961
875.751	4828
875.88	4873
876.008	5006
876.136	5048
876.265	5239
876.393	5318
876.521	5277
876.65	5208
876.778	5201
876.906	5048
877.034	5003
877.162	5079
877.29	4965
877.418	4984
877.546	5079
877.674	5025
877.802	5033
877.93	5048
878.058	4934
878.185	4828
878.313	4908
878.441	4881
878.568	4774
878.696	4892
878.824	4957
878.951	5048
879.079	5151
879.206	5315
879.333	5090
879.461	5006
879.588	5018
879.715	5105
879.842	5193
879.97	5029
880.097	4793
880.224	4801
880.351	4866
880.478	4824
880.605	4870
880.732	4748
880.859	5155
880.986	4873
881.112	4908
881.239	4801
881.366	4675
881.493	4607
881.619	4580
881.746	4607
881.872	4683
881.999	4683
882.125	4664
882.252	4805
882.378	4854
882.505	4976
882.631	4835
882.757	4656
882.883	4755
883.01	4774
883.136	4645
883.262	4611
883.388	4622
883.514	4793
883.64	4889
883.766	4793
883.892	4656
884.018	4725
884.143	4923
884.269	4999
884.395	4672
884.52	4683
884.646	4603
884.772	4569
884.897	4580
885.023	4714
885.148	4767
885.274	4915
885.399	4782
885.524	4675
885.65	4710
885.775	4710
885.9	4740
886.025	4850
886.15	4824
886.275	4733
886.4	4645
886.525	4706
886.65	4721
886.775	4752
886.9	4889
887.025	5037
887.149	4812
887.274	4698
887.399	4580
887.523	4577
887.648	4603
887.773	4599
887.897	4736
888.021	4755
888.146	4679
888.27	4767
888.395	4839
888.519	4843
888.643	4805
888.767	4816
888.891	4641
889.015	4634
889.139	4634
889.263	4558
889.387	4786
889.511	4889
889.635	4816
889.759	4672
889.883	4626
890.006	4710
890.13	4824
890.254	4618
890.377	4714
890.501	4546
890.624	4554
890.748	4653
890.871	4565
890.995	4402
891.118	4386
891.241	4519
891.364	4523
891.488	4641
891.611	4481
891.734	4504
891.857	4641
891.98	4546
892.103	4694
892.226	4618
892.349	4485
892.471	4432
892.594	4565
892.717	4580
892.839	4519
892.962	4554
893.085	4706
893.207	4603
893.33	4440
893.452	4485
893.575	4679
893.697	4596
893.819	4801
893.941	4782
894.064	4725
894.186	4596
894.308	4558
894.43	4748
894.552	4858
894.674	4801
894.796	4565
894.918	4618
895.04	4577
895.161	4691
895.283	4637
895.405	4622
895.526	4615
895.648	4733
895.769	4672
895.891	4706
896.012	4729
896.134	4706
896.255	4675
896.376	4683
896.498	4599
896.619	4649
896.74	4660
896.861	4626
896.982	4915
897.103	5109
897.224	4881
897.345	4748
897.466	4710
897.587	4752
897.708	4850
897.828	4763
897.949	4706
898.07	4535
898.19	4653
898.311	4862
898.431	4763
898.552	4736
898.672	4767
898.792	4805
898.913	4850
899.033	4641
899.153	4523
899.273	4413
899.393	4436
899.513	4546
899.633	4535
899.753	4516
899.873	4519
899.993	4592
900.113	4565
900.232	4565
900.352	4550
900.472	4512
900.591	4413
900.711	4531
900.83	4474
900.95	4630
901.069	4687
901.189	4516
901.308	4375
901.427	4352
901.546	4409
901.665	4421
901.784	4489
901.904	4405
902.023	4310
902.141	4215
902.26	4166
902.379	4333
902.498	4253
902.617	4215
902.735	4402
902.854	4390
902.973	4333
903.091	4196
903.21	4230
903.328	4325
903.446	4287
903.565	4246
903.683	4344
903.801	4272
903.919	4424
904.038	4402
904.156	4322
904.274	4402
904.392	4375
904.51	4504
904.627	4443
904.745	4622
904.863	4596
904.981	4383
905.098	4284
905.216	4363
905.334	4436
905.451	4451
905.569	4432
905.686	4558
905.803	4535
905.921	4440
906.038	4565
906.155	4512
906.272	4424
906.389	4443
906.506	4341
906.623	4379
906.74	4421
906.857	4360
906.974	4421
907.091	4542
907.208	4691
907.324	4603
907.441	4478
907.557	4375
907.674	4363
907.79	4375
907.907	4398
908.023	4519
908.139	4459
908.256	4474
908.372	4470
908.488	4481
908.604	4356
908.72	4375
908.836	4375
908.952	4371
909.068	4459
909.184	4592
909.3	4485
909.415	4596
909.531	4550
909.647	4333
909.762	4386
909.878	4314
909.993	4432
910.108	4428
910.224	4409
910.339	4538
910.454	4409
910.57	4352
910.685	4322
910.8	4618
910.915	4550
911.03	4512
911.145	4314
911.259	4344
911.374	4367
911.489	4257
911.604	4280
911.718	4154
911.833	4249
911.947	4105
912.062	4013
912.176	4276
912.291	4265
912.405	4280
912.519	4485
912.633	4481
912.748	4402
912.862	4276
912.976	4223
913.09	4090
913.204	4181
913.318	4234
913.431	4356
913.545	4383
913.659	4443
913.772	4375
913.886	4280
914	4215
914.113	4436
914.226	4443
914.34	4451
914.453	4238
914.566	4455
914.68	4322
914.793	4299
914.906	4200
915.019	4154
915.132	4101
915.245	4192
915.358	4238
915.47	4211
915.583	4276
915.696	4276
915.809	4409
915.921	4478
916.034	4242
916.146	4291
916.259	4253
916.371	4367
916.483	4371
916.595	4280
916.708	4303
916.82	4322
916.932	4322
917.044	4352
917.156	4348
917.268	4249
917.38	4295
917.491	4257
917.603	4344
917.715	4459
917.826	4383
917.938	4363
918.049	4306
918.161	4383
918.272	4531
918.384	4569
918.495	4451
918.606	4284
918.717	4268
918.828	4284
918.939	4363
919.05	4318
919.161	4314
919.272	4158
919.383	4303
919.494	4440
919.604	4675
919.715	4447
919.826	4344
919.936	4428
920.047	4523
920.157	4485
920.267	4721
920.378	4584
920.488	4500
920.598	4714
920.708	4908
920.818	4759
920.928	4733
921.038	4934
921.148	4930
921.258	4645
921.368	4546
921.477	4516
921.587	4478
921.697	4360
921.806	4535
921.916	4379
922.025	4299
922.134	4306
922.244	4249
922.353	4325
922.462	4230
922.571	4109
922.68	4025
922.789	3987
922.898	4090
923.007	4002
923.116	4078
923.224	4051
923.333	4063
923.442	3972
923.55	4002
923.659	4029
923.767	4105
923.876	3972
923.984	4169
924.092	3987
924.201	4071
924.309	4040
924.417	4147
924.525	4051
924.633	4128
924.741	5048
924.849	3918
924.956	4166
925.064	3975
925.172	3873
925.279	3949
925.387	4055
925.494	4082
925.602	4215
925.709	4188
925.816	4025
925.924	4135
926.031	4265
926.138	4173
926.245	4173
926.352	4105
926.459	4249
926.566	4272
926.673	4169
926.779	4078
926.886	4101
926.993	3994
927.099	3994
927.206	3903
927.312	3991
927.419	4051
927.525	4074
927.631	4131
927.737	3975
927.843	3926
927.95	3876
928.056	3998
928.162	3979
928.267	4063
928.373	4736
928.479	4101
928.585	3873
928.69	4006
928.796	4078
928.901	3972
929.007	3869
929.112	3975
929.218	4013
929.323	3979
929.428	4029
929.533	4086
929.638	3934
929.743	3979
929.848	4040
929.953	4055
930.058	3941
930.163	3793
930.267	3812
930.372	3983
930.477	3781
930.581	4093
930.685	3926
930.79	3850
930.894	3892
930.998	3899
931.103	4021
931.207	3724
931.311	3686
931.415	3690
931.519	3526
931.623	3553
