Data from test_V78500241_1180.txt Node
Date: Fri Mar 25 16:57:12 CST 2022
User: usil
Spectrometer: V785-0024
Trigger mode: 0
Integration Time (sec): 4.000000E-1
Scans to average: 1
Nonlinearity correction enabled: false
Boxcar width: 0
Storing dark spectrum: false
XAxis mode: Wavelengths
Number of Pixels in Spectrum: 1024
>>>>>Begin Spectral Data<<<<<
801.071	7986
801.214	8069
801.356	7902
801.499	7837
801.641	7833
801.783	7803
801.926	7925
802.068	7936
802.211	7974
802.353	7871
802.496	7799
802.638	7841
802.78	7959
802.923	7906
803.065	7898
803.208	7833
803.35	8005
803.492	8119
803.635	8180
803.777	8035
803.919	8180
804.061	8423
804.204	8092
804.346	8027
804.488	7940
804.63	8092
804.773	7986
804.915	8123
805.057	8263
805.199	8176
805.341	8191
805.483	8320
805.626	8218
805.768	8119
805.91	8248
806.052	8199
806.194	8107
806.336	8336
806.478	8103
806.62	8062
806.762	8130
806.904	8279
807.046	8419
807.188	8339
807.33	8225
807.472	8294
807.614	8187
807.756	8134
807.898	7928
808.04	7906
808.182	7951
808.324	7906
808.465	7963
808.607	8134
808.749	8050
808.891	8252
809.033	8233
809.174	8244
809.316	7989
809.458	8069
809.6	7928
809.741	8031
809.883	8050
810.025	8096
810.166	8111
810.308	8012
810.45	8043
810.591	7860
810.733	7696
810.875	7662
811.016	7491
811.158	7407
811.299	7651
811.441	7811
811.582	7658
811.724	7605
811.865	7559
812.007	7590
812.148	7567
812.29	7605
812.431	7689
812.573	7906
812.714	8027
812.855	8111
812.997	8103
813.138	8256
813.279	8176
813.421	8119
813.562	7974
813.703	7883
813.845	7696
813.986	7495
814.127	7225
814.268	7206
814.41	7179
814.551	7133
814.692	7145
814.833	7034
814.974	7023
815.115	7084
815.256	6962
815.397	6947
815.539	6958
815.68	6829
815.821	6738
815.962	6848
816.103	6776
816.244	6700
816.385	6631
816.526	6627
816.666	6464
816.807	6273
816.948	6418
817.089	6456
817.23	6414
817.371	6357
817.512	6395
817.653	6426
817.793	6376
817.934	6350
818.075	6475
818.216	6422
818.356	6399
818.497	6224
818.638	6098
818.778	6129
818.919	6106
819.06	6148
819.2	6292
819.341	6327
819.481	6331
819.622	6490
819.762	6757
819.903	6764
820.043	6566
820.184	6559
820.324	6616
820.465	6719
820.605	6639
820.746	6658
820.886	6502
821.026	6608
821.167	6688
821.307	6821
821.447	6741
821.588	6681
821.728	6563
821.868	6521
822.008	6350
822.149	6334
822.289	6338
822.429	6175
822.569	6125
822.709	6076
822.849	5965
822.99	5931
823.13	5950
823.27	5920
823.41	5790
823.55	5802
823.69	5821
823.83	5809
823.97	5661
824.11	5551
824.25	5520
824.389	5543
824.529	5642
824.669	5570
824.809	5615
824.949	5688
825.089	5615
825.228	5570
825.368	5414
825.508	5345
825.648	5368
825.787	5433
825.927	5357
826.067	5337
826.206	5288
826.346	5440
826.485	5379
826.625	5440
826.765	5547
826.904	5539
827.044	5280
827.183	5212
827.323	5140
827.462	5284
827.601	5250
827.741	5208
827.88	5258
828.02	5166
828.159	5239
828.298	5326
828.437	5395
828.577	5299
828.716	5524
828.855	5326
828.994	5250
829.134	5174
829.273	5212
829.412	5140
829.551	5174
829.69	5216
829.829	5235
829.968	5414
830.107	5284
830.246	5265
830.385	5170
830.524	5178
830.663	5048
830.802	5037
830.941	4942
831.08	4885
831.219	4942
831.357	5018
831.496	5151
831.635	4984
831.774	4866
831.913	4930
832.051	4786
832.19	4801
832.329	4896
832.467	4714
832.606	4698
832.744	4740
832.883	4710
833.022	4752
833.16	4850
833.299	4870
833.437	4835
833.576	4850
833.714	4885
833.852	4892
833.991	4938
834.129	4972
834.267	4991
834.406	4934
834.544	4991
834.682	4980
834.821	4965
834.959	5147
835.097	5022
835.235	5185
835.373	5048
835.511	5128
835.65	5018
835.788	5048
835.926	4911
836.064	4911
836.202	4984
836.34	5147
836.478	5208
836.615	5166
836.753	5277
836.891	5277
837.029	5292
837.167	5197
837.305	5220
837.443	5212
837.58	5109
837.718	5288
837.856	5246
837.993	5212
838.131	5273
838.269	5208
838.406	5174
838.544	5204
838.681	5033
838.819	5003
838.956	4919
839.094	4987
839.231	4946
839.369	5143
839.506	5421
839.643	5326
839.781	5064
839.918	5048
840.055	5178
840.193	5102
840.33	5079
840.467	5166
840.604	5231
840.742	5482
840.879	5109
841.016	5132
841.153	5212
841.29	5410
841.427	5326
841.564	5303
841.701	5379
841.838	5303
841.975	5254
842.112	5242
842.249	5185
842.385	5113
842.522	5334
842.659	5197
842.796	5208
842.933	5201
843.069	5193
843.206	5132
843.343	5341
843.479	5242
843.616	5277
843.752	5075
843.889	4999
844.025	5250
844.162	5037
844.298	5201
844.435	5102
844.571	5086
844.708	5185
844.844	5307
844.98	5376
845.117	5303
845.253	5174
845.389	5105
845.525	5105
845.661	5132
845.798	5086
845.934	5132
846.07	5079
846.206	5208
846.342	5341
846.478	5197
846.614	5003
846.75	5006
846.886	4942
847.022	5136
847.158	5083
847.294	5155
847.429	5117
847.565	5079
847.701	5326
847.837	4824
847.972	4809
848.108	4976
848.244	4972
848.379	4793
848.515	4706
848.65	4702
848.786	4786
848.921	4793
849.057	4881
849.192	4923
849.328	4839
849.463	4805
849.598	4812
849.734	4797
849.869	4683
850.004	4611
850.14	4706
850.275	4622
850.41	4489
850.545	4645
850.68	4664
850.815	4630
850.95	4626
851.085	4816
851.22	4790
851.355	4683
851.49	4615
851.625	4615
851.76	4668
851.895	4584
852.03	4558
852.165	4645
852.299	4763
852.434	4786
852.569	4759
852.703	4805
852.838	4850
852.973	4923
853.107	4938
853.242	4733
853.376	4733
853.511	4550
853.645	4592
853.78	4831
853.914	4721
854.048	4694
854.183	4691
854.317	4725
854.451	4809
854.585	4668
854.72	4649
854.854	4736
854.988	4649
855.122	4622
855.256	4558
855.39	4656
855.524	4790
855.658	4748
855.792	4702
855.926	4736
856.06	4812
856.194	4809
856.327	4702
856.461	4630
856.595	4630
856.729	4611
856.862	4786
856.996	4706
857.13	4748
857.263	4755
857.397	4828
857.53	4656
857.664	4755
857.797	4759
857.931	4767
858.064	4683
858.197	4755
858.331	4649
858.464	4626
858.597	4565
858.731	4615
858.864	4611
858.997	4611
859.13	4698
859.263	4698
859.396	4675
859.529	4599
859.662	4630
859.795	4611
859.928	4679
860.061	4771
860.194	4774
860.327	4641
860.46	4618
860.592	4683
860.725	4717
860.858	4721
860.99	4596
861.123	4569
861.256	4535
861.388	4634
861.521	5265
861.653	4474
861.786	4478
861.918	4386
862.05	4500
862.183	4580
862.315	4630
862.447	4683
862.58	4565
862.712	4348
862.844	4322
862.976	4527
863.108	4447
863.24	4839
863.372	4318
863.504	4451
863.636	4375
863.768	4474
863.9	4455
864.032	4421
864.164	4402
864.296	4489
864.428	4596
864.559	4535
864.691	4531
864.823	4542
864.954	4519
865.086	4550
865.217	4478
865.349	4470
865.48	4481
865.612	4527
865.743	4664
865.875	4500
866.006	4440
866.137	4500
866.269	4432
866.4	4436
866.531	4436
866.662	4440
866.793	4440
866.924	4424
867.055	4531
867.186	4451
867.317	4470
867.448	4367
867.579	4375
867.71	4428
867.841	4348
867.972	4470
868.103	4462
868.233	4455
868.364	4421
868.495	4508
868.625	4664
868.756	4771
868.886	4538
869.017	4626
869.147	4820
869.278	4774
869.408	4694
869.539	4637
869.669	4691
869.799	4634
869.929	4793
870.06	4725
870.19	4919
870.32	4900
870.45	4972
870.58	5033
870.71	5132
870.84	5079
870.97	4965
871.1	4980
871.23	5155
871.36	5151
871.489	5083
871.619	5083
871.749	5075
871.879	5075
872.008	5250
872.138	5048
872.267	4946
872.397	4904
872.526	4824
872.656	4710
872.785	4839
872.915	4976
873.044	5067
873.173	4938
873.303	4984
873.432	4987
873.561	4957
873.69	4900
873.819	4896
873.948	4889
874.077	4831
874.206	4759
874.335	4797
874.464	4957
874.593	5083
874.722	4984
874.851	5098
874.979	5064
875.108	5037
875.237	4908
875.365	4938
875.494	4911
875.623	4987
875.751	4816
875.88	4896
876.008	4995
876.136	5075
876.265	5216
876.393	5307
876.521	5223
876.65	5204
876.778	5162
876.906	5121
877.034	5010
877.162	5056
877.29	4995
877.418	5064
877.546	5071
877.674	5037
877.802	5041
877.93	5071
878.058	4938
878.185	4858
878.313	4923
878.441	4995
878.568	4790
878.696	4881
878.824	4987
878.951	5033
879.079	5216
879.206	5315
879.333	5098
879.461	5010
879.588	5045
879.715	5121
879.842	5208
879.97	4991
880.097	4774
880.224	4790
880.351	4824
880.478	4843
880.605	4805
880.732	4805
880.859	5094
880.986	4889
881.112	4949
881.239	4774
881.366	4710
881.493	4656
881.619	4630
881.746	4637
881.872	4656
881.999	4702
882.125	4721
882.252	4854
882.378	4812
882.505	4915
882.631	4786
882.757	4668
882.883	4752
883.01	4725
883.136	4679
883.262	4599
883.388	4626
883.514	4835
883.64	4824
883.766	4774
883.892	4687
884.018	4733
884.143	4881
884.269	5010
884.395	4634
884.52	4679
884.646	4710
884.772	4592
884.897	4565
885.023	4694
885.148	4763
885.274	4862
885.399	4812
885.524	4717
885.65	4710
885.775	4744
885.9	4714
886.025	4839
886.15	4812
886.275	4736
886.4	4641
886.525	4687
886.65	4733
886.775	4733
886.9	4892
887.025	5018
887.149	4790
887.274	4675
887.399	4546
887.523	4565
887.648	4596
887.773	4637
887.897	4771
888.021	4771
888.146	4664
888.27	4778
888.395	4953
888.519	4820
888.643	4797
888.767	4824
888.891	4694
889.015	4618
889.139	4653
889.263	4561
889.387	4736
889.511	4824
889.635	4752
889.759	4641
889.883	4637
890.006	4752
890.13	4835
890.254	4596
890.377	4710
890.501	4626
890.624	4497
890.748	4679
890.871	4516
890.995	4455
891.118	4390
891.241	4535
891.364	4542
891.488	4622
891.611	4512
891.734	4546
891.857	4618
891.98	4588
892.103	4668
892.226	4634
892.349	4565
892.471	4428
892.594	4523
892.717	4611
892.839	4580
892.962	4626
893.085	4691
893.207	4535
893.33	4451
893.452	4542
893.575	4637
893.697	4618
893.819	4755
893.941	4839
894.064	4805
894.186	4580
894.308	4588
894.43	4675
894.552	4835
894.674	4790
894.796	4519
894.918	4584
895.04	4622
895.161	4721
895.283	4660
895.405	4611
895.526	4653
895.648	4672
895.769	4698
895.891	4710
896.012	4706
896.134	4675
896.255	4660
896.376	4618
896.498	4611
896.619	4683
896.74	4615
896.861	4618
896.982	4915
897.103	5022
897.224	4854
897.345	4752
897.466	4611
897.587	4725
897.708	4824
897.828	4797
897.949	4698
898.07	4584
898.19	4675
898.311	4786
898.431	4702
898.552	4721
898.672	4839
898.792	4824
898.913	4721
899.033	4584
899.153	4466
899.273	4440
899.393	4451
899.513	4558
899.633	4538
899.753	4535
899.873	4508
899.993	4603
900.113	4558
900.232	4558
900.352	4565
900.472	4459
900.591	4421
900.711	4523
900.83	4459
900.95	4637
901.069	4698
901.189	4538
901.308	4394
901.427	4375
901.546	4386
901.665	4481
901.784	4508
901.904	4371
902.023	4306
902.141	4211
902.26	4150
902.379	4284
902.498	4223
902.617	4242
902.735	4371
902.854	4428
902.973	4428
903.091	4223
903.21	4246
903.328	4318
903.446	4242
903.565	4280
903.683	4360
903.801	4303
903.919	4428
904.038	4417
904.156	4284
904.274	4474
904.392	4352
904.51	4459
904.627	4455
904.745	4588
904.863	4634
904.981	4459
905.098	4287
905.216	4337
905.334	4432
905.451	4489
905.569	4432
905.686	4535
905.803	4599
905.921	4383
906.038	4558
906.155	4500
906.272	4402
906.389	4466
906.506	4314
906.623	4405
906.74	4360
906.857	4242
906.974	4379
907.091	4561
907.208	4691
907.324	4634
907.441	4508
907.557	4310
907.674	4329
907.79	4314
907.907	4394
908.023	4428
908.139	4443
908.256	4398
908.372	4504
908.488	4466
908.604	4356
908.72	4344
908.836	4344
908.952	4367
909.068	4405
909.184	4565
909.3	4497
909.415	4546
909.531	4531
909.647	4383
909.762	4344
909.878	4325
909.993	4474
910.108	4424
910.224	4398
910.339	4474
910.454	4428
910.57	4375
910.685	4322
910.8	4626
910.915	4558
911.03	4497
911.145	4329
911.259	4287
911.374	4405
911.489	4303
911.604	4261
911.718	4154
911.833	4207
911.947	4101
912.062	4071
912.176	4192
912.291	4234
912.405	4242
912.519	4462
912.633	4523
912.748	4398
912.862	4318
912.976	4166
913.09	4101
913.204	4181
913.318	4234
913.431	4375
913.545	4352
913.659	4428
913.772	4325
913.886	4223
914	4211
914.113	4386
914.226	4443
914.34	4352
914.453	4246
914.566	4405
914.68	4284
914.793	4306
914.906	4169
915.019	4097
915.132	4082
915.245	4173
915.358	4188
915.47	4257
915.583	4234
915.696	4291
915.809	4398
915.921	4405
916.034	4242
916.146	4280
916.259	4200
916.371	4402
916.483	4348
916.595	4253
916.708	4356
916.82	4303
916.932	4337
917.044	4303
917.156	4325
917.268	4276
917.38	4287
917.491	4234
917.603	4341
917.715	4421
917.826	4481
917.938	4325
918.049	4234
918.161	4447
918.272	4561
918.384	4478
918.495	4447
918.606	4333
918.717	4257
918.828	4287
918.939	4337
919.05	4257
919.161	4280
919.272	4131
919.383	4249
919.494	4462
919.604	4626
919.715	4390
919.826	4367
919.936	4356
920.047	4516
920.157	4470
920.267	4698
920.378	4550
920.488	4474
920.598	4729
920.708	4862
920.818	4740
920.928	4736
921.038	4930
921.148	4927
921.258	4599
921.368	4561
921.477	4478
921.587	4413
921.697	4413
921.806	4580
921.916	4447
922.025	4207
922.134	4284
922.244	4204
922.353	4295
922.462	4196
922.571	4147
922.68	3983
922.789	4002
922.898	4048
923.007	3987
923.116	4116
923.224	4082
923.333	4032
923.442	3968
923.55	3991
923.659	4032
923.767	4124
923.876	3987
923.984	4105
924.092	3949
924.201	4032
924.309	4078
924.417	4090
924.525	4078
924.633	4086
924.741	5083
924.849	3926
924.956	4147
925.064	3960
925.172	3918
925.279	3949
925.387	4051
925.494	4063
925.602	4196
925.709	4131
925.816	4021
925.924	4158
926.031	4234
926.138	4154
926.245	4223
926.352	4128
926.459	4223
926.566	4284
926.673	4124
926.779	4120
926.886	4040
926.993	3998
927.099	3907
927.206	3934
927.312	3899
927.419	4071
927.525	4067
927.631	4074
927.737	3972
927.843	3960
927.95	3842
928.056	3926
928.162	4002
928.267	4010
928.373	4637
928.479	4139
928.585	3873
928.69	4063
928.796	4059
928.901	3975
929.007	3835
929.112	4025
929.218	3983
929.323	3941
929.428	3953
929.533	4135
929.638	3926
929.743	3930
929.848	4029
929.953	4006
930.058	3945
930.163	3762
930.267	3819
930.372	3979
930.477	3816
930.581	4120
930.685	3953
930.79	3819
930.894	3888
930.998	3896
931.103	4010
931.207	3713
931.311	3682
931.415	3629
931.519	3496
931.623	3584
