Data from test_V78500241_1476.txt Node
Date: Fri Mar 25 16:59:15 CST 2022
User: usil
Spectrometer: V785-0024
Trigger mode: 0
Integration Time (sec): 4.000000E-1
Scans to average: 1
Nonlinearity correction enabled: false
Boxcar width: 0
Storing dark spectrum: false
XAxis mode: Wavelengths
Number of Pixels in Spectrum: 1024
>>>>>Begin Spectral Data<<<<<
801.071	8008
801.214	7993
801.356	7871
801.499	7898
801.641	7830
801.783	7875
801.926	7970
802.068	7951
802.211	8024
802.353	7982
802.496	7890
802.638	7822
802.78	7928
802.923	7841
803.065	7959
803.208	7875
803.35	7989
803.492	8096
803.635	8126
803.777	8039
803.919	8172
804.061	8461
804.204	8149
804.346	8103
804.488	7936
804.63	8077
804.773	8027
804.915	8100
805.057	8301
805.199	8172
805.341	8161
805.483	8229
805.626	8214
805.768	8153
805.91	8259
806.052	8256
806.194	8164
806.336	8313
806.478	8088
806.62	8092
806.762	8153
806.904	8259
807.046	8366
807.188	8343
807.33	8343
807.472	8282
807.614	8195
807.756	8130
807.898	7959
808.04	7906
808.182	7890
808.324	7921
808.465	7947
808.607	8172
808.749	8111
808.891	8199
809.033	8309
809.174	8271
809.316	8134
809.458	8050
809.6	7993
809.741	8050
809.883	7963
810.025	8111
810.166	8069
810.308	8050
810.45	7993
810.591	7868
810.733	7761
810.875	7689
811.016	7578
811.158	7472
811.299	7586
811.441	7723
811.582	7647
811.724	7597
811.865	7472
812.007	7597
812.148	7605
812.29	7723
812.431	7826
812.573	7936
812.714	8016
812.855	8088
812.997	8233
813.138	8332
813.279	8267
813.421	8088
813.562	7970
813.703	7845
813.845	7719
813.986	7441
814.127	7225
814.268	7247
814.41	7236
814.551	7152
814.692	7228
814.833	7046
814.974	7126
815.115	7084
815.256	6966
815.397	6867
815.539	6981
815.68	6833
815.821	6787
815.962	6875
816.103	6791
816.244	6677
816.385	6639
816.526	6551
816.666	6532
816.807	6342
816.948	6467
817.089	6429
817.23	6418
817.371	6391
817.512	6327
817.653	6410
817.793	6357
817.934	6388
818.075	6433
818.216	6365
818.356	6445
818.497	6224
818.638	6152
818.778	6201
818.919	6121
819.06	6235
819.2	6315
819.341	6296
819.481	6380
819.622	6498
819.762	6730
819.903	6681
820.043	6585
820.184	6616
820.324	6521
820.465	6711
820.605	6688
820.746	6684
820.886	6483
821.026	6745
821.167	6757
821.307	6844
821.447	6837
821.588	6646
821.728	6616
821.868	6483
822.008	6357
822.149	6346
822.289	6376
822.429	6171
822.569	6114
822.709	6117
822.849	5969
822.99	5961
823.13	5866
823.27	5916
823.41	5805
823.55	5752
823.69	5786
823.83	5748
823.97	5684
824.11	5558
824.25	5482
824.389	5577
824.529	5619
824.669	5573
824.809	5627
824.949	5634
825.089	5630
825.228	5482
825.368	5383
825.508	5307
825.648	5341
825.787	5372
825.927	5406
826.067	5315
826.206	5299
826.346	5425
826.485	5425
826.625	5471
826.765	5539
826.904	5505
827.044	5269
827.183	5189
827.323	5140
827.462	5223
827.601	5140
827.741	5193
827.88	5204
828.02	5113
828.159	5284
828.298	5337
828.437	5360
828.577	5330
828.716	5478
828.855	5330
828.994	5136
829.134	5185
829.273	5159
829.412	5216
829.551	5136
829.69	5197
829.829	5277
829.968	5372
830.107	5246
830.246	5277
830.385	5166
830.524	5136
830.663	5056
830.802	4991
830.941	4835
831.08	4892
831.219	4980
831.357	4968
831.496	5159
831.635	4908
831.774	4877
831.913	4866
832.051	4706
832.19	4763
832.329	4873
832.467	4675
832.606	4660
832.744	4683
832.883	4710
833.022	4710
833.16	4748
833.299	4820
833.437	4820
833.576	4816
833.714	4805
833.852	4885
833.991	4873
834.129	4957
834.267	4934
834.406	4904
834.544	4976
834.682	4946
834.821	5003
834.959	5102
835.097	5041
835.235	5143
835.373	5079
835.511	5136
835.65	5060
835.788	4980
835.926	4904
836.064	4892
836.202	4904
836.34	5159
836.478	5162
836.615	5128
836.753	5216
836.891	5288
837.029	5216
837.167	5212
837.305	5162
837.443	5151
837.58	5128
837.718	5258
837.856	5189
837.993	5162
838.131	5223
838.269	5239
838.406	5223
838.544	5121
838.681	5105
838.819	4953
838.956	4862
839.094	4919
839.231	4984
839.369	5086
839.506	5414
839.643	5303
839.781	5083
839.918	4999
840.055	5121
840.193	5071
840.33	5102
840.467	5159
840.604	5208
840.742	5433
840.879	5075
841.016	5086
841.153	5159
841.29	5379
841.427	5288
841.564	5326
841.701	5357
841.838	5277
841.975	5254
842.112	5322
842.249	5151
842.385	5090
842.522	5307
842.659	5162
842.796	5166
842.933	5235
843.069	5075
843.206	5147
843.343	5273
843.479	5220
843.616	5250
843.752	5052
843.889	5003
844.025	5189
844.162	5067
844.298	5269
844.435	5113
844.571	5041
844.708	5197
844.844	5258
844.98	5292
845.117	5280
845.253	5162
845.389	5064
845.525	5220
845.661	5098
845.798	5006
845.934	5117
846.07	5033
846.206	5155
846.342	5261
846.478	5189
846.614	5010
846.75	4976
846.886	4946
847.022	5212
847.158	5014
847.294	5025
847.429	5102
847.565	4991
847.701	5292
847.837	4862
847.972	4805
848.108	4927
848.244	4923
848.379	4771
848.515	4774
848.65	4687
848.786	4763
848.921	4786
849.057	4870
849.192	4877
849.328	4786
849.463	4881
849.598	4774
849.734	4748
849.869	4687
850.004	4615
850.14	4645
850.275	4641
850.41	4459
850.545	4546
850.68	4607
850.815	4634
850.95	4615
851.085	4892
851.22	4759
851.355	4618
851.49	4634
851.625	4653
851.76	4573
851.895	4607
852.03	4527
852.165	4637
852.299	4725
852.434	4767
852.569	4805
852.703	4786
852.838	4805
852.973	4911
853.107	4965
853.242	4744
853.376	4668
853.511	4519
853.645	4577
853.78	4767
853.914	4725
854.048	4656
854.183	4641
854.317	4721
854.451	4843
854.585	4717
854.72	4634
854.854	4767
854.988	4588
855.122	4649
855.256	4535
855.39	4660
855.524	4805
855.658	4752
855.792	4725
855.926	4714
856.06	4721
856.194	4774
856.327	4687
856.461	4615
856.595	4637
856.729	4607
856.862	4774
856.996	4733
857.13	4714
857.263	4782
857.397	4828
857.53	4664
857.664	4717
857.797	4778
857.931	4778
858.064	4729
858.197	4748
858.331	4649
858.464	4573
858.597	4519
858.731	4603
858.864	4649
858.997	4584
859.13	4649
859.263	4675
859.396	4733
859.529	4577
859.662	4565
859.795	4546
859.928	4630
860.061	4736
860.194	4805
860.327	4622
860.46	4535
860.592	4679
860.725	4698
860.858	4740
860.99	4607
861.123	4542
861.256	4554
861.388	4630
861.521	5398
861.653	4455
861.786	4440
861.918	4474
862.05	4546
862.183	4538
862.315	4622
862.447	4622
862.58	4569
862.712	4390
862.844	4325
862.976	4481
863.108	4436
863.24	4782
863.372	4337
863.504	4440
863.636	4459
863.768	4485
863.9	4455
864.032	4348
864.164	4390
864.296	4466
864.428	4542
864.559	4569
864.691	4512
864.823	4485
864.954	4466
865.086	4535
865.217	4466
865.349	4405
865.48	4432
865.612	4478
865.743	4607
865.875	4443
866.006	4405
866.137	4443
866.269	4436
866.4	4474
866.531	4394
866.662	4394
866.793	4409
866.924	4398
867.055	4508
867.186	4443
867.317	4360
867.448	4383
867.579	4390
867.71	4360
867.841	4325
867.972	4432
868.103	4474
868.233	4455
868.364	4443
868.495	4497
868.625	4717
868.756	4752
868.886	4554
869.017	4660
869.147	4767
869.278	4752
869.408	4683
869.539	4664
869.669	4717
869.799	4691
869.929	4774
870.06	4702
870.19	4938
870.32	4896
870.45	4961
870.58	4995
870.71	5033
870.84	5083
870.97	4976
871.1	4892
871.23	5132
871.36	5159
871.489	4991
871.619	5067
871.749	5075
871.879	5162
872.008	5159
872.138	5041
872.267	4949
872.397	4881
872.526	4774
872.656	4740
872.785	4809
872.915	4870
873.044	4995
873.173	4965
873.303	4934
873.432	4949
873.561	4870
873.69	4835
873.819	4870
873.948	4946
874.077	4858
874.206	4702
874.335	4839
874.464	4938
874.593	5045
874.722	4953
874.851	5121
874.979	5025
875.108	5003
875.237	4892
875.365	4862
875.494	4870
875.623	4957
875.751	4790
875.88	4877
876.008	5041
876.136	5018
876.265	5178
876.393	5345
876.521	5250
876.65	5227
876.778	5143
876.906	5094
877.034	5006
877.162	5048
877.29	4980
877.418	5018
877.546	5041
877.674	5025
877.802	5071
877.93	5029
878.058	4934
878.185	4847
878.313	4946
878.441	4927
878.568	4782
878.696	4866
878.824	4995
878.951	4968
879.079	5132
879.206	5288
879.333	5102
879.461	4984
879.588	4972
879.715	5113
879.842	5193
879.97	5025
880.097	4786
880.224	4706
880.351	4790
880.478	4793
880.605	4782
880.732	4774
880.859	5075
880.986	4904
881.112	4881
881.239	4752
881.366	4630
881.493	4611
881.619	4611
881.746	4634
881.872	4615
881.999	4637
882.125	4675
882.252	4759
882.378	4831
882.505	5003
882.631	4831
882.757	4668
882.883	4733
883.01	4717
883.136	4645
883.262	4588
883.388	4580
883.514	4824
883.64	4812
883.766	4729
883.892	4660
884.018	4694
884.143	4847
884.269	4987
884.395	4664
884.52	4584
884.646	4645
884.772	4550
884.897	4535
885.023	4660
885.148	4782
885.274	4839
885.399	4805
885.524	4683
885.65	4687
885.775	4683
885.9	4725
886.025	4877
886.15	4805
886.275	4717
886.4	4584
886.525	4740
886.65	4698
886.775	4683
886.9	4900
887.025	5029
887.149	4835
887.274	4706
887.399	4596
887.523	4611
887.648	4618
887.773	4607
887.897	4763
888.021	4797
888.146	4675
888.27	4809
888.395	4858
888.519	4740
888.643	4755
888.767	4831
888.891	4664
889.015	4561
889.139	4645
889.263	4618
889.387	4759
889.511	4858
889.635	4790
889.759	4622
889.883	4611
890.006	4736
890.13	4866
890.254	4588
890.377	4664
890.501	4546
890.624	4500
890.748	4668
890.871	4497
890.995	4466
891.118	4375
891.241	4504
891.364	4508
891.488	4641
891.611	4512
891.734	4489
891.857	4558
891.98	4523
892.103	4645
892.226	4542
892.349	4516
892.471	4394
892.594	4516
892.717	4569
892.839	4580
892.962	4603
893.085	4584
893.207	4630
893.33	4489
893.452	4504
893.575	4634
893.697	4527
893.819	4755
893.941	4847
894.064	4797
894.186	4535
894.308	4546
894.43	4717
894.552	4786
894.674	4729
894.796	4512
894.918	4550
895.04	4558
895.161	4687
895.283	4641
895.405	4554
895.526	4588
895.648	4721
895.769	4691
895.891	4691
896.012	4714
896.134	4725
896.255	4706
896.376	4622
896.498	4607
896.619	4653
896.74	4580
896.861	4634
896.982	4911
897.103	5037
897.224	4801
897.345	4755
897.466	4634
897.587	4733
897.708	4870
897.828	4759
897.949	4653
898.07	4580
898.19	4637
898.311	4809
898.431	4656
898.552	4736
898.672	4778
898.792	4782
898.913	4717
899.033	4672
899.153	4489
899.273	4443
899.393	4497
899.513	4546
899.633	4512
899.753	4538
899.873	4481
899.993	4592
900.113	4622
900.232	4561
900.352	4489
900.472	4512
900.591	4428
900.711	4504
900.83	4440
900.95	4611
901.069	4691
901.189	4516
901.308	4383
901.427	4322
901.546	4360
901.665	4405
901.784	4497
901.904	4379
902.023	4329
902.141	4238
902.26	4181
902.379	4379
902.498	4265
902.617	4223
902.735	4371
902.854	4363
902.973	4348
903.091	4169
903.21	4234
903.328	4287
903.446	4295
903.565	4268
903.683	4428
903.801	4253
903.919	4375
904.038	4443
904.156	4314
904.274	4462
904.392	4440
904.51	4436
904.627	4481
904.745	4516
904.863	4668
904.981	4394
905.098	4303
905.216	4310
905.334	4409
905.451	4409
905.569	4489
905.686	4550
905.803	4558
905.921	4363
906.038	4550
906.155	4459
906.272	4363
906.389	4485
906.506	4394
906.623	4375
906.74	4379
906.857	4314
906.974	4405
907.091	4519
907.208	4702
907.324	4607
907.441	4516
907.557	4371
907.674	4344
907.79	4314
907.907	4379
908.023	4478
908.139	4447
908.256	4428
908.372	4493
908.488	4428
908.604	4344
908.72	4280
908.836	4356
908.952	4356
909.068	4443
909.184	4550
909.3	4497
909.415	4596
909.531	4554
909.647	4405
909.762	4352
909.878	4360
909.993	4421
910.108	4421
910.224	4402
910.339	4512
910.454	4409
910.57	4333
910.685	4310
910.8	4645
910.915	4626
911.03	4489
911.145	4318
911.259	4303
911.374	4405
911.489	4284
911.604	4280
911.718	4196
911.833	4219
911.947	4071
912.062	4025
912.176	4169
912.291	4215
912.405	4234
912.519	4493
912.633	4481
912.748	4402
912.862	4344
912.976	4238
913.09	4086
913.204	4196
913.318	4287
913.431	4337
913.545	4329
913.659	4428
913.772	4367
913.886	4230
914	4227
914.113	4383
914.226	4500
914.34	4413
914.453	4253
914.566	4478
914.68	4310
914.793	4337
914.906	4188
915.019	4097
915.132	4074
915.245	4181
915.358	4219
915.47	4249
915.583	4261
915.696	4299
915.809	4375
915.921	4424
916.034	4249
916.146	4265
916.259	4242
916.371	4363
916.483	4325
916.595	4284
916.708	4303
916.82	4299
916.932	4310
917.044	4363
917.156	4344
917.268	4219
917.38	4299
917.491	4265
917.603	4333
917.715	4360
917.826	4348
917.938	4299
918.049	4223
918.161	4394
918.272	4523
918.384	4508
918.495	4432
918.606	4310
918.717	4265
918.828	4291
918.939	4379
919.05	4299
919.161	4314
919.272	4105
919.383	4158
919.494	4436
919.604	4599
919.715	4424
919.826	4356
919.936	4394
920.047	4573
920.157	4470
920.267	4698
920.378	4531
920.488	4508
920.598	4721
920.708	4881
920.818	4725
920.928	4729
921.038	4911
921.148	4984
921.258	4592
921.368	4535
921.477	4481
921.587	4447
921.697	4379
921.806	4527
921.916	4428
922.025	4242
922.134	4306
922.244	4246
922.353	4375
922.462	4196
922.571	4181
922.68	4006
922.789	3941
922.898	4013
923.007	3975
923.116	4074
923.224	4090
923.333	4059
923.442	3998
923.55	3998
923.659	4036
923.767	4071
923.876	3960
923.984	4116
924.092	3983
924.201	4078
924.309	4059
924.417	4078
924.525	4059
924.633	4116
924.741	5025
924.849	3907
924.956	4139
925.064	3937
925.172	3915
925.279	3983
925.387	4025
925.494	4082
925.602	4219
925.709	4169
925.816	4074
925.924	4162
926.031	4211
926.138	4139
926.245	4181
926.352	4086
926.459	4268
926.566	4310
926.673	4150
926.779	4063
926.886	4055
926.993	3983
927.099	3964
927.206	3934
927.312	3911
927.419	4097
927.525	4017
927.631	4071
927.737	3941
927.843	3941
927.95	3819
928.056	3975
928.162	3994
928.267	4063
928.373	4596
928.479	4090
928.585	3816
928.69	4029
928.796	4086
928.901	3979
929.007	3838
929.112	3972
929.218	3983
929.323	3945
929.428	3926
929.533	4112
929.638	3880
929.743	3945
929.848	4013
929.953	3983
930.058	3915
930.163	3743
930.267	3823
930.372	3934
930.477	3789
930.581	4078
930.685	3964
930.79	3850
930.894	3876
930.998	3842
931.103	4032
931.207	3751
931.311	3671
931.415	3671
931.519	3534
931.623	3515
