Data from test_V78500241_2779.txt Node
Date: Fri Mar 25 17:08:19 CST 2022
User: usil
Spectrometer: V785-0024
Trigger mode: 0
Integration Time (sec): 4.000000E-1
Scans to average: 1
Nonlinearity correction enabled: false
Boxcar width: 0
Storing dark spectrum: false
XAxis mode: Wavelengths
Number of Pixels in Spectrum: 1024
>>>>>Begin Spectral Data<<<<<
801.071	8016
801.214	8027
801.356	7887
801.499	7845
801.641	7841
801.783	7830
801.926	8016
802.068	7917
802.211	8001
802.353	8020
802.496	7814
802.638	7917
802.78	7879
802.923	7894
803.065	7898
803.208	7864
803.35	7978
803.492	8149
803.635	8145
803.777	8020
803.919	8248
804.061	8461
804.204	8153
804.346	8073
804.488	8039
804.63	8130
804.773	8058
804.915	8172
805.057	8256
805.199	8164
805.341	8225
805.483	8290
805.626	8240
805.768	8161
805.91	8214
806.052	8187
806.194	8161
806.336	8393
806.478	8126
806.62	8149
806.762	8096
806.904	8252
807.046	8469
807.188	8415
807.33	8328
807.472	8377
807.614	8210
807.756	8168
807.898	7982
808.04	7887
808.182	7928
808.324	7890
808.465	7917
808.607	8096
808.749	8168
808.891	8206
809.033	8351
809.174	8225
809.316	8077
809.458	8107
809.6	8046
809.741	8024
809.883	8088
810.025	8168
810.166	8103
810.308	8020
810.45	8039
810.591	7951
810.733	7780
810.875	7666
811.016	7582
811.158	7540
811.299	7582
811.441	7792
811.582	7639
811.724	7537
811.865	7556
812.007	7594
812.148	7609
812.29	7647
812.431	7784
812.573	7845
812.714	7947
812.855	8142
812.997	8259
813.138	8240
813.279	8142
813.421	8157
813.562	8046
813.703	7898
813.845	7738
813.986	7415
814.127	7251
814.268	7282
814.41	7183
814.551	7133
814.692	7156
814.833	7156
814.974	7114
815.115	7141
815.256	6943
815.397	6894
815.539	6966
815.68	6859
815.821	6806
815.962	6935
816.103	6829
816.244	6764
816.385	6662
816.526	6654
816.666	6509
816.807	6327
816.948	6429
817.089	6460
817.23	6414
817.371	6414
817.512	6342
817.653	6342
817.793	6369
817.934	6429
818.075	6456
818.216	6429
818.356	6403
818.497	6285
818.638	6121
818.778	6178
818.919	6163
819.06	6167
819.2	6323
819.341	6308
819.481	6395
819.622	6597
819.762	6760
819.903	6688
820.043	6593
820.184	6559
820.324	6635
820.465	6692
820.605	6620
820.746	6642
820.886	6544
821.026	6662
821.167	6749
821.307	6840
821.447	6745
821.588	6719
821.728	6646
821.868	6513
822.008	6311
822.149	6353
822.289	6319
822.429	6171
822.569	6102
822.709	6106
822.849	5939
822.99	5870
823.13	5939
823.27	5939
823.41	5817
823.55	5855
823.69	5840
823.83	5805
823.97	5638
824.11	5570
824.25	5562
824.389	5566
824.529	5608
824.669	5505
824.809	5646
824.949	5657
825.089	5596
825.228	5562
825.368	5383
825.508	5364
825.648	5376
825.787	5337
825.927	5387
826.067	5242
826.206	5318
826.346	5334
826.485	5421
826.625	5414
826.765	5539
826.904	5452
827.044	5284
827.183	5197
827.323	5159
827.462	5254
827.601	5212
827.741	5162
827.88	5181
828.02	5159
828.159	5250
828.298	5322
828.437	5379
828.577	5303
828.716	5520
828.855	5296
828.994	5201
829.134	5128
829.273	5140
829.412	5166
829.551	5132
829.69	5147
829.829	5239
829.968	5410
830.107	5280
830.246	5265
830.385	5185
830.524	5147
830.663	5052
830.802	4972
830.941	4870
831.08	4862
831.219	4949
831.357	4984
831.496	5185
831.635	4972
831.774	4862
831.913	4892
832.051	4748
832.19	4759
832.329	4877
832.467	4729
832.606	4656
832.744	4733
832.883	4733
833.022	4767
833.16	4778
833.299	4809
833.437	4843
833.576	4835
833.714	4904
833.852	4881
833.991	4858
834.129	4923
834.267	4900
834.406	4911
834.544	4953
834.682	5003
834.821	4957
834.959	5132
835.097	5006
835.235	5189
835.373	5090
835.511	5098
835.65	5071
835.788	5033
835.926	4908
836.064	4854
836.202	4949
836.34	5159
836.478	5254
836.615	5143
836.753	5201
836.891	5292
837.029	5239
837.167	5208
837.305	5201
837.443	5155
837.58	5090
837.718	5235
837.856	5170
837.993	5128
838.131	5212
838.269	5181
838.406	5170
838.544	5174
838.681	5022
838.819	4987
838.956	4885
839.094	4911
839.231	4938
839.369	5071
839.506	5395
839.643	5261
839.781	5056
839.918	4976
840.055	5102
840.193	5155
840.33	5079
840.467	5128
840.604	5220
840.742	5444
840.879	5086
841.016	5064
841.153	5147
841.29	5406
841.427	5318
841.564	5353
841.701	5337
841.838	5311
841.975	5239
842.112	5277
842.249	5124
842.385	5113
842.522	5322
842.659	5185
842.796	5151
842.933	5223
843.069	5140
843.206	5223
843.343	5349
843.479	5273
843.616	5284
843.752	5086
843.889	5041
844.025	5216
844.162	4999
844.298	5227
844.435	5086
844.571	5022
844.708	5239
844.844	5303
844.98	5387
845.117	5292
845.253	5132
845.389	5090
845.525	5170
845.661	5128
845.798	4995
845.934	5090
846.07	5056
846.206	5170
846.342	5273
846.478	5216
846.614	5022
846.75	4965
846.886	4961
847.022	5174
847.158	5048
847.294	5045
847.429	5037
847.565	5037
847.701	5353
847.837	4805
847.972	4790
848.108	4942
848.244	4965
848.379	4767
848.515	4675
848.65	4698
848.786	4717
848.921	4759
849.057	4889
849.192	4870
849.328	4809
849.463	4881
849.598	4763
849.734	4752
849.869	4733
850.004	4641
850.14	4710
850.275	4641
850.41	4538
850.545	4569
850.68	4637
850.815	4592
850.95	4694
851.085	4843
851.22	4748
851.355	4702
851.49	4603
851.625	4656
851.76	4653
851.895	4577
852.03	4497
852.165	4618
852.299	4706
852.434	4736
852.569	4771
852.703	4767
852.838	4870
852.973	4953
853.107	4919
853.242	4752
853.376	4611
853.511	4516
853.645	4630
853.78	4782
853.914	4687
854.048	4607
854.183	4668
854.317	4706
854.451	4858
854.585	4683
854.72	4645
854.854	4672
854.988	4599
855.122	4630
855.256	4546
855.39	4672
855.524	4733
855.658	4675
855.792	4702
855.926	4740
856.06	4748
856.194	4805
856.327	4694
856.461	4542
856.595	4622
856.729	4588
856.862	4714
856.996	4691
857.13	4725
857.263	4771
857.397	4774
857.53	4691
857.664	4721
857.797	4729
857.931	4744
858.064	4687
858.197	4759
858.331	4630
858.464	4565
858.597	4558
858.731	4637
858.864	4626
858.997	4599
859.13	4603
859.263	4683
859.396	4679
859.529	4565
859.662	4542
859.795	4474
859.928	4626
860.061	4714
860.194	4740
860.327	4561
860.46	4577
860.592	4710
860.725	4725
860.858	4656
860.99	4592
861.123	4493
861.256	4459
861.388	4599
861.521	5341
861.653	4443
861.786	4413
861.918	4451
862.05	4538
862.183	4493
862.315	4599
862.447	4694
862.58	4538
862.712	4383
862.844	4325
862.976	4508
863.108	4455
863.24	4721
863.372	4344
863.504	4405
863.636	4375
863.768	4474
863.9	4405
864.032	4348
864.164	4398
864.296	4443
864.428	4542
864.559	4565
864.691	4554
864.823	4516
864.954	4504
865.086	4561
865.217	4455
865.349	4398
865.48	4512
865.612	4497
865.743	4584
865.875	4462
866.006	4447
866.137	4428
866.269	4390
866.4	4421
866.531	4447
866.662	4421
866.793	4363
866.924	4428
867.055	4504
867.186	4478
867.317	4417
867.448	4348
867.579	4386
867.71	4402
867.841	4363
867.972	4440
868.103	4428
868.233	4443
868.364	4459
868.495	4546
868.625	4611
868.756	4717
868.886	4561
869.017	4584
869.147	4729
869.278	4793
869.408	4641
869.539	4634
869.669	4714
869.799	4691
869.929	4771
870.06	4721
870.19	4938
870.32	4896
870.45	4915
870.58	4965
870.71	5155
870.84	5098
870.97	4930
871.1	4896
871.23	5185
871.36	5155
871.489	5037
871.619	5102
871.749	5075
871.879	5113
872.008	5227
872.138	5018
872.267	5003
872.397	4866
872.526	4816
872.656	4721
872.785	4812
872.915	4930
873.044	5045
873.173	4911
873.303	4999
873.432	4972
873.561	4946
873.69	4892
873.819	4866
873.948	4968
874.077	4805
874.206	4721
874.335	4801
874.464	4968
874.593	5052
874.722	4946
874.851	5064
874.979	5094
875.108	5037
875.237	4934
875.365	4885
875.494	4850
875.623	4953
875.751	4828
875.88	4904
876.008	4968
876.136	5025
876.265	5223
876.393	5357
876.521	5299
876.65	5216
876.778	5170
876.906	5113
877.034	5048
877.162	5064
877.29	5003
877.418	5018
877.546	5018
877.674	5067
877.802	4980
877.93	5056
878.058	4927
878.185	4900
878.313	4953
878.441	4919
878.568	4877
878.696	4896
878.824	4961
878.951	5060
879.079	5136
879.206	5326
879.333	5121
879.461	4927
879.588	5041
879.715	5151
879.842	5273
879.97	5006
880.097	4812
880.224	4733
880.351	4782
880.478	4858
880.605	4793
880.732	4809
880.859	5090
880.986	4904
881.112	4870
881.239	4816
881.366	4656
881.493	4603
881.619	4626
881.746	4634
881.872	4641
881.999	4664
882.125	4717
882.252	4774
882.378	4816
882.505	4984
882.631	4831
882.757	4672
882.883	4729
883.01	4744
883.136	4683
883.262	4573
883.388	4596
883.514	4850
883.64	4862
883.766	4763
883.892	4634
884.018	4755
884.143	4889
884.269	4999
884.395	4653
884.52	4634
884.646	4634
884.772	4542
884.897	4554
885.023	4687
885.148	4790
885.274	4839
885.399	4873
885.524	4672
885.65	4706
885.775	4763
885.9	4710
886.025	4896
886.15	4774
886.275	4706
886.4	4691
886.525	4698
886.65	4626
886.775	4694
886.9	4870
887.025	5022
887.149	4805
887.274	4637
887.399	4622
887.523	4554
887.648	4615
887.773	4630
887.897	4778
888.021	4774
888.146	4721
888.27	4793
888.395	4900
888.519	4786
888.643	4847
888.767	4809
888.891	4653
889.015	4592
889.139	4656
889.263	4599
889.387	4748
889.511	4839
889.635	4740
889.759	4660
889.883	4637
890.006	4702
890.13	4870
890.254	4622
890.377	4694
890.501	4554
890.624	4546
890.748	4653
890.871	4493
890.995	4409
891.118	4386
891.241	4519
891.364	4523
891.488	4584
891.611	4481
891.734	4569
891.857	4603
891.98	4584
892.103	4675
892.226	4573
892.349	4531
892.471	4402
892.594	4561
892.717	4596
892.839	4554
892.962	4634
893.085	4641
893.207	4554
893.33	4432
893.452	4565
893.575	4691
893.697	4569
893.819	4820
893.941	4831
894.064	4797
894.186	4550
894.308	4569
894.43	4698
894.552	4854
894.674	4744
894.796	4531
894.918	4675
895.04	4531
895.161	4721
895.283	4653
895.405	4603
895.526	4607
895.648	4656
895.769	4675
895.891	4717
896.012	4805
896.134	4744
896.255	4668
896.376	4645
896.498	4645
896.619	4725
896.74	4573
896.861	4607
896.982	4972
897.103	5075
897.224	4843
897.345	4729
897.466	4675
897.587	4672
897.708	4858
897.828	4786
897.949	4706
898.07	4542
898.19	4653
898.311	4809
898.431	4649
898.552	4763
898.672	4786
898.792	4812
898.913	4717
899.033	4565
899.153	4497
899.273	4417
899.393	4531
899.513	4538
899.633	4538
899.753	4516
899.873	4508
899.993	4554
900.113	4523
900.232	4577
900.352	4561
900.472	4470
900.591	4409
900.711	4466
900.83	4455
900.95	4588
901.069	4706
901.189	4478
901.308	4371
901.427	4314
901.546	4367
901.665	4462
901.784	4527
901.904	4360
902.023	4337
902.141	4219
902.26	4162
902.379	4287
902.498	4246
902.617	4219
902.735	4383
902.854	4451
902.973	4322
903.091	4200
903.21	4257
903.328	4310
903.446	4287
903.565	4242
903.683	4348
903.801	4299
903.919	4409
904.038	4459
904.156	4333
904.274	4440
904.392	4390
904.51	4455
904.627	4470
904.745	4592
904.863	4630
904.981	4421
905.098	4287
905.216	4367
905.334	4432
905.451	4421
905.569	4421
905.686	4546
905.803	4538
905.921	4413
906.038	4565
906.155	4500
906.272	4417
906.389	4409
906.506	4341
906.623	4367
906.74	4443
906.857	4310
906.974	4375
907.091	4554
907.208	4736
907.324	4603
907.441	4535
907.557	4409
907.674	4341
907.79	4394
907.907	4360
908.023	4500
908.139	4481
908.256	4432
908.372	4481
908.488	4405
908.604	4348
908.72	4303
908.836	4329
908.952	4322
909.068	4432
909.184	4542
909.3	4493
909.415	4603
909.531	4554
909.647	4360
909.762	4375
909.878	4386
909.993	4428
910.108	4398
910.224	4421
910.339	4474
910.454	4379
910.57	4379
910.685	4337
910.8	4653
910.915	4588
911.03	4474
911.145	4318
911.259	4337
911.374	4398
911.489	4318
911.604	4310
911.718	4147
911.833	4173
911.947	4105
912.062	3998
912.176	4219
912.291	4257
912.405	4268
912.519	4466
912.633	4516
912.748	4379
912.862	4329
912.976	4200
913.09	4071
913.204	4185
913.318	4257
913.431	4360
913.545	4413
913.659	4459
913.772	4337
913.886	4261
914	4188
914.113	4325
914.226	4432
914.34	4383
914.453	4204
914.566	4443
914.68	4341
914.793	4325
914.906	4207
915.019	4093
915.132	4090
915.245	4185
915.358	4230
915.47	4272
915.583	4257
915.696	4295
915.809	4379
915.921	4405
916.034	4234
916.146	4268
916.259	4196
916.371	4371
916.483	4344
916.595	4276
916.708	4287
916.82	4299
916.932	4333
917.044	4341
917.156	4360
917.268	4215
917.38	4295
917.491	4295
917.603	4344
917.715	4424
917.826	4436
917.938	4413
918.049	4219
918.161	4329
918.272	4500
918.384	4508
918.495	4470
918.606	4291
918.717	4242
918.828	4325
918.939	4375
919.05	4261
919.161	4329
919.272	4105
919.383	4253
919.494	4478
919.604	4588
919.715	4383
919.826	4356
919.936	4424
920.047	4512
920.157	4523
920.267	4683
920.378	4584
920.488	4459
920.598	4717
920.708	4919
920.818	4782
920.928	4717
921.038	4934
921.148	4919
921.258	4599
921.368	4546
921.477	4554
921.587	4440
921.697	4386
921.806	4558
921.916	4466
922.025	4276
922.134	4280
922.244	4227
922.353	4329
922.462	4162
922.571	4135
922.68	3994
922.789	3983
922.898	3998
923.007	4013
923.116	4139
923.224	4036
923.333	4071
923.442	4048
923.55	3998
923.659	4032
923.767	4078
923.876	4048
923.984	4078
924.092	3964
924.201	4071
924.309	4112
924.417	4181
924.525	4044
924.633	4109
924.741	4877
924.849	3918
924.956	4105
925.064	3953
925.172	3918
925.279	3964
925.387	4051
925.494	4021
925.602	4249
925.709	4223
925.816	4032
925.924	4131
926.031	4204
926.138	4185
926.245	4215
926.352	4124
926.459	4173
926.566	4306
926.673	4147
926.779	4124
926.886	4090
926.993	3960
927.099	3945
927.206	3953
927.312	3937
927.419	4071
927.525	4040
927.631	4131
927.737	4010
927.843	3937
927.95	3869
928.056	3945
928.162	3930
928.267	4082
928.373	4668
928.479	4101
928.585	3846
928.69	4029
928.796	4101
928.901	3918
929.007	3861
929.112	3975
929.218	3956
929.323	3949
929.428	3918
929.533	4051
929.638	3937
929.743	3975
929.848	4048
929.953	3949
930.058	3960
930.163	3785
930.267	3819
930.372	3975
930.477	3823
930.581	4082
930.685	3926
930.79	3831
930.894	3865
930.998	3869
931.103	4002
931.207	3717
931.311	3713
931.415	3720
931.519	3511
931.623	3557
