Data from test_V78500241_2125.txt Node
Date: Fri Mar 25 17:03:46 CST 2022
User: usil
Spectrometer: V785-0024
Trigger mode: 0
Integration Time (sec): 4.000000E-1
Scans to average: 1
Nonlinearity correction enabled: false
Boxcar width: 0
Storing dark spectrum: false
XAxis mode: Wavelengths
Number of Pixels in Spectrum: 1024
>>>>>Begin Spectral Data<<<<<
801.071	8027
801.214	8012
801.356	7871
801.499	7841
801.641	7830
801.783	7807
801.926	7909
802.068	7917
802.211	7928
802.353	7959
802.496	7837
802.638	7830
802.78	7871
802.923	7890
803.065	7814
803.208	7909
803.35	7967
803.492	8100
803.635	8130
803.777	8058
803.919	8115
804.061	8457
804.204	8187
804.346	8054
804.488	7986
804.63	8115
804.773	7982
804.915	8024
805.057	8244
805.199	8123
805.341	8206
805.483	8240
805.626	8145
805.768	8050
805.91	8229
806.052	8279
806.194	8126
806.336	8279
806.478	8084
806.62	8092
806.762	8164
806.904	8317
807.046	8438
807.188	8408
807.33	8244
807.472	8313
807.614	8191
807.756	8161
807.898	7944
808.04	7826
808.182	7947
808.324	7906
808.465	7849
808.607	8092
808.749	8115
808.891	8206
809.033	8351
809.174	8187
809.316	8084
809.458	8054
809.6	8008
809.741	8005
809.883	8084
810.025	8103
810.166	8001
810.308	8027
810.45	8065
810.591	7887
810.733	7731
810.875	7594
811.016	7510
811.158	7430
811.299	7559
811.441	7708
811.582	7700
811.724	7529
811.865	7563
812.007	7586
812.148	7597
812.29	7616
812.431	7753
812.573	7883
812.714	7932
812.855	8103
812.997	8282
813.138	8282
813.279	8218
813.421	8046
813.562	7982
813.703	7765
813.845	7742
813.986	7381
814.127	7293
814.268	7152
814.41	7198
814.551	7171
814.692	7152
814.833	7141
814.974	7118
815.115	7103
815.256	6996
815.397	6947
815.539	6962
815.68	6852
815.821	6738
815.962	6852
816.103	6783
816.244	6654
816.385	6593
816.526	6593
816.666	6502
816.807	6289
816.948	6369
817.089	6486
817.23	6490
817.371	6384
817.512	6342
817.653	6391
817.793	6384
817.934	6407
818.075	6380
818.216	6407
818.356	6426
818.497	6262
818.638	6117
818.778	6133
818.919	6167
819.06	6136
819.2	6338
819.341	6289
819.481	6388
819.622	6566
819.762	6741
819.903	6669
820.043	6597
820.184	6547
820.324	6585
820.465	6662
820.605	6620
820.746	6597
820.886	6494
821.026	6711
821.167	6745
821.307	6787
821.447	6802
821.588	6711
821.728	6547
821.868	6513
822.008	6395
822.149	6395
822.289	6334
822.429	6140
822.569	6117
822.709	6079
822.849	5961
822.99	5893
823.13	5912
823.27	5904
823.41	5802
823.55	5802
823.69	5794
823.83	5752
823.97	5649
824.11	5562
824.25	5471
824.389	5611
824.529	5562
824.669	5463
824.809	5665
824.949	5638
825.089	5589
825.228	5539
825.368	5402
825.508	5368
825.648	5360
825.787	5307
825.927	5376
826.067	5299
826.206	5330
826.346	5429
826.485	5349
826.625	5402
826.765	5520
826.904	5524
827.044	5250
827.183	5242
827.323	5159
827.462	5208
827.601	5227
827.741	5170
827.88	5189
828.02	5159
828.159	5231
828.298	5258
828.437	5345
828.577	5307
828.716	5471
828.855	5326
828.994	5204
829.134	5170
829.273	5204
829.412	5136
829.551	5155
829.69	5185
829.829	5258
829.968	5353
830.107	5284
830.246	5235
830.385	5181
830.524	5170
830.663	5143
830.802	4942
830.941	4972
831.08	4877
831.219	4968
831.357	4980
831.496	5162
831.635	4919
831.774	4900
831.913	4870
832.051	4729
832.19	4812
832.329	4793
832.467	4660
832.606	4626
832.744	4729
832.883	4752
833.022	4744
833.16	4828
833.299	4801
833.437	4831
833.576	4843
833.714	4854
833.852	4870
833.991	4881
834.129	4984
834.267	4919
834.406	4908
834.544	4999
834.682	4980
834.821	4957
834.959	5162
835.097	4991
835.235	5170
835.373	5048
835.511	5060
835.65	5006
835.788	4987
835.926	4923
836.064	4915
836.202	4908
836.34	5132
836.478	5223
836.615	5132
836.753	5181
836.891	5254
837.029	5296
837.167	5170
837.305	5162
837.443	5185
837.58	5113
837.718	5239
837.856	5189
837.993	5166
838.131	5216
838.269	5246
838.406	5216
838.544	5216
838.681	5064
838.819	5045
838.956	4885
839.094	4877
839.231	4999
839.369	5041
839.506	5402
839.643	5254
839.781	5025
839.918	5025
840.055	5113
840.193	5060
840.33	5159
840.467	5098
840.604	5162
840.742	5406
840.879	5090
841.016	5094
841.153	5121
841.29	5410
841.427	5299
841.564	5318
841.701	5364
841.838	5318
841.975	5216
842.112	5284
842.249	5124
842.385	5140
842.522	5315
842.659	5121
842.796	5166
842.933	5223
843.069	5162
843.206	5117
843.343	5303
843.479	5265
843.616	5284
843.752	5041
843.889	5029
844.025	5201
844.162	5014
844.298	5185
844.435	5132
844.571	4976
844.708	5223
844.844	5277
844.98	5315
845.117	5334
845.253	5105
845.389	5056
845.525	5204
845.661	5132
845.798	5048
845.934	5117
846.07	5064
846.206	5166
846.342	5220
846.478	5201
846.614	5029
846.75	4972
846.886	4957
847.022	5178
847.158	4976
847.294	5052
847.429	5079
847.565	5037
847.701	5341
847.837	4812
847.972	4782
848.108	4930
848.244	4942
848.379	4805
848.515	4763
848.65	4687
848.786	4729
848.921	4752
849.057	4911
849.192	4854
849.328	4816
849.463	4839
849.598	4774
849.734	4797
849.869	4664
850.004	4626
850.14	4691
850.275	4630
850.41	4554
850.545	4573
850.68	4588
850.815	4596
850.95	4630
851.085	4839
851.22	4698
851.355	4660
851.49	4649
851.625	4645
851.76	4664
851.895	4535
852.03	4512
852.165	4653
852.299	4752
852.434	4790
852.569	4729
852.703	4767
852.838	4843
852.973	4889
853.107	4953
853.242	4782
853.376	4649
853.511	4565
853.645	4618
853.78	4820
853.914	4675
854.048	4645
854.183	4596
854.317	4687
854.451	4835
854.585	4687
854.72	4634
854.854	4786
854.988	4611
855.122	4607
855.256	4588
855.39	4683
855.524	4801
855.658	4721
855.792	4687
855.926	4694
856.06	4759
856.194	4771
856.327	4702
856.461	4531
856.595	4618
856.729	4634
856.862	4767
856.996	4660
857.13	4755
857.263	4759
857.397	4801
857.53	4672
857.664	4691
857.797	4790
857.931	4721
858.064	4664
858.197	4759
858.331	4653
858.464	4573
858.597	4508
858.731	4558
858.864	4649
858.997	4626
859.13	4660
859.263	4698
859.396	4660
859.529	4588
859.662	4558
859.795	4554
859.928	4622
860.061	4725
860.194	4733
860.327	4634
860.46	4565
860.592	4721
860.725	4729
860.858	4710
860.99	4603
861.123	4531
861.256	4538
861.388	4645
861.521	5436
861.653	4481
861.786	4402
861.918	4432
862.05	4493
862.183	4508
862.315	4550
862.447	4607
862.58	4599
862.712	4375
862.844	4371
862.976	4481
863.108	4466
863.24	4725
863.372	4295
863.504	4398
863.636	4379
863.768	4447
863.9	4386
864.032	4265
864.164	4428
864.296	4436
864.428	4516
864.559	4592
864.691	4508
864.823	4523
864.954	4470
865.086	4508
865.217	4493
865.349	4447
865.48	4447
865.612	4478
865.743	4599
865.875	4470
866.006	4383
866.137	4466
866.269	4405
866.4	4440
866.531	4466
866.662	4398
866.793	4390
866.924	4371
867.055	4474
867.186	4481
867.317	4436
867.448	4386
867.579	4409
867.71	4379
867.841	4371
867.972	4455
868.103	4436
868.233	4481
868.364	4424
868.495	4481
868.625	4698
868.756	4748
868.886	4573
869.017	4611
869.147	4748
869.278	4805
869.408	4653
869.539	4664
869.669	4683
869.799	4691
869.929	4786
870.06	4721
870.19	4927
870.32	4915
870.45	4892
870.58	4980
870.71	5090
870.84	5071
870.97	4927
871.1	4870
871.23	5128
871.36	5132
871.489	4987
871.619	5071
871.749	5124
871.879	5083
872.008	5143
872.138	5090
872.267	4934
872.397	4828
872.526	4812
872.656	4706
872.785	4790
872.915	4980
873.044	5041
873.173	4949
873.303	4961
873.432	4946
873.561	4965
873.69	4904
873.819	4862
873.948	4938
874.077	4801
874.206	4778
874.335	4774
874.464	4961
874.593	5025
874.722	4900
874.851	5067
874.979	5060
875.108	5022
875.237	4873
875.365	4930
875.494	4889
875.623	4957
875.751	4889
875.88	4923
876.008	4949
876.136	5045
876.265	5204
876.393	5368
876.521	5292
876.65	5201
876.778	5113
876.906	5098
877.034	5010
877.162	5056
877.29	5018
877.418	5041
877.546	5018
877.674	5010
877.802	5022
877.93	5048
878.058	4919
878.185	4881
878.313	5006
878.441	4965
878.568	4771
878.696	4820
878.824	4911
878.951	4999
879.079	5136
879.206	5277
879.333	5067
879.461	4995
879.588	5014
879.715	5128
879.842	5235
879.97	5014
880.097	4816
880.224	4717
880.351	4843
880.478	4820
880.605	4778
880.732	4767
880.859	5018
880.986	4877
881.112	4896
881.239	4778
881.366	4668
881.493	4527
881.619	4630
881.746	4649
881.872	4641
881.999	4641
882.125	4752
882.252	4790
882.378	4835
882.505	4930
882.631	4812
882.757	4778
882.883	4702
883.01	4729
883.136	4664
883.262	4618
883.388	4592
883.514	4824
883.64	4847
883.766	4828
883.892	4721
884.018	4691
884.143	4911
884.269	5022
884.395	4752
884.52	4630
884.646	4664
884.772	4592
884.897	4531
885.023	4698
885.148	4759
885.274	4870
885.399	4809
885.524	4714
885.65	4664
885.775	4714
885.9	4752
886.025	4873
886.15	4809
886.275	4698
886.4	4694
886.525	4717
886.65	4664
886.775	4698
886.9	4900
887.025	5033
887.149	4820
887.274	4656
887.399	4599
887.523	4626
887.648	4569
887.773	4596
887.897	4733
888.021	4786
888.146	4664
888.27	4748
888.395	4877
888.519	4854
888.643	4801
888.767	4801
888.891	4706
889.015	4611
889.139	4683
889.263	4592
889.387	4790
889.511	4900
889.635	4755
889.759	4615
889.883	4664
890.006	4755
890.13	4793
890.254	4656
890.377	4717
890.501	4550
890.624	4500
890.748	4599
890.871	4523
890.995	4428
891.118	4360
891.241	4478
891.364	4531
891.488	4649
891.611	4500
891.734	4508
891.857	4588
891.98	4535
892.103	4630
892.226	4584
892.349	4500
892.471	4421
892.594	4577
892.717	4603
892.839	4542
892.962	4561
893.085	4664
893.207	4592
893.33	4474
893.452	4523
893.575	4645
893.697	4535
893.819	4839
893.941	4778
894.064	4759
894.186	4580
894.308	4569
894.43	4702
894.552	4862
894.674	4778
894.796	4523
894.918	4588
895.04	4531
895.161	4691
895.283	4683
895.405	4592
895.526	4622
895.648	4679
895.769	4668
895.891	4736
896.012	4786
896.134	4744
896.255	4672
896.376	4626
896.498	4641
896.619	4679
896.74	4584
896.861	4653
896.982	4885
897.103	5060
897.224	4828
897.345	4694
897.466	4694
897.587	4691
897.708	4843
897.828	4774
897.949	4630
898.07	4504
898.19	4626
898.311	4870
898.431	4641
898.552	4717
898.672	4828
898.792	4816
898.913	4725
899.033	4641
899.153	4550
899.273	4455
899.393	4493
899.513	4542
899.633	4512
899.753	4535
899.873	4516
899.993	4527
900.113	4500
900.232	4596
900.352	4542
900.472	4527
900.591	4383
900.711	4474
900.83	4428
900.95	4630
901.069	4645
901.189	4504
901.308	4390
901.427	4295
901.546	4386
901.665	4447
901.784	4512
901.904	4390
902.023	4306
902.141	4177
902.26	4154
902.379	4318
902.498	4287
902.617	4249
902.735	4360
902.854	4375
902.973	4360
903.091	4177
903.21	4230
903.328	4280
903.446	4284
903.565	4265
903.683	4310
903.801	4268
903.919	4356
904.038	4455
904.156	4341
904.274	4436
904.392	4398
904.51	4386
904.627	4500
904.745	4573
904.863	4622
904.981	4417
905.098	4291
905.216	4375
905.334	4451
905.451	4424
905.569	4485
905.686	4565
905.803	4561
905.921	4455
906.038	4519
906.155	4432
906.272	4375
906.389	4443
906.506	4314
906.623	4318
906.74	4405
906.857	4291
906.974	4371
907.091	4531
907.208	4668
907.324	4596
907.441	4489
907.557	4386
907.674	4386
907.79	4303
907.907	4363
908.023	4470
908.139	4451
908.256	4428
908.372	4440
908.488	4394
908.604	4424
908.72	4383
908.836	4344
908.952	4375
909.068	4443
909.184	4569
909.3	4512
909.415	4641
909.531	4542
909.647	4383
909.762	4386
909.878	4314
909.993	4413
910.108	4386
910.224	4436
910.339	4459
910.454	4405
910.57	4409
910.685	4337
910.8	4634
910.915	4603
911.03	4485
911.145	4325
911.259	4325
911.374	4375
911.489	4299
911.604	4303
911.718	4135
911.833	4234
911.947	4112
912.062	4071
912.176	4219
912.291	4234
912.405	4200
912.519	4451
912.633	4459
912.748	4344
912.862	4329
912.976	4204
913.09	4086
913.204	4192
913.318	4253
913.431	4417
913.545	4341
913.659	4402
913.772	4341
913.886	4265
914	4211
914.113	4363
914.226	4428
914.34	4379
914.453	4238
914.566	4409
914.68	4337
914.793	4329
914.906	4169
915.019	4109
915.132	4071
915.245	4196
915.358	4188
915.47	4242
915.583	4257
915.696	4265
915.809	4394
915.921	4409
916.034	4242
916.146	4257
916.259	4188
916.371	4360
916.483	4352
916.595	4257
916.708	4322
916.82	4360
916.932	4375
917.044	4276
917.156	4337
917.268	4265
917.38	4261
917.491	4265
917.603	4325
917.715	4398
917.826	4436
917.938	4360
918.049	4253
918.161	4386
918.272	4542
918.384	4508
918.495	4436
918.606	4295
918.717	4242
918.828	4337
918.939	4360
919.05	4265
919.161	4276
919.272	4169
919.383	4257
919.494	4478
919.604	4599
919.715	4440
919.826	4352
919.936	4363
920.047	4565
920.157	4466
920.267	4679
920.378	4542
920.488	4550
920.598	4694
920.708	4843
920.818	4729
920.928	4786
921.038	4987
921.148	4908
921.258	4649
921.368	4527
921.477	4500
921.587	4478
921.697	4379
921.806	4565
921.916	4421
922.025	4261
922.134	4280
922.244	4215
922.353	4280
922.462	4219
922.571	4162
922.68	3998
922.789	3968
922.898	4051
923.007	3987
923.116	4093
923.224	4055
923.333	4093
923.442	4032
923.55	3960
923.659	4002
923.767	4101
923.876	3987
923.984	4124
924.092	4017
924.201	4105
924.309	4112
924.417	4147
924.525	4025
924.633	4032
924.741	4968
924.849	3903
924.956	4071
925.064	3937
925.172	3945
925.279	3960
925.387	4074
925.494	4074
925.602	4196
925.709	4196
925.816	4067
925.924	4097
926.031	4284
926.138	4204
926.245	4181
926.352	4124
926.459	4284
926.566	4314
926.673	4120
926.779	4032
926.886	4120
926.993	3968
927.099	3949
927.206	3930
927.312	3975
927.419	4101
927.525	4055
927.631	4097
927.737	3934
927.843	3953
927.95	3808
928.056	3945
928.162	3953
928.267	4074
928.373	4599
928.479	4112
928.585	3880
928.69	4040
928.796	4082
928.901	3991
929.007	3835
929.112	4017
929.218	3953
929.323	3934
929.428	3979
929.533	4082
929.638	3934
929.743	3991
929.848	4055
929.953	4010
930.058	3907
930.163	3800
930.267	3808
930.372	3987
930.477	3842
930.581	4025
930.685	3941
930.79	3827
930.894	3873
930.998	3816
931.103	4032
931.207	3656
931.311	3732
931.415	3660
931.519	3538
931.623	3557
