Data from test_V78500241_1084.txt Node
Date: Fri Mar 25 16:56:32 CST 2022
User: usil
Spectrometer: V785-0024
Trigger mode: 0
Integration Time (sec): 4.000000E-1
Scans to average: 1
Nonlinearity correction enabled: false
Boxcar width: 0
Storing dark spectrum: false
XAxis mode: Wavelengths
Number of Pixels in Spectrum: 1024
>>>>>Begin Spectral Data<<<<<
801.071	8008
801.214	8008
801.356	7898
801.499	7814
801.641	7784
801.783	7753
801.926	7967
802.068	7841
802.211	7967
802.353	7951
802.496	7818
802.638	7860
802.78	7936
802.923	7921
803.065	7909
803.208	7860
803.35	8031
803.492	8134
803.635	8149
803.777	7974
803.919	8145
804.061	8408
804.204	8202
804.346	8058
804.488	8005
804.63	8092
804.773	8016
804.915	8119
805.057	8290
805.199	8142
805.341	8210
805.483	8271
805.626	8195
805.768	8084
805.91	8180
806.052	8191
806.194	8092
806.336	8229
806.478	8100
806.62	8016
806.762	8195
806.904	8267
807.046	8461
807.188	8328
807.33	8374
807.472	8320
807.614	8107
807.756	8073
807.898	8024
808.04	7875
808.182	7887
808.324	7913
808.465	7909
808.607	8050
808.749	8073
808.891	8161
809.033	8259
809.174	8168
809.316	8054
809.458	8077
809.6	7898
809.741	8027
809.883	7955
810.025	8069
810.166	8073
810.308	7982
810.45	8077
810.591	7868
810.733	7727
810.875	7636
811.016	7460
811.158	7422
811.299	7544
811.441	7689
811.582	7628
811.724	7559
811.865	7441
812.007	7582
812.148	7639
812.29	7700
812.431	7776
812.573	7890
812.714	7986
812.855	8115
812.997	8172
813.138	8309
813.279	8153
813.421	8088
813.562	8031
813.703	7856
813.845	7807
813.986	7441
814.127	7285
814.268	7225
814.41	7171
814.551	7133
814.692	7152
814.833	6985
814.974	7156
815.115	7000
815.256	6878
815.397	6947
815.539	6958
815.68	6882
815.821	6776
815.962	6810
816.103	6844
816.244	6734
816.385	6627
816.526	6635
816.666	6502
816.807	6277
816.948	6445
817.089	6483
817.23	6418
817.371	6410
817.512	6384
817.653	6437
817.793	6338
817.934	6456
818.075	6471
818.216	6429
818.356	6372
818.497	6220
818.638	6140
818.778	6121
818.919	6140
819.06	6129
819.2	6304
819.341	6311
819.481	6334
819.622	6528
819.762	6696
819.903	6677
820.043	6616
820.184	6555
820.324	6544
820.465	6665
820.605	6642
820.746	6620
820.886	6460
821.026	6631
821.167	6734
821.307	6772
821.447	6734
821.588	6635
821.728	6559
821.868	6563
822.008	6273
822.149	6369
822.289	6361
822.429	6167
822.569	6083
822.709	6053
822.849	5916
822.99	5889
823.13	5923
823.27	5874
823.41	5767
823.55	5764
823.69	5695
823.83	5790
823.97	5661
824.11	5474
824.25	5459
824.389	5493
824.529	5528
824.669	5535
824.809	5630
824.949	5672
825.089	5528
825.228	5535
825.368	5379
825.508	5368
825.648	5322
825.787	5337
825.927	5376
826.067	5296
826.206	5337
826.346	5364
826.485	5387
826.625	5379
826.765	5512
826.904	5467
827.044	5246
827.183	5155
827.323	5086
827.462	5220
827.601	5174
827.741	5185
827.88	5174
828.02	5124
828.159	5292
828.298	5284
828.437	5315
828.577	5277
828.716	5440
828.855	5273
828.994	5128
829.134	5143
829.273	5159
829.412	5128
829.551	5151
829.69	5185
829.829	5220
829.968	5376
830.107	5220
830.246	5216
830.385	5166
830.524	5109
830.663	5090
830.802	4968
830.941	4896
831.08	4816
831.219	4942
831.357	4927
831.496	5143
831.635	4892
831.774	4771
831.913	4850
832.051	4721
832.19	4774
832.329	4820
832.467	4664
832.606	4561
832.744	4710
832.883	4694
833.022	4691
833.16	4755
833.299	4793
833.437	4805
833.576	4828
833.714	4843
833.852	4786
833.991	4892
834.129	4953
834.267	4930
834.406	4858
834.544	4968
834.682	4900
834.821	4995
834.959	5121
835.097	4934
835.235	5109
835.373	5128
835.511	5083
835.65	4987
835.788	5041
835.926	4881
836.064	4900
836.202	4873
836.34	5185
836.478	5223
836.615	5113
836.753	5166
836.891	5280
837.029	5231
837.167	5193
837.305	5094
837.443	5102
837.58	5056
837.718	5235
837.856	5185
837.993	5147
838.131	5178
838.269	5151
838.406	5231
838.544	5181
838.681	5037
838.819	5041
838.956	4866
839.094	4847
839.231	4934
839.369	5060
839.506	5410
839.643	5231
839.781	5064
839.918	5014
840.055	5075
840.193	5079
840.33	5121
840.467	5124
840.604	5166
840.742	5448
840.879	5094
841.016	5041
841.153	5166
841.29	5353
841.427	5303
841.564	5292
841.701	5318
841.838	5258
841.975	5235
842.112	5204
842.249	5178
842.385	5086
842.522	5299
842.659	5132
842.796	5136
842.933	5189
843.069	5113
843.206	5151
843.343	5261
843.479	5250
843.616	5246
843.752	5033
843.889	5006
844.025	5181
844.162	5014
844.298	5147
844.435	5098
844.571	5037
844.708	5174
844.844	5242
844.98	5307
845.117	5334
845.253	5098
845.389	5067
845.525	5147
845.661	5128
845.798	4987
845.934	5113
846.07	5045
846.206	5155
846.342	5273
846.478	5147
846.614	4972
846.75	4923
846.886	4927
847.022	5086
847.158	5037
847.294	5079
847.429	5029
847.565	5045
847.701	5280
847.837	4862
847.972	4809
848.108	4953
848.244	4972
848.379	4767
848.515	4714
848.65	4721
848.786	4702
848.921	4774
849.057	4885
849.192	4908
849.328	4824
849.463	4820
849.598	4755
849.734	4755
849.869	4691
850.004	4618
850.14	4691
850.275	4580
850.41	4508
850.545	4535
850.68	4569
850.815	4634
850.95	4607
851.085	4835
851.22	4687
851.355	4675
851.49	4542
851.625	4611
851.76	4615
851.895	4561
852.03	4531
852.165	4653
852.299	4698
852.434	4736
852.569	4752
852.703	4725
852.838	4805
852.973	4930
853.107	4889
853.242	4710
853.376	4668
853.511	4512
853.645	4599
853.78	4835
853.914	4668
854.048	4702
854.183	4706
854.317	4683
854.451	4793
854.585	4656
854.72	4622
854.854	4729
854.988	4599
855.122	4615
855.256	4550
855.39	4622
855.524	4740
855.658	4736
855.792	4687
855.926	4706
856.06	4778
856.194	4778
856.327	4679
856.461	4660
856.595	4577
856.729	4634
856.862	4675
856.996	4687
857.13	4771
857.263	4828
857.397	4759
857.53	4672
857.664	4691
857.797	4706
857.931	4767
858.064	4683
858.197	4687
858.331	4634
858.464	4580
858.597	4462
858.731	4649
858.864	4607
858.997	4641
859.13	4634
859.263	4603
859.396	4721
859.529	4561
859.662	4577
859.795	4527
859.928	4577
860.061	4740
860.194	4778
860.327	4611
860.46	4542
860.592	4683
860.725	4668
860.858	4786
860.99	4561
861.123	4497
861.256	4558
861.388	4615
861.521	5318
861.653	4493
861.786	4352
861.918	4542
862.05	4558
862.183	4500
862.315	4618
862.447	4615
862.58	4497
862.712	4417
862.844	4318
862.976	4508
863.108	4405
863.24	4843
863.372	4325
863.504	4398
863.636	4421
863.768	4474
863.9	4417
864.032	4303
864.164	4405
864.296	4447
864.428	4523
864.559	4512
864.691	4493
864.823	4523
864.954	4481
865.086	4466
865.217	4432
865.349	4428
865.48	4462
865.612	4497
865.743	4615
865.875	4436
866.006	4417
866.137	4424
866.269	4386
866.4	4405
866.531	4459
866.662	4360
866.793	4363
866.924	4455
867.055	4504
867.186	4436
867.317	4398
867.448	4360
867.579	4360
867.71	4360
867.841	4348
867.972	4440
868.103	4424
868.233	4451
868.364	4436
868.495	4451
868.625	4656
868.756	4752
868.886	4569
869.017	4607
869.147	4801
869.278	4698
869.408	4660
869.539	4573
869.669	4691
869.799	4672
869.929	4755
870.06	4714
870.19	4946
870.32	4919
870.45	4900
870.58	4965
870.71	5067
870.84	5132
870.97	4904
871.1	4870
871.23	5086
871.36	5147
871.489	5052
871.619	5010
871.749	5060
871.879	5124
872.008	5166
872.138	5067
872.267	4961
872.397	4786
872.526	4812
872.656	4740
872.785	4767
872.915	4946
873.044	5010
873.173	4911
873.303	4942
873.432	4965
873.561	4987
873.69	4896
873.819	4820
873.948	4854
874.077	4820
874.206	4763
874.335	4782
874.464	4946
874.593	4999
874.722	4927
874.851	5086
874.979	5052
875.108	4987
875.237	4870
875.365	4858
875.494	4831
875.623	4946
875.751	4767
875.88	4843
876.008	4972
876.136	5006
876.265	5170
876.393	5326
876.521	5239
876.65	5178
876.778	5121
876.906	5052
877.034	5014
877.162	5056
877.29	4999
877.418	5052
877.546	5037
877.674	5071
877.802	4976
877.93	5037
878.058	4934
878.185	4793
878.313	4949
878.441	4953
878.568	4828
878.696	4850
878.824	4949
878.951	4980
879.079	5136
879.206	5311
879.333	5025
879.461	5003
879.588	4987
879.715	5143
879.842	5166
879.97	5018
880.097	4755
880.224	4694
880.351	4721
880.478	4809
880.605	4786
880.732	4801
880.859	5056
880.986	4881
881.112	4911
881.239	4771
881.366	4641
881.493	4622
881.619	4599
881.746	4637
881.872	4630
881.999	4675
882.125	4698
882.252	4748
882.378	4771
882.505	4927
882.631	4736
882.757	4660
882.883	4698
883.01	4714
883.136	4698
883.262	4573
883.388	4577
883.514	4790
883.64	4820
883.766	4729
883.892	4603
884.018	4668
884.143	4828
884.269	4957
884.395	4679
884.52	4645
884.646	4573
884.772	4596
884.897	4538
885.023	4691
885.148	4725
885.274	4854
885.399	4767
885.524	4744
885.65	4702
885.775	4812
885.9	4733
886.025	4831
886.15	4755
886.275	4702
886.4	4679
886.525	4702
886.65	4611
886.775	4679
886.9	4877
887.025	4995
887.149	4801
887.274	4615
887.399	4538
887.523	4577
887.648	4584
887.773	4561
887.897	4744
888.021	4778
888.146	4706
888.27	4839
888.395	4881
888.519	4824
888.643	4793
888.767	4809
888.891	4702
889.015	4634
889.139	4653
889.263	4584
889.387	4736
889.511	4831
889.635	4782
889.759	4626
889.883	4630
890.006	4683
890.13	4771
890.254	4584
890.377	4656
890.501	4535
890.624	4474
890.748	4637
890.871	4523
890.995	4440
891.118	4436
891.241	4512
891.364	4519
891.488	4630
891.611	4500
891.734	4523
891.857	4584
891.98	4531
892.103	4607
892.226	4592
892.349	4462
892.471	4402
892.594	4561
892.717	4584
892.839	4573
892.962	4580
893.085	4645
893.207	4584
893.33	4462
893.452	4504
893.575	4637
893.697	4531
893.819	4778
893.941	4809
894.064	4736
894.186	4599
894.308	4573
894.43	4672
894.552	4797
894.674	4759
894.796	4542
894.918	4569
895.04	4523
895.161	4691
895.283	4653
895.405	4558
895.526	4622
895.648	4694
895.769	4687
895.891	4698
896.012	4694
896.134	4717
896.255	4611
896.376	4653
896.498	4584
896.619	4649
896.74	4596
896.861	4599
896.982	4862
897.103	5079
897.224	4816
897.345	4729
897.466	4679
897.587	4721
897.708	4824
897.828	4744
897.949	4672
898.07	4550
898.19	4656
898.311	4831
898.431	4687
898.552	4702
898.672	4820
898.792	4805
898.913	4759
899.033	4603
899.153	4508
899.273	4424
899.393	4451
899.513	4519
899.633	4462
899.753	4519
899.873	4512
899.993	4535
900.113	4504
900.232	4565
900.352	4607
900.472	4493
900.591	4409
900.711	4436
900.83	4390
900.95	4615
901.069	4649
901.189	4550
901.308	4344
901.427	4303
901.546	4363
901.665	4478
901.784	4481
901.904	4360
902.023	4329
902.141	4181
902.26	4200
902.379	4325
902.498	4230
902.617	4181
902.735	4356
902.854	4398
902.973	4329
903.091	4177
903.21	4173
903.328	4284
903.446	4276
903.565	4268
903.683	4268
903.801	4318
903.919	4352
904.038	4424
904.156	4333
904.274	4402
904.392	4405
904.51	4421
904.627	4432
904.745	4516
904.863	4607
904.981	4363
905.098	4329
905.216	4360
905.334	4413
905.451	4424
905.569	4413
905.686	4535
905.803	4546
905.921	4375
906.038	4558
906.155	4459
906.272	4402
906.389	4462
906.506	4303
906.623	4356
906.74	4398
906.857	4318
906.974	4352
907.091	4538
907.208	4675
907.324	4584
907.441	4500
907.557	4356
907.674	4325
907.79	4287
907.907	4367
908.023	4462
908.139	4440
908.256	4413
908.372	4508
908.488	4398
908.604	4386
908.72	4299
908.836	4360
908.952	4379
909.068	4436
909.184	4561
909.3	4470
909.415	4599
909.531	4523
909.647	4375
909.762	4363
909.878	4348
909.993	4413
910.108	4405
910.224	4367
910.339	4497
910.454	4356
910.57	4356
910.685	4295
910.8	4611
910.915	4565
911.03	4485
911.145	4337
911.259	4325
911.374	4375
911.489	4249
911.604	4310
911.718	4128
911.833	4238
911.947	4074
912.062	4002
912.176	4181
912.291	4242
912.405	4223
912.519	4462
912.633	4516
912.748	4344
912.862	4303
912.976	4181
913.09	4097
913.204	4173
913.318	4257
913.431	4371
913.545	4386
913.659	4451
913.772	4318
913.886	4238
914	4230
914.113	4325
914.226	4409
914.34	4375
914.453	4261
914.566	4409
914.68	4318
914.793	4360
914.906	4166
915.019	4086
915.132	4105
915.245	4181
915.358	4215
915.47	4200
915.583	4280
915.696	4272
915.809	4424
915.921	4417
916.034	4219
916.146	4204
916.259	4219
916.371	4356
916.483	4352
916.595	4238
916.708	4280
916.82	4318
916.932	4344
917.044	4284
917.156	4280
917.268	4223
917.38	4253
917.491	4284
917.603	4348
917.715	4402
917.826	4413
917.938	4341
918.049	4223
918.161	4402
918.272	4558
918.384	4592
918.495	4402
918.606	4284
918.717	4246
918.828	4310
918.939	4348
919.05	4227
919.161	4303
919.272	4109
919.383	4207
919.494	4443
919.604	4611
919.715	4421
919.826	4352
919.936	4356
920.047	4462
920.157	4481
920.267	4687
920.378	4500
920.488	4481
920.598	4729
920.708	4866
920.818	4759
920.928	4744
921.038	4957
921.148	4904
921.258	4622
921.368	4531
921.477	4443
921.587	4424
921.697	4405
921.806	4542
921.916	4409
922.025	4287
922.134	4227
922.244	4185
922.353	4314
922.462	4150
922.571	4131
922.68	4013
922.789	3960
922.898	4055
923.007	3998
923.116	4093
923.224	4032
923.333	4074
923.442	3979
923.55	3987
923.659	4013
923.767	4112
923.876	4010
923.984	4131
924.092	3945
924.201	4067
924.309	4048
924.417	4112
924.525	4036
924.633	4101
924.741	5071
924.849	3937
924.956	4143
925.064	3956
925.172	3911
925.279	3915
925.387	4040
925.494	4040
925.602	4265
925.709	4181
925.816	4006
925.924	4116
926.031	4211
926.138	4181
926.245	4162
926.352	4063
926.459	4230
926.566	4310
926.673	4158
926.779	4063
926.886	4097
926.993	3972
927.099	3949
927.206	3934
927.312	3937
927.419	4021
927.525	3987
927.631	4093
927.737	3934
927.843	3941
927.95	3827
928.056	3930
928.162	3979
928.267	4093
928.373	4672
928.479	4036
928.585	3857
928.69	4002
928.796	4112
928.901	3926
929.007	3838
929.112	4002
929.218	3953
929.323	3972
929.428	3945
929.533	4105
929.638	3907
929.743	3964
929.848	4055
929.953	3987
930.058	3941
930.163	3747
930.267	3827
930.372	3953
930.477	3755
930.581	4063
930.685	3941
930.79	3819
930.894	3861
930.998	3850
931.103	3983
931.207	3713
931.311	3679
931.415	3705
931.519	3511
931.623	3530
