Data from test_V78500241_968.txt Node
Date: Fri Mar 25 16:55:43 CST 2022
User: usil
Spectrometer: V785-0024
Trigger mode: 0
Integration Time (sec): 4.000000E-1
Scans to average: 1
Nonlinearity correction enabled: false
Boxcar width: 0
Storing dark spectrum: false
XAxis mode: Wavelengths
Number of Pixels in Spectrum: 1024
>>>>>Begin Spectral Data<<<<<
801.071	8046
801.214	7959
801.356	7845
801.499	7890
801.641	7803
801.783	7807
801.926	7986
802.068	7887
802.211	8031
802.353	7963
802.496	7845
802.638	7765
802.78	7849
802.923	7890
803.065	7868
803.208	7845
803.35	8027
803.492	8134
803.635	8096
803.777	7989
803.919	8187
804.061	8419
804.204	8092
804.346	8016
804.488	7940
804.63	8164
804.773	8016
804.915	8081
805.057	8294
805.199	8138
805.341	8191
805.483	8225
805.626	8180
805.768	8103
805.91	8221
806.052	8210
806.194	8024
806.336	8214
806.478	8100
806.62	8043
806.762	8157
806.904	8317
807.046	8438
807.188	8377
807.33	8252
807.472	8298
807.614	8115
807.756	8115
807.898	8005
808.04	7921
808.182	7913
808.324	7879
808.465	7894
808.607	8054
808.749	8100
808.891	8161
809.033	8286
809.174	8119
809.316	8073
809.458	8065
809.6	7963
809.741	8024
809.883	8035
810.025	8073
810.166	8031
810.308	7978
810.45	8020
810.591	7875
810.733	7734
810.875	7655
811.016	7540
811.158	7502
811.299	7590
811.441	7662
811.582	7643
811.724	7552
811.865	7476
812.007	7556
812.148	7578
812.29	7670
812.431	7662
812.573	7849
812.714	7921
812.855	8134
812.997	8157
813.138	8244
813.279	8202
813.421	8123
813.562	8001
813.703	7795
813.845	7757
813.986	7506
814.127	7240
814.268	7133
814.41	7202
814.551	7069
814.692	7160
814.833	7012
814.974	7053
815.115	7065
815.256	6989
815.397	6897
815.539	7015
815.68	6852
815.821	6776
815.962	6875
816.103	6818
816.244	6692
816.385	6623
816.526	6650
816.666	6494
816.807	6285
816.948	6403
817.089	6441
817.23	6433
817.371	6380
817.512	6361
817.653	6445
817.793	6353
817.934	6418
818.075	6441
818.216	6475
818.356	6342
818.497	6243
818.638	6167
818.778	6125
818.919	6159
819.06	6163
819.2	6285
819.341	6285
819.481	6372
819.622	6528
819.762	6764
819.903	6749
820.043	6574
820.184	6559
820.324	6559
820.465	6684
820.605	6623
820.746	6593
820.886	6509
821.026	6642
821.167	6692
821.307	6825
821.447	6703
821.588	6662
821.728	6589
821.868	6467
822.008	6346
822.149	6334
822.289	6327
822.429	6129
822.569	6079
822.709	6155
822.849	5863
822.99	5893
823.13	5897
823.27	5832
823.41	5844
823.55	5752
823.69	5737
823.83	5733
823.97	5676
824.11	5459
824.25	5497
824.389	5524
824.529	5543
824.669	5505
824.809	5623
824.949	5646
825.089	5608
825.228	5528
825.368	5387
825.508	5322
825.648	5315
825.787	5337
825.927	5349
826.067	5296
826.206	5231
826.346	5410
826.485	5398
826.625	5391
826.765	5512
826.904	5493
827.044	5204
827.183	5174
827.323	5124
827.462	5216
827.601	5132
827.741	5174
827.88	5178
828.02	5124
828.159	5239
828.298	5357
828.437	5296
828.577	5246
828.716	5444
828.855	5318
828.994	5159
829.134	5083
829.273	5178
829.412	5121
829.551	5113
829.69	5140
829.829	5208
829.968	5303
830.107	5277
830.246	5261
830.385	5166
830.524	5086
830.663	5075
830.802	4949
830.941	4873
831.08	4854
831.219	4961
831.357	4972
831.496	5155
831.635	4896
831.774	4835
831.913	4843
832.051	4721
832.19	4748
832.329	4839
832.467	4694
832.606	4592
832.744	4706
832.883	4649
833.022	4664
833.16	4793
833.299	4725
833.437	4801
833.576	4816
833.714	4900
833.852	4858
833.991	4904
834.129	4915
834.267	4911
834.406	4904
834.544	4968
834.682	4961
834.821	4961
834.959	5147
835.097	4957
835.235	5102
835.373	5056
835.511	5079
835.65	5022
835.788	5014
835.926	4889
836.064	4885
836.202	4908
836.34	5143
836.478	5193
836.615	5128
836.753	5143
836.891	5235
837.029	5261
837.167	5246
837.305	5132
837.443	5124
837.58	5079
837.718	5216
837.856	5155
837.993	5193
838.131	5181
838.269	5143
838.406	5170
838.544	5220
838.681	4976
838.819	4991
838.956	4938
839.094	4885
839.231	4957
839.369	5086
839.506	5372
839.643	5250
839.781	5033
839.918	5014
840.055	5071
840.193	5052
840.33	5102
840.467	5155
840.604	5197
840.742	5474
840.879	5071
841.016	5079
841.153	5113
841.29	5376
841.427	5288
841.564	5273
841.701	5349
841.838	5258
841.975	5155
842.112	5261
842.249	5124
842.385	5060
842.522	5372
842.659	5128
842.796	5155
842.933	5151
843.069	5166
843.206	5151
843.343	5280
843.479	5208
843.616	5223
843.752	5067
843.889	5010
844.025	5204
844.162	5041
844.298	5147
844.435	5052
844.571	5018
844.708	5174
844.844	5250
844.98	5277
845.117	5227
845.253	5143
845.389	5045
845.525	5140
845.661	5121
845.798	5006
845.934	5113
846.07	4980
846.206	5227
846.342	5265
846.478	5143
846.614	4995
846.75	4999
846.886	4873
847.022	5136
847.158	4984
847.294	5033
847.429	5075
847.565	5018
847.701	5303
847.837	4850
847.972	4767
848.108	4942
848.244	4953
848.379	4763
848.515	4721
848.65	4691
848.786	4763
848.921	4706
849.057	4835
849.192	4908
849.328	4797
849.463	4793
849.598	4763
849.734	4714
849.869	4683
850.004	4599
850.14	4653
850.275	4599
850.41	4512
850.545	4538
850.68	4580
850.815	4599
850.95	4611
851.085	4797
851.22	4691
851.355	4649
851.49	4622
851.625	4653
851.76	4573
851.895	4512
852.03	4542
852.165	4672
852.299	4752
852.434	4744
852.569	4740
852.703	4721
852.838	4801
852.973	4900
853.107	4820
853.242	4771
853.376	4626
853.511	4527
853.645	4588
853.78	4790
853.914	4656
854.048	4679
854.183	4592
854.317	4679
854.451	4774
854.585	4660
854.72	4649
854.854	4767
854.988	4580
855.122	4645
855.256	4474
855.39	4653
855.524	4736
855.658	4717
855.792	4634
855.926	4706
856.06	4721
856.194	4790
856.327	4637
856.461	4561
856.595	4580
856.729	4577
856.862	4710
856.996	4691
857.13	4679
857.263	4729
857.397	4786
857.53	4611
857.664	4691
857.797	4759
857.931	4759
858.064	4645
858.197	4725
858.331	4607
858.464	4615
858.597	4500
858.731	4596
858.864	4618
858.997	4577
859.13	4641
859.263	4672
859.396	4706
859.529	4584
859.662	4516
859.795	4508
859.928	4660
860.061	4744
860.194	4809
860.327	4554
860.46	4603
860.592	4702
860.725	4710
860.858	4721
860.99	4569
861.123	4561
861.256	4512
861.388	4618
861.521	5254
861.653	4478
861.786	4459
861.918	4489
862.05	4531
862.183	4569
862.315	4596
862.447	4706
862.58	4519
862.712	4417
862.844	4363
862.976	4561
863.108	4489
863.24	4889
863.372	4352
863.504	4424
863.636	4436
863.768	4489
863.9	4451
864.032	4405
864.164	4432
864.296	4558
864.428	4497
864.559	4561
864.691	4573
864.823	4573
864.954	4516
865.086	4523
865.217	4455
865.349	4470
865.48	4466
865.612	4462
865.743	4626
865.875	4455
866.006	4474
866.137	4523
866.269	4455
866.4	4447
866.531	4489
866.662	4447
866.793	4432
866.924	4428
867.055	4569
867.186	4466
867.317	4398
867.448	4371
867.579	4405
867.71	4402
867.841	4344
867.972	4436
868.103	4497
868.233	4440
868.364	4466
868.495	4519
868.625	4687
868.756	4782
868.886	4615
869.017	4611
869.147	4820
869.278	4820
869.408	4687
869.539	4611
869.669	4736
869.799	4672
869.929	4786
870.06	4748
870.19	4938
870.32	4908
870.45	4930
870.58	5067
870.71	5136
870.84	5117
870.97	4984
871.1	4980
871.23	5113
871.36	5075
871.489	5045
871.619	5109
871.749	5109
871.879	5162
872.008	5254
872.138	5109
872.267	4995
872.397	4805
872.526	4873
872.656	4729
872.785	4854
872.915	4965
873.044	5010
873.173	4987
873.303	4968
873.432	4972
873.561	4976
873.69	4889
873.819	4877
873.948	4938
874.077	4881
874.206	4782
874.335	4820
874.464	5003
874.593	5029
874.722	5025
874.851	5128
874.979	5060
875.108	5045
875.237	4923
875.365	4873
875.494	4915
875.623	5014
875.751	4858
875.88	4927
876.008	4987
876.136	5090
876.265	5197
876.393	5368
876.521	5254
876.65	5258
876.778	5181
876.906	5071
877.034	5022
877.162	5086
877.29	5041
877.418	5098
877.546	5090
877.674	5010
877.802	5014
877.93	5041
878.058	4980
878.185	4942
878.313	4976
878.441	5010
878.568	4812
878.696	4900
878.824	4995
878.951	4976
879.079	5170
879.206	5299
879.333	5178
879.461	5010
879.588	5037
879.715	5098
879.842	5250
879.97	4949
880.097	4778
880.224	4782
880.351	4828
880.478	4790
880.605	4812
880.732	4839
880.859	5094
880.986	4923
881.112	4934
881.239	4778
881.366	4675
881.493	4634
881.619	4565
881.746	4637
881.872	4687
881.999	4672
882.125	4656
882.252	4793
882.378	4877
882.505	4980
882.631	4904
882.757	4694
882.883	4752
883.01	4782
883.136	4717
883.262	4637
883.388	4653
883.514	4786
883.64	4847
883.766	4820
883.892	4675
884.018	4755
884.143	4900
884.269	4999
884.395	4725
884.52	4634
884.646	4721
884.772	4626
884.897	4653
885.023	4653
885.148	4820
885.274	4877
885.399	4809
885.524	4774
885.65	4702
885.775	4778
885.9	4736
886.025	4885
886.15	4812
886.275	4763
886.4	4721
886.525	4725
886.65	4714
886.775	4752
886.9	4927
887.025	5079
887.149	4828
887.274	4706
887.399	4626
887.523	4656
887.648	4565
887.773	4641
887.897	4801
888.021	4778
888.146	4691
888.27	4870
888.395	4873
888.519	4854
888.643	4850
888.767	4831
888.891	4683
889.015	4634
889.139	4649
889.263	4599
889.387	4786
889.511	4854
889.635	4797
889.759	4706
889.883	4683
890.006	4691
890.13	4835
890.254	4630
890.377	4641
890.501	4558
890.624	4535
890.748	4675
890.871	4558
890.995	4417
891.118	4405
891.241	4550
891.364	4554
891.488	4615
891.611	4519
891.734	4611
891.857	4626
891.98	4584
892.103	4694
892.226	4554
892.349	4561
892.471	4451
892.594	4577
892.717	4580
892.839	4580
892.962	4622
893.085	4702
893.207	4660
893.33	4443
893.452	4580
893.575	4698
893.697	4561
893.819	4866
893.941	4850
894.064	4816
894.186	4611
894.308	4538
894.43	4820
894.552	4786
894.674	4820
894.796	4546
894.918	4611
895.04	4588
895.161	4744
895.283	4698
895.405	4596
895.526	4660
895.648	4687
895.769	4725
895.891	4717
896.012	4744
896.134	4744
896.255	4668
896.376	4641
896.498	4641
896.619	4717
896.74	4588
896.861	4649
896.982	4953
897.103	5121
897.224	4885
897.345	4721
897.466	4706
897.587	4755
897.708	4900
897.828	4809
897.949	4664
898.07	4538
898.19	4679
898.311	4843
898.431	4702
898.552	4767
898.672	4850
898.792	4812
898.913	4755
899.033	4653
899.153	4504
899.273	4451
899.393	4538
899.513	4481
899.633	4535
899.753	4527
899.873	4527
899.993	4554
900.113	4535
900.232	4599
900.352	4561
900.472	4508
900.591	4417
900.711	4497
900.83	4451
900.95	4611
901.069	4664
901.189	4485
901.308	4394
901.427	4284
901.546	4390
901.665	4455
901.784	4485
901.904	4402
902.023	4303
902.141	4166
902.26	4207
902.379	4341
902.498	4272
902.617	4246
902.735	4443
902.854	4383
902.973	4383
903.091	4219
903.21	4207
903.328	4329
903.446	4322
903.565	4287
903.683	4341
903.801	4337
903.919	4402
904.038	4493
904.156	4337
904.274	4424
904.392	4417
904.51	4497
904.627	4531
904.745	4596
904.863	4656
904.981	4440
905.098	4322
905.216	4356
905.334	4459
905.451	4432
905.569	4462
905.686	4592
905.803	4561
905.921	4428
906.038	4580
906.155	4481
906.272	4379
906.389	4459
906.506	4375
906.623	4383
906.74	4409
906.857	4329
906.974	4398
907.091	4561
907.208	4710
907.324	4599
907.441	4523
907.557	4383
907.674	4394
907.79	4344
907.907	4424
908.023	4481
908.139	4489
908.256	4478
908.372	4432
908.488	4493
908.604	4375
908.72	4394
908.836	4390
908.952	4371
909.068	4417
909.184	4596
909.3	4489
909.415	4580
909.531	4561
909.647	4398
909.762	4394
909.878	4344
909.993	4455
910.108	4440
910.224	4394
910.339	4504
910.454	4417
910.57	4367
910.685	4371
910.8	4649
910.915	4603
911.03	4478
911.145	4344
911.259	4325
911.374	4375
911.489	4265
911.604	4310
911.718	4196
911.833	4196
911.947	4109
912.062	4048
912.176	4276
912.291	4265
912.405	4204
912.519	4478
912.633	4512
912.748	4383
912.862	4261
912.976	4204
913.09	4093
913.204	4196
913.318	4272
913.431	4409
913.545	4390
913.659	4443
913.772	4383
913.886	4265
914	4249
914.113	4390
914.226	4413
914.34	4398
914.453	4219
914.566	4436
914.68	4314
914.793	4344
914.906	4181
915.019	4143
915.132	4082
915.245	4166
915.358	4211
915.47	4246
915.583	4272
915.696	4314
915.809	4405
915.921	4432
916.034	4314
916.146	4230
916.259	4230
916.371	4303
916.483	4409
916.595	4318
916.708	4341
916.82	4318
916.932	4329
917.044	4333
917.156	4356
917.268	4230
917.38	4268
917.491	4299
917.603	4356
917.715	4398
917.826	4428
917.938	4310
918.049	4227
918.161	4390
918.272	4558
918.384	4527
918.495	4455
918.606	4295
918.717	4219
918.828	4341
918.939	4386
919.05	4291
919.161	4344
919.272	4166
919.383	4188
919.494	4436
919.604	4634
919.715	4462
919.826	4325
919.936	4443
920.047	4558
920.157	4489
920.267	4687
920.378	4485
920.488	4561
920.598	4694
920.708	4892
920.818	4774
920.928	4740
921.038	4930
921.148	4877
921.258	4649
921.368	4546
921.477	4504
921.587	4474
921.697	4360
921.806	4588
921.916	4428
922.025	4257
922.134	4249
922.244	4238
922.353	4318
922.462	4162
922.571	4139
922.68	4017
922.789	3972
922.898	4017
923.007	4017
923.116	4143
923.224	4029
923.333	4082
923.442	3994
923.55	3968
923.659	4029
923.767	4059
923.876	3987
923.984	4124
924.092	4002
924.201	4109
924.309	4093
924.417	4105
924.525	4105
924.633	4124
924.741	5102
924.849	3907
924.956	4116
925.064	3964
925.172	3899
925.279	3945
925.387	4086
925.494	4090
925.602	4215
925.709	4173
925.816	4044
925.924	4139
926.031	4249
926.138	4196
926.245	4188
926.352	4105
926.459	4238
926.566	4295
926.673	4124
926.779	4086
926.886	4040
926.993	3975
927.099	3949
927.206	3968
927.312	3934
927.419	4082
927.525	4059
927.631	4128
927.737	3941
927.843	3956
927.95	3865
928.056	3991
928.162	4044
928.267	4093
928.373	4710
928.479	4154
928.585	3907
928.69	4032
928.796	4120
928.901	4036
929.007	3884
929.112	4059
929.218	4029
929.323	3953
929.428	4010
929.533	4162
929.638	3945
929.743	4002
929.848	4078
929.953	4040
930.058	3941
930.163	3819
930.267	3861
930.372	3956
930.477	3850
930.581	4090
930.685	4006
930.79	3892
930.894	3960
930.998	3876
931.103	4120
931.207	3789
931.311	3720
931.415	3701
931.519	3591
931.623	3618
