Data from test_V78500241_1194.txt Node
Date: Fri Mar 25 16:57:18 CST 2022
User: usil
Spectrometer: V785-0024
Trigger mode: 0
Integration Time (sec): 4.000000E-1
Scans to average: 1
Nonlinearity correction enabled: false
Boxcar width: 0
Storing dark spectrum: false
XAxis mode: Wavelengths
Number of Pixels in Spectrum: 1024
>>>>>Begin Spectral Data<<<<<
801.071	8058
801.214	8050
801.356	7852
801.499	7841
801.641	7753
801.783	7708
801.926	7955
802.068	7898
802.211	7997
802.353	7997
802.496	7811
802.638	7917
802.78	7887
802.923	7913
803.065	7906
803.208	7845
803.35	7883
803.492	8077
803.635	8176
803.777	7997
803.919	8123
804.061	8427
804.204	8164
804.346	8084
804.488	8043
804.63	8092
804.773	7993
804.915	8084
805.057	8267
805.199	8149
805.341	8180
805.483	8301
805.626	8191
805.768	8172
805.91	8168
806.052	8191
806.194	8065
806.336	8202
806.478	8027
806.62	7993
806.762	8081
806.904	8279
807.046	8438
807.188	8381
807.33	8256
807.472	8214
807.614	8092
807.756	8073
807.898	7970
808.04	7890
808.182	7951
808.324	7799
808.465	7913
808.607	8138
808.749	8096
808.891	8164
809.033	8256
809.174	8210
809.316	8035
809.458	8092
809.6	7947
809.741	8031
809.883	8016
810.025	8092
810.166	8046
810.308	8065
810.45	7963
810.591	7909
810.733	7704
810.875	7616
811.016	7544
811.158	7499
811.299	7586
811.441	7643
811.582	7696
811.724	7483
811.865	7514
812.007	7571
812.148	7540
812.29	7605
812.431	7750
812.573	7833
812.714	7974
812.855	8043
812.997	8138
813.138	8271
813.279	8134
813.421	8069
813.562	8050
813.703	7864
813.845	7761
813.986	7449
814.127	7263
814.268	7171
814.41	7240
814.551	7164
814.692	7206
814.833	7042
814.974	7065
815.115	7133
815.256	7046
815.397	6909
815.539	6886
815.68	6787
815.821	6806
815.962	6837
816.103	6787
816.244	6673
816.385	6604
816.526	6566
816.666	6422
816.807	6327
816.948	6441
817.089	6490
817.23	6403
817.371	6357
817.512	6361
817.653	6376
817.793	6376
817.934	6414
818.075	6384
818.216	6418
818.356	6319
818.497	6292
818.638	6098
818.778	6190
818.919	6178
819.06	6186
819.2	6319
819.341	6300
819.481	6315
819.622	6471
819.762	6669
819.903	6745
820.043	6574
820.184	6589
820.324	6479
820.465	6734
820.605	6703
820.746	6604
820.886	6486
821.026	6646
821.167	6684
821.307	6734
821.447	6753
821.588	6650
821.728	6551
821.868	6479
822.008	6300
822.149	6331
822.289	6311
822.429	6110
822.569	6117
822.709	6076
822.849	5931
822.99	5912
823.13	5901
823.27	5893
823.41	5729
823.55	5805
823.69	5726
823.83	5737
823.97	5680
824.11	5539
824.25	5452
824.389	5528
824.529	5592
824.669	5516
824.809	5646
824.949	5630
825.089	5630
825.228	5520
825.368	5383
825.508	5345
825.648	5284
825.787	5398
825.927	5360
826.067	5292
826.206	5261
826.346	5364
826.485	5379
826.625	5410
826.765	5562
826.904	5467
827.044	5246
827.183	5201
827.323	5136
827.462	5227
827.601	5121
827.741	5140
827.88	5170
828.02	5094
828.159	5189
828.298	5277
828.437	5364
828.577	5212
828.716	5474
828.855	5299
828.994	5178
829.134	5140
829.273	5147
829.412	5132
829.551	5113
829.69	5151
829.829	5250
829.968	5349
830.107	5235
830.246	5250
830.385	5124
830.524	5075
830.663	5041
830.802	4942
830.941	4797
831.08	4862
831.219	4991
831.357	4923
831.496	5136
831.635	4908
831.774	4858
831.913	4809
832.051	4672
832.19	4721
832.329	4816
832.467	4694
832.606	4577
832.744	4622
832.883	4656
833.022	4672
833.16	4748
833.299	4801
833.437	4843
833.576	4835
833.714	4774
833.852	4843
833.991	4854
834.129	4896
834.267	4957
834.406	4923
834.544	4915
834.682	4930
834.821	4923
834.959	5143
835.097	4957
835.235	5117
835.373	5128
835.511	5105
835.65	5022
835.788	5003
835.926	4820
836.064	4873
836.202	4911
836.34	5102
836.478	5242
836.615	5098
836.753	5166
836.891	5258
837.029	5216
837.167	5155
837.305	5136
837.443	5132
837.58	5067
837.718	5193
837.856	5140
837.993	5121
838.131	5250
838.269	5140
838.406	5181
838.544	5178
838.681	5025
838.819	4968
838.956	4915
839.094	4892
839.231	4965
839.369	5060
839.506	5414
839.643	5212
839.781	5052
839.918	4965
840.055	5086
840.193	5060
840.33	5079
840.467	5136
840.604	5193
840.742	5467
840.879	5048
841.016	5105
841.153	5147
841.29	5417
841.427	5330
841.564	5326
841.701	5360
841.838	5288
841.975	5246
842.112	5239
842.249	5140
842.385	5113
842.522	5379
842.659	5147
842.796	5151
842.933	5193
843.069	5181
843.206	5166
843.343	5395
843.479	5258
843.616	5280
843.752	5064
843.889	5022
844.025	5231
844.162	4980
844.298	5246
844.435	5079
844.571	5086
844.708	5220
844.844	5303
844.98	5379
845.117	5357
845.253	5197
845.389	5117
845.525	5162
845.661	5155
845.798	5079
845.934	5197
846.07	5048
846.206	5250
846.342	5307
846.478	5189
846.614	5037
846.75	4995
846.886	4949
847.022	5166
847.158	5105
847.294	5113
847.429	5151
847.565	5109
847.701	5318
847.837	4923
847.972	4854
848.108	4930
848.244	4911
848.379	4790
848.515	4771
848.65	4725
848.786	4778
848.921	4835
849.057	4892
849.192	4908
849.328	4900
849.463	4866
849.598	4835
849.734	4816
849.869	4729
850.004	4641
850.14	4664
850.275	4660
850.41	4561
850.545	4611
850.68	4683
850.815	4641
850.95	4679
851.085	4930
851.22	4774
851.355	4687
851.49	4592
851.625	4653
851.76	4611
851.895	4558
852.03	4580
852.165	4687
852.299	4782
852.434	4873
852.569	4790
852.703	4812
852.838	4915
852.973	4968
853.107	4980
853.242	4782
853.376	4710
853.511	4615
853.645	4649
853.78	4862
853.914	4767
854.048	4687
854.183	4691
854.317	4702
854.451	4908
854.585	4725
854.72	4656
854.854	4767
854.988	4672
855.122	4634
855.256	4531
855.39	4656
855.524	4866
855.658	4767
855.792	4729
855.926	4729
856.06	4763
856.194	4793
856.327	4710
856.461	4596
856.595	4603
856.729	4630
856.862	4725
856.996	4668
857.13	4706
857.263	4714
857.397	4828
857.53	4691
857.664	4790
857.797	4771
857.931	4809
858.064	4752
858.197	4740
858.331	4687
858.464	4584
858.597	4535
858.731	4630
858.864	4706
858.997	4634
859.13	4656
859.263	4660
859.396	4736
859.529	4577
859.662	4626
859.795	4558
859.928	4672
860.061	4782
860.194	4790
860.327	4664
860.46	4584
860.592	4691
860.725	4725
860.858	4736
860.99	4580
861.123	4580
861.256	4558
861.388	4668
861.521	5318
861.653	4485
861.786	4451
861.918	4455
862.05	4538
862.183	4558
862.315	4645
862.447	4683
862.58	4599
862.712	4413
862.844	4352
862.976	4500
863.108	4432
863.24	4881
863.372	4402
863.504	4459
863.636	4428
863.768	4516
863.9	4428
864.032	4375
864.164	4421
864.296	4462
864.428	4592
864.559	4596
864.691	4538
864.823	4531
864.954	4542
865.086	4535
865.217	4462
865.349	4394
865.48	4413
865.612	4554
865.743	4653
865.875	4500
866.006	4424
866.137	4500
866.269	4459
866.4	4462
866.531	4466
866.662	4443
866.793	4455
866.924	4474
867.055	4535
867.186	4428
867.317	4440
867.448	4383
867.579	4428
867.71	4398
867.841	4447
867.972	4478
868.103	4485
868.233	4459
868.364	4455
868.495	4527
868.625	4672
868.756	4835
868.886	4565
869.017	4664
869.147	4812
869.278	4809
869.408	4702
869.539	4630
869.669	4717
869.799	4714
869.929	4793
870.06	4740
870.19	4995
870.32	4938
870.45	4946
870.58	5094
870.71	5132
870.84	5124
870.97	4927
871.1	4900
871.23	5155
871.36	5113
871.489	5025
871.619	5079
871.749	5094
871.879	5159
872.008	5246
872.138	5090
872.267	4987
872.397	4881
872.526	4763
872.656	4736
872.785	4793
872.915	4972
873.044	5083
873.173	4961
873.303	4980
873.432	4938
873.561	4995
873.69	4892
873.819	4828
873.948	4961
874.077	4881
874.206	4809
874.335	4812
874.464	4965
874.593	5109
874.722	4976
874.851	5090
874.979	5048
875.108	5045
875.237	4927
875.365	4873
875.494	4873
875.623	4949
875.751	4835
875.88	4881
876.008	5052
876.136	5071
876.265	5216
876.393	5364
876.521	5227
876.65	5227
876.778	5159
876.906	5060
877.034	5029
877.162	5067
877.29	5033
877.418	5052
877.546	5075
877.674	5060
877.802	4984
877.93	5067
878.058	4965
878.185	4915
878.313	4915
878.441	4972
878.568	4801
878.696	4900
878.824	4980
878.951	4995
879.079	5124
879.206	5318
879.333	5170
879.461	5010
879.588	4984
879.715	5117
879.842	5189
879.97	5003
880.097	4816
880.224	4729
880.351	4824
880.478	4858
880.605	4820
880.732	4828
880.859	5086
880.986	4953
881.112	4927
881.239	4790
881.366	4698
881.493	4607
881.619	4641
881.746	4611
881.872	4679
881.999	4729
882.125	4706
882.252	4752
882.378	4835
882.505	4942
882.631	4797
882.757	4649
882.883	4736
883.01	4774
883.136	4679
883.262	4607
883.388	4626
883.514	4828
883.64	4847
883.766	4835
883.892	4721
884.018	4752
884.143	4885
884.269	5045
884.395	4645
884.52	4611
884.646	4683
884.772	4596
884.897	4554
885.023	4664
885.148	4786
885.274	4915
885.399	4812
885.524	4698
885.65	4714
885.775	4778
885.9	4683
886.025	4904
886.15	4820
886.275	4687
886.4	4664
886.525	4733
886.65	4649
886.775	4672
886.9	4927
887.025	5037
887.149	4847
887.274	4683
887.399	4607
887.523	4645
887.648	4607
887.773	4653
887.897	4793
888.021	4767
888.146	4683
888.27	4782
888.395	4930
888.519	4793
888.643	4828
888.767	4854
888.891	4668
889.015	4588
889.139	4664
889.263	4603
889.387	4820
889.511	4873
889.635	4850
889.759	4664
889.883	4656
890.006	4752
890.13	4858
890.254	4622
890.377	4672
890.501	4523
890.624	4527
890.748	4656
890.871	4569
890.995	4447
891.118	4394
891.241	4508
891.364	4519
891.488	4679
891.611	4512
891.734	4542
891.857	4611
891.98	4569
892.103	4653
892.226	4584
892.349	4531
892.471	4451
892.594	4588
892.717	4607
892.839	4569
892.962	4615
893.085	4615
893.207	4618
893.33	4512
893.452	4527
893.575	4649
893.697	4573
893.819	4835
893.941	4862
894.064	4771
894.186	4550
894.308	4531
894.43	4786
894.552	4824
894.674	4755
894.796	4561
894.918	4573
895.04	4607
895.161	4698
895.283	4668
895.405	4592
895.526	4649
895.648	4694
895.769	4687
895.891	4744
896.012	4729
896.134	4786
896.255	4656
896.376	4653
896.498	4668
896.619	4717
896.74	4603
896.861	4660
896.982	4965
897.103	5067
897.224	4873
897.345	4816
897.466	4668
897.587	4736
897.708	4877
897.828	4820
897.949	4710
898.07	4569
898.19	4637
898.311	4850
898.431	4691
898.552	4744
898.672	4812
898.792	4767
898.913	4729
899.033	4630
899.153	4462
899.273	4402
899.393	4459
899.513	4542
899.633	4599
899.753	4527
899.873	4527
899.993	4519
900.113	4535
900.232	4588
900.352	4523
900.472	4500
900.591	4421
900.711	4535
900.83	4413
900.95	4584
901.069	4702
901.189	4542
901.308	4405
901.427	4333
901.546	4405
901.665	4504
901.784	4470
901.904	4428
902.023	4314
902.141	4261
902.26	4200
902.379	4268
902.498	4196
902.617	4265
902.735	4379
902.854	4356
902.973	4352
903.091	4207
903.21	4249
903.328	4325
903.446	4291
903.565	4276
903.683	4367
903.801	4287
903.919	4421
904.038	4447
904.156	4356
904.274	4402
904.392	4417
904.51	4440
904.627	4447
904.745	4546
904.863	4603
904.981	4424
905.098	4303
905.216	4337
905.334	4455
905.451	4440
905.569	4459
905.686	4546
905.803	4599
905.921	4405
906.038	4542
906.155	4455
906.272	4398
906.389	4466
906.506	4352
906.623	4436
906.74	4375
906.857	4322
906.974	4356
907.091	4535
907.208	4687
907.324	4607
907.441	4470
907.557	4356
907.674	4386
907.79	4348
907.907	4413
908.023	4489
908.139	4485
908.256	4455
908.372	4466
908.488	4474
908.604	4371
908.72	4306
908.836	4383
908.952	4394
909.068	4413
909.184	4550
909.3	4478
909.415	4611
909.531	4577
909.647	4344
909.762	4417
909.878	4356
909.993	4413
910.108	4413
910.224	4375
910.339	4508
910.454	4409
910.57	4383
910.685	4329
910.8	4675
910.915	4584
911.03	4459
911.145	4299
911.259	4341
911.374	4386
911.489	4280
911.604	4333
911.718	4173
911.833	4188
911.947	4093
912.062	3994
912.176	4200
912.291	4188
912.405	4234
912.519	4470
912.633	4538
912.748	4390
912.862	4310
912.976	4246
913.09	4109
913.204	4181
913.318	4265
913.431	4405
913.545	4383
913.659	4443
913.772	4356
913.886	4207
914	4230
914.113	4413
914.226	4402
914.34	4379
914.453	4280
914.566	4436
914.68	4356
914.793	4318
914.906	4169
915.019	4173
915.132	4074
915.245	4253
915.358	4303
915.47	4287
915.583	4333
915.696	4379
915.809	4462
915.921	4417
916.034	4280
916.146	4276
916.259	4287
916.371	4402
916.483	4405
916.595	4333
916.708	4394
916.82	4386
916.932	4306
917.044	4375
917.156	4402
917.268	4272
917.38	4333
917.491	4322
917.603	4394
917.715	4462
917.826	4516
917.938	4383
918.049	4299
918.161	4421
918.272	4569
918.384	4565
918.495	4516
918.606	4341
918.717	4249
918.828	4394
918.939	4394
919.05	4310
919.161	4390
919.272	4169
919.383	4287
919.494	4485
919.604	4672
919.715	4500
919.826	4386
919.936	4421
920.047	4569
920.157	4542
920.267	4782
920.378	4592
920.488	4504
920.598	4763
920.708	4889
920.818	4824
920.928	4816
921.038	4987
921.148	4953
921.258	4721
921.368	4641
921.477	4538
921.587	4481
921.697	4390
921.806	4618
921.916	4493
922.025	4295
922.134	4310
922.244	4242
922.353	4367
922.462	4242
922.571	4173
922.68	4063
922.789	4048
922.898	4086
923.007	4017
923.116	4188
923.224	4090
923.333	4162
923.442	4032
923.55	4021
923.659	4021
923.767	4128
923.876	4017
923.984	4150
924.092	4036
924.201	4097
924.309	4147
924.417	4139
924.525	4135
924.633	4147
924.741	5056
924.849	4025
924.956	4185
925.064	4017
925.172	3918
925.279	3994
925.387	4059
925.494	4112
925.602	4242
925.709	4188
925.816	4044
925.924	4124
926.031	4295
926.138	4196
926.245	4223
926.352	4128
926.459	4276
926.566	4295
926.673	4211
926.779	4150
926.886	4101
926.993	4078
927.099	4006
927.206	3915
927.312	3991
927.419	4090
927.525	4048
927.631	4150
927.737	3972
927.843	4002
927.95	3880
928.056	3991
928.162	3994
928.267	4097
928.373	4698
928.479	4192
928.585	3922
928.69	4063
928.796	4131
928.901	3983
929.007	3876
929.112	4055
929.218	4036
929.323	3983
929.428	3930
929.533	4135
929.638	3945
929.743	4032
929.848	4090
929.953	4002
930.058	3949
930.163	3823
930.267	3835
930.372	4010
930.477	3831
930.581	4131
930.685	3998
930.79	3899
930.894	3865
930.998	3876
931.103	4048
931.207	3728
931.311	3713
931.415	3728
931.519	3603
931.623	3534
