Data from test_V78500241_2404.txt Node
Date: Fri Mar 25 17:05:43 CST 2022
User: usil
Spectrometer: V785-0024
Trigger mode: 0
Integration Time (sec): 4.000000E-1
Scans to average: 1
Nonlinearity correction enabled: false
Boxcar width: 0
Storing dark spectrum: false
XAxis mode: Wavelengths
Number of Pixels in Spectrum: 1024
>>>>>Begin Spectral Data<<<<<
801.071	8008
801.214	8046
801.356	7830
801.499	7898
801.641	7807
801.783	7883
801.926	8062
802.068	8008
802.211	8065
802.353	8005
802.496	7921
802.638	7928
802.78	7974
802.923	7947
803.065	7917
803.208	7868
803.35	7997
803.492	8043
803.635	8225
803.777	8058
803.919	8123
804.061	8499
804.204	8195
804.346	8134
804.488	7940
804.63	8039
804.773	8096
804.915	8123
805.057	8343
805.199	8259
805.341	8294
805.483	8358
805.626	8294
805.768	8252
805.91	8206
806.052	8199
806.194	8134
806.336	8355
806.478	8176
806.62	8103
806.762	8218
806.904	8298
807.046	8514
807.188	8434
807.33	8275
807.472	8385
807.614	8210
807.756	8214
807.898	8031
808.04	7947
808.182	7993
808.324	7932
808.465	7959
808.607	8126
808.749	8115
808.891	8161
809.033	8286
809.174	8233
809.316	8107
809.458	8130
809.6	8058
809.741	8065
809.883	8073
810.025	8168
810.166	8069
810.308	8031
810.45	8001
810.591	7940
810.733	7784
810.875	7643
811.016	7514
811.158	7540
811.299	7616
811.441	7712
811.582	7643
811.724	7556
811.865	7594
812.007	7658
812.148	7651
812.29	7708
812.431	7757
812.573	7845
812.714	7993
812.855	8138
812.997	8153
813.138	8290
813.279	8145
813.421	8126
813.562	8050
813.703	7879
813.845	7769
813.986	7476
814.127	7247
814.268	7301
814.41	7251
814.551	7206
814.692	7305
814.833	7088
814.974	7137
815.115	7149
815.256	6954
815.397	6993
815.539	7015
815.68	6913
815.821	6886
815.962	6886
816.103	6897
816.244	6779
816.385	6662
816.526	6578
816.666	6506
816.807	6384
816.948	6452
817.089	6559
817.23	6467
817.371	6407
817.512	6410
817.653	6433
817.793	6346
817.934	6448
818.075	6498
818.216	6498
818.356	6467
818.497	6327
818.638	6190
818.778	6213
818.919	6163
819.06	6186
819.2	6399
819.341	6414
819.481	6426
819.622	6513
819.762	6745
819.903	6734
820.043	6620
820.184	6585
820.324	6585
820.465	6703
820.605	6669
820.746	6707
820.886	6544
821.026	6684
821.167	6719
821.307	6890
821.447	6760
821.588	6677
821.728	6669
821.868	6559
822.008	6399
822.149	6479
822.289	6361
822.429	6254
822.569	6121
822.709	6186
822.849	5958
822.99	5954
823.13	5977
823.27	5939
823.41	5760
823.55	5783
823.69	5760
823.83	5779
823.97	5665
824.11	5596
824.25	5501
824.389	5585
824.529	5638
824.669	5589
824.809	5634
824.949	5676
825.089	5608
825.228	5573
825.368	5474
825.508	5376
825.648	5383
825.787	5383
825.927	5383
826.067	5360
826.206	5379
826.346	5368
826.485	5372
826.625	5490
826.765	5615
826.904	5551
827.044	5273
827.183	5258
827.323	5166
827.462	5246
827.601	5250
827.741	5178
827.88	5250
828.02	5128
828.159	5261
828.298	5337
828.437	5376
828.577	5303
828.716	5532
828.855	5330
828.994	5208
829.134	5193
829.273	5193
829.412	5201
829.551	5132
829.69	5220
829.829	5227
829.968	5376
830.107	5307
830.246	5273
830.385	5189
830.524	5212
830.663	5067
830.802	5010
830.941	4892
831.08	4862
831.219	4980
831.357	4999
831.496	5185
831.635	4934
831.774	4862
831.913	4892
832.051	4809
832.19	4733
832.329	4873
832.467	4725
832.606	4660
832.744	4736
832.883	4714
833.022	4733
833.16	4877
833.299	4812
833.437	4831
833.576	4858
833.714	4915
833.852	4908
833.991	4938
834.129	5010
834.267	4911
834.406	4858
834.544	4972
834.682	5060
834.821	5010
834.959	5166
835.097	5037
835.235	5193
835.373	5109
835.511	5086
835.65	5029
835.788	5033
835.926	4911
836.064	4873
836.202	4942
836.34	5242
836.478	5242
836.615	5162
836.753	5254
836.891	5345
837.029	5239
837.167	5185
837.305	5204
837.443	5208
837.58	5083
837.718	5246
837.856	5231
837.993	5151
838.131	5288
838.269	5246
838.406	5220
838.544	5185
838.681	5083
838.819	5045
838.956	4900
839.094	4847
839.231	4987
839.369	5136
839.506	5406
839.643	5258
839.781	5064
839.918	5041
840.055	5121
840.193	5075
840.33	5102
840.467	5124
840.604	5197
840.742	5474
840.879	5124
841.016	5109
841.153	5151
841.29	5345
841.427	5326
841.564	5372
841.701	5376
841.838	5258
841.975	5250
842.112	5292
842.249	5151
842.385	5151
842.522	5357
842.659	5170
842.796	5124
842.933	5174
843.069	5094
843.206	5178
843.343	5364
843.479	5280
843.616	5284
843.752	4991
843.889	5037
844.025	5261
844.162	5041
844.298	5204
844.435	5105
844.571	5105
844.708	5246
844.844	5322
844.98	5379
845.117	5277
845.253	5147
845.389	5105
845.525	5140
845.661	5136
845.798	5022
845.934	5132
846.07	5045
846.206	5239
846.342	5330
846.478	5201
846.614	5052
846.75	4999
846.886	4930
847.022	5170
847.158	5060
847.294	5079
847.429	5128
847.565	5045
847.701	5353
847.837	4927
847.972	4828
848.108	4976
848.244	4946
848.379	4736
848.515	4759
848.65	4778
848.786	4782
848.921	4752
849.057	4892
849.192	4889
849.328	4820
849.463	4885
849.598	4816
849.734	4805
849.869	4637
850.004	4645
850.14	4710
850.275	4603
850.41	4554
850.545	4588
850.68	4622
850.815	4645
850.95	4660
851.085	4896
851.22	4774
851.355	4687
851.49	4687
851.625	4630
851.76	4694
851.895	4592
852.03	4512
852.165	4660
852.299	4733
852.434	4771
852.569	4774
852.703	4820
852.838	4816
852.973	4915
853.107	4923
853.242	4744
853.376	4664
853.511	4584
853.645	4630
853.78	4820
853.914	4740
854.048	4702
854.183	4664
854.317	4687
854.451	4881
854.585	4710
854.72	4706
854.854	4805
854.988	4615
855.122	4622
855.256	4493
855.39	4694
855.524	4740
855.658	4744
855.792	4729
855.926	4744
856.06	4793
856.194	4816
856.327	4725
856.461	4630
856.595	4603
856.729	4687
856.862	4721
856.996	4725
857.13	4733
857.263	4763
857.397	4820
857.53	4710
857.664	4729
857.797	4786
857.931	4805
858.064	4733
858.197	4729
858.331	4656
858.464	4637
858.597	4500
858.731	4637
858.864	4660
858.997	4611
859.13	4702
859.263	4687
859.396	4698
859.529	4618
859.662	4588
859.795	4523
859.928	4634
860.061	4809
860.194	4767
860.327	4634
860.46	4618
860.592	4710
860.725	4733
860.858	4721
860.99	4535
861.123	4565
861.256	4531
861.388	4637
861.521	5326
861.653	4485
861.786	4462
861.918	4519
862.05	4531
862.183	4622
862.315	4649
862.447	4675
862.58	4561
862.712	4405
862.844	4333
862.976	4504
863.108	4466
863.24	4767
863.372	4363
863.504	4424
863.636	4443
863.768	4523
863.9	4424
864.032	4383
864.164	4413
864.296	4519
864.428	4561
864.559	4580
864.691	4561
864.823	4535
864.954	4500
865.086	4538
865.217	4493
865.349	4466
865.48	4516
865.612	4455
865.743	4611
865.875	4478
866.006	4417
866.137	4497
866.269	4409
866.4	4443
866.531	4462
866.662	4417
866.793	4424
866.924	4421
867.055	4478
867.186	4413
867.317	4443
867.448	4440
867.579	4371
867.71	4390
867.841	4363
867.972	4493
868.103	4421
868.233	4531
868.364	4493
868.495	4466
868.625	4668
868.756	4801
868.886	4573
869.017	4645
869.147	4767
869.278	4755
869.408	4637
869.539	4618
869.669	4710
869.799	4691
869.929	4782
870.06	4691
870.19	4919
870.32	5029
870.45	4892
870.58	5018
870.71	5109
870.84	5151
870.97	4949
871.1	4896
871.23	5162
871.36	5124
871.489	5048
871.619	5067
871.749	5113
871.879	5105
872.008	5162
872.138	5071
872.267	4991
872.397	4858
872.526	4831
872.656	4725
872.785	4771
872.915	4957
873.044	5064
873.173	4896
873.303	4984
873.432	4934
873.561	4965
873.69	4919
873.819	4885
873.948	4930
874.077	4847
874.206	4793
874.335	4752
874.464	4930
874.593	5022
874.722	4961
874.851	5136
874.979	5090
875.108	5048
875.237	4949
875.365	4885
875.494	4885
875.623	5033
875.751	4870
875.88	4862
876.008	4999
876.136	5045
876.265	5216
876.393	5376
876.521	5246
876.65	5284
876.778	5170
876.906	5105
877.034	5033
877.162	5071
877.29	5060
877.418	5086
877.546	5083
877.674	5052
877.802	5029
877.93	5041
878.058	4919
878.185	4854
878.313	4949
878.441	4987
878.568	4820
878.696	4923
878.824	4968
878.951	4972
879.079	5124
879.206	5292
879.333	5105
879.461	4991
879.588	5056
879.715	5151
879.842	5239
879.97	4999
880.097	4778
880.224	4744
880.351	4797
880.478	4839
880.605	4828
880.732	4831
880.859	5136
880.986	4881
881.112	4881
881.239	4721
881.366	4622
881.493	4653
881.619	4546
881.746	4645
881.872	4664
881.999	4721
882.125	4729
882.252	4786
882.378	4892
882.505	4987
882.631	4847
882.757	4683
882.883	4767
883.01	4729
883.136	4656
883.262	4603
883.388	4615
883.514	4870
883.64	4828
883.766	4782
883.892	4656
884.018	4740
884.143	4915
884.269	4995
884.395	4660
884.52	4596
884.646	4645
884.772	4592
884.897	4584
885.023	4660
885.148	4740
885.274	4866
885.399	4824
885.524	4725
885.65	4660
885.775	4767
885.9	4668
886.025	4843
886.15	4847
886.275	4752
886.4	4637
886.525	4748
886.65	4691
886.775	4668
886.9	4873
887.025	5003
887.149	4759
887.274	4637
887.399	4577
887.523	4596
887.648	4584
887.773	4607
887.897	4763
888.021	4812
888.146	4668
888.27	4866
888.395	4900
888.519	4767
888.643	4778
888.767	4824
888.891	4683
889.015	4580
889.139	4656
889.263	4660
889.387	4733
889.511	4809
889.635	4786
889.759	4649
889.883	4660
890.006	4736
890.13	4831
890.254	4607
890.377	4664
890.501	4504
890.624	4497
890.748	4573
890.871	4485
890.995	4455
891.118	4405
891.241	4508
891.364	4569
891.488	4641
891.611	4538
891.734	4535
891.857	4675
891.98	4485
892.103	4637
892.226	4580
892.349	4580
892.471	4402
892.594	4538
892.717	4588
892.839	4577
892.962	4573
893.085	4664
893.207	4550
893.33	4428
893.452	4546
893.575	4694
893.697	4554
893.819	4793
893.941	4835
894.064	4755
894.186	4561
894.308	4580
894.43	4778
894.552	4835
894.674	4706
894.796	4561
894.918	4596
895.04	4592
895.161	4710
895.283	4679
895.405	4577
895.526	4656
895.648	4645
895.769	4649
895.891	4706
896.012	4706
896.134	4725
896.255	4675
896.376	4641
896.498	4660
896.619	4656
896.74	4615
896.861	4687
896.982	4889
897.103	5132
897.224	4812
897.345	4679
897.466	4683
897.587	4717
897.708	4820
897.828	4801
897.949	4653
898.07	4550
898.19	4618
898.311	4828
898.431	4698
898.552	4763
898.672	4820
898.792	4805
898.913	4702
899.033	4664
899.153	4485
899.273	4421
899.393	4500
899.513	4504
899.633	4535
899.753	4516
899.873	4504
899.993	4554
900.113	4554
900.232	4596
900.352	4504
900.472	4481
900.591	4402
900.711	4523
900.83	4440
900.95	4607
901.069	4683
901.189	4504
901.308	4348
901.427	4337
901.546	4398
901.665	4462
901.784	4527
901.904	4386
902.023	4299
902.141	4173
902.26	4177
902.379	4303
902.498	4246
902.617	4166
902.735	4379
902.854	4363
902.973	4329
903.091	4234
903.21	4227
903.328	4261
903.446	4257
903.565	4253
903.683	4356
903.801	4314
903.919	4428
904.038	4402
904.156	4310
904.274	4413
904.392	4436
904.51	4421
904.627	4523
904.745	4584
904.863	4645
904.981	4375
905.098	4379
905.216	4375
905.334	4447
905.451	4402
905.569	4478
905.686	4558
905.803	4577
905.921	4413
906.038	4523
906.155	4508
906.272	4409
906.389	4447
906.506	4344
906.623	4390
906.74	4344
906.857	4314
906.974	4363
907.091	4565
907.208	4691
907.324	4588
907.441	4489
907.557	4360
907.674	4352
907.79	4325
907.907	4375
908.023	4466
908.139	4459
908.256	4409
908.372	4489
908.488	4459
908.604	4341
908.72	4284
908.836	4405
908.952	4360
909.068	4398
909.184	4538
909.3	4516
909.415	4573
909.531	4550
909.647	4390
909.762	4398
909.878	4356
909.993	4466
910.108	4424
910.224	4428
910.339	4493
910.454	4360
910.57	4356
910.685	4337
910.8	4599
910.915	4599
911.03	4504
911.145	4352
911.259	4318
911.374	4363
911.489	4303
911.604	4287
911.718	4181
911.833	4147
911.947	4040
912.062	3998
912.176	4215
912.291	4238
912.405	4223
912.519	4432
912.633	4493
912.748	4360
912.862	4322
912.976	4207
913.09	4105
913.204	4166
913.318	4249
913.431	4363
913.545	4310
913.659	4436
913.772	4375
913.886	4242
914	4257
914.113	4375
914.226	4428
914.34	4394
914.453	4265
914.566	4417
914.68	4291
914.793	4363
914.906	4158
915.019	4181
915.132	4082
915.245	4169
915.358	4185
915.47	4234
915.583	4246
915.696	4314
915.809	4356
915.921	4436
916.034	4265
916.146	4287
916.259	4249
916.371	4398
916.483	4310
916.595	4238
916.708	4318
916.82	4318
916.932	4306
917.044	4303
917.156	4333
917.268	4238
917.38	4265
917.491	4265
917.603	4367
917.715	4413
917.826	4493
917.938	4348
918.049	4291
918.161	4356
918.272	4531
918.384	4516
918.495	4417
918.606	4306
918.717	4211
918.828	4325
918.939	4409
919.05	4261
919.161	4303
919.272	4162
919.383	4238
919.494	4436
919.604	4634
919.715	4390
919.826	4318
919.936	4409
920.047	4508
920.157	4504
920.267	4717
920.378	4607
920.488	4497
920.598	4694
920.708	4885
920.818	4729
920.928	4733
921.038	4965
921.148	4889
921.258	4645
921.368	4565
921.477	4466
921.587	4432
921.697	4363
921.806	4535
921.916	4459
922.025	4230
922.134	4242
922.244	4227
922.353	4322
922.462	4150
922.571	4120
922.68	4002
922.789	3972
922.898	4051
923.007	3979
923.116	4086
923.224	4040
923.333	4048
923.442	3960
923.55	3956
923.659	4025
923.767	4124
923.876	3991
923.984	4074
924.092	3991
924.201	4093
924.309	4105
924.417	4086
924.525	4029
924.633	4078
924.741	5060
924.849	3922
924.956	4143
925.064	3934
925.172	3896
925.279	3983
925.387	4071
925.494	4086
925.602	4150
925.709	4158
925.816	4074
925.924	4150
926.031	4276
926.138	4166
926.245	4188
926.352	4071
926.459	4215
926.566	4306
926.673	4150
926.779	4074
926.886	4090
926.993	3987
927.099	3930
927.206	3934
927.312	3979
927.419	4051
927.525	4036
927.631	4067
927.737	3953
927.843	3994
927.95	3816
928.056	3937
928.162	3983
928.267	4093
928.373	4683
928.479	4090
928.585	3857
928.69	4044
928.796	4067
928.901	3994
929.007	3831
929.112	4002
929.218	3953
929.323	3918
929.428	3945
929.533	4105
929.638	3880
929.743	3956
929.848	4017
929.953	3983
930.058	3903
930.163	3755
930.267	3850
930.372	3972
930.477	3789
930.581	4051
930.685	3949
930.79	3838
930.894	3907
930.998	3873
931.103	4010
931.207	3720
931.311	3652
931.415	3614
931.519	3488
931.623	3549
