Data from test_V78500241_276.txt Node
Date: Fri Mar 25 16:50:55 CST 2022
User: usil
Spectrometer: V785-0024
Trigger mode: 0
Integration Time (sec): 4.000000E-1
Scans to average: 1
Nonlinearity correction enabled: false
Boxcar width: 0
Storing dark spectrum: false
XAxis mode: Wavelengths
Number of Pixels in Spectrum: 1024
>>>>>Begin Spectral Data<<<<<
801.071	8084
801.214	8024
801.356	7856
801.499	7860
801.641	7814
801.783	7860
801.926	7967
802.068	7917
802.211	7982
802.353	8005
802.496	7932
802.638	7936
802.78	8001
802.923	7967
803.065	7864
803.208	7799
803.35	7989
803.492	8081
803.635	8103
803.777	7978
803.919	8103
804.061	8381
804.204	8161
804.346	8008
804.488	8039
804.63	8096
804.773	8020
804.915	8107
805.057	8233
805.199	8100
805.341	8221
805.483	8248
805.626	8164
805.768	8088
805.91	8138
806.052	8161
806.194	8119
806.336	8237
806.478	8199
806.62	8050
806.762	8111
806.904	8199
807.046	8442
807.188	8389
807.33	8343
807.472	8271
807.614	8164
807.756	8123
807.898	7970
808.04	7913
808.182	7917
808.324	7947
808.465	7928
808.607	8046
808.749	8123
808.891	8199
809.033	8320
809.174	8229
809.316	8081
809.458	8100
809.6	8016
809.741	7959
809.883	8001
810.025	8088
810.166	8024
810.308	8005
810.45	8035
810.591	7860
810.733	7807
810.875	7681
811.016	7537
811.158	7499
811.299	7575
811.441	7757
811.582	7693
811.724	7575
811.865	7567
812.007	7586
812.148	7677
812.29	7624
812.431	7723
812.573	7871
812.714	8035
812.855	8145
812.997	8183
813.138	8339
813.279	8187
813.421	8210
813.562	7959
813.703	7875
813.845	7746
813.986	7449
814.127	7270
814.268	7312
814.41	7187
814.551	7129
814.692	7160
814.833	7091
814.974	7091
815.115	7034
815.256	6947
815.397	6878
815.539	7027
815.68	6844
815.821	6783
815.962	6852
816.103	6798
816.244	6715
816.385	6650
816.526	6620
816.666	6509
816.807	6266
816.948	6369
817.089	6445
817.23	6418
817.371	6388
817.512	6395
817.653	6365
817.793	6422
817.934	6407
818.075	6483
818.216	6433
818.356	6399
818.497	6251
818.638	6155
818.778	6152
818.919	6083
819.06	6129
819.2	6254
819.341	6300
819.481	6342
819.622	6517
819.762	6677
819.903	6665
820.043	6601
820.184	6570
820.324	6547
820.465	6646
820.605	6623
820.746	6570
820.886	6486
821.026	6597
821.167	6669
821.307	6802
821.447	6753
821.588	6696
821.728	6585
821.868	6467
822.008	6350
822.149	6319
822.289	6365
822.429	6064
822.569	6136
822.709	6125
822.849	5904
822.99	5847
823.13	5988
823.27	5992
823.41	5790
823.55	5798
823.69	5783
823.83	5786
823.97	5627
824.11	5554
824.25	5512
824.389	5592
824.529	5532
824.669	5528
824.809	5623
824.949	5615
825.089	5604
825.228	5570
825.368	5372
825.508	5353
825.648	5364
825.787	5372
825.927	5387
826.067	5299
826.206	5239
826.346	5455
826.485	5395
826.625	5452
826.765	5520
826.904	5501
827.044	5216
827.183	5223
827.323	5109
827.462	5292
827.601	5098
827.741	5193
827.88	5216
828.02	5079
828.159	5250
828.298	5239
828.437	5379
828.577	5269
828.716	5524
828.855	5292
828.994	5178
829.134	5136
829.273	5193
829.412	5151
829.551	5136
829.69	5170
829.829	5181
829.968	5383
830.107	5246
830.246	5296
830.385	5147
830.524	5174
830.663	5056
830.802	4942
830.941	4904
831.08	4889
831.219	4976
831.357	4984
831.496	5170
831.635	4908
831.774	4828
831.913	4847
832.051	4714
832.19	4782
832.329	4805
832.467	4691
832.606	4599
832.744	4748
832.883	4729
833.022	4721
833.16	4805
833.299	4843
833.437	4820
833.576	4839
833.714	4854
833.852	4847
833.991	4873
834.129	4965
834.267	4972
834.406	4885
834.544	5033
834.682	4965
834.821	4949
834.959	5147
835.097	5014
835.235	5132
835.373	5071
835.511	5140
835.65	5079
835.788	5064
835.926	4942
836.064	4885
836.202	4900
836.34	5197
836.478	5273
836.615	5071
836.753	5265
836.891	5250
837.029	5216
837.167	5189
837.305	5185
837.443	5136
837.58	5041
837.718	5254
837.856	5193
837.993	5174
838.131	5227
838.269	5261
838.406	5155
838.544	5212
838.681	5033
838.819	5025
838.956	4904
839.094	4927
839.231	4987
839.369	5090
839.506	5463
839.643	5261
839.781	5052
839.918	4980
840.055	5083
840.193	5086
840.33	5098
840.467	5132
840.604	5170
840.742	5421
840.879	5113
841.016	5136
841.153	5208
841.29	5417
841.427	5326
841.564	5376
841.701	5364
841.838	5292
841.975	5273
842.112	5288
842.249	5197
842.385	5105
842.522	5288
842.659	5162
842.796	5102
842.933	5185
843.069	5174
843.206	5220
843.343	5330
843.479	5227
843.616	5284
843.752	5079
843.889	4972
844.025	5174
844.162	5041
844.298	5208
844.435	5083
844.571	5079
844.708	5201
844.844	5311
844.98	5337
845.117	5311
845.253	5117
845.389	5045
845.525	5197
845.661	5208
845.798	5022
845.934	5121
846.07	5086
846.206	5155
846.342	5269
846.478	5181
846.614	5018
846.75	5003
846.886	4957
847.022	5132
847.158	4984
847.294	5060
847.429	5083
847.565	5083
847.701	5315
847.837	4850
847.972	4824
848.108	4949
848.244	4957
848.379	4763
848.515	4744
848.65	4733
848.786	4759
848.921	4767
849.057	4866
849.192	4934
849.328	4816
849.463	4854
849.598	4771
849.734	4835
849.869	4637
850.004	4634
850.14	4694
850.275	4607
850.41	4500
850.545	4573
850.68	4630
850.815	4596
850.95	4596
851.085	4900
851.22	4752
851.355	4706
851.49	4637
851.625	4683
851.76	4645
851.895	4535
852.03	4580
852.165	4641
852.299	4755
852.434	4793
852.569	4729
852.703	4752
852.838	4816
852.973	4904
853.107	4908
853.242	4687
853.376	4698
853.511	4573
853.645	4626
853.78	4809
853.914	4691
854.048	4675
854.183	4653
854.317	4717
854.451	4824
854.585	4717
854.72	4634
854.854	4759
854.988	4569
855.122	4622
855.256	4516
855.39	4683
855.524	4782
855.658	4672
855.792	4717
855.926	4725
856.06	4759
856.194	4816
856.327	4683
856.461	4675
856.595	4634
856.729	4634
856.862	4733
856.996	4755
857.13	4786
857.263	4778
857.397	4805
857.53	4653
857.664	4740
857.797	4767
857.931	4820
858.064	4694
858.197	4729
858.331	4618
858.464	4630
858.597	4558
858.731	4634
858.864	4634
858.997	4584
859.13	4668
859.263	4656
859.396	4656
859.529	4603
859.662	4558
859.795	4569
859.928	4668
860.061	4786
860.194	4740
860.327	4607
860.46	4569
860.592	4748
860.725	4698
860.858	4721
860.99	4588
861.123	4558
861.256	4538
861.388	4622
861.521	5353
861.653	4497
861.786	4451
861.918	4497
862.05	4489
862.183	4523
862.315	4615
862.447	4660
862.58	4573
862.712	4409
862.844	4352
862.976	4459
863.108	4455
863.24	4843
863.372	4280
863.504	4432
863.636	4375
863.768	4508
863.9	4478
864.032	4303
864.164	4405
864.296	4493
864.428	4512
864.559	4531
864.691	4512
864.823	4561
864.954	4500
865.086	4550
865.217	4485
865.349	4455
865.48	4455
865.612	4535
865.743	4656
865.875	4516
866.006	4394
866.137	4440
866.269	4440
866.4	4455
866.531	4421
866.662	4386
866.793	4386
866.924	4383
867.055	4516
867.186	4451
867.317	4462
867.448	4371
867.579	4363
867.71	4390
867.841	4413
867.972	4451
868.103	4474
868.233	4459
868.364	4402
868.495	4455
868.625	4641
868.756	4790
868.886	4596
869.017	4611
869.147	4797
869.278	4820
869.408	4630
869.539	4668
869.669	4694
869.799	4687
869.929	4786
870.06	4702
870.19	4991
870.32	4957
870.45	4942
870.58	5003
870.71	5140
870.84	5109
870.97	4923
871.1	4854
871.23	5136
871.36	5109
871.489	5014
871.619	5075
871.749	5064
871.879	5098
872.008	5193
872.138	5079
872.267	4949
872.397	4858
872.526	4763
872.656	4714
872.785	4801
872.915	4946
873.044	5041
873.173	4938
873.303	4942
873.432	4961
873.561	4930
873.69	4870
873.819	4908
873.948	4911
874.077	4835
874.206	4767
874.335	4843
874.464	4892
874.593	5060
874.722	5025
874.851	5151
874.979	5067
875.108	5056
875.237	4915
875.365	4892
875.494	4915
875.623	4957
875.751	4870
875.88	4919
876.008	4949
876.136	4984
876.265	5162
876.393	5334
876.521	5315
876.65	5231
876.778	5162
876.906	5090
877.034	4991
877.162	5025
877.29	4980
877.418	5006
877.546	5067
877.674	5033
877.802	5045
877.93	5056
878.058	4938
878.185	4866
878.313	4984
878.441	4934
878.568	4763
878.696	4877
878.824	4976
878.951	5041
879.079	5086
879.206	5303
879.333	5071
879.461	4957
879.588	4995
879.715	5166
879.842	5269
879.97	4995
880.097	4786
880.224	4744
880.351	4843
880.478	4866
880.605	4820
880.732	4790
880.859	5102
880.986	4908
881.112	4949
881.239	4816
881.366	4675
881.493	4641
881.619	4611
881.746	4637
881.872	4698
881.999	4672
882.125	4706
882.252	4778
882.378	4839
882.505	4953
882.631	4790
882.757	4694
882.883	4740
883.01	4710
883.136	4649
883.262	4626
883.388	4603
883.514	4812
883.64	4847
883.766	4748
883.892	4664
884.018	4752
884.143	4881
884.269	5029
884.395	4675
884.52	4607
884.646	4656
884.772	4577
884.897	4569
885.023	4656
885.148	4786
885.274	4877
885.399	4850
885.524	4675
885.65	4729
885.775	4786
885.9	4729
886.025	4881
886.15	4839
886.275	4691
886.4	4622
886.525	4744
886.65	4702
886.775	4683
886.9	4938
887.025	5056
887.149	4858
887.274	4672
887.399	4569
887.523	4588
887.648	4588
887.773	4626
887.897	4755
888.021	4782
888.146	4660
888.27	4767
888.395	4915
888.519	4831
888.643	4828
888.767	4877
888.891	4691
889.015	4618
889.139	4645
889.263	4599
889.387	4778
889.511	4831
889.635	4778
889.759	4649
889.883	4649
890.006	4710
890.13	4858
890.254	4599
890.377	4679
890.501	4573
890.624	4542
890.748	4672
890.871	4504
890.995	4436
891.118	4421
891.241	4516
891.364	4561
891.488	4637
891.611	4516
891.734	4580
891.857	4634
891.98	4558
892.103	4664
892.226	4588
892.349	4527
892.471	4402
892.594	4577
892.717	4618
892.839	4626
892.962	4603
893.085	4660
893.207	4615
893.33	4512
893.452	4569
893.575	4626
893.697	4527
893.819	4790
893.941	4805
894.064	4801
894.186	4618
894.308	4561
894.43	4733
894.552	4820
894.674	4767
894.796	4577
894.918	4596
895.04	4565
895.161	4721
895.283	4687
895.405	4573
895.526	4618
895.648	4672
895.769	4691
895.891	4721
896.012	4744
896.134	4763
896.255	4675
896.376	4653
896.498	4710
896.619	4702
896.74	4626
896.861	4672
896.982	4965
897.103	5060
897.224	4843
897.345	4763
897.466	4649
897.587	4717
897.708	4881
897.828	4828
897.949	4653
898.07	4580
898.19	4649
898.311	4854
898.431	4668
898.552	4774
898.672	4801
898.792	4831
898.913	4721
899.033	4653
899.153	4516
899.273	4421
899.393	4538
899.513	4542
899.633	4485
899.753	4558
899.873	4512
899.993	4569
900.113	4550
900.232	4592
900.352	4561
900.472	4535
900.591	4398
900.711	4512
900.83	4417
900.95	4626
901.069	4641
901.189	4580
901.308	4383
901.427	4306
901.546	4367
901.665	4466
901.784	4500
901.904	4394
902.023	4318
902.141	4188
902.26	4207
902.379	4291
902.498	4280
902.617	4265
902.735	4405
902.854	4390
902.973	4329
903.091	4200
903.21	4246
903.328	4310
903.446	4246
903.565	4306
903.683	4329
903.801	4284
903.919	4405
904.038	4402
904.156	4318
904.274	4451
904.392	4432
904.51	4432
904.627	4489
904.745	4584
904.863	4626
904.981	4436
905.098	4344
905.216	4367
905.334	4379
905.451	4455
905.569	4451
905.686	4538
905.803	4565
905.921	4436
906.038	4535
906.155	4523
906.272	4356
906.389	4459
906.506	4367
906.623	4383
906.74	4436
906.857	4310
906.974	4402
907.091	4561
907.208	4729
907.324	4611
907.441	4516
907.557	4390
907.674	4344
907.79	4299
907.907	4409
908.023	4512
908.139	4481
908.256	4405
908.372	4462
908.488	4470
908.604	4379
908.72	4318
908.836	4383
908.952	4341
909.068	4455
909.184	4558
909.3	4462
909.415	4569
909.531	4596
909.647	4398
909.762	4390
909.878	4379
909.993	4447
910.108	4428
910.224	4405
910.339	4478
910.454	4455
910.57	4402
910.685	4356
910.8	4675
910.915	4607
911.03	4470
911.145	4348
911.259	4371
911.374	4348
911.489	4303
911.604	4284
911.718	4196
911.833	4223
911.947	4090
912.062	4029
912.176	4230
912.291	4299
912.405	4280
912.519	4504
912.633	4516
912.748	4344
912.862	4322
912.976	4230
913.09	4082
913.204	4207
913.318	4257
913.431	4360
913.545	4390
913.659	4421
913.772	4375
913.886	4230
914	4230
914.113	4413
914.226	4474
914.34	4413
914.453	4234
914.566	4428
914.68	4310
914.793	4337
914.906	4192
915.019	4116
915.132	4097
915.245	4207
915.358	4227
915.47	4234
915.583	4268
915.696	4310
915.809	4398
915.921	4421
916.034	4287
916.146	4322
916.259	4227
916.371	4367
916.483	4413
916.595	4284
916.708	4329
916.82	4329
916.932	4299
917.044	4306
917.156	4341
917.268	4207
917.38	4344
917.491	4253
917.603	4352
917.715	4443
917.826	4432
917.938	4348
918.049	4265
918.161	4447
918.272	4573
918.384	4531
918.495	4421
918.606	4306
918.717	4261
918.828	4325
918.939	4409
919.05	4261
919.161	4333
919.272	4135
919.383	4238
919.494	4440
919.604	4641
919.715	4428
919.826	4367
919.936	4409
920.047	4500
920.157	4455
920.267	4706
920.378	4550
920.488	4535
920.598	4744
920.708	4892
920.818	4778
920.928	4782
921.038	5022
921.148	4949
921.258	4626
921.368	4599
921.477	4512
921.587	4462
921.697	4405
921.806	4542
921.916	4440
922.025	4246
922.134	4280
922.244	4257
922.353	4356
922.462	4181
922.571	4169
922.68	4021
922.789	3994
922.898	4029
923.007	3983
923.116	4090
923.224	4078
923.333	4059
923.442	4032
923.55	4013
923.659	4029
923.767	4128
923.876	4040
923.984	4143
924.092	4032
924.201	4032
924.309	4082
924.417	4093
924.525	4097
924.633	4086
924.741	5064
924.849	3907
924.956	4101
925.064	4010
925.172	3941
925.279	3972
925.387	4067
925.494	4071
925.602	4227
925.709	4207
925.816	4006
925.924	4177
926.031	4268
926.138	4185
926.245	4200
926.352	4097
926.459	4272
926.566	4333
926.673	4166
926.779	4086
926.886	4078
926.993	3964
927.099	3956
927.206	3968
927.312	3968
927.419	4093
927.525	4048
927.631	4067
927.737	3972
927.843	3945
927.95	3861
928.056	3968
928.162	3991
928.267	4082
928.373	4698
928.479	4109
928.585	3873
928.69	4036
928.796	4082
928.901	3964
929.007	3850
929.112	4040
929.218	3998
929.323	3956
929.428	3949
929.533	4124
929.638	3983
929.743	3987
929.848	4048
929.953	4017
930.058	3903
930.163	3785
930.267	3819
930.372	3953
930.477	3793
930.581	4116
930.685	3945
930.79	3812
930.894	3876
930.998	3899
931.103	4074
931.207	3717
931.311	3717
931.415	3724
931.519	3545
931.623	3526
