Data from test_V78500241_1953.txt Node
Date: Fri Mar 25 17:02:34 CST 2022
User: usil
Spectrometer: V785-0024
Trigger mode: 0
Integration Time (sec): 4.000000E-1
Scans to average: 1
Nonlinearity correction enabled: false
Boxcar width: 0
Storing dark spectrum: false
XAxis mode: Wavelengths
Number of Pixels in Spectrum: 1024
>>>>>Begin Spectral Data<<<<<
801.071	8016
801.214	7940
801.356	7879
801.499	7792
801.641	7750
801.783	7792
801.926	7940
802.068	7906
802.211	7982
802.353	7963
802.496	7860
802.638	7887
802.78	7864
802.923	7906
803.065	7837
803.208	7811
803.35	7925
803.492	8020
803.635	8153
803.777	7974
803.919	8123
804.061	8400
804.204	8202
804.346	8050
804.488	7986
804.63	8024
804.773	8050
804.915	8134
805.057	8286
805.199	8096
805.341	8191
805.483	8259
805.626	8210
805.768	8088
805.91	8206
806.052	8244
806.194	8126
806.336	8225
806.478	8039
806.62	8020
806.762	8229
806.904	8191
807.046	8473
807.188	8370
807.33	8279
807.472	8362
807.614	8187
807.756	8130
807.898	7982
808.04	7868
808.182	7921
808.324	7887
808.465	7951
808.607	8092
808.749	8088
808.891	8172
809.033	8305
809.174	8191
809.316	8111
809.458	8103
809.6	8024
809.741	8073
809.883	8024
810.025	8081
810.166	8020
810.308	8039
810.45	7989
810.591	7757
810.733	7738
810.875	7742
811.016	7533
811.158	7510
811.299	7563
811.441	7719
811.582	7632
811.724	7537
811.865	7601
812.007	7628
812.148	7563
812.29	7647
812.431	7731
812.573	7837
812.714	8016
812.855	8084
812.997	8172
813.138	8263
813.279	8111
813.421	8039
813.562	7928
813.703	7826
813.845	7677
813.986	7438
814.127	7316
814.268	7202
814.41	7152
814.551	7126
814.692	7198
814.833	7099
814.974	7145
815.115	7122
815.256	7023
815.397	6939
815.539	7004
815.68	6840
815.821	6779
815.962	6829
816.103	6768
816.244	6738
816.385	6582
816.526	6658
816.666	6509
816.807	6342
816.948	6448
817.089	6521
817.23	6422
817.371	6353
817.512	6395
817.653	6342
817.793	6315
817.934	6380
818.075	6418
818.216	6452
818.356	6418
818.497	6228
818.638	6144
818.778	6216
818.919	6095
819.06	6159
819.2	6292
819.341	6369
819.481	6350
819.622	6517
819.762	6783
819.903	6711
820.043	6559
820.184	6536
820.324	6589
820.465	6707
820.605	6681
820.746	6650
820.886	6467
821.026	6669
821.167	6722
821.307	6757
821.447	6738
821.588	6623
821.728	6627
821.868	6483
822.008	6296
822.149	6350
822.289	6342
822.429	6209
822.569	6125
822.709	6068
822.849	5885
822.99	5916
823.13	5954
823.27	5920
823.41	5783
823.55	5809
823.69	5733
823.83	5779
823.97	5619
824.11	5509
824.25	5512
824.389	5543
824.529	5615
824.669	5501
824.809	5623
824.949	5676
825.089	5653
825.228	5562
825.368	5433
825.508	5337
825.648	5364
825.787	5452
825.927	5436
826.067	5280
826.206	5277
826.346	5315
826.485	5414
826.625	5440
826.765	5539
826.904	5467
827.044	5296
827.183	5212
827.323	5132
827.462	5296
827.601	5197
827.741	5181
827.88	5193
828.02	5090
828.159	5216
828.298	5337
828.437	5349
828.577	5250
828.716	5490
828.855	5368
828.994	5155
829.134	5155
829.273	5181
829.412	5147
829.551	5162
829.69	5132
829.829	5231
829.968	5402
830.107	5208
830.246	5254
830.385	5189
830.524	5189
830.663	5052
830.802	4915
830.941	4919
831.08	4900
831.219	4965
831.357	4991
831.496	5136
831.635	4934
831.774	4866
831.913	4911
832.051	4771
832.19	4767
832.329	4862
832.467	4672
832.606	4603
832.744	4721
832.883	4755
833.022	4740
833.16	4725
833.299	4797
833.437	4831
833.576	4805
833.714	4854
833.852	4919
833.991	4927
834.129	4968
834.267	4972
834.406	4877
834.544	4987
834.682	4987
834.821	4984
834.959	5124
835.097	4991
835.235	5143
835.373	5079
835.511	5109
835.65	5014
835.788	4995
835.926	4911
836.064	4812
836.202	4927
836.34	5208
836.478	5220
836.615	5117
836.753	5197
836.891	5239
837.029	5246
837.167	5147
837.305	5162
837.443	5143
837.58	5090
837.718	5242
837.856	5216
837.993	5151
838.131	5273
838.269	5174
838.406	5208
838.544	5170
838.681	5029
838.819	4984
838.956	4862
839.094	4850
839.231	4976
839.369	5075
839.506	5421
839.643	5261
839.781	5029
839.918	5014
840.055	5136
840.193	5037
840.33	5075
840.467	5136
840.604	5174
840.742	5459
840.879	5075
841.016	5083
841.153	5147
841.29	5341
841.427	5318
841.564	5288
841.701	5345
841.838	5216
841.975	5258
842.112	5269
842.249	5151
842.385	5109
842.522	5368
842.659	5121
842.796	5189
842.933	5185
843.069	5193
843.206	5151
843.343	5322
843.479	5223
843.616	5261
843.752	4984
843.889	5018
844.025	5254
844.162	5010
844.298	5212
844.435	5086
844.571	4999
844.708	5250
844.844	5337
844.98	5299
845.117	5204
845.253	5094
845.389	5083
845.525	5162
845.661	5140
845.798	5060
845.934	5159
846.07	5090
846.206	5155
846.342	5292
846.478	5143
846.614	5022
846.75	5025
846.886	4862
847.022	5124
847.158	4995
847.294	5067
847.429	5124
847.565	5029
847.701	5330
847.837	4870
847.972	4797
848.108	4999
848.244	4984
848.379	4778
848.515	4740
848.65	4698
848.786	4729
848.921	4748
849.057	4877
849.192	4908
849.328	4816
849.463	4812
849.598	4816
849.734	4740
849.869	4698
850.004	4649
850.14	4664
850.275	4554
850.41	4546
850.545	4603
850.68	4618
850.815	4656
850.95	4580
851.085	4839
851.22	4744
851.355	4645
851.49	4607
851.625	4565
851.76	4645
851.895	4550
852.03	4500
852.165	4641
852.299	4748
852.434	4805
852.569	4752
852.703	4790
852.838	4824
852.973	4877
853.107	4854
853.242	4694
853.376	4675
853.511	4573
853.645	4630
853.78	4790
853.914	4691
854.048	4675
854.183	4607
854.317	4694
854.451	4809
854.585	4649
854.72	4569
854.854	4748
854.988	4603
855.122	4603
855.256	4565
855.39	4611
855.524	4733
855.658	4679
855.792	4656
855.926	4725
856.06	4698
856.194	4809
856.327	4717
856.461	4596
856.595	4603
856.729	4622
856.862	4721
856.996	4615
857.13	4675
857.263	4767
857.397	4767
857.53	4626
857.664	4721
857.797	4809
857.931	4793
858.064	4675
858.197	4717
858.331	4603
858.464	4611
858.597	4466
858.731	4622
858.864	4672
858.997	4637
859.13	4672
859.263	4710
859.396	4721
859.529	4546
859.662	4584
859.795	4569
859.928	4626
860.061	4786
860.194	4755
860.327	4634
860.46	4554
860.592	4691
860.725	4725
860.858	4706
860.99	4599
861.123	4504
861.256	4508
861.388	4599
861.521	5269
861.653	4489
861.786	4402
861.918	4428
862.05	4519
862.183	4607
862.315	4565
862.447	4672
862.58	4558
862.712	4409
862.844	4333
862.976	4413
863.108	4497
863.24	4797
863.372	4348
863.504	4379
863.636	4379
863.768	4497
863.9	4432
864.032	4363
864.164	4447
864.296	4466
864.428	4558
864.559	4538
864.691	4546
864.823	4535
864.954	4478
865.086	4523
865.217	4413
865.349	4421
865.48	4440
865.612	4497
865.743	4611
865.875	4489
866.006	4413
866.137	4493
866.269	4470
866.4	4455
866.531	4394
866.662	4402
866.793	4417
866.924	4428
867.055	4504
867.186	4405
867.317	4409
867.448	4409
867.579	4356
867.71	4394
867.841	4344
867.972	4485
868.103	4436
868.233	4428
868.364	4455
868.495	4478
868.625	4694
868.756	4721
868.886	4569
869.017	4634
869.147	4786
869.278	4752
869.408	4668
869.539	4626
869.669	4729
869.799	4668
869.929	4778
870.06	4710
870.19	4938
870.32	4938
870.45	4942
870.58	5037
870.71	5155
870.84	5083
870.97	4980
871.1	4908
871.23	5105
871.36	5079
871.489	5060
871.619	5086
871.749	5098
871.879	5098
872.008	5212
872.138	5071
872.267	5025
872.397	4870
872.526	4866
872.656	4740
872.785	4828
872.915	4999
873.044	5052
873.173	4923
873.303	4927
873.432	5033
873.561	4984
873.69	4904
873.819	4866
873.948	4915
874.077	4828
874.206	4820
874.335	4797
874.464	4915
874.593	5006
874.722	4930
874.851	5060
874.979	5094
875.108	5018
875.237	4858
875.365	4885
875.494	4908
875.623	4984
875.751	4824
875.88	4850
876.008	5003
876.136	5060
876.265	5204
876.393	5349
876.521	5212
876.65	5143
876.778	5136
876.906	5071
877.034	4968
877.162	5067
877.29	5025
877.418	5067
877.546	4980
877.674	4991
877.802	5052
877.93	5003
878.058	4923
878.185	4862
878.313	4957
878.441	4934
878.568	4797
878.696	4858
878.824	5018
878.951	4999
879.079	5102
879.206	5292
879.333	5166
879.461	4976
879.588	5022
879.715	5117
879.842	5231
879.97	5018
880.097	4778
880.224	4778
880.351	4831
880.478	4835
880.605	4816
880.732	4801
880.859	5090
880.986	4889
881.112	4930
881.239	4744
881.366	4675
881.493	4580
881.619	4588
881.746	4599
881.872	4641
881.999	4603
882.125	4660
882.252	4793
882.378	4793
882.505	4984
882.631	4816
882.757	4668
882.883	4740
883.01	4717
883.136	4603
883.262	4626
883.388	4599
883.514	4797
883.64	4854
883.766	4774
883.892	4687
884.018	4786
884.143	4892
884.269	5010
884.395	4649
884.52	4664
884.646	4611
884.772	4596
884.897	4577
885.023	4603
885.148	4778
885.274	4843
885.399	4744
885.524	4717
885.65	4702
885.775	4744
885.9	4748
886.025	4843
886.15	4801
886.275	4752
886.4	4672
886.525	4698
886.65	4675
886.775	4679
886.9	4854
887.025	4980
887.149	4835
887.274	4611
887.399	4584
887.523	4584
887.648	4592
887.773	4580
887.897	4744
888.021	4793
888.146	4653
888.27	4835
888.395	4930
888.519	4797
888.643	4805
888.767	4763
888.891	4687
889.015	4618
889.139	4649
889.263	4626
889.387	4755
889.511	4881
889.635	4759
889.759	4641
889.883	4637
890.006	4721
890.13	4843
890.254	4630
890.377	4710
890.501	4573
890.624	4504
890.748	4618
890.871	4485
890.995	4478
891.118	4383
891.241	4474
891.364	4565
891.488	4607
891.611	4485
891.734	4516
891.857	4622
891.98	4516
892.103	4641
892.226	4516
892.349	4538
892.471	4424
892.594	4538
892.717	4550
892.839	4558
892.962	4626
893.085	4668
893.207	4622
893.33	4428
893.452	4516
893.575	4714
893.697	4580
893.819	4797
893.941	4862
894.064	4793
894.186	4584
894.308	4588
894.43	4759
894.552	4801
894.674	4755
894.796	4542
894.918	4630
895.04	4599
895.161	4748
895.283	4618
895.405	4599
895.526	4649
895.648	4649
895.769	4698
895.891	4721
896.012	4752
896.134	4710
896.255	4694
896.376	4626
896.498	4649
896.619	4694
896.74	4565
896.861	4603
896.982	4904
897.103	5109
897.224	4854
897.345	4714
897.466	4645
897.587	4733
897.708	4828
897.828	4767
897.949	4634
898.07	4565
898.19	4660
898.311	4873
898.431	4694
898.552	4702
898.672	4797
898.792	4850
898.913	4736
899.033	4645
899.153	4527
899.273	4455
899.393	4493
899.513	4538
899.633	4462
899.753	4519
899.873	4531
899.993	4615
900.113	4573
900.232	4599
900.352	4519
900.472	4443
900.591	4409
900.711	4512
900.83	4432
900.95	4569
901.069	4706
901.189	4523
901.308	4383
901.427	4322
901.546	4360
901.665	4508
901.784	4535
901.904	4405
902.023	4310
902.141	4192
902.26	4158
902.379	4280
902.498	4261
902.617	4207
902.735	4341
902.854	4398
902.973	4375
903.091	4185
903.21	4246
903.328	4299
903.446	4276
903.565	4299
903.683	4341
903.801	4268
903.919	4409
904.038	4409
904.156	4268
904.274	4443
904.392	4375
904.51	4447
904.627	4474
904.745	4596
904.863	4599
904.981	4383
905.098	4280
905.216	4390
905.334	4459
905.451	4428
905.569	4398
905.686	4573
905.803	4550
905.921	4432
906.038	4550
906.155	4478
906.272	4405
906.389	4451
906.506	4341
906.623	4322
906.74	4383
906.857	4287
906.974	4360
907.091	4565
907.208	4656
907.324	4592
907.441	4527
907.557	4333
907.674	4318
907.79	4268
907.907	4379
908.023	4474
908.139	4440
908.256	4459
908.372	4478
908.488	4470
908.604	4356
908.72	4306
908.836	4344
908.952	4356
909.068	4421
909.184	4569
909.3	4440
909.415	4596
909.531	4569
909.647	4333
909.762	4371
909.878	4348
909.993	4462
910.108	4432
910.224	4405
910.339	4459
910.454	4386
910.57	4333
910.685	4291
910.8	4653
910.915	4599
911.03	4474
911.145	4360
911.259	4341
911.374	4344
911.489	4291
911.604	4272
911.718	4109
911.833	4211
911.947	4055
912.062	4029
912.176	4181
912.291	4215
912.405	4242
912.519	4481
912.633	4466
912.748	4341
912.862	4322
912.976	4188
913.09	4143
913.204	4120
913.318	4261
913.431	4394
913.545	4337
913.659	4428
913.772	4341
913.886	4230
914	4246
914.113	4344
914.226	4470
914.34	4363
914.453	4242
914.566	4421
914.68	4322
914.793	4333
914.906	4158
915.019	4109
915.132	4078
915.245	4181
915.358	4215
915.47	4227
915.583	4238
915.696	4322
915.809	4417
915.921	4459
916.034	4215
916.146	4242
916.259	4242
916.371	4386
916.483	4398
916.595	4249
916.708	4280
916.82	4337
916.932	4352
917.044	4360
917.156	4314
917.268	4200
917.38	4299
917.491	4303
917.603	4341
917.715	4405
917.826	4383
917.938	4329
918.049	4265
918.161	4417
918.272	4577
918.384	4531
918.495	4462
918.606	4287
918.717	4265
918.828	4341
918.939	4363
919.05	4287
919.161	4356
919.272	4139
919.383	4246
919.494	4466
919.604	4626
919.715	4481
919.826	4379
919.936	4413
920.047	4512
920.157	4497
920.267	4691
920.378	4558
920.488	4470
920.598	4729
920.708	4862
920.818	4767
920.928	4797
921.038	4949
921.148	4896
921.258	4599
921.368	4531
921.477	4485
921.587	4440
921.697	4398
921.806	4538
921.916	4436
922.025	4253
922.134	4284
922.244	4169
922.353	4337
922.462	4124
922.571	4131
922.68	3994
922.789	4010
922.898	4017
923.007	3975
923.116	4131
923.224	4078
923.333	4074
923.442	3968
923.55	3968
923.659	4040
923.767	4105
923.876	3968
923.984	4147
924.092	4002
924.201	4093
924.309	4120
924.417	4109
924.525	4040
924.633	4051
924.741	5056
924.849	3888
924.956	4101
925.064	3934
925.172	3945
925.279	3941
925.387	4082
925.494	4078
925.602	4234
925.709	4166
925.816	4017
925.924	4139
926.031	4196
926.138	4185
926.245	4204
926.352	4131
926.459	4234
926.566	4322
926.673	4185
926.779	4082
926.886	4074
926.993	3998
927.099	3945
927.206	3964
927.312	3960
927.419	4040
927.525	4055
927.631	4063
927.737	3991
927.843	3911
927.95	3850
928.056	3934
928.162	4006
928.267	4032
928.373	4561
928.479	4124
928.585	3850
928.69	3991
928.796	4032
928.901	3987
929.007	3804
929.112	3949
929.218	3972
929.323	3987
929.428	3918
929.533	4112
929.638	3880
929.743	3953
929.848	3994
929.953	4013
930.058	3907
930.163	3785
930.267	3808
930.372	3979
930.477	3812
930.581	4067
930.685	3956
930.79	3823
930.894	3873
930.998	3842
931.103	4025
931.207	3694
931.311	3713
931.415	3671
931.519	3530
931.623	3576
