Data from test_V78500241_1803.txt Node
Date: Fri Mar 25 17:01:32 CST 2022
User: usil
Spectrometer: V785-0024
Trigger mode: 0
Integration Time (sec): 4.000000E-1
Scans to average: 1
Nonlinearity correction enabled: false
Boxcar width: 0
Storing dark spectrum: false
XAxis mode: Wavelengths
Number of Pixels in Spectrum: 1024
>>>>>Begin Spectral Data<<<<<
801.071	8012
801.214	8008
801.356	7917
801.499	7890
801.641	7845
801.783	7788
801.926	7978
802.068	7921
802.211	7928
802.353	8001
802.496	7879
802.638	7856
802.78	7902
802.923	7963
803.065	7898
803.208	7932
803.35	7959
803.492	8100
803.635	8164
803.777	7959
803.919	8126
804.061	8385
804.204	8149
804.346	8058
804.488	7944
804.63	8119
804.773	8012
804.915	8130
805.057	8309
805.199	8233
805.341	8183
805.483	8248
805.626	8199
805.768	8191
805.91	8210
806.052	8256
806.194	8206
806.336	8294
806.478	8054
806.62	8016
806.762	8103
806.904	8313
807.046	8480
807.188	8324
807.33	8263
807.472	8294
807.614	8206
807.756	8138
807.898	8008
808.04	7928
808.182	7902
808.324	7936
808.465	7909
808.607	8020
808.749	8183
808.891	8221
809.033	8267
809.174	8229
809.316	8050
809.458	8035
809.6	8001
809.741	7993
809.883	7974
810.025	8046
810.166	8039
810.308	8039
810.45	7894
810.591	7761
810.733	7719
810.875	7677
811.016	7529
811.158	7464
811.299	7601
811.441	7700
811.582	7681
811.724	7586
811.865	7521
812.007	7540
812.148	7586
812.29	7544
812.431	7818
812.573	7883
812.714	8008
812.855	8176
812.997	8161
813.138	8275
813.279	8172
813.421	8077
813.562	7925
813.703	7814
813.845	7753
813.986	7434
814.127	7232
814.268	7152
814.41	7198
814.551	7183
814.692	7236
814.833	7095
814.974	7095
815.115	7110
815.256	6962
815.397	6894
815.539	6973
815.68	6787
815.821	6772
815.962	6798
816.103	6738
816.244	6707
816.385	6540
816.526	6635
816.666	6471
816.807	6308
816.948	6437
817.089	6467
817.23	6350
817.371	6460
817.512	6342
817.653	6365
817.793	6365
817.934	6403
818.075	6456
818.216	6422
818.356	6338
818.497	6239
818.638	6083
818.778	6140
818.919	6102
819.06	6163
819.2	6308
819.341	6319
819.481	6388
819.622	6536
819.762	6688
819.903	6684
820.043	6627
820.184	6601
820.324	6620
820.465	6707
820.605	6616
820.746	6673
820.886	6536
821.026	6635
821.167	6684
821.307	6798
821.447	6791
821.588	6726
821.728	6604
821.868	6486
822.008	6342
822.149	6414
822.289	6346
822.429	6110
822.569	6136
822.709	6186
822.849	5958
822.99	5946
823.13	5878
823.27	5977
823.41	5817
823.55	5824
823.69	5764
823.83	5786
823.97	5714
824.11	5547
824.25	5512
824.389	5596
824.529	5596
824.669	5570
824.809	5699
824.949	5676
825.089	5649
825.228	5577
825.368	5395
825.508	5391
825.648	5337
825.787	5459
825.927	5406
826.067	5353
826.206	5261
826.346	5474
826.485	5448
826.625	5436
826.765	5554
826.904	5516
827.044	5322
827.183	5246
827.323	5197
827.462	5311
827.601	5235
827.741	5212
827.88	5231
828.02	5151
828.159	5261
828.298	5311
828.437	5410
828.577	5273
828.716	5486
828.855	5337
828.994	5246
829.134	5242
829.273	5223
829.412	5124
829.551	5185
829.69	5166
829.829	5326
829.968	5391
830.107	5284
830.246	5307
830.385	5170
830.524	5155
830.663	5109
830.802	5071
830.941	4965
831.08	4919
831.219	4976
831.357	5048
831.496	5166
831.635	4949
831.774	4866
831.913	4847
832.051	4801
832.19	4805
832.329	4896
832.467	4729
832.606	4679
832.744	4763
832.883	4729
833.022	4752
833.16	4801
833.299	4847
833.437	4873
833.576	4904
833.714	4866
833.852	4908
833.991	4946
834.129	4938
834.267	4957
834.406	4949
834.544	5048
834.682	5067
834.821	5003
834.959	5208
835.097	5067
835.235	5227
835.373	5105
835.511	5132
835.65	5052
835.788	5045
835.926	4930
836.064	4850
836.202	4900
836.34	5193
836.478	5250
836.615	5174
836.753	5239
836.891	5254
837.029	5315
837.167	5208
837.305	5216
837.443	5193
837.58	5064
837.718	5299
837.856	5181
837.993	5166
838.131	5242
838.269	5189
838.406	5273
838.544	5208
838.681	5090
838.819	5079
838.956	4957
839.094	4957
839.231	5033
839.369	5086
839.506	5444
839.643	5322
839.781	5086
839.918	4995
840.055	5067
840.193	5071
840.33	5132
840.467	5155
840.604	5201
840.742	5429
840.879	5105
841.016	5102
841.153	5193
841.29	5372
841.427	5341
841.564	5349
841.701	5395
841.838	5239
841.975	5315
842.112	5261
842.249	5216
842.385	5178
842.522	5383
842.659	5166
842.796	5174
842.933	5201
843.069	5151
843.206	5201
843.343	5315
843.479	5284
843.616	5315
843.752	5064
843.889	5071
844.025	5227
844.162	5075
844.298	5318
844.435	5067
844.571	5075
844.708	5239
844.844	5349
844.98	5307
845.117	5280
845.253	5189
845.389	5090
845.525	5193
845.661	5140
845.798	5052
845.934	5166
846.07	5052
846.206	5231
846.342	5288
846.478	5189
846.614	5033
846.75	4980
846.886	4976
847.022	5117
847.158	5071
847.294	5132
847.429	5155
847.565	5060
847.701	5368
847.837	4839
847.972	4866
848.108	4934
848.244	5006
848.379	4790
848.515	4763
848.65	4744
848.786	4782
848.921	4774
849.057	4858
849.192	4915
849.328	4866
849.463	4896
849.598	4824
849.734	4774
849.869	4725
850.004	4618
850.14	4717
850.275	4618
850.41	4535
850.545	4611
850.68	4645
850.815	4672
850.95	4668
851.085	4854
851.22	4771
851.355	4641
851.49	4687
851.625	4687
851.76	4691
851.895	4584
852.03	4527
852.165	4698
852.299	4755
852.434	4816
852.569	4774
852.703	4835
852.838	4862
852.973	4995
853.107	4923
853.242	4736
853.376	4683
853.511	4580
853.645	4645
853.78	4835
853.914	4679
854.048	4710
854.183	4645
854.317	4694
854.451	4828
854.585	4714
854.72	4694
854.854	4771
854.988	4618
855.122	4637
855.256	4569
855.39	4637
855.524	4778
855.658	4752
855.792	4755
855.926	4717
856.06	4782
856.194	4843
856.327	4721
856.461	4588
856.595	4626
856.729	4649
856.862	4744
856.996	4755
857.13	4755
857.263	4805
857.397	4816
857.53	4653
857.664	4740
857.797	4774
857.931	4816
858.064	4733
858.197	4748
858.331	4714
858.464	4634
858.597	4512
858.731	4637
858.864	4672
858.997	4554
859.13	4710
859.263	4706
859.396	4672
859.529	4577
859.662	4630
859.795	4577
859.928	4630
860.061	4774
860.194	4820
860.327	4653
860.46	4573
860.592	4721
860.725	4744
860.858	4698
860.99	4611
861.123	4512
861.256	4538
861.388	4687
861.521	5318
861.653	4481
861.786	4459
861.918	4485
862.05	4527
862.183	4565
862.315	4618
862.447	4656
862.58	4527
862.712	4352
862.844	4360
862.976	4531
863.108	4485
863.24	4858
863.372	4363
863.504	4421
863.636	4424
863.768	4500
863.9	4451
864.032	4390
864.164	4466
864.296	4481
864.428	4592
864.559	4611
864.691	4550
864.823	4561
864.954	4584
865.086	4493
865.217	4474
865.349	4424
865.48	4424
865.612	4500
865.743	4706
865.875	4489
866.006	4455
866.137	4485
866.269	4523
866.4	4443
866.531	4493
866.662	4390
866.793	4455
866.924	4417
867.055	4489
867.186	4519
867.317	4478
867.448	4409
867.579	4421
867.71	4409
867.841	4348
867.972	4478
868.103	4500
868.233	4462
868.364	4451
868.495	4481
868.625	4656
868.756	4733
868.886	4584
869.017	4653
869.147	4774
869.278	4805
869.408	4675
869.539	4675
869.669	4744
869.799	4698
869.929	4744
870.06	4736
870.19	4953
870.32	4976
870.45	4995
870.58	5029
870.71	5045
870.84	5124
870.97	4987
871.1	4915
871.23	5143
871.36	5140
871.489	5075
871.619	5060
871.749	5113
871.879	5128
872.008	5197
872.138	5094
872.267	4987
872.397	4904
872.526	4812
872.656	4725
872.785	4835
872.915	4942
873.044	5014
873.173	4953
873.303	4942
873.432	4949
873.561	4961
873.69	4885
873.819	4908
873.948	4908
874.077	4828
874.206	4771
874.335	4824
874.464	4953
874.593	5064
874.722	5018
874.851	5060
874.979	5109
875.108	5025
875.237	4927
875.365	4953
875.494	4904
875.623	5006
875.751	4835
875.88	4930
876.008	4961
876.136	4980
876.265	5151
876.393	5292
876.521	5235
876.65	5201
876.778	5178
876.906	5083
877.034	5071
877.162	5086
877.29	4976
877.418	5060
877.546	5102
877.674	5018
877.802	5052
877.93	5025
878.058	4927
878.185	4816
878.313	4991
878.441	4949
878.568	4820
878.696	4862
878.824	4972
878.951	5056
879.079	5193
879.206	5322
879.333	5079
879.461	4984
879.588	5029
879.715	5132
879.842	5250
879.97	5018
880.097	4831
880.224	4748
880.351	4828
880.478	4896
880.605	4805
880.732	4767
880.859	5102
880.986	4942
881.112	4892
881.239	4771
881.366	4664
881.493	4656
881.619	4580
881.746	4668
881.872	4691
881.999	4630
882.125	4706
882.252	4782
882.378	4805
882.505	4991
882.631	4778
882.757	4694
882.883	4702
883.01	4790
883.136	4706
883.262	4637
883.388	4580
883.514	4862
883.64	4911
883.766	4812
883.892	4637
884.018	4714
884.143	4873
884.269	5052
884.395	4725
884.52	4656
884.646	4630
884.772	4561
884.897	4599
885.023	4656
885.148	4790
885.274	4923
885.399	4797
885.524	4702
885.65	4710
885.775	4706
885.9	4717
886.025	4885
886.15	4870
886.275	4698
886.4	4622
886.525	4729
886.65	4698
886.775	4702
886.9	4930
887.025	5018
887.149	4816
887.274	4714
887.399	4626
887.523	4603
887.648	4554
887.773	4558
887.897	4850
888.021	4771
888.146	4721
888.27	4797
888.395	4873
888.519	4778
888.643	4835
888.767	4854
888.891	4683
889.015	4630
889.139	4660
889.263	4603
889.387	4786
889.511	4850
889.635	4801
889.759	4630
889.883	4626
890.006	4752
890.13	4843
890.254	4626
890.377	4687
890.501	4527
890.624	4535
890.748	4592
890.871	4519
890.995	4424
891.118	4386
891.241	4504
891.364	4542
891.488	4664
891.611	4519
891.734	4538
891.857	4634
891.98	4569
892.103	4630
892.226	4569
892.349	4546
892.471	4421
892.594	4497
892.717	4634
892.839	4554
892.962	4508
893.085	4668
893.207	4607
893.33	4493
893.452	4546
893.575	4653
893.697	4622
893.819	4824
893.941	4873
894.064	4793
894.186	4626
894.308	4630
894.43	4755
894.552	4790
894.674	4778
894.796	4596
894.918	4599
895.04	4615
895.161	4702
895.283	4672
895.405	4592
895.526	4641
895.648	4694
895.769	4645
895.891	4717
896.012	4710
896.134	4706
896.255	4668
896.376	4603
896.498	4634
896.619	4649
896.74	4664
896.861	4656
896.982	4942
897.103	5079
897.224	4824
897.345	4736
897.466	4668
897.587	4736
897.708	4858
897.828	4805
897.949	4641
898.07	4565
898.19	4596
898.311	4820
898.431	4649
898.552	4740
898.672	4797
898.792	4812
898.913	4793
899.033	4653
899.153	4527
899.273	4432
899.393	4508
899.513	4523
899.633	4538
899.753	4561
899.873	4504
899.993	4596
900.113	4577
900.232	4611
900.352	4535
900.472	4459
900.591	4421
900.711	4478
900.83	4459
900.95	4607
901.069	4679
901.189	4500
901.308	4394
901.427	4375
901.546	4390
901.665	4443
901.784	4470
901.904	4432
902.023	4295
902.141	4227
902.26	4162
902.379	4325
902.498	4268
902.617	4249
902.735	4379
902.854	4436
902.973	4337
903.091	4280
903.21	4211
903.328	4310
903.446	4284
903.565	4261
903.683	4337
903.801	4341
903.919	4451
904.038	4443
904.156	4375
904.274	4402
904.392	4367
904.51	4421
904.627	4481
904.745	4630
904.863	4626
904.981	4405
905.098	4284
905.216	4367
905.334	4405
905.451	4443
905.569	4470
905.686	4577
905.803	4554
905.921	4432
906.038	4603
906.155	4489
906.272	4459
906.389	4409
906.506	4363
906.623	4394
906.74	4386
906.857	4299
906.974	4356
907.091	4630
907.208	4660
907.324	4580
907.441	4497
907.557	4299
907.674	4314
907.79	4322
907.907	4383
908.023	4497
908.139	4474
908.256	4409
908.372	4493
908.488	4478
908.604	4363
908.72	4333
908.836	4329
908.952	4352
909.068	4394
909.184	4588
909.3	4542
909.415	4615
909.531	4489
909.647	4337
909.762	4405
909.878	4398
909.993	4443
910.108	4352
910.224	4413
910.339	4485
910.454	4383
910.57	4375
910.685	4280
910.8	4630
910.915	4588
911.03	4485
911.145	4352
911.259	4329
911.374	4383
911.489	4291
911.604	4291
911.718	4135
911.833	4219
911.947	4078
912.062	4010
912.176	4207
912.291	4261
912.405	4234
912.519	4440
912.633	4500
912.748	4363
912.862	4333
912.976	4242
913.09	4139
913.204	4230
913.318	4268
913.431	4379
913.545	4398
913.659	4451
913.772	4367
913.886	4265
914	4207
914.113	4375
914.226	4398
914.34	4375
914.453	4238
914.566	4417
914.68	4310
914.793	4287
914.906	4166
915.019	4150
915.132	4097
915.245	4169
915.358	4219
915.47	4238
915.583	4238
915.696	4303
915.809	4440
915.921	4402
916.034	4234
916.146	4265
916.259	4223
916.371	4344
916.483	4360
916.595	4310
916.708	4341
916.82	4291
916.932	4375
917.044	4337
917.156	4325
917.268	4265
917.38	4265
917.491	4265
917.603	4272
917.715	4417
917.826	4390
917.938	4398
918.049	4242
918.161	4356
918.272	4550
918.384	4504
918.495	4421
918.606	4280
918.717	4230
918.828	4333
918.939	4360
919.05	4223
919.161	4322
919.272	4143
919.383	4253
919.494	4436
919.604	4656
919.715	4371
919.826	4356
919.936	4409
920.047	4519
920.157	4500
920.267	4691
920.378	4523
920.488	4500
920.598	4729
920.708	4854
920.818	4736
920.928	4725
921.038	4873
921.148	4934
921.258	4611
921.368	4569
921.477	4462
921.587	4462
921.697	4360
921.806	4531
921.916	4417
922.025	4234
922.134	4238
922.244	4230
922.353	4348
922.462	4223
922.571	4109
922.68	4017
922.789	3987
922.898	4021
923.007	3979
923.116	4086
923.224	4059
923.333	4067
923.442	3979
923.55	3991
923.659	3979
923.767	4082
923.876	3945
923.984	4135
924.092	4036
924.201	4059
924.309	4101
924.417	4101
924.525	4071
924.633	4101
924.741	5033
924.849	3975
924.956	4105
925.064	3945
925.172	3896
925.279	3975
925.387	4036
925.494	4082
925.602	4215
925.709	4200
925.816	4067
925.924	4131
926.031	4211
926.138	4112
926.245	4188
926.352	4093
926.459	4215
926.566	4318
926.673	4135
926.779	4063
926.886	4090
926.993	3998
927.099	3983
927.206	3934
927.312	3934
927.419	4029
927.525	4040
927.631	4116
927.737	3941
927.843	3960
927.95	3857
928.056	3945
928.162	3998
928.267	4032
928.373	4645
928.479	4158
928.585	3876
928.69	3998
928.796	4067
928.901	3953
929.007	3842
929.112	4036
929.218	3960
929.323	3972
929.428	3937
929.533	4090
929.638	3907
929.743	3968
929.848	4032
929.953	3968
930.058	3922
930.163	3781
930.267	3831
930.372	3964
930.477	3835
930.581	4067
930.685	3922
930.79	3842
930.894	3903
930.998	3865
931.103	4036
931.207	3743
931.311	3728
931.415	3667
931.519	3507
931.623	3561
