Data from test_V78500241_2807.txt Node
Date: Fri Mar 25 17:08:31 CST 2022
User: usil
Spectrometer: V785-0024
Trigger mode: 0
Integration Time (sec): 4.000000E-1
Scans to average: 1
Nonlinearity correction enabled: false
Boxcar width: 0
Storing dark spectrum: false
XAxis mode: Wavelengths
Number of Pixels in Spectrum: 1024
>>>>>Begin Spectral Data<<<<<
801.071	8103
801.214	7997
801.356	7879
801.499	7845
801.641	7807
801.783	7799
801.926	7974
802.068	7887
802.211	7989
802.353	8046
802.496	7864
802.638	7928
802.78	7982
802.923	7974
803.065	7887
803.208	7845
803.35	7967
803.492	8126
803.635	8134
803.777	8050
803.919	8191
804.061	8431
804.204	8180
804.346	8096
804.488	7978
804.63	8088
804.773	8050
804.915	8081
805.057	8343
805.199	8206
805.341	8252
805.483	8252
805.626	8275
805.768	8130
805.91	8233
806.052	8225
806.194	8176
806.336	8320
806.478	8149
806.62	8119
806.762	8145
806.904	8263
807.046	8522
807.188	8385
807.33	8339
807.472	8362
807.614	8183
807.756	8164
807.898	7978
808.04	7879
808.182	7887
808.324	7871
808.465	7970
808.607	8096
808.749	8214
808.891	8229
809.033	8298
809.174	8237
809.316	8073
809.458	8073
809.6	7982
809.741	7993
809.883	8081
810.025	8149
810.166	8210
810.308	8062
810.45	7986
810.591	7864
810.733	7738
810.875	7681
811.016	7487
811.158	7460
811.299	7651
811.441	7765
811.582	7734
811.724	7624
811.865	7552
812.007	7620
812.148	7632
812.29	7632
812.431	7818
812.573	7818
812.714	8062
812.855	8168
812.997	8301
813.138	8336
813.279	8172
813.421	8103
813.562	8046
813.703	7898
813.845	7746
813.986	7464
814.127	7297
814.268	7270
814.41	7278
814.551	7175
814.692	7240
814.833	7061
814.974	7103
815.115	7084
815.256	6947
815.397	6859
815.539	6954
815.68	6814
815.821	6760
815.962	6856
816.103	6859
816.244	6749
816.385	6662
816.526	6631
816.666	6475
816.807	6353
816.948	6395
817.089	6517
817.23	6391
817.371	6414
817.512	6308
817.653	6384
817.793	6361
817.934	6422
818.075	6441
818.216	6403
818.356	6399
818.497	6277
818.638	6152
818.778	6205
818.919	6140
819.06	6140
819.2	6403
819.341	6323
819.481	6323
819.622	6582
819.762	6673
819.903	6703
820.043	6570
820.184	6551
820.324	6559
820.465	6681
820.605	6662
820.746	6612
820.886	6536
821.026	6707
821.167	6692
821.307	6707
821.447	6833
821.588	6707
821.728	6525
821.868	6517
822.008	6315
822.149	6395
822.289	6342
822.429	6125
822.569	6079
822.709	6163
822.849	5992
822.99	5916
823.13	5893
823.27	5961
823.41	5805
823.55	5817
823.69	5733
823.83	5824
823.97	5707
824.11	5547
824.25	5524
824.389	5573
824.529	5581
824.669	5570
824.809	5657
824.949	5649
825.089	5672
825.228	5566
825.368	5452
825.508	5345
825.648	5334
825.787	5368
825.927	5337
826.067	5280
826.206	5330
826.346	5395
826.485	5395
826.625	5379
826.765	5573
826.904	5501
827.044	5269
827.183	5189
827.323	5166
827.462	5242
827.601	5162
827.741	5204
827.88	5265
828.02	5143
828.159	5265
828.298	5334
828.437	5421
828.577	5303
828.716	5455
828.855	5322
828.994	5181
829.134	5159
829.273	5151
829.412	5140
829.551	5094
829.69	5181
829.829	5239
829.968	5345
830.107	5246
830.246	5223
830.385	5147
830.524	5151
830.663	5075
830.802	5014
830.941	4904
831.08	4877
831.219	4995
831.357	4938
831.496	5216
831.635	4949
831.774	4790
831.913	4915
832.051	4694
832.19	4793
832.329	4843
832.467	4725
832.606	4622
832.744	4691
832.883	4736
833.022	4725
833.16	4793
833.299	4835
833.437	4812
833.576	4831
833.714	4843
833.852	4938
833.991	4904
834.129	4965
834.267	4934
834.406	4908
834.544	4968
834.682	4953
834.821	4957
834.959	5201
835.097	4991
835.235	5155
835.373	5155
835.511	5143
835.65	4987
835.788	4987
835.926	4930
836.064	4866
836.202	4919
836.34	5189
836.478	5204
836.615	5128
836.753	5204
836.891	5296
837.029	5223
837.167	5189
837.305	5185
837.443	5162
837.58	5083
837.718	5242
837.856	5208
837.993	5189
838.131	5223
838.269	5204
838.406	5185
838.544	5242
838.681	5033
838.819	5041
838.956	4866
839.094	4896
839.231	5014
839.369	5056
839.506	5448
839.643	5280
839.781	5071
839.918	4965
840.055	5094
840.193	5113
840.33	5136
840.467	5155
840.604	5197
840.742	5421
840.879	5071
841.016	5071
841.153	5181
841.29	5414
841.427	5311
841.564	5273
841.701	5303
841.838	5288
841.975	5204
842.112	5277
842.249	5132
842.385	5128
842.522	5322
842.659	5216
842.796	5174
842.933	5231
843.069	5159
843.206	5189
843.343	5353
843.479	5239
843.616	5269
843.752	5029
843.889	4972
844.025	5216
844.162	5071
844.298	5223
844.435	5132
844.571	5052
844.708	5220
844.844	5349
844.98	5322
845.117	5303
845.253	5174
845.389	5113
845.525	5143
845.661	5121
845.798	4999
845.934	5155
846.07	5041
846.206	5181
846.342	5254
846.478	5128
846.614	5037
846.75	4934
846.886	4889
847.022	5102
847.158	4972
847.294	5094
847.429	5094
847.565	5056
847.701	5330
847.837	4858
847.972	4824
848.108	4968
848.244	4915
848.379	4793
848.515	4767
848.65	4729
848.786	4759
848.921	4771
849.057	4908
849.192	4957
849.328	4812
849.463	4839
849.598	4759
849.734	4778
849.869	4698
850.004	4603
850.14	4637
850.275	4618
850.41	4481
850.545	4596
850.68	4626
850.815	4645
850.95	4694
851.085	4843
851.22	4759
851.355	4649
851.49	4592
851.625	4596
851.76	4668
851.895	4561
852.03	4558
852.165	4641
852.299	4679
852.434	4805
852.569	4702
852.703	4786
852.838	4831
852.973	4911
853.107	4930
853.242	4736
853.376	4622
853.511	4542
853.645	4630
853.78	4820
853.914	4656
854.048	4634
854.183	4675
854.317	4702
854.451	4828
854.585	4675
854.72	4691
854.854	4736
854.988	4565
855.122	4615
855.256	4527
855.39	4637
855.524	4729
855.658	4710
855.792	4660
855.926	4672
856.06	4729
856.194	4786
856.327	4698
856.461	4634
856.595	4668
856.729	4622
856.862	4744
856.996	4729
857.13	4748
857.263	4790
857.397	4759
857.53	4641
857.664	4687
857.797	4790
857.931	4767
858.064	4653
858.197	4721
858.331	4634
858.464	4596
858.597	4519
858.731	4592
858.864	4653
858.997	4596
859.13	4603
859.263	4656
859.396	4675
859.529	4596
859.662	4573
859.795	4527
859.928	4679
860.061	4835
860.194	4774
860.327	4607
860.46	4565
860.592	4736
860.725	4714
860.858	4710
860.99	4618
861.123	4519
861.256	4527
861.388	4622
861.521	5280
861.653	4455
861.786	4447
861.918	4443
862.05	4531
862.183	4538
862.315	4580
862.447	4622
862.58	4550
862.712	4375
862.844	4367
862.976	4466
863.108	4478
863.24	4767
863.372	4337
863.504	4436
863.636	4394
863.768	4493
863.9	4443
864.032	4356
864.164	4451
864.296	4500
864.428	4535
864.559	4554
864.691	4546
864.823	4542
864.954	4440
865.086	4569
865.217	4436
865.349	4424
865.48	4493
865.612	4478
865.743	4603
865.875	4379
866.006	4413
866.137	4466
866.269	4474
866.4	4489
866.531	4409
866.662	4390
866.793	4409
866.924	4409
867.055	4424
867.186	4402
867.317	4383
867.448	4421
867.579	4348
867.71	4360
867.841	4348
867.972	4440
868.103	4470
868.233	4428
868.364	4493
868.495	4466
868.625	4653
868.756	4748
868.886	4546
869.017	4637
869.147	4736
869.278	4706
869.408	4698
869.539	4637
869.669	4763
869.799	4634
869.929	4774
870.06	4733
870.19	4972
870.32	4904
870.45	4934
870.58	5025
870.71	5090
870.84	5113
870.97	4991
871.1	4927
871.23	5128
871.36	5143
871.489	5010
871.619	5083
871.749	5098
871.879	5117
872.008	5155
872.138	5105
872.267	4953
872.397	4835
872.526	4793
872.656	4793
872.785	4831
872.915	4953
873.044	5037
873.173	4972
873.303	5006
873.432	4934
873.561	4949
873.69	4873
873.819	4862
873.948	4938
874.077	4835
874.206	4786
874.335	4782
874.464	4881
874.593	5067
874.722	4946
874.851	5094
874.979	5083
875.108	4991
875.237	4927
875.365	4919
875.494	4915
875.623	4999
875.751	4866
875.88	4881
876.008	4961
876.136	5029
876.265	5261
876.393	5376
876.521	5277
876.65	5227
876.778	5143
876.906	5003
877.034	5090
877.162	4999
877.29	5010
877.418	5086
877.546	5029
877.674	5067
877.802	5006
877.93	5029
878.058	4900
878.185	4877
878.313	4995
878.441	4949
878.568	4790
878.696	4873
878.824	4938
878.951	5014
879.079	5147
879.206	5284
879.333	5132
879.461	5022
879.588	5006
879.715	5132
879.842	5235
879.97	5025
880.097	4793
880.224	4763
880.351	4812
880.478	4839
880.605	4793
880.732	4755
880.859	5098
880.986	4908
881.112	4847
881.239	4778
881.366	4687
881.493	4607
881.619	4641
881.746	4672
881.872	4675
881.999	4656
882.125	4733
882.252	4793
882.378	4786
882.505	4976
882.631	4812
882.757	4645
882.883	4725
883.01	4736
883.136	4714
883.262	4618
883.388	4626
883.514	4767
883.64	4839
883.766	4763
883.892	4683
884.018	4729
884.143	4919
884.269	4949
884.395	4679
884.52	4637
884.646	4653
884.772	4630
884.897	4554
885.023	4664
885.148	4790
885.274	4828
885.399	4847
885.524	4694
885.65	4714
885.775	4793
885.9	4763
886.025	4858
886.15	4755
886.275	4725
886.4	4656
886.525	4721
886.65	4721
886.775	4691
886.9	4892
887.025	5033
887.149	4816
887.274	4645
887.399	4577
887.523	4577
887.648	4573
887.773	4599
887.897	4782
888.021	4767
888.146	4664
888.27	4831
888.395	4911
888.519	4793
888.643	4816
888.767	4793
888.891	4664
889.015	4599
889.139	4637
889.263	4561
889.387	4725
889.511	4843
889.635	4774
889.759	4622
889.883	4656
890.006	4710
890.13	4862
890.254	4584
890.377	4698
890.501	4516
890.624	4535
890.748	4588
890.871	4485
890.995	4440
891.118	4447
891.241	4535
891.364	4523
891.488	4660
891.611	4451
891.734	4459
891.857	4584
891.98	4546
892.103	4615
892.226	4550
892.349	4561
892.471	4413
892.594	4596
892.717	4588
892.839	4535
892.962	4592
893.085	4664
893.207	4603
893.33	4417
893.452	4481
893.575	4649
893.697	4565
893.819	4786
893.941	4839
894.064	4812
894.186	4561
894.308	4565
894.43	4725
894.552	4873
894.674	4748
894.796	4538
894.918	4588
895.04	4561
895.161	4752
895.283	4672
895.405	4531
895.526	4634
895.648	4710
895.769	4660
895.891	4694
896.012	4710
896.134	4717
896.255	4637
896.376	4641
896.498	4596
896.619	4736
896.74	4618
896.861	4660
896.982	4892
897.103	5105
897.224	4850
897.345	4706
897.466	4672
897.587	4675
897.708	4839
897.828	4801
897.949	4660
898.07	4554
898.19	4653
898.311	4824
898.431	4687
898.552	4698
898.672	4850
898.792	4801
898.913	4748
899.033	4630
899.153	4542
899.273	4383
899.393	4481
899.513	4493
899.633	4558
899.753	4523
899.873	4493
899.993	4588
900.113	4542
900.232	4519
900.352	4535
900.472	4508
900.591	4352
900.711	4504
900.83	4428
900.95	4607
901.069	4656
901.189	4535
901.308	4367
901.427	4318
901.546	4333
901.665	4443
901.784	4485
901.904	4390
902.023	4325
902.141	4185
902.26	4169
902.379	4325
902.498	4227
902.617	4219
902.735	4348
902.854	4390
902.973	4341
903.091	4204
903.21	4227
903.328	4318
903.446	4261
903.565	4253
903.683	4329
903.801	4306
903.919	4363
904.038	4443
904.156	4363
904.274	4481
904.392	4409
904.51	4428
904.627	4447
904.745	4596
904.863	4626
904.981	4424
905.098	4363
905.216	4398
905.334	4390
905.451	4478
905.569	4386
905.686	4527
905.803	4615
905.921	4402
906.038	4554
906.155	4485
906.272	4398
906.389	4455
906.506	4413
906.623	4344
906.74	4348
906.857	4322
906.974	4367
907.091	4531
907.208	4714
907.324	4607
907.441	4497
907.557	4352
907.674	4356
907.79	4295
907.907	4352
908.023	4504
908.139	4500
908.256	4424
908.372	4451
908.488	4436
908.604	4348
908.72	4314
908.836	4379
908.952	4390
909.068	4428
909.184	4599
909.3	4478
909.415	4599
909.531	4531
909.647	4329
909.762	4367
909.878	4363
909.993	4417
910.108	4440
910.224	4409
910.339	4462
910.454	4413
910.57	4379
910.685	4318
910.8	4637
910.915	4569
911.03	4466
911.145	4337
911.259	4303
911.374	4379
911.489	4348
911.604	4257
911.718	4147
911.833	4173
911.947	4124
912.062	4025
912.176	4177
912.291	4215
912.405	4306
912.519	4470
912.633	4478
912.748	4383
912.862	4291
912.976	4219
913.09	4124
913.204	4181
913.318	4299
913.431	4367
913.545	4379
913.659	4405
913.772	4371
913.886	4234
914	4219
914.113	4409
914.226	4466
914.34	4390
914.453	4238
914.566	4402
914.68	4310
914.793	4299
914.906	4177
915.019	4124
915.132	4120
915.245	4215
915.358	4215
915.47	4227
915.583	4276
915.696	4284
915.809	4394
915.921	4428
916.034	4238
916.146	4284
916.259	4177
916.371	4375
916.483	4375
916.595	4230
916.708	4299
916.82	4299
916.932	4341
917.044	4306
917.156	4314
917.268	4310
917.38	4287
917.491	4261
917.603	4322
917.715	4402
917.826	4402
917.938	4348
918.049	4287
918.161	4443
918.272	4561
918.384	4542
918.495	4436
918.606	4306
918.717	4234
918.828	4276
918.939	4360
919.05	4246
919.161	4371
919.272	4078
919.383	4242
919.494	4424
919.604	4588
919.715	4432
919.826	4344
919.936	4390
920.047	4569
920.157	4527
920.267	4672
920.378	4531
920.488	4478
920.598	4714
920.708	4938
920.818	4759
920.928	4729
921.038	4984
921.148	4873
921.258	4611
921.368	4561
921.477	4459
921.587	4470
921.697	4394
921.806	4550
921.916	4421
922.025	4284
922.134	4276
922.244	4234
922.353	4337
922.462	4200
922.571	4093
922.68	4044
922.789	3983
922.898	4040
923.007	3945
923.116	4112
923.224	4078
923.333	4051
923.442	4006
923.55	3956
923.659	4055
923.767	4078
923.876	4055
923.984	4116
924.092	3979
924.201	4090
924.309	4055
924.417	4124
924.525	4021
924.633	4097
924.741	4881
924.849	3907
924.956	4124
925.064	3937
925.172	3926
925.279	3979
925.387	4029
925.494	4067
925.602	4238
925.709	4192
925.816	4036
925.924	4150
926.031	4196
926.138	4181
926.245	4211
926.352	4101
926.459	4211
926.566	4367
926.673	4158
926.779	4093
926.886	4097
926.993	3994
927.099	4010
927.206	3941
927.312	3903
927.419	4071
927.525	4025
927.631	4131
927.737	3949
927.843	3937
927.95	3819
928.056	3964
928.162	3911
928.267	4105
928.373	4725
928.479	4086
928.585	3873
928.69	3964
928.796	4059
928.901	3975
929.007	3850
929.112	4036
929.218	3991
929.323	3949
929.428	3915
929.533	4097
929.638	3896
929.743	3987
929.848	4025
929.953	3994
930.058	3949
930.163	3778
930.267	3827
930.372	3972
930.477	3827
930.581	4101
930.685	3972
930.79	3804
930.894	3876
930.998	3850
931.103	4029
931.207	3728
931.311	3690
931.415	3633
931.519	3500
931.623	3580
