Data from test_V78500241_2814.txt Node
Date: Fri Mar 25 17:08:34 CST 2022
User: usil
Spectrometer: V785-0024
Trigger mode: 0
Integration Time (sec): 4.000000E-1
Scans to average: 1
Nonlinearity correction enabled: false
Boxcar width: 0
Storing dark spectrum: false
XAxis mode: Wavelengths
Number of Pixels in Spectrum: 1024
>>>>>Begin Spectral Data<<<<<
801.071	8073
801.214	8050
801.356	7845
801.499	7833
801.641	7837
801.783	7871
801.926	7947
802.068	7978
802.211	7989
802.353	8027
802.496	7868
802.638	7864
802.78	7955
802.923	7940
803.065	7871
803.208	7868
803.35	7921
803.492	8100
803.635	8199
803.777	8069
803.919	8096
804.061	8434
804.204	8050
804.346	8107
804.488	7982
804.63	8157
804.773	8058
804.915	8130
805.057	8275
805.199	8172
805.341	8183
805.483	8298
805.626	8313
805.768	8195
805.91	8210
806.052	8210
806.194	8092
806.336	8320
806.478	8062
806.62	8035
806.762	8149
806.904	8191
807.046	8446
807.188	8343
807.33	8286
807.472	8412
807.614	8202
807.756	8153
807.898	8031
808.04	7894
808.182	7913
808.324	7871
808.465	7940
808.607	8058
808.749	8164
808.891	8271
809.033	8309
809.174	8183
809.316	8035
809.458	8065
809.6	8012
809.741	8027
809.883	8077
810.025	8107
810.166	8092
810.308	8035
810.45	8073
810.591	7936
810.733	7746
810.875	7677
811.016	7521
811.158	7533
811.299	7601
811.441	7822
811.582	7776
811.724	7590
811.865	7597
812.007	7613
812.148	7632
812.29	7655
812.431	7799
812.573	7818
812.714	8008
812.855	8134
812.997	8199
813.138	8248
813.279	8168
813.421	8100
813.562	8001
813.703	7883
813.845	7738
813.986	7388
814.127	7324
814.268	7217
814.41	7137
814.551	7175
814.692	7232
814.833	7095
814.974	7065
815.115	7103
815.256	7000
815.397	6924
815.539	6973
815.68	6840
815.821	6783
815.962	6920
816.103	6867
816.244	6700
816.385	6669
816.526	6646
816.666	6547
816.807	6334
816.948	6456
817.089	6464
817.23	6441
817.371	6380
817.512	6384
817.653	6334
817.793	6422
817.934	6380
818.075	6471
818.216	6376
818.356	6475
818.497	6262
818.638	6171
818.778	6159
818.919	6167
819.06	6114
819.2	6285
819.341	6311
819.481	6331
819.622	6445
819.762	6707
819.903	6703
820.043	6593
820.184	6540
820.324	6559
820.465	6722
820.605	6662
820.746	6597
820.886	6521
821.026	6703
821.167	6730
821.307	6787
821.447	6802
821.588	6681
821.728	6608
821.868	6483
822.008	6342
822.149	6399
822.289	6372
822.429	6155
822.569	6106
822.709	6064
822.849	5889
822.99	5916
823.13	5855
823.27	5882
823.41	5817
823.55	5851
823.69	5756
823.83	5767
823.97	5691
824.11	5566
824.25	5532
824.389	5554
824.529	5581
824.669	5539
824.809	5642
824.949	5657
825.089	5592
825.228	5589
825.368	5444
825.508	5410
825.648	5368
825.787	5425
825.927	5345
826.067	5368
826.206	5326
826.346	5360
826.485	5395
826.625	5387
826.765	5554
826.904	5440
827.044	5235
827.183	5193
827.323	5121
827.462	5269
827.601	5197
827.741	5208
827.88	5261
828.02	5086
828.159	5223
828.298	5337
828.437	5402
828.577	5254
828.716	5482
828.855	5288
828.994	5166
829.134	5162
829.273	5151
829.412	5105
829.551	5102
829.69	5181
829.829	5235
829.968	5376
830.107	5318
830.246	5288
830.385	5201
830.524	5128
830.663	5025
830.802	5025
830.941	4854
831.08	4904
831.219	5025
831.357	4991
831.496	5151
831.635	4904
831.774	4824
831.913	4839
832.051	4740
832.19	4736
832.329	4858
832.467	4672
832.606	4649
832.744	4721
832.883	4687
833.022	4683
833.16	4812
833.299	4835
833.437	4847
833.576	4824
833.714	4858
833.852	4835
833.991	4889
834.129	4911
834.267	4957
834.406	4885
834.544	4934
834.682	4968
834.821	4946
834.959	5189
835.097	4980
835.235	5121
835.373	5067
835.511	5098
835.65	4995
835.788	5041
835.926	4915
836.064	4900
836.202	4896
836.34	5178
836.478	5273
836.615	5128
836.753	5197
836.891	5326
837.029	5254
837.167	5189
837.305	5102
837.443	5155
837.58	5090
837.718	5265
837.856	5227
837.993	5079
838.131	5246
838.269	5201
838.406	5220
838.544	5136
838.681	5014
838.819	5045
838.956	4885
839.094	4870
839.231	4938
839.369	5086
839.506	5421
839.643	5265
839.781	5052
839.918	4965
840.055	5147
840.193	5098
840.33	5075
840.467	5098
840.604	5166
840.742	5444
840.879	5075
841.016	5121
841.153	5151
841.29	5368
841.427	5315
841.564	5288
841.701	5311
841.838	5231
841.975	5296
842.112	5242
842.249	5143
842.385	5121
842.522	5326
842.659	5197
842.796	5094
842.933	5212
843.069	5162
843.206	5181
843.343	5280
843.479	5231
843.616	5239
843.752	5064
843.889	5014
844.025	5280
844.162	4980
844.298	5151
844.435	5060
844.571	5064
844.708	5178
844.844	5322
844.98	5368
845.117	5322
845.253	5113
845.389	5075
845.525	5166
845.661	5151
845.798	5056
845.934	5170
846.07	5045
846.206	5174
846.342	5235
846.478	5132
846.614	4999
846.75	4972
846.886	5003
847.022	5151
847.158	5029
847.294	5079
847.429	5098
847.565	4995
847.701	5277
847.837	4858
847.972	4805
848.108	4953
848.244	4930
848.379	4755
848.515	4710
848.65	4710
848.786	4733
848.921	4767
849.057	4847
849.192	4885
849.328	4790
849.463	4816
849.598	4778
849.734	4790
849.869	4706
850.004	4618
850.14	4672
850.275	4607
850.41	4538
850.545	4577
850.68	4588
850.815	4649
850.95	4637
851.085	4782
851.22	4790
851.355	4641
851.49	4607
851.625	4573
851.76	4664
851.895	4611
852.03	4535
852.165	4656
852.299	4717
852.434	4774
852.569	4752
852.703	4774
852.838	4820
852.973	4919
853.107	4889
853.242	4717
853.376	4664
853.511	4558
853.645	4653
853.78	4809
853.914	4630
854.048	4702
854.183	4645
854.317	4641
854.451	4831
854.585	4717
854.72	4649
854.854	4683
854.988	4592
855.122	4634
855.256	4565
855.39	4592
855.524	4801
855.658	4721
855.792	4664
855.926	4702
856.06	4759
856.194	4828
856.327	4675
856.461	4637
856.595	4630
856.729	4664
856.862	4790
856.996	4714
857.13	4714
857.263	4771
857.397	4820
857.53	4630
857.664	4752
857.797	4774
857.931	4790
858.064	4698
858.197	4763
858.331	4626
858.464	4599
858.597	4504
858.731	4622
858.864	4611
858.997	4580
859.13	4641
859.263	4649
859.396	4710
859.529	4599
859.662	4561
859.795	4535
859.928	4653
860.061	4801
860.194	4710
860.327	4542
860.46	4592
860.592	4675
860.725	4710
860.858	4725
860.99	4599
861.123	4516
861.256	4535
861.388	4622
861.521	5318
861.653	4493
861.786	4462
861.918	4493
862.05	4493
862.183	4577
862.315	4580
862.447	4702
862.58	4531
862.712	4440
862.844	4337
862.976	4462
863.108	4447
863.24	4759
863.372	4314
863.504	4470
863.636	4421
863.768	4459
863.9	4474
864.032	4322
864.164	4428
864.296	4500
864.428	4531
864.559	4546
864.691	4550
864.823	4493
864.954	4508
865.086	4554
865.217	4443
865.349	4428
865.48	4455
865.612	4485
865.743	4592
865.875	4447
866.006	4447
866.137	4447
866.269	4432
866.4	4455
866.531	4451
866.662	4428
866.793	4405
866.924	4455
867.055	4466
867.186	4474
867.317	4360
867.448	4386
867.579	4421
867.71	4371
867.841	4337
867.972	4455
868.103	4451
868.233	4428
868.364	4440
868.495	4516
868.625	4672
868.756	4763
868.886	4573
869.017	4584
869.147	4771
869.278	4752
869.408	4672
869.539	4634
869.669	4725
869.799	4675
869.929	4725
870.06	4729
870.19	4927
870.32	4946
870.45	4919
870.58	5048
870.71	5102
870.84	5113
870.97	4972
871.1	4892
871.23	5166
871.36	5098
871.489	5022
871.619	5094
871.749	5113
871.879	5124
872.008	5121
872.138	5075
872.267	5033
872.397	4862
872.526	4805
872.656	4721
872.785	4797
872.915	4942
873.044	5071
873.173	4961
873.303	4995
873.432	4976
873.561	4968
873.69	4877
873.819	4866
873.948	4858
874.077	4771
874.206	4767
874.335	4786
874.464	4961
874.593	5067
874.722	4934
874.851	5060
874.979	5067
875.108	5048
875.237	4896
875.365	4934
875.494	4919
875.623	4984
875.751	4839
875.88	4843
876.008	4961
876.136	5041
876.265	5223
876.393	5353
876.521	5223
876.65	5201
876.778	5197
876.906	5094
877.034	5045
877.162	5075
877.29	4980
877.418	5079
877.546	4980
877.674	5029
877.802	4987
877.93	5037
878.058	4908
878.185	4900
878.313	4957
878.441	4980
878.568	4866
878.696	4862
878.824	4919
878.951	5018
879.079	5124
879.206	5311
879.333	5090
879.461	5041
879.588	5006
879.715	5102
879.842	5178
879.97	5041
880.097	4755
880.224	4755
880.351	4824
880.478	4820
880.605	4816
880.732	4793
880.859	5117
880.986	4885
881.112	4923
881.239	4744
881.366	4645
881.493	4577
881.619	4592
881.746	4645
881.872	4645
881.999	4660
882.125	4691
882.252	4790
882.378	4881
882.505	4946
882.631	4809
882.757	4714
882.883	4710
883.01	4759
883.136	4634
883.262	4618
883.388	4592
883.514	4786
883.64	4824
883.766	4744
883.892	4637
884.018	4736
884.143	4870
884.269	4957
884.395	4691
884.52	4634
884.646	4679
884.772	4611
884.897	4577
885.023	4687
885.148	4698
885.274	4820
885.399	4755
885.524	4717
885.65	4687
885.775	4763
885.9	4725
886.025	4820
886.15	4790
886.275	4717
886.4	4626
886.525	4736
886.65	4675
886.775	4694
886.9	4885
887.025	5006
887.149	4755
887.274	4630
887.399	4618
887.523	4618
887.648	4588
887.773	4603
887.897	4797
888.021	4839
888.146	4694
888.27	4771
888.395	4904
888.519	4809
888.643	4793
888.767	4812
888.891	4672
889.015	4607
889.139	4691
889.263	4592
889.387	4824
889.511	4862
889.635	4740
889.759	4641
889.883	4645
890.006	4759
890.13	4809
890.254	4664
890.377	4634
890.501	4542
890.624	4535
890.748	4637
890.871	4485
890.995	4459
891.118	4375
891.241	4493
891.364	4489
891.488	4649
891.611	4500
891.734	4527
891.857	4592
891.98	4542
892.103	4675
892.226	4558
892.349	4512
892.471	4432
892.594	4569
892.717	4546
892.839	4615
892.962	4607
893.085	4660
893.207	4584
893.33	4474
893.452	4504
893.575	4691
893.697	4603
893.819	4771
893.941	4858
894.064	4748
894.186	4565
894.308	4565
894.43	4748
894.552	4809
894.674	4721
894.796	4554
894.918	4596
895.04	4554
895.161	4649
895.283	4675
895.405	4550
895.526	4615
895.648	4702
895.769	4679
895.891	4706
896.012	4748
896.134	4752
896.255	4672
896.376	4668
896.498	4618
896.619	4717
896.74	4645
896.861	4641
896.982	4908
897.103	5060
897.224	4835
897.345	4725
897.466	4729
897.587	4721
897.708	4858
897.828	4801
897.949	4691
898.07	4554
898.19	4622
898.311	4828
898.431	4653
898.552	4748
898.672	4812
898.792	4805
898.913	4740
899.033	4611
899.153	4546
899.273	4383
899.393	4474
899.513	4538
899.633	4519
899.753	4527
899.873	4497
899.993	4622
900.113	4497
900.232	4611
900.352	4516
900.472	4424
900.591	4417
900.711	4500
900.83	4451
900.95	4611
901.069	4668
901.189	4538
901.308	4390
901.427	4287
901.546	4363
901.665	4459
901.784	4542
901.904	4428
902.023	4348
902.141	4135
902.26	4147
902.379	4257
902.498	4261
902.617	4211
902.735	4405
902.854	4390
902.973	4367
903.091	4177
903.21	4234
903.328	4299
903.446	4280
903.565	4265
903.683	4360
903.801	4272
903.919	4413
904.038	4413
904.156	4360
904.274	4405
904.392	4402
904.51	4462
904.627	4508
904.745	4550
904.863	4615
904.981	4447
905.098	4265
905.216	4356
905.334	4398
905.451	4447
905.569	4451
905.686	4611
905.803	4523
905.921	4386
906.038	4561
906.155	4489
906.272	4398
906.389	4493
906.506	4333
906.623	4402
906.74	4383
906.857	4306
906.974	4363
907.091	4630
907.208	4698
907.324	4592
907.441	4489
907.557	4363
907.674	4344
907.79	4314
907.907	4341
908.023	4481
908.139	4459
908.256	4470
908.372	4489
908.488	4462
908.604	4375
908.72	4314
908.836	4360
908.952	4394
909.068	4455
909.184	4554
909.3	4455
909.415	4588
909.531	4500
909.647	4322
909.762	4344
909.878	4322
909.993	4478
910.108	4432
910.224	4428
910.339	4489
910.454	4356
910.57	4394
910.685	4299
910.8	4672
910.915	4580
911.03	4523
911.145	4344
911.259	4367
911.374	4341
911.489	4352
911.604	4306
911.718	4162
911.833	4211
911.947	4105
912.062	4051
912.176	4227
912.291	4227
912.405	4215
912.519	4474
912.633	4466
912.748	4386
912.862	4303
912.976	4211
913.09	4124
913.204	4211
913.318	4234
913.431	4386
913.545	4379
913.659	4436
913.772	4352
913.886	4265
914	4234
914.113	4413
914.226	4436
914.34	4428
914.453	4253
914.566	4413
914.68	4295
914.793	4322
914.906	4166
915.019	4128
915.132	4101
915.245	4154
915.358	4253
915.47	4242
915.583	4246
915.696	4299
915.809	4417
915.921	4462
916.034	4261
916.146	4219
916.259	4230
916.371	4337
916.483	4348
916.595	4268
916.708	4295
916.82	4318
916.932	4344
917.044	4303
917.156	4337
917.268	4287
917.38	4280
917.491	4276
917.603	4348
917.715	4428
917.826	4428
917.938	4360
918.049	4234
918.161	4394
918.272	4542
918.384	4512
918.495	4440
918.606	4314
918.717	4291
918.828	4386
918.939	4375
919.05	4265
919.161	4299
919.272	4124
919.383	4291
919.494	4527
919.604	4618
919.715	4451
919.826	4398
919.936	4413
920.047	4561
920.157	4459
920.267	4721
920.378	4550
920.488	4474
920.598	4694
920.708	4892
920.818	4755
920.928	4748
921.038	4984
921.148	4919
921.258	4653
921.368	4538
921.477	4519
921.587	4440
921.697	4360
921.806	4561
921.916	4421
922.025	4276
922.134	4249
922.244	4185
922.353	4322
922.462	4207
922.571	4215
922.68	4071
922.789	3998
922.898	4032
923.007	3994
923.116	4101
923.224	4025
923.333	4101
923.442	3991
923.55	3968
923.659	4017
923.767	4044
923.876	3987
923.984	4147
924.092	3979
924.201	4116
924.309	4078
924.417	4131
924.525	4105
924.633	4082
924.741	4889
924.849	3945
924.956	4162
925.064	3953
925.172	3884
925.279	4002
925.387	4086
925.494	4101
925.602	4192
925.709	4169
925.816	4063
925.924	4128
926.031	4200
926.138	4147
926.245	4177
926.352	4086
926.459	4249
926.566	4341
926.673	4162
926.779	4124
926.886	4090
926.993	3987
927.099	3975
927.206	3953
927.312	3956
927.419	4067
927.525	4021
927.631	4063
927.737	3968
927.843	3953
927.95	3846
928.056	3949
928.162	4002
928.267	4074
928.373	4615
928.479	4097
928.585	3892
928.69	4025
928.796	4086
928.901	3975
929.007	3850
929.112	3994
929.218	3979
929.323	3960
929.428	3960
929.533	4082
929.638	3899
929.743	3926
929.848	4032
929.953	4006
930.058	3903
930.163	3774
930.267	3854
930.372	3979
930.477	3800
930.581	4090
930.685	3994
930.79	3831
930.894	3907
930.998	3842
931.103	4051
931.207	3701
931.311	3698
931.415	3682
931.519	3523
931.623	3545
