Data from test_V78500241_1623.txt Node
Date: Fri Mar 25 17:00:17 CST 2022
User: usil
Spectrometer: V785-0024
Trigger mode: 0
Integration Time (sec): 4.000000E-1
Scans to average: 1
Nonlinearity correction enabled: false
Boxcar width: 0
Storing dark spectrum: false
XAxis mode: Wavelengths
Number of Pixels in Spectrum: 1024
>>>>>Begin Spectral Data<<<<<
801.071	8027
801.214	8005
801.356	7917
801.499	7871
801.641	7826
801.783	7822
801.926	7978
802.068	7947
802.211	7989
802.353	7993
802.496	7818
802.638	7837
802.78	7890
802.923	7928
803.065	7837
803.208	7814
803.35	7970
803.492	8001
803.635	8161
803.777	7989
803.919	8092
804.061	8438
804.204	8130
804.346	8012
804.488	7959
804.63	8138
804.773	8027
804.915	8153
805.057	8377
805.199	8149
805.341	8164
805.483	8298
805.626	8130
805.768	8134
805.91	8263
806.052	8195
806.194	8111
806.336	8263
806.478	8084
806.62	8081
806.762	8088
806.904	8229
807.046	8450
807.188	8339
807.33	8351
807.472	8328
807.614	8202
807.756	8126
807.898	8024
808.04	7902
808.182	7940
808.324	7849
808.465	7955
808.607	8069
808.749	8065
808.891	8202
809.033	8252
809.174	8214
809.316	8050
809.458	8096
809.6	8058
809.741	7993
809.883	8111
810.025	8088
810.166	8050
810.308	8016
810.45	7970
810.591	7868
810.733	7788
810.875	7632
811.016	7559
811.158	7495
811.299	7552
811.441	7708
811.582	7643
811.724	7582
811.865	7525
812.007	7658
812.148	7578
812.29	7651
812.431	7738
812.573	7852
812.714	8039
812.855	8168
812.997	8244
813.138	8362
813.279	8256
813.421	8020
813.562	7947
813.703	7818
813.845	7719
813.986	7453
814.127	7282
814.268	7305
814.41	7198
814.551	7152
814.692	7206
814.833	7137
814.974	7069
815.115	7164
815.256	6966
815.397	6920
815.539	6939
815.68	6821
815.821	6764
815.962	6863
816.103	6818
816.244	6703
816.385	6563
816.526	6612
816.666	6475
816.807	6350
816.948	6448
817.089	6506
817.23	6399
817.371	6372
817.512	6399
817.653	6369
817.793	6388
817.934	6380
818.075	6486
818.216	6471
818.356	6407
818.497	6258
818.638	6152
818.778	6155
818.919	6159
819.06	6209
819.2	6304
819.341	6327
819.481	6357
819.622	6471
819.762	6783
819.903	6715
820.043	6601
820.184	6616
820.324	6585
820.465	6738
820.605	6715
820.746	6608
820.886	6525
821.026	6639
821.167	6700
821.307	6783
821.447	6741
821.588	6703
821.728	6608
821.868	6490
822.008	6331
822.149	6369
822.289	6361
822.429	6102
822.569	6064
822.709	6114
822.849	5988
822.99	5889
823.13	5897
823.27	5897
823.41	5752
823.55	5741
823.69	5726
823.83	5767
823.97	5653
824.11	5486
824.25	5486
824.389	5532
824.529	5577
824.669	5562
824.809	5642
824.949	5680
825.089	5630
825.228	5532
825.368	5398
825.508	5330
825.648	5360
825.787	5425
825.927	5360
826.067	5265
826.206	5280
826.346	5353
826.485	5372
826.625	5425
826.765	5570
826.904	5516
827.044	5227
827.183	5174
827.323	5105
827.462	5277
827.601	5181
827.741	5155
827.88	5223
828.02	5124
828.159	5250
828.298	5246
828.437	5322
828.577	5280
828.716	5482
828.855	5299
828.994	5155
829.134	5170
829.273	5155
829.412	5124
829.551	5136
829.69	5174
829.829	5261
829.968	5406
830.107	5269
830.246	5250
830.385	5189
830.524	5166
830.663	5060
830.802	4980
830.941	4900
831.08	4934
831.219	4991
831.357	4980
831.496	5121
831.635	4938
831.774	4858
831.913	4877
832.051	4744
832.19	4744
832.329	4820
832.467	4660
832.606	4596
832.744	4683
832.883	4725
833.022	4698
833.16	4748
833.299	4771
833.437	4843
833.576	4835
833.714	4854
833.852	4892
833.991	4889
834.129	4915
834.267	4911
834.406	4919
834.544	4984
834.682	4957
834.821	4980
834.959	5151
835.097	4980
835.235	5079
835.373	5041
835.511	5075
835.65	5018
835.788	5079
835.926	4919
836.064	4892
836.202	4938
836.34	5155
836.478	5216
836.615	5105
836.753	5235
836.891	5231
837.029	5277
837.167	5201
837.305	5147
837.443	5132
837.58	5071
837.718	5227
837.856	5239
837.993	5143
838.131	5246
838.269	5250
838.406	5189
838.544	5204
838.681	5025
838.819	5022
838.956	4885
839.094	4870
839.231	4965
839.369	5052
839.506	5406
839.643	5242
839.781	5014
839.918	4949
840.055	5090
840.193	5102
840.33	5109
840.467	5109
840.604	5193
840.742	5406
840.879	5029
841.016	5098
841.153	5128
841.29	5337
841.427	5341
841.564	5242
841.701	5345
841.838	5254
841.975	5216
842.112	5212
842.249	5128
842.385	5098
842.522	5311
842.659	5220
842.796	5174
842.933	5181
843.069	5162
843.206	5166
843.343	5299
843.479	5239
843.616	5189
843.752	5029
843.889	5022
844.025	5208
844.162	5079
844.298	5185
844.435	5090
844.571	5029
844.708	5162
844.844	5292
844.98	5296
845.117	5280
845.253	5143
845.389	5079
845.525	5128
845.661	5098
845.798	5006
845.934	5162
846.07	5064
846.206	5212
846.342	5250
846.478	5181
846.614	5041
846.75	4961
846.886	4946
847.022	5159
847.158	4987
847.294	5079
847.429	5113
847.565	5071
847.701	5311
847.837	4778
847.972	4778
848.108	4984
848.244	4946
848.379	4824
848.515	4706
848.65	4691
848.786	4736
848.921	4790
849.057	4835
849.192	4885
849.328	4843
849.463	4812
849.598	4771
849.734	4759
849.869	4702
850.004	4645
850.14	4683
850.275	4573
850.41	4481
850.545	4561
850.68	4618
850.815	4584
850.95	4588
851.085	4790
851.22	4771
851.355	4687
851.49	4634
851.625	4615
851.76	4630
851.895	4535
852.03	4478
852.165	4603
852.299	4714
852.434	4790
852.569	4767
852.703	4721
852.838	4812
852.973	4911
853.107	4923
853.242	4755
853.376	4618
853.511	4592
853.645	4603
853.78	4729
853.914	4683
854.048	4675
854.183	4687
854.317	4698
854.451	4824
854.585	4694
854.72	4656
854.854	4752
854.988	4558
855.122	4641
855.256	4497
855.39	4630
855.524	4721
855.658	4752
855.792	4706
855.926	4778
856.06	4797
856.194	4752
856.327	4691
856.461	4660
856.595	4592
856.729	4618
856.862	4805
856.996	4679
857.13	4675
857.263	4759
857.397	4793
857.53	4630
857.664	4702
857.797	4733
857.931	4744
858.064	4733
858.197	4691
858.331	4649
858.464	4577
858.597	4481
858.731	4653
858.864	4630
858.997	4603
859.13	4649
859.263	4653
859.396	4717
859.529	4611
859.662	4516
859.795	4523
859.928	4592
860.061	4763
860.194	4740
860.327	4584
860.46	4565
860.592	4698
860.725	4706
860.858	4736
860.99	4588
861.123	4489
861.256	4516
861.388	4615
861.521	5166
861.653	4493
861.786	4379
861.918	4466
862.05	4481
862.183	4538
862.315	4596
862.447	4630
862.58	4485
862.712	4386
862.844	4344
862.976	4538
863.108	4455
863.24	4752
863.372	4314
863.504	4436
863.636	4402
863.768	4440
863.9	4451
864.032	4337
864.164	4428
864.296	4459
864.428	4626
864.559	4550
864.691	4554
864.823	4516
864.954	4428
865.086	4516
865.217	4455
865.349	4390
865.48	4459
865.612	4447
865.743	4630
865.875	4443
866.006	4409
866.137	4421
866.269	4447
866.4	4413
866.531	4447
866.662	4421
866.793	4428
866.924	4424
867.055	4497
867.186	4478
867.317	4428
867.448	4402
867.579	4360
867.71	4356
867.841	4318
867.972	4455
868.103	4470
868.233	4436
868.364	4436
868.495	4519
868.625	4649
868.756	4717
868.886	4588
869.017	4607
869.147	4797
869.278	4755
869.408	4630
869.539	4599
869.669	4710
869.799	4687
869.929	4752
870.06	4725
870.19	4984
870.32	4889
870.45	4904
870.58	4984
870.71	5113
870.84	5048
870.97	4965
871.1	4862
871.23	5109
871.36	5143
871.489	5029
871.619	5067
871.749	5064
871.879	5113
872.008	5174
872.138	5060
872.267	4972
872.397	4805
872.526	4809
872.656	4706
872.785	4805
872.915	4923
873.044	5033
873.173	4953
873.303	4953
873.432	4938
873.561	4911
873.69	4885
873.819	4862
873.948	4892
874.077	4885
874.206	4782
874.335	4835
874.464	4942
874.593	5071
874.722	4953
874.851	5117
874.979	5071
875.108	5079
875.237	4904
875.365	4862
875.494	4873
875.623	4938
875.751	4816
875.88	4847
876.008	4976
876.136	5052
876.265	5197
876.393	5318
876.521	5239
876.65	5223
876.778	5094
876.906	5090
877.034	4984
877.162	4949
877.29	4991
877.418	5052
877.546	5033
877.674	5090
877.802	5056
877.93	5037
878.058	4919
878.185	4873
878.313	4999
878.441	4961
878.568	4793
878.696	4858
878.824	4946
878.951	5018
879.079	5132
879.206	5311
879.333	5060
879.461	4968
879.588	5014
879.715	5117
879.842	5204
879.97	4984
880.097	4782
880.224	4778
880.351	4831
880.478	4790
880.605	4824
880.732	4774
880.859	5086
880.986	4877
881.112	4908
881.239	4805
881.366	4698
881.493	4664
881.619	4588
881.746	4603
881.872	4649
881.999	4615
882.125	4683
882.252	4820
882.378	4744
882.505	4984
882.631	4736
882.757	4683
882.883	4710
883.01	4683
883.136	4714
883.262	4615
883.388	4599
883.514	4782
883.64	4850
883.766	4797
883.892	4733
884.018	4733
884.143	4915
884.269	5010
884.395	4698
884.52	4607
884.646	4653
884.772	4592
884.897	4569
885.023	4683
885.148	4755
885.274	4820
885.399	4771
885.524	4714
885.65	4668
885.775	4778
885.9	4752
886.025	4843
886.15	4774
886.275	4752
886.4	4694
886.525	4706
886.65	4721
886.775	4698
886.9	4877
887.025	5037
887.149	4816
887.274	4702
887.399	4622
887.523	4573
887.648	4565
887.773	4622
887.897	4721
888.021	4767
888.146	4729
888.27	4782
888.395	4900
888.519	4828
888.643	4801
888.767	4778
888.891	4622
889.015	4565
889.139	4599
889.263	4599
889.387	4778
889.511	4847
889.635	4763
889.759	4656
889.883	4660
890.006	4672
890.13	4835
890.254	4622
890.377	4664
890.501	4580
890.624	4436
890.748	4599
890.871	4519
890.995	4417
891.118	4341
891.241	4516
891.364	4558
891.488	4672
891.611	4504
891.734	4550
891.857	4607
891.98	4558
892.103	4645
892.226	4645
892.349	4527
892.471	4367
892.594	4550
892.717	4603
892.839	4569
892.962	4599
893.085	4691
893.207	4611
893.33	4481
893.452	4546
893.575	4679
893.697	4565
893.819	4767
893.941	4820
894.064	4763
894.186	4588
894.308	4561
894.43	4774
894.552	4858
894.674	4721
894.796	4596
894.918	4573
895.04	4561
895.161	4672
895.283	4672
895.405	4554
895.526	4694
895.648	4679
895.769	4691
895.891	4645
896.012	4714
896.134	4725
896.255	4664
896.376	4599
896.498	4565
896.619	4717
896.74	4596
896.861	4717
896.982	4915
897.103	5018
897.224	4812
897.345	4717
897.466	4668
897.587	4675
897.708	4900
897.828	4816
897.949	4645
898.07	4531
898.19	4630
898.311	4793
898.431	4664
898.552	4710
898.672	4752
898.792	4782
898.913	4733
899.033	4630
899.153	4519
899.273	4451
899.393	4527
899.513	4546
899.633	4500
899.753	4558
899.873	4523
899.993	4580
900.113	4531
900.232	4535
900.352	4538
900.472	4497
900.591	4402
900.711	4481
900.83	4493
900.95	4599
901.069	4698
901.189	4527
901.308	4363
901.427	4337
901.546	4375
901.665	4455
901.784	4489
901.904	4363
902.023	4299
902.141	4200
902.26	4128
902.379	4287
902.498	4215
902.617	4188
902.735	4329
902.854	4417
902.973	4383
903.091	4200
903.21	4207
903.328	4333
903.446	4246
903.565	4223
903.683	4318
903.801	4299
903.919	4447
904.038	4447
904.156	4352
904.274	4455
904.392	4379
904.51	4421
904.627	4432
904.745	4584
904.863	4641
904.981	4379
905.098	4325
905.216	4383
905.334	4390
905.451	4402
905.569	4440
905.686	4485
905.803	4592
905.921	4409
906.038	4512
906.155	4470
906.272	4455
906.389	4428
906.506	4386
906.623	4344
906.74	4386
906.857	4261
906.974	4367
907.091	4531
907.208	4656
907.324	4573
907.441	4516
907.557	4318
907.674	4360
907.79	4310
907.907	4360
908.023	4470
908.139	4489
908.256	4421
908.372	4478
908.488	4470
908.604	4299
908.72	4333
908.836	4341
908.952	4356
909.068	4386
909.184	4519
909.3	4455
909.415	4580
909.531	4523
909.647	4386
909.762	4394
909.878	4318
909.993	4421
910.108	4447
910.224	4440
910.339	4470
910.454	4409
910.57	4329
910.685	4306
910.8	4694
910.915	4569
911.03	4443
911.145	4299
911.259	4322
911.374	4314
911.489	4291
911.604	4318
911.718	4181
911.833	4101
911.947	4078
912.062	4036
912.176	4204
912.291	4295
912.405	4276
912.519	4459
912.633	4489
912.748	4363
912.862	4268
912.976	4211
913.09	4082
913.204	4196
913.318	4246
913.431	4356
913.545	4367
913.659	4390
913.772	4272
913.886	4253
914	4223
914.113	4383
914.226	4383
914.34	4390
914.453	4230
914.566	4394
914.68	4287
914.793	4306
914.906	4154
915.019	4139
915.132	4082
915.245	4154
915.358	4242
915.47	4230
915.583	4265
915.696	4234
915.809	4390
915.921	4398
916.034	4303
916.146	4230
916.259	4242
916.371	4367
916.483	4360
916.595	4268
916.708	4295
916.82	4344
916.932	4363
917.044	4322
917.156	4379
917.268	4284
917.38	4272
917.491	4291
917.603	4314
917.715	4398
917.826	4481
917.938	4253
918.049	4238
918.161	4394
918.272	4508
918.384	4535
918.495	4451
918.606	4253
918.717	4223
918.828	4348
918.939	4398
919.05	4265
919.161	4295
919.272	4120
919.383	4188
919.494	4466
919.604	4618
919.715	4436
919.826	4314
919.936	4443
920.047	4561
920.157	4527
920.267	4694
920.378	4512
920.488	4519
920.598	4748
920.708	4866
920.818	4729
920.928	4759
921.038	4961
921.148	4927
921.258	4615
921.368	4561
921.477	4504
921.587	4470
921.697	4341
921.806	4561
921.916	4390
922.025	4306
922.134	4227
922.244	4211
922.353	4329
922.462	4192
922.571	4101
922.68	3956
922.789	3983
922.898	4002
923.007	3998
923.116	4082
923.224	4101
923.333	4086
923.442	3998
923.55	3945
923.659	3994
923.767	4112
923.876	3987
923.984	4082
924.092	3945
924.201	4029
924.309	4055
924.417	4128
924.525	4044
924.633	4048
924.741	4847
924.849	3941
924.956	4101
925.064	3953
925.172	3880
925.279	3937
925.387	4055
925.494	4044
925.602	4185
925.709	4185
925.816	4025
925.924	4120
926.031	4196
926.138	4192
926.245	4200
926.352	4078
926.459	4230
926.566	4276
926.673	4185
926.779	4086
926.886	4051
926.993	3968
927.099	3945
927.206	3968
927.312	3937
927.419	4044
927.525	4029
927.631	4112
927.737	3964
927.843	3941
927.95	3823
928.056	3968
928.162	3998
928.267	4071
928.373	4577
928.479	4150
928.585	3854
928.69	4029
928.796	4040
928.901	3964
929.007	3842
929.112	4025
929.218	3987
929.323	3956
929.428	3926
929.533	4112
929.638	3896
929.743	3949
929.848	4074
929.953	3987
930.058	3941
930.163	3789
930.267	3842
930.372	3945
930.477	3823
930.581	4086
930.685	3945
930.79	3797
930.894	3880
930.998	3846
931.103	4055
931.207	3713
931.311	3709
931.415	3679
931.519	3519
931.623	3534
