Data from test_V78500241_912.txt Node
Date: Fri Mar 25 16:55:20 CST 2022
User: usil
Spectrometer: V785-0024
Trigger mode: 0
Integration Time (sec): 4.000000E-1
Scans to average: 1
Nonlinearity correction enabled: false
Boxcar width: 0
Storing dark spectrum: false
XAxis mode: Wavelengths
Number of Pixels in Spectrum: 1024
>>>>>Begin Spectral Data<<<<<
801.071	8088
801.214	8058
801.356	7928
801.499	7898
801.641	7826
801.783	7871
801.926	7955
802.068	7947
802.211	7978
802.353	7909
802.496	7826
802.638	7921
802.78	7898
802.923	7940
803.065	7852
803.208	7921
803.35	8081
803.492	8199
803.635	8161
803.777	8058
803.919	8123
804.061	8476
804.204	8088
804.346	8077
804.488	7970
804.63	8123
804.773	8069
804.915	8138
805.057	8317
805.199	8237
805.341	8195
805.483	8263
805.626	8229
805.768	8115
805.91	8199
806.052	8252
806.194	8088
806.336	8332
806.478	8001
806.62	8069
806.762	8180
806.904	8229
807.046	8457
807.188	8366
807.33	8313
807.472	8370
807.614	8168
807.756	8111
807.898	8012
808.04	7970
808.182	7970
808.324	7925
808.465	7921
808.607	8020
808.749	8130
808.891	8168
809.033	8214
809.174	8229
809.316	8081
809.458	8043
809.6	7970
809.741	8107
809.883	8088
810.025	8027
810.166	8031
810.308	8039
810.45	7989
810.591	7894
810.733	7727
810.875	7620
811.016	7582
811.158	7464
811.299	7632
811.441	7719
811.582	7685
811.724	7620
811.865	7460
812.007	7552
812.148	7624
812.29	7620
812.431	7780
812.573	7868
812.714	7875
812.855	8149
812.997	8202
813.138	8336
813.279	8138
813.421	8054
813.562	8005
813.703	7849
813.845	7780
813.986	7548
814.127	7301
814.268	7324
814.41	7118
814.551	7099
814.692	7152
814.833	7107
814.974	7099
815.115	7133
815.256	6913
815.397	6901
815.539	6989
815.68	6863
815.821	6814
815.962	6894
816.103	6882
816.244	6722
816.385	6734
816.526	6616
816.666	6509
816.807	6254
816.948	6399
817.089	6479
817.23	6467
817.371	6308
817.512	6410
817.653	6403
817.793	6399
817.934	6429
818.075	6460
818.216	6433
818.356	6471
818.497	6190
818.638	6125
818.778	6201
818.919	6167
819.06	6190
819.2	6334
819.341	6380
819.481	6399
819.622	6536
819.762	6700
819.903	6726
820.043	6585
820.184	6570
820.324	6574
820.465	6658
820.605	6669
820.746	6627
820.886	6536
821.026	6593
821.167	6760
821.307	6776
821.447	6772
821.588	6665
821.728	6551
821.868	6517
822.008	6376
822.149	6334
822.289	6350
822.429	6110
822.569	6098
822.709	6076
822.849	5878
822.99	5870
823.13	5973
823.27	5950
823.41	5733
823.55	5756
823.69	5779
823.83	5821
823.97	5672
824.11	5520
824.25	5486
824.389	5577
824.529	5596
824.669	5528
824.809	5638
824.949	5646
825.089	5596
825.228	5596
825.368	5391
825.508	5334
825.648	5353
825.787	5383
825.927	5383
826.067	5284
826.206	5303
826.346	5387
826.485	5391
826.625	5406
826.765	5535
826.904	5493
827.044	5231
827.183	5223
827.323	5083
827.462	5299
827.601	5143
827.741	5216
827.88	5239
828.02	5140
828.159	5273
828.298	5284
828.437	5364
828.577	5292
828.716	5455
828.855	5303
828.994	5220
829.134	5151
829.273	5201
829.412	5132
829.551	5090
829.69	5151
829.829	5254
829.968	5379
830.107	5231
830.246	5220
830.385	5136
830.524	5151
830.663	5064
830.802	4984
830.941	4915
831.08	4889
831.219	4991
831.357	4892
831.496	5105
831.635	4930
831.774	4866
831.913	4850
832.051	4729
832.19	4706
832.329	4801
832.467	4748
832.606	4691
832.744	4694
832.883	4759
833.022	4668
833.16	4847
833.299	4812
833.437	4824
833.576	4847
833.714	4934
833.852	4881
833.991	4900
834.129	4961
834.267	4965
834.406	4927
834.544	5025
834.682	4927
834.821	5022
834.959	5151
835.097	4987
835.235	5178
835.373	5109
835.511	5079
835.65	5029
835.788	5018
835.926	4915
836.064	4866
836.202	4957
836.34	5143
836.478	5250
836.615	5147
836.753	5193
836.891	5280
837.029	5231
837.167	5204
837.305	5147
837.443	5128
837.58	5052
837.718	5277
837.856	5212
837.993	5143
838.131	5235
838.269	5212
838.406	5216
838.544	5193
838.681	5037
838.819	5029
838.956	4885
839.094	4892
839.231	4957
839.369	5052
839.506	5421
839.643	5258
839.781	5075
839.918	4984
840.055	5105
840.193	5064
840.33	5079
840.467	5121
840.604	5189
840.742	5448
840.879	5067
841.016	5124
841.153	5174
841.29	5372
841.427	5299
841.564	5315
841.701	5299
841.838	5273
841.975	5250
842.112	5250
842.249	5098
842.385	5048
842.522	5311
842.659	5181
842.796	5159
842.933	5178
843.069	5162
843.206	5136
843.343	5269
843.479	5273
843.616	5223
843.752	4995
843.889	5006
844.025	5162
844.162	4991
844.298	5235
844.435	5079
844.571	5071
844.708	5136
844.844	5311
844.98	5326
845.117	5307
845.253	5132
845.389	5056
845.525	5166
845.661	5140
845.798	5060
845.934	5159
846.07	5075
846.206	5189
846.342	5265
846.478	5159
846.614	5075
846.75	4972
846.886	4957
847.022	5132
847.158	5045
847.294	5079
847.429	5113
847.565	5041
847.701	5250
847.837	4850
847.972	4801
848.108	4991
848.244	4900
848.379	4790
848.515	4755
848.65	4698
848.786	4717
848.921	4733
849.057	4866
849.192	4892
849.328	4870
849.463	4873
849.598	4812
849.734	4736
849.869	4702
850.004	4622
850.14	4668
850.275	4634
850.41	4512
850.545	4527
850.68	4656
850.815	4645
850.95	4626
851.085	4858
851.22	4729
851.355	4618
851.49	4596
851.625	4645
851.76	4645
851.895	4546
852.03	4516
852.165	4607
852.299	4733
852.434	4759
852.569	4752
852.703	4797
852.838	4854
852.973	4938
853.107	4904
853.242	4786
853.376	4668
853.511	4531
853.645	4626
853.78	4790
853.914	4706
854.048	4645
854.183	4615
854.317	4710
854.451	4805
854.585	4675
854.72	4653
854.854	4744
854.988	4634
855.122	4615
855.256	4516
855.39	4660
855.524	4778
855.658	4679
855.792	4714
855.926	4721
856.06	4736
856.194	4820
856.327	4706
856.461	4622
856.595	4630
856.729	4630
856.862	4710
856.996	4653
857.13	4706
857.263	4759
857.397	4801
857.53	4672
857.664	4675
857.797	4774
857.931	4793
858.064	4653
858.197	4736
858.331	4634
858.464	4554
858.597	4558
858.731	4538
858.864	4626
858.997	4607
859.13	4641
859.263	4664
859.396	4702
859.529	4561
859.662	4523
859.795	4512
859.928	4607
860.061	4748
860.194	4675
860.327	4615
860.46	4603
860.592	4706
860.725	4721
860.858	4748
860.99	4565
861.123	4478
861.256	4542
861.388	4569
861.521	5128
861.653	4516
861.786	4443
861.918	4386
862.05	4504
862.183	4512
862.315	4618
862.447	4668
862.58	4573
862.712	4386
862.844	4348
862.976	4402
863.108	4462
863.24	4759
863.372	4314
863.504	4443
863.636	4398
863.768	4493
863.9	4455
864.032	4337
864.164	4383
864.296	4485
864.428	4489
864.559	4542
864.691	4489
864.823	4531
864.954	4466
865.086	4478
865.217	4451
865.349	4421
865.48	4459
865.612	4504
865.743	4637
865.875	4451
866.006	4436
866.137	4466
866.269	4443
866.4	4500
866.531	4424
866.662	4424
866.793	4405
866.924	4383
867.055	4489
867.186	4398
867.317	4424
867.448	4386
867.579	4363
867.71	4379
867.841	4352
867.972	4474
868.103	4440
868.233	4493
868.364	4489
868.495	4462
868.625	4664
868.756	4740
868.886	4523
869.017	4611
869.147	4790
869.278	4767
869.408	4675
869.539	4626
869.669	4702
869.799	4675
869.929	4763
870.06	4717
870.19	4885
870.32	4961
870.45	4915
870.58	4972
870.71	5025
870.84	5090
870.97	4930
871.1	4873
871.23	5105
871.36	5086
871.489	5006
871.619	5052
871.749	5105
871.879	5090
872.008	5121
872.138	5018
872.267	4965
872.397	4854
872.526	4790
872.656	4721
872.785	4771
872.915	4900
873.044	5022
873.173	4946
873.303	4946
873.432	4949
873.561	4938
873.69	4911
873.819	4839
873.948	4900
874.077	4816
874.206	4763
874.335	4824
874.464	4908
874.593	5018
874.722	4961
874.851	5098
874.979	5056
875.108	5041
875.237	4911
875.365	4889
875.494	4881
875.623	4984
875.751	4862
875.88	4854
876.008	4908
876.136	5064
876.265	5155
876.393	5318
876.521	5277
876.65	5189
876.778	5136
876.906	5037
877.034	5014
877.162	5037
877.29	5003
877.418	5052
877.546	5014
877.674	5003
877.802	5010
877.93	4972
878.058	4911
878.185	4847
878.313	4938
878.441	4911
878.568	4824
878.696	4870
878.824	4908
878.951	4965
879.079	5105
879.206	5299
879.333	5083
879.461	5018
879.588	4961
879.715	5128
879.842	5239
879.97	4961
880.097	4778
880.224	4755
880.351	4793
880.478	4801
880.605	4793
880.732	4744
880.859	5060
880.986	4900
881.112	4873
881.239	4752
881.366	4645
881.493	4599
881.619	4546
881.746	4615
881.872	4641
881.999	4649
882.125	4660
882.252	4755
882.378	4839
882.505	4946
882.631	4786
882.757	4634
882.883	4721
883.01	4733
883.136	4694
883.262	4580
883.388	4596
883.514	4790
883.64	4873
883.766	4786
883.892	4645
884.018	4736
884.143	4900
884.269	4965
884.395	4668
884.52	4637
884.646	4618
884.772	4561
884.897	4531
885.023	4641
885.148	4782
885.274	4831
885.399	4828
885.524	4729
885.65	4649
885.775	4748
885.9	4698
886.025	4854
886.15	4805
886.275	4710
886.4	4634
886.525	4717
886.65	4694
886.775	4668
886.9	4892
887.025	5052
887.149	4809
887.274	4672
887.399	4554
887.523	4596
887.648	4519
887.773	4569
887.897	4752
888.021	4793
888.146	4664
888.27	4771
888.395	4843
888.519	4763
888.643	4850
888.767	4801
888.891	4687
889.015	4611
889.139	4653
889.263	4607
889.387	4691
889.511	4866
889.635	4812
889.759	4592
889.883	4603
890.006	4721
890.13	4839
890.254	4622
890.377	4698
890.501	4592
890.624	4489
890.748	4630
890.871	4455
890.995	4440
891.118	4371
891.241	4500
891.364	4497
891.488	4641
891.611	4497
891.734	4527
891.857	4584
891.98	4561
892.103	4622
892.226	4580
892.349	4516
892.471	4413
892.594	4546
892.717	4561
892.839	4584
892.962	4588
893.085	4683
893.207	4618
893.33	4466
893.452	4504
893.575	4687
893.697	4531
893.819	4733
893.941	4782
894.064	4729
894.186	4573
894.308	4554
894.43	4725
894.552	4805
894.674	4755
894.796	4500
894.918	4550
895.04	4615
895.161	4668
895.283	4618
895.405	4519
895.526	4630
895.648	4687
895.769	4653
895.891	4668
896.012	4729
896.134	4706
896.255	4645
896.376	4653
896.498	4577
896.619	4645
896.74	4588
896.861	4649
896.982	4930
897.103	5075
897.224	4816
897.345	4771
897.466	4649
897.587	4683
897.708	4824
897.828	4782
897.949	4584
898.07	4546
898.19	4641
898.311	4767
898.431	4687
898.552	4702
898.672	4782
898.792	4824
898.913	4694
899.033	4607
899.153	4459
899.273	4421
899.393	4466
899.513	4542
899.633	4527
899.753	4558
899.873	4516
899.993	4569
900.113	4504
900.232	4558
900.352	4523
900.472	4459
900.591	4375
900.711	4466
900.83	4394
900.95	4668
901.069	4672
901.189	4554
901.308	4363
901.427	4303
901.546	4371
901.665	4470
901.784	4504
901.904	4360
902.023	4314
902.141	4162
902.26	4169
902.379	4280
902.498	4257
902.617	4257
902.735	4337
902.854	4375
902.973	4341
903.091	4211
903.21	4211
903.328	4295
903.446	4253
903.565	4268
903.683	4314
903.801	4215
903.919	4424
904.038	4462
904.156	4322
904.274	4405
904.392	4337
904.51	4409
904.627	4485
904.745	4531
904.863	4660
904.981	4394
905.098	4249
905.216	4367
905.334	4436
905.451	4398
905.569	4455
905.686	4508
905.803	4538
905.921	4436
906.038	4538
906.155	4478
906.272	4363
906.389	4424
906.506	4303
906.623	4344
906.74	4390
906.857	4303
906.974	4356
907.091	4519
907.208	4698
907.324	4565
907.441	4436
907.557	4333
907.674	4322
907.79	4310
907.907	4360
908.023	4478
908.139	4459
908.256	4443
908.372	4523
908.488	4402
908.604	4318
908.72	4314
908.836	4379
908.952	4322
909.068	4375
909.184	4561
909.3	4421
909.415	4554
909.531	4554
909.647	4341
909.762	4383
909.878	4322
909.993	4421
910.108	4363
910.224	4421
910.339	4443
910.454	4360
910.57	4325
910.685	4303
910.8	4664
910.915	4596
911.03	4478
911.145	4322
911.259	4337
911.374	4337
911.489	4299
911.604	4287
911.718	4173
911.833	4200
911.947	4082
912.062	4021
912.176	4227
912.291	4246
912.405	4238
912.519	4462
912.633	4500
912.748	4344
912.862	4299
912.976	4230
913.09	4101
913.204	4196
913.318	4253
913.431	4322
913.545	4398
913.659	4413
913.772	4379
913.886	4230
914	4215
914.113	4390
914.226	4402
914.34	4402
914.453	4196
914.566	4443
914.68	4299
914.793	4341
914.906	4112
915.019	4143
915.132	4093
915.245	4215
915.358	4234
915.47	4192
915.583	4242
915.696	4227
915.809	4348
915.921	4386
916.034	4265
916.146	4230
916.259	4215
916.371	4375
916.483	4295
916.595	4227
916.708	4322
916.82	4284
916.932	4306
917.044	4329
917.156	4348
917.268	4227
917.38	4272
917.491	4276
917.603	4337
917.715	4447
917.826	4390
917.938	4352
918.049	4265
918.161	4424
918.272	4573
918.384	4542
918.495	4470
918.606	4303
918.717	4188
918.828	4329
918.939	4314
919.05	4227
919.161	4322
919.272	4150
919.383	4196
919.494	4443
919.604	4592
919.715	4371
919.826	4352
919.936	4329
920.047	4508
920.157	4535
920.267	4710
920.378	4523
920.488	4478
920.598	4710
920.708	4839
920.818	4698
920.928	4793
921.038	4923
921.148	4911
921.258	4660
921.368	4550
921.477	4497
921.587	4489
921.697	4322
921.806	4550
921.916	4394
922.025	4242
922.134	4204
922.244	4211
922.353	4295
922.462	4173
922.571	4105
922.68	4021
922.789	3930
922.898	4048
923.007	3979
923.116	4097
923.224	4059
923.333	4078
923.442	3991
923.55	3972
923.659	3987
923.767	4090
923.876	3972
923.984	4124
924.092	3987
924.201	4048
924.309	4040
924.417	4135
924.525	4032
924.633	4055
924.741	4900
924.849	3922
924.956	4128
925.064	3926
925.172	3922
925.279	3987
925.387	4010
925.494	4082
925.602	4192
925.709	4192
925.816	4074
925.924	4147
926.031	4207
926.138	4154
926.245	4207
926.352	4082
926.459	4211
926.566	4329
926.673	4192
926.779	4059
926.886	4078
926.993	3949
927.099	3987
927.206	3915
927.312	3907
927.419	4078
927.525	4017
927.631	4059
927.737	3918
927.843	3915
927.95	3854
928.056	3987
928.162	3987
928.267	4078
928.373	4577
928.479	4101
928.585	3918
928.69	4051
928.796	4120
928.901	3956
929.007	3873
929.112	4029
929.218	3960
929.323	3956
929.428	3934
929.533	4093
929.638	3880
929.743	3937
929.848	4006
929.953	4059
930.058	3934
930.163	3854
930.267	3846
930.372	3892
930.477	3819
930.581	4055
930.685	3915
930.79	3816
930.894	3888
930.998	3816
931.103	4048
931.207	3705
931.311	3717
931.415	3690
931.519	3549
931.623	3557
