Data from test_V78500241_1840.txt Node
Date: Fri Mar 25 17:01:47 CST 2022
User: usil
Spectrometer: V785-0024
Trigger mode: 0
Integration Time (sec): 4.000000E-1
Scans to average: 1
Nonlinearity correction enabled: false
Boxcar width: 0
Storing dark spectrum: false
XAxis mode: Wavelengths
Number of Pixels in Spectrum: 1024
>>>>>Begin Spectral Data<<<<<
801.071	8035
801.214	7917
801.356	7864
801.499	7860
801.641	7704
801.783	7795
801.926	7883
802.068	7894
802.211	7944
802.353	7955
802.496	7822
802.638	7830
802.78	7902
802.923	7951
803.065	7868
803.208	7887
803.35	7974
803.492	8050
803.635	8119
803.777	8016
803.919	8046
804.061	8473
804.204	8157
804.346	7993
804.488	7967
804.63	8016
804.773	8081
804.915	8088
805.057	8305
805.199	8180
805.341	8225
805.483	8221
805.626	8153
805.768	8081
805.91	8149
806.052	8237
806.194	8065
806.336	8301
806.478	8039
806.62	8035
806.762	8103
806.904	8301
807.046	8533
807.188	8332
807.33	8370
807.472	8317
807.614	8092
807.756	8195
807.898	7955
808.04	7837
808.182	7909
808.324	7864
808.465	7894
808.607	8100
808.749	8153
808.891	8225
809.033	8339
809.174	8267
809.316	8035
809.458	8092
809.6	7947
809.741	7967
809.883	8027
810.025	8100
810.166	8050
810.308	8058
810.45	8024
810.591	7845
810.733	7746
810.875	7605
811.016	7480
811.158	7510
811.299	7529
811.441	7696
811.582	7651
811.724	7537
811.865	7514
812.007	7556
812.148	7567
812.29	7639
812.431	7704
812.573	7875
812.714	7978
812.855	8092
812.997	8183
813.138	8294
813.279	8176
813.421	8039
813.562	7970
813.703	7852
813.845	7681
813.986	7441
814.127	7164
814.268	7160
814.41	7232
814.551	7168
814.692	7213
814.833	7160
814.974	7118
815.115	7164
815.256	6973
815.397	6932
815.539	6954
815.68	6787
815.821	6749
815.962	6856
816.103	6795
816.244	6700
816.385	6612
816.526	6623
816.666	6479
816.807	6327
816.948	6448
817.089	6479
817.23	6384
817.371	6331
817.512	6380
817.653	6391
817.793	6361
817.934	6365
818.075	6437
818.216	6437
818.356	6395
818.497	6266
818.638	6102
818.778	6171
818.919	6083
819.06	6197
819.2	6296
819.341	6331
819.481	6323
819.622	6486
819.762	6707
819.903	6711
820.043	6570
820.184	6506
820.324	6570
820.465	6722
820.605	6696
820.746	6642
820.886	6555
821.026	6703
821.167	6707
821.307	6783
821.447	6779
821.588	6658
821.728	6555
821.868	6502
822.008	6327
822.149	6433
822.289	6350
822.429	6098
822.569	6098
822.709	6106
822.849	5935
822.99	5897
823.13	5901
823.27	5901
823.41	5710
823.55	5771
823.69	5748
823.83	5748
823.97	5649
824.11	5524
824.25	5512
824.389	5547
824.529	5581
824.669	5532
824.809	5619
824.949	5596
825.089	5581
825.228	5493
825.368	5383
825.508	5315
825.648	5337
825.787	5368
825.927	5341
826.067	5277
826.206	5307
826.346	5334
826.485	5433
826.625	5398
826.765	5493
826.904	5505
827.044	5277
827.183	5193
827.323	5109
827.462	5231
827.601	5136
827.741	5155
827.88	5181
828.02	5140
828.159	5204
828.298	5261
828.437	5292
828.577	5261
828.716	5459
828.855	5303
828.994	5181
829.134	5098
829.273	5151
829.412	5124
829.551	5124
829.69	5128
829.829	5269
829.968	5315
830.107	5250
830.246	5299
830.385	5147
830.524	5140
830.663	5086
830.802	5003
830.941	4927
831.08	4896
831.219	4999
831.357	4968
831.496	5140
831.635	4930
831.774	4870
831.913	4820
832.051	4691
832.19	4717
832.329	4809
832.467	4672
832.606	4558
832.744	4710
832.883	4687
833.022	4668
833.16	4820
833.299	4854
833.437	4809
833.576	4801
833.714	4862
833.852	4839
833.991	4847
834.129	4980
834.267	4957
834.406	4870
834.544	4968
834.682	4919
834.821	4961
834.959	5147
835.097	4965
835.235	5147
835.373	5102
835.511	5102
835.65	5048
835.788	4972
835.926	4873
836.064	4831
836.202	4953
836.34	5105
836.478	5185
836.615	5151
836.753	5185
836.891	5322
837.029	5246
837.167	5220
837.305	5128
837.443	5117
837.58	5086
837.718	5216
837.856	5193
837.993	5155
838.131	5216
838.269	5166
838.406	5181
838.544	5235
838.681	5029
838.819	5041
838.956	4870
839.094	4930
839.231	4984
839.369	5052
839.506	5406
839.643	5265
839.781	5067
839.918	5010
840.055	5041
840.193	5056
840.33	5098
840.467	5086
840.604	5159
840.742	5463
840.879	5086
841.016	5052
841.153	5159
841.29	5372
841.427	5322
841.564	5292
841.701	5296
841.838	5277
841.975	5189
842.112	5265
842.249	5132
842.385	5105
842.522	5337
842.659	5231
842.796	5121
842.933	5143
843.069	5102
843.206	5109
843.343	5318
843.479	5208
843.616	5231
843.752	5064
843.889	4961
844.025	5181
844.162	5006
844.298	5155
844.435	5067
844.571	5018
844.708	5159
844.844	5288
844.98	5307
845.117	5250
845.253	5147
845.389	5083
845.525	5155
845.661	5185
845.798	5045
845.934	5079
846.07	5079
846.206	5216
846.342	5216
846.478	5181
846.614	4953
846.75	4915
846.886	4904
847.022	5140
847.158	4980
847.294	5086
847.429	5090
847.565	5105
847.701	5345
847.837	4877
847.972	4809
848.108	4961
848.244	4885
848.379	4790
848.515	4717
848.65	4721
848.786	4733
848.921	4786
849.057	4892
849.192	4885
849.328	4805
849.463	4854
849.598	4752
849.734	4774
849.869	4691
850.004	4641
850.14	4653
850.275	4550
850.41	4500
850.545	4588
850.68	4527
850.815	4630
850.95	4607
851.085	4866
851.22	4694
851.355	4691
851.49	4660
851.625	4596
851.76	4679
851.895	4649
852.03	4542
852.165	4645
852.299	4683
852.434	4797
852.569	4744
852.703	4736
852.838	4843
852.973	4942
853.107	4892
853.242	4725
853.376	4694
853.511	4577
853.645	4607
853.78	4790
853.914	4668
854.048	4679
854.183	4618
854.317	4691
854.451	4835
854.585	4660
854.72	4569
854.854	4748
854.988	4603
855.122	4622
855.256	4523
855.39	4626
855.524	4816
855.658	4721
855.792	4725
855.926	4698
856.06	4771
856.194	4812
856.327	4698
856.461	4618
856.595	4611
856.729	4672
856.862	4744
856.996	4622
857.13	4687
857.263	4744
857.397	4733
857.53	4630
857.664	4706
857.797	4790
857.931	4736
858.064	4675
858.197	4744
858.331	4656
858.464	4615
858.597	4523
858.731	4637
858.864	4664
858.997	4611
859.13	4698
859.263	4649
859.396	4748
859.529	4542
859.662	4561
859.795	4596
859.928	4611
860.061	4778
860.194	4774
860.327	4588
860.46	4569
860.592	4645
860.725	4706
860.858	4710
860.99	4558
861.123	4531
861.256	4527
861.388	4615
861.521	5341
861.653	4474
861.786	4459
861.918	4478
862.05	4474
862.183	4588
862.315	4596
862.447	4641
862.58	4561
862.712	4409
862.844	4344
862.976	4440
863.108	4443
863.24	4839
863.372	4325
863.504	4421
863.636	4417
863.768	4474
863.9	4451
864.032	4325
864.164	4417
864.296	4478
864.428	4493
864.559	4538
864.691	4516
864.823	4478
864.954	4512
865.086	4481
865.217	4508
865.349	4390
865.48	4462
865.612	4489
865.743	4626
865.875	4409
866.006	4352
866.137	4474
866.269	4413
866.4	4459
866.531	4443
866.662	4341
866.793	4417
866.924	4470
867.055	4542
867.186	4424
867.317	4405
867.448	4363
867.579	4386
867.71	4405
867.841	4386
867.972	4462
868.103	4443
868.233	4451
868.364	4451
868.495	4436
868.625	4656
868.756	4778
868.886	4519
869.017	4630
869.147	4767
869.278	4790
869.408	4641
869.539	4656
869.669	4710
869.799	4634
869.929	4790
870.06	4694
870.19	4923
870.32	4881
870.45	4946
870.58	5010
870.71	5060
870.84	5109
870.97	4968
871.1	4927
871.23	5064
871.36	5121
871.489	5010
871.619	5086
871.749	5079
871.879	5109
872.008	5197
872.138	5052
872.267	4961
872.397	4870
872.526	4763
872.656	4725
872.785	4759
872.915	4934
873.044	5041
873.173	4938
873.303	4957
873.432	5006
873.561	4930
873.69	4816
873.819	4801
873.948	4900
874.077	4835
874.206	4774
874.335	4797
874.464	4968
874.593	5071
874.722	4965
874.851	5124
874.979	4999
875.108	5029
875.237	4870
875.365	4889
875.494	4923
875.623	4972
875.751	4839
875.88	4847
876.008	4942
876.136	4999
876.265	5162
876.393	5345
876.521	5250
876.65	5246
876.778	5162
876.906	5105
877.034	5056
877.162	5064
877.29	4965
877.418	5083
877.546	5064
877.674	5041
877.802	5037
877.93	5014
878.058	4915
878.185	4843
878.313	4949
878.441	4946
878.568	4801
878.696	4847
878.824	4949
878.951	5006
879.079	5094
879.206	5299
879.333	5064
879.461	4972
879.588	4995
879.715	5132
879.842	5216
879.97	5006
880.097	4816
880.224	4759
880.351	4759
880.478	4835
880.605	4793
880.732	4801
880.859	5132
880.986	4923
881.112	4881
881.239	4805
881.366	4687
881.493	4580
881.619	4538
881.746	4664
881.872	4634
881.999	4641
882.125	4679
882.252	4752
882.378	4820
882.505	4923
882.631	4858
882.757	4653
882.883	4717
883.01	4725
883.136	4664
883.262	4573
883.388	4573
883.514	4782
883.64	4873
883.766	4786
883.892	4656
884.018	4752
884.143	4828
884.269	4999
884.395	4641
884.52	4649
884.646	4645
884.772	4565
884.897	4531
885.023	4607
885.148	4793
885.274	4854
885.399	4793
885.524	4755
885.65	4645
885.775	4786
885.9	4740
886.025	4843
886.15	4721
886.275	4698
886.4	4611
886.525	4729
886.65	4710
886.775	4656
886.9	4915
887.025	4984
887.149	4774
887.274	4664
887.399	4615
887.523	4596
887.648	4580
887.773	4611
887.897	4790
888.021	4755
888.146	4691
888.27	4858
888.395	4900
888.519	4778
888.643	4824
888.767	4820
888.891	4675
889.015	4615
889.139	4649
889.263	4569
889.387	4740
889.511	4862
889.635	4801
889.759	4622
889.883	4630
890.006	4752
890.13	4847
890.254	4618
890.377	4653
890.501	4516
890.624	4508
890.748	4656
890.871	4508
890.995	4398
891.118	4398
891.241	4489
891.364	4527
891.488	4603
891.611	4481
891.734	4512
891.857	4599
891.98	4569
892.103	4630
892.226	4580
892.349	4478
892.471	4421
892.594	4512
892.717	4584
892.839	4558
892.962	4588
893.085	4653
893.207	4561
893.33	4447
893.452	4519
893.575	4656
893.697	4546
893.819	4801
893.941	4828
894.064	4797
894.186	4554
894.308	4561
894.43	4698
894.552	4820
894.674	4710
894.796	4565
894.918	4615
895.04	4607
895.161	4759
895.283	4687
895.405	4596
895.526	4649
895.648	4653
895.769	4706
895.891	4740
896.012	4729
896.134	4664
896.255	4687
896.376	4596
896.498	4626
896.619	4714
896.74	4641
896.861	4645
896.982	4885
897.103	5056
897.224	4854
897.345	4740
897.466	4714
897.587	4729
897.708	4854
897.828	4786
897.949	4637
898.07	4542
898.19	4626
898.311	4828
898.431	4660
898.552	4664
898.672	4824
898.792	4763
898.913	4721
899.033	4649
899.153	4565
899.273	4409
899.393	4466
899.513	4519
899.633	4531
899.753	4470
899.873	4504
899.993	4577
900.113	4504
900.232	4565
900.352	4569
900.472	4462
900.591	4413
900.711	4481
900.83	4424
900.95	4607
901.069	4687
901.189	4489
901.308	4375
901.427	4329
901.546	4375
901.665	4428
901.784	4519
901.904	4379
902.023	4325
902.141	4166
902.26	4196
902.379	4318
902.498	4253
902.617	4158
902.735	4383
902.854	4386
902.973	4322
903.091	4177
903.21	4227
903.328	4295
903.446	4265
903.565	4253
903.683	4375
903.801	4306
903.919	4413
904.038	4409
904.156	4341
904.274	4409
904.392	4390
904.51	4440
904.627	4489
904.745	4584
904.863	4630
904.981	4428
905.098	4303
905.216	4344
905.334	4447
905.451	4424
905.569	4394
905.686	4565
905.803	4584
905.921	4398
906.038	4584
906.155	4443
906.272	4341
906.389	4462
906.506	4341
906.623	4344
906.74	4375
906.857	4310
906.974	4341
907.091	4546
907.208	4618
907.324	4588
907.441	4497
907.557	4360
907.674	4329
907.79	4314
907.907	4371
908.023	4459
908.139	4500
908.256	4417
908.372	4508
908.488	4440
908.604	4344
908.72	4280
908.836	4379
908.952	4360
909.068	4390
909.184	4527
909.3	4508
909.415	4580
909.531	4542
909.647	4318
909.762	4344
909.878	4314
909.993	4421
910.108	4443
910.224	4462
910.339	4459
910.454	4386
910.57	4386
910.685	4306
910.8	4637
910.915	4577
911.03	4443
911.145	4314
911.259	4356
911.374	4360
911.489	4291
911.604	4310
911.718	4143
911.833	4207
911.947	4101
912.062	4040
912.176	4207
912.291	4238
912.405	4257
912.519	4440
912.633	4466
912.748	4363
912.862	4325
912.976	4223
913.09	4074
913.204	4169
913.318	4272
913.431	4348
913.545	4413
913.659	4447
913.772	4337
913.886	4211
914	4223
914.113	4356
914.226	4402
914.34	4390
914.453	4272
914.566	4398
914.68	4303
914.793	4322
914.906	4120
915.019	4097
915.132	4082
915.245	4135
915.358	4215
915.47	4261
915.583	4276
915.696	4299
915.809	4379
915.921	4409
916.034	4207
916.146	4238
916.259	4246
916.371	4386
916.483	4333
916.595	4242
916.708	4348
916.82	4352
916.932	4299
917.044	4322
917.156	4314
917.268	4230
917.38	4249
917.491	4242
917.603	4318
917.715	4398
917.826	4413
917.938	4360
918.049	4272
918.161	4402
918.272	4519
918.384	4508
918.495	4470
918.606	4310
918.717	4272
918.828	4356
918.939	4329
919.05	4253
919.161	4291
919.272	4097
919.383	4246
919.494	4424
919.604	4622
919.715	4413
919.826	4363
919.936	4352
920.047	4523
920.157	4508
920.267	4702
920.378	4516
920.488	4523
920.598	4729
920.708	4835
920.818	4763
920.928	4767
921.038	4984
921.148	4942
921.258	4618
921.368	4569
921.477	4462
921.587	4500
921.697	4421
921.806	4577
921.916	4421
922.025	4253
922.134	4242
922.244	4227
922.353	4348
922.462	4162
922.571	4086
922.68	3991
922.789	3956
922.898	4025
923.007	4010
923.116	4128
923.224	4025
923.333	4090
923.442	4002
923.55	3934
923.659	3983
923.767	4128
923.876	3987
923.984	4143
924.092	3956
924.201	4067
924.309	4071
924.417	4105
924.525	4071
924.633	4120
924.741	5003
924.849	3884
924.956	4097
925.064	3968
925.172	3918
925.279	3972
925.387	4010
925.494	4044
925.602	4185
925.709	4128
925.816	4017
925.924	4074
926.031	4238
926.138	4128
926.245	4204
926.352	4101
926.459	4246
926.566	4306
926.673	4158
926.779	4120
926.886	4086
926.993	3991
927.099	4006
927.206	3922
927.312	3918
927.419	4055
927.525	4044
927.631	4109
927.737	3949
927.843	3956
927.95	3850
928.056	3968
928.162	4051
928.267	4093
928.373	4550
928.479	4112
928.585	3907
928.69	4044
928.796	4067
928.901	3998
929.007	3831
929.112	4002
929.218	3975
929.323	3968
929.428	3937
929.533	4071
929.638	3896
929.743	3972
929.848	4082
929.953	3979
930.058	3892
930.163	3762
930.267	3819
930.372	3983
930.477	3781
930.581	4086
930.685	3926
930.79	3800
930.894	3869
930.998	3842
931.103	4040
931.207	3720
931.311	3679
931.415	3671
931.519	3496
931.623	3538
