Data from test_V78500241_1670.txt Node
Date: Fri Mar 25 17:00:36 CST 2022
User: usil
Spectrometer: V785-0024
Trigger mode: 0
Integration Time (sec): 4.000000E-1
Scans to average: 1
Nonlinearity correction enabled: false
Boxcar width: 0
Storing dark spectrum: false
XAxis mode: Wavelengths
Number of Pixels in Spectrum: 1024
>>>>>Begin Spectral Data<<<<<
801.071	7978
801.214	8008
801.356	7887
801.499	7849
801.641	7807
801.783	7849
801.926	7978
802.068	7936
802.211	7955
802.353	7982
802.496	7849
802.638	7860
802.78	7898
802.923	7909
803.065	7890
803.208	7871
803.35	7967
803.492	8069
803.635	8176
803.777	8058
803.919	8062
804.061	8396
804.204	8126
804.346	8062
804.488	7967
804.63	8084
804.773	8031
804.915	8157
805.057	8263
805.199	8088
805.341	8225
805.483	8271
805.626	8202
805.768	8126
805.91	8290
806.052	8229
806.194	8100
806.336	8282
806.478	8107
806.62	8005
806.762	8191
806.904	8275
807.046	8522
807.188	8408
807.33	8252
807.472	8271
807.614	8103
807.756	8168
807.898	8039
808.04	7917
808.182	7932
808.324	7906
808.465	7925
808.607	8088
808.749	8073
808.891	8225
809.033	8282
809.174	8221
809.316	8073
809.458	8103
809.6	7974
809.741	8058
809.883	8073
810.025	8088
810.166	8058
810.308	8027
810.45	7989
810.591	7887
810.733	7700
810.875	7655
811.016	7529
811.158	7521
811.299	7518
811.441	7685
811.582	7746
811.724	7571
811.865	7476
812.007	7575
812.148	7575
812.29	7662
812.431	7742
812.573	7906
812.714	7932
812.855	8103
812.997	8111
813.138	8225
813.279	8119
813.421	8138
813.562	7967
813.703	7852
813.845	7784
813.986	7411
814.127	7225
814.268	7202
814.41	7194
814.551	7145
814.692	7171
814.833	7114
814.974	7088
815.115	7088
815.256	6958
815.397	6913
815.539	6939
815.68	6810
815.821	6810
815.962	6825
816.103	6768
816.244	6707
816.385	6563
816.526	6620
816.666	6555
816.807	6281
816.948	6479
817.089	6441
817.23	6422
817.371	6357
817.512	6350
817.653	6353
817.793	6376
817.934	6384
818.075	6445
818.216	6410
818.356	6407
818.497	6239
818.638	6072
818.778	6125
818.919	6087
819.06	6106
819.2	6289
819.341	6327
819.481	6346
819.622	6494
819.762	6711
819.903	6684
820.043	6601
820.184	6566
820.324	6559
820.465	6741
820.605	6658
820.746	6669
820.886	6502
821.026	6585
821.167	6688
821.307	6810
821.447	6772
821.588	6707
821.728	6555
821.868	6464
822.008	6311
822.149	6369
822.289	6315
822.429	6125
822.569	6072
822.709	6041
822.849	5904
822.99	5893
823.13	5942
823.27	5904
823.41	5844
823.55	5752
823.69	5691
823.83	5752
823.97	5646
824.11	5532
824.25	5535
824.389	5558
824.529	5528
824.669	5528
824.809	5596
824.949	5570
825.089	5638
825.228	5573
825.368	5433
825.508	5303
825.648	5322
825.787	5357
825.927	5341
826.067	5288
826.206	5277
826.346	5326
826.485	5406
826.625	5421
826.765	5505
826.904	5482
827.044	5235
827.183	5170
827.323	5086
827.462	5277
827.601	5155
827.741	5178
827.88	5258
828.02	5117
828.159	5231
828.298	5273
828.437	5341
828.577	5239
828.716	5474
828.855	5360
828.994	5121
829.134	5124
829.273	5162
829.412	5136
829.551	5109
829.69	5178
829.829	5254
829.968	5345
830.107	5288
830.246	5296
830.385	5151
830.524	5102
830.663	5090
830.802	4949
830.941	4892
831.08	4843
831.219	4972
831.357	4961
831.496	5162
831.635	4911
831.774	4908
831.913	4862
832.051	4721
832.19	4736
832.329	4824
832.467	4725
832.606	4622
832.744	4752
832.883	4752
833.022	4755
833.16	4744
833.299	4793
833.437	4797
833.576	4828
833.714	4862
833.852	4877
833.991	4930
834.129	4919
834.267	4942
834.406	4889
834.544	4961
834.682	4938
834.821	4919
834.959	5136
835.097	4927
835.235	5128
835.373	5045
835.511	5151
835.65	5029
835.788	5022
835.926	4927
836.064	4835
836.202	4866
836.34	5170
836.478	5216
836.615	5102
836.753	5204
836.891	5254
837.029	5239
837.167	5181
837.305	5117
837.443	5121
837.58	5067
837.718	5258
837.856	5201
837.993	5159
838.131	5231
838.269	5193
838.406	5147
838.544	5204
838.681	5018
838.819	5006
838.956	4881
839.094	4850
839.231	4987
839.369	5067
839.506	5376
839.643	5258
839.781	5041
839.918	4961
840.055	5094
840.193	5041
840.33	5083
840.467	5128
840.604	5155
840.742	5482
840.879	5045
841.016	5094
841.153	5143
841.29	5372
841.427	5349
841.564	5296
841.701	5383
841.838	5220
841.975	5204
842.112	5277
842.249	5132
842.385	5132
842.522	5364
842.659	5170
842.796	5178
842.933	5174
843.069	5128
843.206	5094
843.343	5296
843.479	5261
843.616	5223
843.752	5041
843.889	4995
844.025	5159
844.162	4987
844.298	5124
844.435	5048
844.571	5052
844.708	5124
844.844	5254
844.98	5322
845.117	5303
845.253	5117
845.389	5060
845.525	5166
845.661	5124
845.798	4991
845.934	5151
846.07	5086
846.206	5239
846.342	5284
846.478	5185
846.614	5033
846.75	4949
846.886	4942
847.022	5151
847.158	5041
847.294	5041
847.429	5067
847.565	5037
847.701	5315
847.837	4854
847.972	4828
848.108	4930
848.244	4904
848.379	4771
848.515	4733
848.65	4740
848.786	4774
848.921	4759
849.057	4816
849.192	4873
849.328	4752
849.463	4877
849.598	4774
849.734	4790
849.869	4645
850.004	4618
850.14	4664
850.275	4641
850.41	4512
850.545	4561
850.68	4618
850.815	4569
850.95	4637
851.085	4862
851.22	4767
851.355	4641
851.49	4542
851.625	4584
851.76	4634
851.895	4565
852.03	4493
852.165	4653
852.299	4786
852.434	4793
852.569	4729
852.703	4733
852.838	4778
852.973	4915
853.107	4908
853.242	4748
853.376	4637
853.511	4592
853.645	4641
853.78	4778
853.914	4668
854.048	4626
854.183	4672
854.317	4683
854.451	4812
854.585	4679
854.72	4668
854.854	4710
854.988	4630
855.122	4630
855.256	4493
855.39	4683
855.524	4759
855.658	4683
855.792	4660
855.926	4717
856.06	4725
856.194	4805
856.327	4664
856.461	4561
856.595	4611
856.729	4611
856.862	4740
856.996	4733
857.13	4702
857.263	4759
857.397	4824
857.53	4634
857.664	4694
857.797	4721
857.931	4752
858.064	4710
858.197	4729
858.331	4645
858.464	4592
858.597	4519
858.731	4668
858.864	4626
858.997	4622
859.13	4679
859.263	4668
859.396	4679
859.529	4523
859.662	4558
859.795	4508
859.928	4622
860.061	4725
860.194	4744
860.327	4561
860.46	4538
860.592	4717
860.725	4687
860.858	4660
860.99	4519
861.123	4512
861.256	4546
861.388	4611
861.521	5349
861.653	4497
861.786	4436
861.918	4440
862.05	4481
862.183	4558
862.315	4588
862.447	4596
862.58	4580
862.712	4344
862.844	4322
862.976	4447
863.108	4409
863.24	4771
863.372	4348
863.504	4371
863.636	4409
863.768	4493
863.9	4390
864.032	4352
864.164	4390
864.296	4443
864.428	4531
864.559	4577
864.691	4508
864.823	4527
864.954	4493
865.086	4489
865.217	4440
865.349	4436
865.48	4443
865.612	4512
865.743	4618
865.875	4447
866.006	4436
866.137	4474
866.269	4443
866.4	4417
866.531	4421
866.662	4371
866.793	4363
866.924	4394
867.055	4550
867.186	4512
867.317	4462
867.448	4363
867.579	4421
867.71	4386
867.841	4348
867.972	4424
868.103	4440
868.233	4443
868.364	4428
868.495	4493
868.625	4668
868.756	4748
868.886	4527
869.017	4611
869.147	4797
869.278	4805
869.408	4622
869.539	4630
869.669	4721
869.799	4618
869.929	4748
870.06	4706
870.19	4953
870.32	4911
870.45	4911
870.58	4995
870.71	5090
870.84	5105
870.97	4938
871.1	4923
871.23	5117
871.36	5128
871.489	5029
871.619	5113
871.749	5060
871.879	5124
872.008	5178
872.138	5029
872.267	4930
872.397	4866
872.526	4790
872.656	4691
872.785	4828
872.915	4953
873.044	4995
873.173	4965
873.303	4930
873.432	4984
873.561	4927
873.69	4885
873.819	4839
873.948	4900
874.077	4805
874.206	4763
874.335	4809
874.464	4885
874.593	5003
874.722	4908
874.851	5083
874.979	5098
875.108	5048
875.237	4873
875.365	4870
875.494	4881
875.623	4961
875.751	4847
875.88	4870
876.008	4968
876.136	5041
876.265	5143
876.393	5353
876.521	5239
876.65	5265
876.778	5136
876.906	5052
877.034	5052
877.162	5071
877.29	5010
877.418	5010
877.546	5018
877.674	5075
877.802	5003
877.93	4972
878.058	4900
878.185	4847
878.313	4953
878.441	4968
878.568	4790
878.696	4854
878.824	4953
878.951	4995
879.079	5128
879.206	5303
879.333	5090
879.461	4934
879.588	5014
879.715	5098
879.842	5162
879.97	5018
880.097	4767
880.224	4725
880.351	4812
880.478	4790
880.605	4793
880.732	4790
880.859	5029
880.986	4900
881.112	4900
881.239	4729
881.366	4653
881.493	4611
881.619	4531
881.746	4630
881.872	4596
881.999	4645
882.125	4694
882.252	4790
882.378	4816
882.505	4908
882.631	4790
882.757	4679
882.883	4733
883.01	4736
883.136	4637
883.262	4596
883.388	4607
883.514	4828
883.64	4854
883.766	4782
883.892	4679
884.018	4729
884.143	4850
884.269	4923
884.395	4630
884.52	4656
884.646	4607
884.772	4573
884.897	4588
885.023	4683
885.148	4744
885.274	4786
885.399	4828
885.524	4717
885.65	4641
885.775	4679
885.9	4634
886.025	4809
886.15	4744
886.275	4664
886.4	4664
886.525	4736
886.65	4664
886.775	4683
886.9	4877
887.025	5006
887.149	4790
887.274	4607
887.399	4558
887.523	4546
887.648	4554
887.773	4561
887.897	4755
888.021	4755
888.146	4656
888.27	4778
888.395	4847
888.519	4805
888.643	4786
888.767	4786
888.891	4668
889.015	4603
889.139	4634
889.263	4577
889.387	4752
889.511	4881
889.635	4729
889.759	4649
889.883	4641
890.006	4721
890.13	4847
890.254	4641
890.377	4675
890.501	4546
890.624	4493
890.748	4584
890.871	4523
890.995	4443
891.118	4466
891.241	4531
891.364	4611
891.488	4626
891.611	4546
891.734	4569
891.857	4599
891.98	4531
892.103	4634
892.226	4580
892.349	4546
892.471	4481
892.594	4519
892.717	4592
892.839	4626
892.962	4615
893.085	4664
893.207	4656
893.33	4508
893.452	4584
893.575	4668
893.697	4630
893.819	4820
893.941	4908
894.064	4816
894.186	4603
894.308	4611
894.43	4786
894.552	4835
894.674	4752
894.796	4535
894.918	4603
895.04	4641
895.161	4683
895.283	4710
895.405	4607
895.526	4675
895.648	4710
895.769	4729
895.891	4782
896.012	4748
896.134	4725
896.255	4725
896.376	4698
896.498	4660
896.619	4702
896.74	4641
896.861	4710
896.982	4968
897.103	5166
897.224	4850
897.345	4828
897.466	4733
897.587	4786
897.708	4892
897.828	4801
897.949	4771
898.07	4611
898.19	4675
898.311	4896
898.431	4687
898.552	4778
898.672	4866
898.792	4862
898.913	4782
899.033	4687
899.153	4569
899.273	4497
899.393	4565
899.513	4580
899.633	4607
899.753	4573
899.873	4550
899.993	4618
900.113	4569
900.232	4679
900.352	4542
900.472	4512
900.591	4405
900.711	4565
900.83	4455
900.95	4660
901.069	4710
901.189	4561
901.308	4386
901.427	4371
901.546	4428
901.665	4512
901.784	4523
901.904	4421
902.023	4322
902.141	4196
902.26	4166
902.379	4329
902.498	4295
902.617	4230
902.735	4413
902.854	4417
902.973	4383
903.091	4249
903.21	4257
903.328	4325
903.446	4341
903.565	4257
903.683	4390
903.801	4303
903.919	4405
904.038	4421
904.156	4344
904.274	4459
904.392	4466
904.51	4440
904.627	4485
904.745	4618
904.863	4653
904.981	4424
905.098	4329
905.216	4417
905.334	4436
905.451	4447
905.569	4485
905.686	4535
905.803	4584
905.921	4478
906.038	4565
906.155	4504
906.272	4409
906.389	4500
906.506	4390
906.623	4390
906.74	4371
906.857	4325
906.974	4386
907.091	4577
907.208	4714
907.324	4641
907.441	4516
907.557	4352
907.674	4375
907.79	4356
907.907	4443
908.023	4478
908.139	4485
908.256	4436
908.372	4508
908.488	4451
908.604	4394
908.72	4375
908.836	4405
908.952	4402
909.068	4447
909.184	4634
909.3	4535
909.415	4645
909.531	4599
909.647	4344
909.762	4402
909.878	4367
909.993	4443
910.108	4428
910.224	4443
910.339	4493
910.454	4470
910.57	4386
910.685	4333
910.8	4675
910.915	4694
911.03	4512
911.145	4348
911.259	4341
911.374	4379
911.489	4344
911.604	4287
911.718	4196
911.833	4185
911.947	4093
912.062	4055
912.176	4272
912.291	4253
912.405	4310
912.519	4519
912.633	4523
912.748	4424
912.862	4352
912.976	4215
913.09	4086
913.204	4207
913.318	4261
913.431	4405
913.545	4398
913.659	4455
913.772	4379
913.886	4276
914	4211
914.113	4451
914.226	4421
914.34	4386
914.453	4257
914.566	4451
914.68	4325
914.793	4352
914.906	4215
915.019	4128
915.132	4162
915.245	4295
915.358	4253
915.47	4310
915.583	4287
915.696	4306
915.809	4455
915.921	4443
916.034	4314
916.146	4280
916.259	4246
916.371	4417
916.483	4402
916.595	4227
916.708	4363
916.82	4367
916.932	4329
917.044	4352
917.156	4371
917.268	4249
917.38	4299
917.491	4287
917.603	4352
917.715	4428
917.826	4462
917.938	4421
918.049	4238
918.161	4462
918.272	4599
918.384	4516
918.495	4531
918.606	4314
918.717	4287
918.828	4371
918.939	4360
919.05	4261
919.161	4322
919.272	4173
919.383	4284
919.494	4516
919.604	4679
919.715	4459
919.826	4383
919.936	4379
920.047	4516
920.157	4470
920.267	4740
920.378	4580
920.488	4516
920.598	4771
920.708	4915
920.818	4820
920.928	4828
921.038	4953
921.148	4968
921.258	4653
921.368	4561
921.477	4554
921.587	4470
921.697	4413
921.806	4588
921.916	4451
922.025	4329
922.134	4310
922.244	4257
922.353	4352
922.462	4188
922.571	4185
922.68	4029
922.789	4025
922.898	4071
923.007	4002
923.116	4131
923.224	4074
923.333	4116
923.442	4010
923.55	3975
923.659	3983
923.767	4078
923.876	4055
923.984	4143
924.092	3994
924.201	4105
924.309	4143
924.417	4131
924.525	4071
924.633	4124
924.741	4896
924.849	3956
924.956	4120
925.064	4021
925.172	3899
925.279	3968
925.387	4086
925.494	4040
925.602	4223
925.709	4173
925.816	4093
925.924	4158
926.031	4257
926.138	4192
926.245	4211
926.352	4093
926.459	4276
926.566	4344
926.673	4219
926.779	4116
926.886	4124
926.993	3964
927.099	4013
927.206	3953
927.312	3956
927.419	4090
927.525	4021
927.631	4082
927.737	3979
927.843	4002
927.95	3880
928.056	3930
928.162	3979
928.267	4067
928.373	4618
928.479	4109
928.585	3865
928.69	4025
928.796	4071
928.901	3991
929.007	3861
929.112	4021
929.218	3975
929.323	3949
929.428	3968
929.533	4124
929.638	3968
929.743	4010
929.848	4032
929.953	4036
930.058	3937
930.163	3819
930.267	3884
930.372	3987
930.477	3835
930.581	4078
930.685	3972
930.79	3850
930.894	3922
930.998	3838
931.103	4044
931.207	3717
931.311	3759
931.415	3713
931.519	3485
931.623	3591
