Data from test_V78500241_1774.txt Node
Date: Fri Mar 25 17:01:20 CST 2022
User: usil
Spectrometer: V785-0024
Trigger mode: 0
Integration Time (sec): 4.000000E-1
Scans to average: 1
Nonlinearity correction enabled: false
Boxcar width: 0
Storing dark spectrum: false
XAxis mode: Wavelengths
Number of Pixels in Spectrum: 1024
>>>>>Begin Spectral Data<<<<<
801.071	8054
801.214	7989
801.356	7879
801.499	7833
801.641	7776
801.783	7807
801.926	7951
802.068	7928
802.211	8001
802.353	7989
802.496	7928
802.638	7887
802.78	7811
802.923	7921
803.065	7803
803.208	7860
803.35	7947
803.492	8077
803.635	8183
803.777	8020
803.919	8107
804.061	8385
804.204	8134
804.346	8073
804.488	7955
804.63	8092
804.773	8054
804.915	8084
805.057	8267
805.199	8180
805.341	8282
805.483	8301
805.626	8199
805.768	8069
805.91	8259
806.052	8275
806.194	8062
806.336	8305
806.478	8103
806.62	8031
806.762	8176
806.904	8263
807.046	8488
807.188	8412
807.33	8347
807.472	8385
807.614	8153
807.756	8199
807.898	8092
808.04	7864
808.182	7906
808.324	7909
808.465	7925
808.607	8081
808.749	8176
808.891	8130
809.033	8332
809.174	8176
809.316	8092
809.458	8145
809.6	8020
809.741	7978
809.883	7955
810.025	8096
810.166	8115
810.308	7997
810.45	8035
810.591	7856
810.733	7734
810.875	7662
811.016	7453
811.158	7460
811.299	7582
811.441	7765
811.582	7628
811.724	7552
811.865	7499
812.007	7559
812.148	7578
812.29	7670
812.431	7772
812.573	7936
812.714	8016
812.855	8168
812.997	8221
813.138	8355
813.279	8195
813.421	8107
813.562	7902
813.703	7776
813.845	7727
813.986	7426
814.127	7285
814.268	7164
814.41	7190
814.551	7137
814.692	7266
814.833	7061
814.974	7080
815.115	7126
815.256	6970
815.397	6958
815.539	6970
815.68	6825
815.821	6726
815.962	6878
816.103	6840
816.244	6707
816.385	6616
816.526	6623
816.666	6479
816.807	6289
816.948	6414
817.089	6426
817.23	6448
817.371	6361
817.512	6399
817.653	6414
817.793	6361
817.934	6407
818.075	6433
818.216	6456
818.356	6376
818.497	6270
818.638	6095
818.778	6133
818.919	6163
819.06	6171
819.2	6327
819.341	6273
819.481	6319
819.622	6528
819.762	6688
819.903	6646
820.043	6563
820.184	6536
820.324	6574
820.465	6715
820.605	6620
820.746	6654
820.886	6479
821.026	6642
821.167	6730
821.307	6753
821.447	6703
821.588	6601
821.728	6582
821.868	6502
822.008	6281
822.149	6372
822.289	6331
822.429	6216
822.569	6110
822.709	6060
822.849	5893
822.99	5889
823.13	5897
823.27	5935
823.41	5836
823.55	5783
823.69	5756
823.83	5790
823.97	5653
824.11	5547
824.25	5467
824.389	5509
824.529	5566
824.669	5497
824.809	5638
824.949	5634
825.089	5684
825.228	5543
825.368	5360
825.508	5353
825.648	5357
825.787	5379
825.927	5387
826.067	5277
826.206	5265
826.346	5414
826.485	5345
826.625	5410
826.765	5532
826.904	5444
827.044	5201
827.183	5212
827.323	5170
827.462	5242
827.601	5140
827.741	5185
827.88	5235
828.02	5045
828.159	5204
828.298	5273
828.437	5322
828.577	5261
828.716	5493
828.855	5326
828.994	5166
829.134	5098
829.273	5174
829.412	5170
829.551	5117
829.69	5143
829.829	5254
829.968	5383
830.107	5250
830.246	5284
830.385	5162
830.524	5113
830.663	5052
830.802	4934
830.941	4885
831.08	4850
831.219	4923
831.357	4984
831.496	5094
831.635	4923
831.774	4843
831.913	4847
832.051	4706
832.19	4717
832.329	4854
832.467	4679
832.606	4588
832.744	4725
832.883	4725
833.022	4641
833.16	4740
833.299	4831
833.437	4828
833.576	4835
833.714	4831
833.852	4850
833.991	4866
834.129	4942
834.267	4896
834.406	4961
834.544	5056
834.682	4965
834.821	4976
834.959	5174
835.097	4991
835.235	5117
835.373	5041
835.511	5083
835.65	5048
835.788	4991
835.926	4862
836.064	4847
836.202	4908
836.34	5128
836.478	5220
836.615	5109
836.753	5204
836.891	5307
837.029	5212
837.167	5227
837.305	5132
837.443	5140
837.58	5010
837.718	5261
837.856	5159
837.993	5109
838.131	5170
838.269	5231
838.406	5159
838.544	5185
838.681	4957
838.819	4961
838.956	4881
839.094	4930
839.231	4953
839.369	5003
839.506	5383
839.643	5250
839.781	5045
839.918	5014
840.055	5048
840.193	5056
840.33	5052
840.467	5105
840.604	5147
840.742	5440
840.879	5048
841.016	5071
841.153	5128
841.29	5345
841.427	5341
841.564	5345
841.701	5372
841.838	5208
841.975	5220
842.112	5216
842.249	5067
842.385	5060
842.522	5322
842.659	5170
842.796	5151
842.933	5197
843.069	5124
843.206	5128
843.343	5341
843.479	5220
843.616	5258
843.752	5067
843.889	4980
844.025	5162
844.162	4957
844.298	5162
844.435	5090
844.571	5014
844.708	5185
844.844	5288
844.98	5318
845.117	5261
845.253	5147
845.389	5060
845.525	5109
845.661	5113
845.798	5041
845.934	5090
846.07	5041
846.206	5216
846.342	5292
846.478	5174
846.614	5052
846.75	4976
846.886	4946
847.022	5155
847.158	5033
847.294	5083
847.429	5052
847.565	5060
847.701	5337
847.837	4873
847.972	4847
848.108	4923
848.244	4911
848.379	4755
848.515	4702
848.65	4694
848.786	4725
848.921	4767
849.057	4847
849.192	4911
849.328	4786
849.463	4828
849.598	4744
849.734	4778
849.869	4645
850.004	4569
850.14	4622
850.275	4588
850.41	4497
850.545	4516
850.68	4584
850.815	4584
850.95	4626
851.085	4812
851.22	4793
851.355	4626
851.49	4626
851.625	4649
851.76	4634
851.895	4542
852.03	4538
852.165	4649
852.299	4653
852.434	4755
852.569	4714
852.703	4793
852.838	4854
852.973	4923
853.107	4889
853.242	4694
853.376	4656
853.511	4546
853.645	4611
853.78	4759
853.914	4637
854.048	4649
854.183	4649
854.317	4687
854.451	4816
854.585	4645
854.72	4622
854.854	4752
854.988	4618
855.122	4679
855.256	4538
855.39	4626
855.524	4801
855.658	4714
855.792	4702
855.926	4774
856.06	4725
856.194	4820
856.327	4691
856.461	4573
856.595	4668
856.729	4626
856.862	4755
856.996	4717
857.13	4729
857.263	4679
857.397	4786
857.53	4664
857.664	4733
857.797	4812
857.931	4805
858.064	4706
858.197	4763
858.331	4660
858.464	4649
858.597	4580
858.731	4622
858.864	4668
858.997	4637
859.13	4668
859.263	4668
859.396	4778
859.529	4603
859.662	4588
859.795	4577
859.928	4622
860.061	4812
860.194	4771
860.327	4637
860.46	4573
860.592	4755
860.725	4763
860.858	4729
860.99	4653
861.123	4565
861.256	4531
861.388	4710
861.521	5318
861.653	4561
861.786	4470
861.918	4512
862.05	4535
862.183	4626
862.315	4641
862.447	4706
862.58	4558
862.712	4447
862.844	4356
862.976	4550
863.108	4485
863.24	4942
863.372	4367
863.504	4466
863.636	4451
863.768	4493
863.9	4451
864.032	4421
864.164	4470
864.296	4504
864.428	4558
864.559	4615
864.691	4569
864.823	4542
864.954	4527
865.086	4516
865.217	4508
865.349	4493
865.48	4493
865.612	4516
865.743	4687
865.875	4508
866.006	4474
866.137	4523
866.269	4462
866.4	4462
866.531	4497
866.662	4409
866.793	4451
866.924	4436
867.055	4535
867.186	4489
867.317	4432
867.448	4375
867.579	4462
867.71	4474
867.841	4386
867.972	4531
868.103	4504
868.233	4474
868.364	4481
868.495	4527
868.625	4683
868.756	4809
868.886	4599
869.017	4687
869.147	4816
869.278	4790
869.408	4694
869.539	4649
869.669	4721
869.799	4736
869.929	4782
870.06	4721
870.19	4938
870.32	4915
870.45	4953
870.58	5045
870.71	5090
870.84	5147
870.97	4980
871.1	4934
871.23	5143
871.36	5147
871.489	5075
871.619	5075
871.749	5147
871.879	5143
872.008	5223
872.138	5105
872.267	4972
872.397	4911
872.526	4835
872.656	4702
872.785	4816
872.915	4942
873.044	5033
873.173	4984
873.303	5071
873.432	4957
873.561	4995
873.69	4923
873.819	4839
873.948	4961
874.077	4843
874.206	4801
874.335	4816
874.464	4991
874.593	5067
874.722	5003
874.851	5143
874.979	5102
875.108	5102
875.237	4892
875.365	4881
875.494	4904
875.623	4953
875.751	4850
875.88	4976
876.008	4976
876.136	5090
876.265	5231
876.393	5368
876.521	5258
876.65	5269
876.778	5159
876.906	5067
877.034	5064
877.162	5083
877.29	5006
877.418	5113
877.546	5083
877.674	5045
877.802	5048
877.93	5094
878.058	4915
878.185	4938
878.313	4991
878.441	4987
878.568	4816
878.696	4877
878.824	4980
878.951	5064
879.079	5128
879.206	5337
879.333	5109
879.461	5071
879.588	5010
879.715	5143
879.842	5242
879.97	5029
880.097	4828
880.224	4763
880.351	4850
880.478	4847
880.605	4793
880.732	4873
880.859	5079
880.986	4911
881.112	4942
881.239	4839
881.366	4698
881.493	4664
881.619	4630
881.746	4653
881.872	4675
881.999	4710
882.125	4717
882.252	4862
882.378	4896
882.505	4984
882.631	4820
882.757	4687
882.883	4755
883.01	4755
883.136	4687
883.262	4641
883.388	4660
883.514	4843
883.64	4892
883.766	4854
883.892	4672
884.018	4752
884.143	4915
884.269	5052
884.395	4736
884.52	4660
884.646	4664
884.772	4603
884.897	4607
885.023	4706
885.148	4831
885.274	4862
885.399	4850
885.524	4782
885.65	4672
885.775	4790
885.9	4740
886.025	4904
886.15	4801
886.275	4744
886.4	4683
886.525	4748
886.65	4710
886.775	4698
886.9	4957
887.025	5052
887.149	4835
887.274	4664
887.399	4622
887.523	4645
887.648	4630
887.773	4592
887.897	4820
888.021	4828
888.146	4729
888.27	4885
888.395	4908
888.519	4816
888.643	4824
888.767	4900
888.891	4649
889.015	4588
889.139	4679
889.263	4675
889.387	4793
889.511	4889
889.635	4816
889.759	4687
889.883	4698
890.006	4733
890.13	4885
890.254	4637
890.377	4729
890.501	4573
890.624	4519
890.748	4675
890.871	4542
890.995	4451
891.118	4402
891.241	4508
891.364	4573
891.488	4675
891.611	4508
891.734	4596
891.857	4641
891.98	4607
892.103	4660
892.226	4622
892.349	4538
892.471	4417
892.594	4584
892.717	4656
892.839	4615
892.962	4607
893.085	4721
893.207	4611
893.33	4497
893.452	4573
893.575	4660
893.697	4603
893.819	4805
893.941	4858
894.064	4820
894.186	4607
894.308	4573
894.43	4744
894.552	4790
894.674	4755
894.796	4565
894.918	4630
895.04	4592
895.161	4740
895.283	4706
895.405	4630
895.526	4641
895.648	4698
895.769	4714
895.891	4683
896.012	4774
896.134	4755
896.255	4660
896.376	4691
896.498	4687
896.619	4656
896.74	4637
896.861	4626
896.982	4957
897.103	5098
897.224	4835
897.345	4759
897.466	4675
897.587	4759
897.708	4847
897.828	4820
897.949	4702
898.07	4622
898.19	4672
898.311	4854
898.431	4691
898.552	4706
898.672	4854
898.792	4831
898.913	4763
899.033	4672
899.153	4493
899.273	4447
899.393	4489
899.513	4538
899.633	4558
899.753	4569
899.873	4519
899.993	4554
900.113	4558
900.232	4577
900.352	4554
900.472	4493
900.591	4386
900.711	4523
900.83	4440
900.95	4618
901.069	4736
901.189	4573
901.308	4436
901.427	4337
901.546	4398
901.665	4485
901.784	4546
901.904	4402
902.023	4386
902.141	4230
902.26	4204
902.379	4318
902.498	4276
902.617	4257
902.735	4402
902.854	4356
902.973	4356
903.091	4223
903.21	4223
903.328	4337
903.446	4306
903.565	4306
903.683	4356
903.801	4284
903.919	4402
904.038	4500
904.156	4421
904.274	4478
904.392	4398
904.51	4440
904.627	4485
904.745	4596
904.863	4653
904.981	4394
905.098	4348
905.216	4398
905.334	4428
905.451	4481
905.569	4455
905.686	4599
905.803	4611
905.921	4459
906.038	4630
906.155	4485
906.272	4417
906.389	4516
906.506	4356
906.623	4398
906.74	4432
906.857	4287
906.974	4390
907.091	4573
907.208	4702
907.324	4599
907.441	4474
907.557	4318
907.674	4344
907.79	4379
907.907	4409
908.023	4500
908.139	4451
908.256	4459
908.372	4523
908.488	4443
908.604	4390
908.72	4348
908.836	4367
908.952	4371
909.068	4402
909.184	4554
909.3	4508
909.415	4599
909.531	4535
909.647	4375
909.762	4383
909.878	4348
909.993	4470
910.108	4443
910.224	4428
910.339	4474
910.454	4421
910.57	4402
910.685	4303
910.8	4702
910.915	4630
911.03	4527
911.145	4440
911.259	4394
911.374	4440
911.489	4314
911.604	4325
911.718	4192
911.833	4257
911.947	4086
912.062	4036
912.176	4234
912.291	4261
912.405	4276
912.519	4443
912.633	4535
912.748	4413
912.862	4344
912.976	4246
913.09	4112
913.204	4223
913.318	4268
913.431	4390
913.545	4390
913.659	4474
913.772	4379
913.886	4268
914	4253
914.113	4341
914.226	4428
914.34	4413
914.453	4234
914.566	4417
914.68	4310
914.793	4356
914.906	4185
915.019	4120
915.132	4097
915.245	4215
915.358	4185
915.47	4257
915.583	4295
915.696	4352
915.809	4443
915.921	4402
916.034	4280
916.146	4246
916.259	4219
916.371	4402
916.483	4325
916.595	4284
916.708	4417
916.82	4337
916.932	4295
917.044	4390
917.156	4363
917.268	4242
917.38	4276
917.491	4284
917.603	4333
917.715	4443
917.826	4409
917.938	4371
918.049	4242
918.161	4383
918.272	4500
918.384	4500
918.495	4481
918.606	4333
918.717	4265
918.828	4303
918.939	4383
919.05	4253
919.161	4337
919.272	4139
919.383	4280
919.494	4421
919.604	4588
919.715	4421
919.826	4394
919.936	4379
920.047	4561
920.157	4523
920.267	4733
920.378	4558
920.488	4481
920.598	4675
920.708	4881
920.818	4744
920.928	4786
921.038	4961
921.148	4900
921.258	4641
921.368	4577
921.477	4527
921.587	4504
921.697	4417
921.806	4542
921.916	4443
922.025	4291
922.134	4318
922.244	4223
922.353	4303
922.462	4169
922.571	4173
922.68	3972
922.789	4006
922.898	4074
923.007	4010
923.116	4147
923.224	4074
923.333	4086
923.442	4036
923.55	4002
923.659	4040
923.767	4078
923.876	4071
923.984	4154
924.092	4021
924.201	4074
924.309	4139
924.417	4147
924.525	4090
924.633	4154
924.741	5086
924.849	3987
924.956	4162
925.064	4002
925.172	3945
925.279	4006
925.387	4109
925.494	4063
925.602	4249
925.709	4200
925.816	4044
925.924	4200
926.031	4280
926.138	4242
926.245	4211
926.352	4188
926.459	4333
926.566	4341
926.673	4223
926.779	4147
926.886	4120
926.993	4074
927.099	3998
927.206	3945
927.312	3994
927.419	4150
927.525	4063
927.631	4154
927.737	4063
927.843	3972
927.95	3876
928.056	4032
928.162	4032
928.267	4078
928.373	4645
928.479	4207
928.585	3953
928.69	4078
928.796	4116
928.901	3983
929.007	3876
929.112	4025
929.218	4006
929.323	4002
929.428	4036
929.533	4147
929.638	3972
929.743	4013
929.848	4074
929.953	4082
930.058	3987
930.163	3831
930.267	3915
930.372	4036
930.477	3884
930.581	4139
930.685	3998
930.79	3888
930.894	3915
930.998	3949
931.103	4051
931.207	3762
931.311	3755
931.415	3724
931.519	3568
931.623	3599
