Data from test_V78500241_1211.txt Node
Date: Fri Mar 25 16:57:25 CST 2022
User: usil
Spectrometer: V785-0024
Trigger mode: 0
Integration Time (sec): 4.000000E-1
Scans to average: 1
Nonlinearity correction enabled: false
Boxcar width: 0
Storing dark spectrum: false
XAxis mode: Wavelengths
Number of Pixels in Spectrum: 1024
>>>>>Begin Spectral Data<<<<<
801.071	8031
801.214	8012
801.356	7868
801.499	7833
801.641	7799
801.783	7731
801.926	7883
802.068	7883
802.211	7951
802.353	7955
802.496	7811
802.638	7898
802.78	7944
802.923	7887
803.065	7917
803.208	7814
803.35	7936
803.492	8069
803.635	8134
803.777	8058
803.919	8142
804.061	8389
804.204	8164
804.346	8088
804.488	7997
804.63	8100
804.773	8001
804.915	8115
805.057	8294
805.199	8138
805.341	8221
805.483	8237
805.626	8157
805.768	8168
805.91	8111
806.052	8123
806.194	8100
806.336	8298
806.478	8119
806.62	8103
806.762	8142
806.904	8290
807.046	8412
807.188	8400
807.33	8275
807.472	8263
807.614	8111
807.756	8081
807.898	8024
808.04	7883
808.182	7906
808.324	7894
808.465	7940
808.607	8069
808.749	8088
808.891	8172
809.033	8313
809.174	8229
809.316	8046
809.458	8027
809.6	7947
809.741	8012
809.883	7936
810.025	8088
810.166	8062
810.308	8069
810.45	7963
810.591	7868
810.733	7761
810.875	7620
811.016	7521
811.158	7544
811.299	7639
811.441	7734
811.582	7658
811.724	7533
811.865	7464
812.007	7575
812.148	7556
812.29	7620
812.431	7696
812.573	7909
812.714	7917
812.855	8145
812.997	8199
813.138	8362
813.279	8161
813.421	8062
813.562	7993
813.703	7833
813.845	7742
813.986	7453
814.127	7247
814.268	7247
814.41	7217
814.551	7156
814.692	7183
814.833	7027
814.974	7076
815.115	7027
815.256	6932
815.397	6916
815.539	6901
815.68	6772
815.821	6814
815.962	6833
816.103	6814
816.244	6703
816.385	6642
816.526	6601
816.666	6513
816.807	6258
816.948	6350
817.089	6460
817.23	6445
817.371	6357
817.512	6414
817.653	6369
817.793	6353
817.934	6414
818.075	6429
818.216	6448
818.356	6346
818.497	6209
818.638	6110
818.778	6144
818.919	6148
819.06	6209
819.2	6289
819.341	6266
819.481	6308
819.622	6528
819.762	6745
819.903	6650
820.043	6566
820.184	6559
820.324	6521
820.465	6722
820.605	6635
820.746	6604
820.886	6486
821.026	6658
821.167	6681
821.307	6730
821.447	6681
821.588	6677
821.728	6555
821.868	6483
822.008	6232
822.149	6395
822.289	6376
822.429	6129
822.569	6041
822.709	6079
822.849	5916
822.99	5935
823.13	5847
823.27	5885
823.41	5729
823.55	5760
823.69	5767
823.83	5760
823.97	5665
824.11	5558
824.25	5486
824.389	5524
824.529	5558
824.669	5490
824.809	5630
824.949	5665
825.089	5642
825.228	5520
825.368	5360
825.508	5364
825.648	5376
825.787	5383
825.927	5353
826.067	5322
826.206	5239
826.346	5433
826.485	5402
826.625	5478
826.765	5535
826.904	5478
827.044	5292
827.183	5216
827.323	5105
827.462	5288
827.601	5212
827.741	5140
827.88	5280
828.02	5140
828.159	5273
828.298	5345
828.437	5383
828.577	5288
828.716	5520
828.855	5311
828.994	5189
829.134	5178
829.273	5231
829.412	5159
829.551	5159
829.69	5162
829.829	5296
829.968	5421
830.107	5296
830.246	5311
830.385	5181
830.524	5128
830.663	5037
830.802	5075
830.941	4961
831.08	4923
831.219	5018
831.357	4995
831.496	5147
831.635	4957
831.774	4831
831.913	4831
832.051	4774
832.19	4824
832.329	4889
832.467	4725
832.606	4637
832.744	4778
832.883	4748
833.022	4752
833.16	4801
833.299	4828
833.437	4820
833.576	4885
833.714	4892
833.852	4877
833.991	4923
834.129	5022
834.267	4961
834.406	4968
834.544	5018
834.682	5067
834.821	5003
834.959	5208
835.097	4999
835.235	5178
835.373	5105
835.511	5098
835.65	5067
835.788	5052
835.926	4923
836.064	4873
836.202	4946
836.34	5189
836.478	5261
836.615	5121
836.753	5223
836.891	5326
837.029	5265
837.167	5261
837.305	5231
837.443	5254
837.58	5094
837.718	5265
837.856	5220
837.993	5185
838.131	5235
838.269	5235
838.406	5201
838.544	5250
838.681	5102
838.819	5018
838.956	4923
839.094	4946
839.231	5003
839.369	5102
839.506	5467
839.643	5277
839.781	5071
839.918	5064
840.055	5121
840.193	5132
840.33	5124
840.467	5170
840.604	5189
840.742	5448
840.879	5109
841.016	5071
841.153	5170
841.29	5448
841.427	5387
841.564	5353
841.701	5429
841.838	5261
841.975	5269
842.112	5326
842.249	5151
842.385	5124
842.522	5364
842.659	5166
842.796	5220
842.933	5235
843.069	5159
843.206	5140
843.343	5296
843.479	5242
843.616	5318
843.752	5075
843.889	5041
844.025	5239
844.162	5083
844.298	5288
844.435	5109
844.571	5109
844.708	5250
844.844	5376
844.98	5318
845.117	5322
845.253	5136
845.389	5083
845.525	5132
845.661	5136
845.798	5052
845.934	5155
846.07	5083
846.206	5204
846.342	5303
846.478	5185
846.614	5010
846.75	4942
846.886	4987
847.022	5193
847.158	5022
847.294	5045
847.429	5162
847.565	5048
847.701	5322
847.837	4915
847.972	4892
848.108	4987
848.244	4919
848.379	4805
848.515	4786
848.65	4717
848.786	4816
848.921	4839
849.057	4938
849.192	4889
849.328	4873
849.463	4835
849.598	4809
849.734	4809
849.869	4702
850.004	4645
850.14	4714
850.275	4653
850.41	4577
850.545	4588
850.68	4607
850.815	4622
850.95	4645
851.085	4835
851.22	4748
851.355	4694
851.49	4580
851.625	4641
851.76	4672
851.895	4622
852.03	4531
852.165	4637
852.299	4736
852.434	4782
852.569	4717
852.703	4805
852.838	4873
852.973	4942
853.107	4934
853.242	4767
853.376	4664
853.511	4580
853.645	4611
853.78	4805
853.914	4755
854.048	4698
854.183	4656
854.317	4687
854.451	4858
854.585	4736
854.72	4641
854.854	4790
854.988	4577
855.122	4729
855.256	4573
855.39	4702
855.524	4824
855.658	4744
855.792	4698
855.926	4771
856.06	4805
856.194	4793
856.327	4729
856.461	4611
856.595	4615
856.729	4656
856.862	4797
856.996	4683
857.13	4702
857.263	4778
857.397	4862
857.53	4675
857.664	4717
857.797	4793
857.931	4809
858.064	4710
858.197	4706
858.331	4710
858.464	4615
858.597	4546
858.731	4637
858.864	4672
858.997	4584
859.13	4672
859.263	4660
859.396	4721
859.529	4641
859.662	4596
859.795	4519
859.928	4622
860.061	4767
860.194	4736
860.327	4634
860.46	4569
860.592	4717
860.725	4748
860.858	4736
860.99	4603
861.123	4588
861.256	4573
861.388	4653
861.521	5284
861.653	4500
861.786	4451
861.918	4459
862.05	4584
862.183	4599
862.315	4599
862.447	4664
862.58	4561
862.712	4432
862.844	4379
862.976	4516
863.108	4485
863.24	4877
863.372	4398
863.504	4459
863.636	4421
863.768	4478
863.9	4481
864.032	4390
864.164	4443
864.296	4542
864.428	4538
864.559	4577
864.691	4561
864.823	4561
864.954	4531
865.086	4500
865.217	4462
865.349	4466
865.48	4440
865.612	4519
865.743	4637
865.875	4500
866.006	4440
866.137	4451
866.269	4413
866.4	4470
866.531	4432
866.662	4402
866.793	4386
866.924	4459
867.055	4500
867.186	4474
867.317	4421
867.448	4363
867.579	4421
867.71	4386
867.841	4363
867.972	4478
868.103	4500
868.233	4481
868.364	4474
868.495	4489
868.625	4710
868.756	4778
868.886	4592
869.017	4645
869.147	4771
869.278	4797
869.408	4675
869.539	4630
869.669	4706
869.799	4645
869.929	4767
870.06	4805
870.19	4961
870.32	4930
870.45	4915
870.58	5014
870.71	5121
870.84	5094
870.97	4930
871.1	4972
871.23	5170
871.36	5105
871.489	5018
871.619	5056
871.749	5136
871.879	5147
872.008	5189
872.138	5056
872.267	5037
872.397	4866
872.526	4793
872.656	4698
872.785	4847
872.915	5006
873.044	5022
873.173	4919
873.303	4938
873.432	4991
873.561	4972
873.69	4900
873.819	4839
873.948	4870
874.077	4843
874.206	4782
874.335	4801
874.464	4892
874.593	5067
874.722	5006
874.851	5079
874.979	5060
875.108	5083
875.237	4923
875.365	4900
875.494	4896
875.623	4980
875.751	4828
875.88	4908
876.008	4957
876.136	5018
876.265	5231
876.393	5349
876.521	5261
876.65	5254
876.778	5151
876.906	5109
877.034	5037
877.162	5086
877.29	4980
877.418	5060
877.546	5067
877.674	5052
877.802	5102
877.93	5018
878.058	4923
878.185	4889
878.313	4949
878.441	4949
878.568	4801
878.696	4854
878.824	4949
878.951	5033
879.079	5121
879.206	5311
879.333	5064
879.461	4995
879.588	5079
879.715	5048
879.842	5212
879.97	5022
880.097	4809
880.224	4767
880.351	4782
880.478	4824
880.605	4809
880.732	4797
880.859	5128
880.986	4854
881.112	4957
881.239	4812
881.366	4656
881.493	4618
881.619	4573
881.746	4607
881.872	4679
881.999	4702
882.125	4702
882.252	4820
882.378	4870
882.505	4991
882.631	4797
882.757	4691
882.883	4706
883.01	4706
883.136	4649
883.262	4634
883.388	4626
883.514	4759
883.64	4877
883.766	4816
883.892	4656
884.018	4687
884.143	4984
884.269	5037
884.395	4672
884.52	4634
884.646	4660
884.772	4558
884.897	4622
885.023	4630
885.148	4820
885.274	4908
885.399	4740
885.524	4733
885.65	4702
885.775	4782
885.9	4721
886.025	4892
886.15	4843
886.275	4683
886.4	4672
886.525	4778
886.65	4679
886.775	4675
886.9	4904
887.025	5033
887.149	4870
887.274	4641
887.399	4603
887.523	4573
887.648	4618
887.773	4634
887.897	4782
888.021	4790
888.146	4660
888.27	4816
888.395	4946
888.519	4816
888.643	4786
888.767	4835
888.891	4675
889.015	4584
889.139	4668
889.263	4599
889.387	4778
889.511	4885
889.635	4835
889.759	4626
889.883	4626
890.006	4725
890.13	4809
890.254	4615
890.377	4721
890.501	4618
890.624	4527
890.748	4618
890.871	4523
890.995	4451
891.118	4424
891.241	4516
891.364	4550
891.488	4599
891.611	4546
891.734	4558
891.857	4615
891.98	4538
892.103	4626
892.226	4630
892.349	4546
892.471	4371
892.594	4500
892.717	4611
892.839	4546
892.962	4664
893.085	4622
893.207	4611
893.33	4474
893.452	4531
893.575	4603
893.697	4538
893.819	4816
893.941	4847
894.064	4801
894.186	4561
894.308	4580
894.43	4698
894.552	4793
894.674	4725
894.796	4535
894.918	4596
895.04	4558
895.161	4744
895.283	4683
895.405	4546
895.526	4660
895.648	4706
895.769	4714
895.891	4729
896.012	4763
896.134	4717
896.255	4683
896.376	4599
896.498	4618
896.619	4694
896.74	4615
896.861	4634
896.982	4968
897.103	5029
897.224	4866
897.345	4702
897.466	4721
897.587	4771
897.708	4835
897.828	4771
897.949	4717
898.07	4535
898.19	4645
898.311	4805
898.431	4691
898.552	4744
898.672	4831
898.792	4755
898.913	4748
899.033	4615
899.153	4554
899.273	4428
899.393	4508
899.513	4500
899.633	4535
899.753	4546
899.873	4546
899.993	4603
900.113	4481
900.232	4592
900.352	4527
900.472	4542
900.591	4432
900.711	4497
900.83	4478
900.95	4607
901.069	4672
901.189	4504
901.308	4367
901.427	4371
901.546	4386
901.665	4451
901.784	4531
901.904	4394
902.023	4329
902.141	4188
902.26	4181
902.379	4337
902.498	4272
902.617	4196
902.735	4424
902.854	4432
902.973	4363
903.091	4246
903.21	4257
903.328	4310
903.446	4265
903.565	4276
903.683	4383
903.801	4261
903.919	4421
904.038	4413
904.156	4314
904.274	4447
904.392	4363
904.51	4421
904.627	4512
904.745	4584
904.863	4622
904.981	4386
905.098	4314
905.216	4394
905.334	4402
905.451	4405
905.569	4428
905.686	4542
905.803	4569
905.921	4428
906.038	4535
906.155	4451
906.272	4375
906.389	4455
906.506	4375
906.623	4360
906.74	4424
906.857	4303
906.974	4390
907.091	4584
907.208	4672
907.324	4558
907.441	4504
907.557	4371
907.674	4303
907.79	4306
907.907	4363
908.023	4500
908.139	4504
908.256	4432
908.372	4455
908.488	4440
908.604	4344
908.72	4303
908.836	4360
908.952	4356
909.068	4421
909.184	4599
909.3	4481
909.415	4615
909.531	4634
909.647	4413
909.762	4390
909.878	4333
909.993	4398
910.108	4424
910.224	4440
910.339	4459
910.454	4405
910.57	4375
910.685	4272
910.8	4675
910.915	4634
911.03	4459
911.145	4333
911.259	4299
911.374	4375
911.489	4303
911.604	4303
911.718	4211
911.833	4196
911.947	4082
912.062	4059
912.176	4200
912.291	4223
912.405	4238
912.519	4470
912.633	4497
912.748	4344
912.862	4303
912.976	4238
913.09	4082
913.204	4147
913.318	4204
913.431	4402
913.545	4375
913.659	4497
913.772	4371
913.886	4253
914	4265
914.113	4329
914.226	4451
914.34	4341
914.453	4207
914.566	4478
914.68	4318
914.793	4272
914.906	4185
915.019	4143
915.132	4074
915.245	4154
915.358	4223
915.47	4219
915.583	4299
915.696	4306
915.809	4409
915.921	4417
916.034	4272
916.146	4295
916.259	4223
916.371	4329
916.483	4348
916.595	4280
916.708	4287
916.82	4333
916.932	4356
917.044	4306
917.156	4329
917.268	4253
917.38	4367
917.491	4303
917.603	4303
917.715	4421
917.826	4421
917.938	4341
918.049	4211
918.161	4436
918.272	4573
918.384	4542
918.495	4462
918.606	4303
918.717	4257
918.828	4375
918.939	4360
919.05	4265
919.161	4306
919.272	4105
919.383	4268
919.494	4398
919.604	4565
919.715	4428
919.826	4341
919.936	4421
920.047	4508
920.157	4478
920.267	4706
920.378	4512
920.488	4493
920.598	4706
920.708	4847
920.818	4771
920.928	4710
921.038	4934
921.148	4866
921.258	4634
921.368	4592
921.477	4516
921.587	4485
921.697	4367
921.806	4542
921.916	4440
922.025	4246
922.134	4280
922.244	4181
922.353	4341
922.462	4177
922.571	4158
922.68	3987
922.789	3934
922.898	4067
923.007	4025
923.116	4082
923.224	4036
923.333	4029
923.442	3975
923.55	3979
923.659	3998
923.767	4112
923.876	4010
923.984	4105
924.092	4006
924.201	4086
924.309	4093
924.417	4181
924.525	4036
924.633	4078
924.741	5022
924.849	3899
924.956	4131
925.064	4010
925.172	3869
925.279	3983
925.387	4090
925.494	4078
925.602	4158
925.709	4204
925.816	4063
925.924	4181
926.031	4211
926.138	4207
926.245	4192
926.352	4055
926.459	4227
926.566	4303
926.673	4158
926.779	4071
926.886	4078
926.993	3979
927.099	3945
927.206	3937
927.312	3934
927.419	4017
927.525	4059
927.631	4082
927.737	3949
927.843	3926
927.95	3808
928.056	3918
928.162	3987
928.267	4090
928.373	4683
928.479	4090
928.585	3888
928.69	4029
928.796	4067
928.901	3941
929.007	3842
929.112	3991
929.218	3972
929.323	3960
929.428	3937
929.533	4131
929.638	3869
929.743	3949
929.848	4059
929.953	3911
930.058	3888
930.163	3827
930.267	3846
930.372	3979
930.477	3781
930.581	4093
930.685	3960
930.79	3831
930.894	3915
930.998	3808
931.103	4029
931.207	3736
931.311	3656
931.415	3679
931.519	3507
931.623	3545
