Data from test_V78500241_1124.txt Node
Date: Fri Mar 25 16:56:49 CST 2022
User: usil
Spectrometer: V785-0024
Trigger mode: 0
Integration Time (sec): 4.000000E-1
Scans to average: 1
Nonlinearity correction enabled: false
Boxcar width: 0
Storing dark spectrum: false
XAxis mode: Wavelengths
Number of Pixels in Spectrum: 1024
>>>>>Begin Spectral Data<<<<<
801.071	8035
801.214	8020
801.356	7849
801.499	7826
801.641	7677
801.783	7750
801.926	7921
802.068	7898
802.211	7951
802.353	7951
802.496	7757
802.638	7856
802.78	7909
802.923	7871
803.065	7818
803.208	7860
803.35	7932
803.492	8084
803.635	8107
803.777	8012
803.919	8164
804.061	8446
804.204	8157
804.346	8069
804.488	7978
804.63	8119
804.773	8050
804.915	8046
805.057	8259
805.199	8153
805.341	8138
805.483	8229
805.626	8225
805.768	8062
805.91	8195
806.052	8202
806.194	8084
806.336	8355
806.478	8058
806.62	8115
806.762	8138
806.904	8301
807.046	8419
807.188	8324
807.33	8290
807.472	8267
807.614	8138
807.756	8138
807.898	8001
808.04	7864
808.182	7864
808.324	7940
808.465	7951
808.607	8012
808.749	8069
808.891	8180
809.033	8263
809.174	8214
809.316	8054
809.458	8065
809.6	8001
809.741	8043
809.883	8008
810.025	8031
810.166	8069
810.308	7993
810.45	8016
810.591	7898
810.733	7658
810.875	7567
811.016	7464
811.158	7464
811.299	7601
811.441	7693
811.582	7700
811.724	7620
811.865	7533
812.007	7537
812.148	7582
812.29	7639
812.431	7723
812.573	7833
812.714	7967
812.855	8092
812.997	8187
813.138	8290
813.279	8172
813.421	8138
813.562	8020
813.703	7879
813.845	7727
813.986	7407
814.127	7247
814.268	7179
814.41	7103
814.551	7027
814.692	7088
814.833	7061
814.974	7072
815.115	7099
815.256	6951
815.397	6951
815.539	6951
815.68	6863
815.821	6772
815.962	6772
816.103	6867
816.244	6768
816.385	6623
816.526	6631
816.666	6410
816.807	6296
816.948	6388
817.089	6460
817.23	6388
817.371	6418
817.512	6331
817.653	6407
817.793	6422
817.934	6376
818.075	6460
818.216	6467
818.356	6331
818.497	6220
818.638	6148
818.778	6171
818.919	6117
819.06	6121
819.2	6331
819.341	6292
819.481	6395
819.622	6532
819.762	6738
819.903	6696
820.043	6623
820.184	6574
820.324	6601
820.465	6673
820.605	6692
820.746	6585
820.886	6407
821.026	6631
821.167	6669
821.307	6760
821.447	6715
821.588	6627
821.728	6559
821.868	6528
822.008	6319
822.149	6296
822.289	6342
822.429	6133
822.569	6057
822.709	6072
822.849	5935
822.99	5874
823.13	5885
823.27	5904
823.41	5779
823.55	5767
823.69	5779
823.83	5813
823.97	5638
824.11	5539
824.25	5490
824.389	5528
824.529	5493
824.669	5528
824.809	5611
824.949	5615
825.089	5543
825.228	5532
825.368	5360
825.508	5311
825.648	5318
825.787	5292
825.927	5379
826.067	5330
826.206	5208
826.346	5357
826.485	5345
826.625	5376
826.765	5539
826.904	5509
827.044	5231
827.183	5174
827.323	5090
827.462	5254
827.601	5162
827.741	5220
827.88	5189
828.02	5113
828.159	5201
828.298	5307
828.437	5318
828.577	5254
828.716	5463
828.855	5303
828.994	5143
829.134	5102
829.273	5174
829.412	5140
829.551	5121
829.69	5170
829.829	5231
829.968	5357
830.107	5246
830.246	5280
830.385	5105
830.524	5124
830.663	5060
830.802	4927
830.941	4866
831.08	4850
831.219	4965
831.357	4908
831.496	5159
831.635	4957
831.774	4816
831.913	4839
832.051	4679
832.19	4748
832.329	4828
832.467	4641
832.606	4599
832.744	4660
832.883	4691
833.022	4721
833.16	4786
833.299	4763
833.437	4816
833.576	4831
833.714	4786
833.852	4828
833.991	4873
834.129	4938
834.267	4896
834.406	4915
834.544	4953
834.682	4984
834.821	4953
834.959	5170
835.097	5018
835.235	5170
835.373	5079
835.511	5067
835.65	5018
835.788	4999
835.926	4854
836.064	4854
836.202	4927
836.34	5147
836.478	5189
836.615	5136
836.753	5231
836.891	5258
837.029	5220
837.167	5197
837.305	5170
837.443	5121
837.58	5109
837.718	5181
837.856	5159
837.993	5136
838.131	5223
838.269	5212
838.406	5174
838.544	5181
838.681	5056
838.819	5010
838.956	4927
839.094	4877
839.231	4976
839.369	5060
839.506	5440
839.643	5288
839.781	5064
839.918	4972
840.055	5090
840.193	5083
840.33	5041
840.467	5147
840.604	5197
840.742	5444
840.879	5102
841.016	5060
841.153	5132
841.29	5368
841.427	5311
841.564	5326
841.701	5357
841.838	5265
841.975	5189
842.112	5269
842.249	5132
842.385	5086
842.522	5318
842.659	5121
842.796	5147
842.933	5124
843.069	5140
843.206	5136
843.343	5273
843.479	5189
843.616	5269
843.752	5003
843.889	5025
844.025	5212
844.162	5010
844.298	5193
844.435	5037
844.571	5022
844.708	5208
844.844	5288
844.98	5326
845.117	5277
845.253	5143
845.389	5045
845.525	5109
845.661	5105
845.798	4968
845.934	5079
846.07	5067
846.206	5159
846.342	5296
846.478	5166
846.614	5006
846.75	4915
846.886	4896
847.022	5098
847.158	5033
847.294	5064
847.429	5090
847.565	5029
847.701	5284
847.837	4870
847.972	4763
848.108	4915
848.244	4938
848.379	4748
848.515	4736
848.65	4660
848.786	4752
848.921	4748
849.057	4839
849.192	4938
849.328	4843
849.463	4858
849.598	4778
849.734	4725
849.869	4687
850.004	4683
850.14	4630
850.275	4603
850.41	4527
850.545	4580
850.68	4580
850.815	4603
850.95	4645
851.085	4881
851.22	4694
851.355	4660
851.49	4607
851.625	4630
851.76	4664
851.895	4558
852.03	4535
852.165	4660
852.299	4710
852.434	4763
852.569	4736
852.703	4736
852.838	4809
852.973	4904
853.107	4904
853.242	4691
853.376	4698
853.511	4550
853.645	4596
853.78	4809
853.914	4672
854.048	4630
854.183	4626
854.317	4653
854.451	4786
854.585	4653
854.72	4653
854.854	4759
854.988	4569
855.122	4649
855.256	4531
855.39	4618
855.524	4744
855.658	4710
855.792	4645
855.926	4694
856.06	4729
856.194	4790
856.327	4679
856.461	4656
856.595	4588
856.729	4618
856.862	4729
856.996	4675
857.13	4729
857.263	4721
857.397	4797
857.53	4656
857.664	4752
857.797	4755
857.931	4752
858.064	4691
858.197	4733
858.331	4656
858.464	4592
858.597	4546
858.731	4592
858.864	4607
858.997	4577
859.13	4634
859.263	4672
859.396	4714
859.529	4565
859.662	4558
859.795	4542
859.928	4596
860.061	4771
860.194	4721
860.327	4573
860.46	4561
860.592	4645
860.725	4767
860.858	4729
860.99	4577
861.123	4519
861.256	4466
861.388	4596
861.521	5280
861.653	4519
861.786	4459
861.918	4451
862.05	4508
862.183	4538
862.315	4596
862.447	4607
862.58	4523
862.712	4360
862.844	4299
862.976	4466
863.108	4432
863.24	4820
863.372	4341
863.504	4398
863.636	4421
863.768	4523
863.9	4432
864.032	4325
864.164	4386
864.296	4508
864.428	4516
864.559	4538
864.691	4527
864.823	4542
864.954	4470
865.086	4500
865.217	4474
865.349	4367
865.48	4443
865.612	4462
865.743	4607
865.875	4424
866.006	4436
866.137	4470
866.269	4428
866.4	4436
866.531	4421
866.662	4409
866.793	4409
866.924	4409
867.055	4455
867.186	4497
867.317	4440
867.448	4386
867.579	4360
867.71	4402
867.841	4390
867.972	4443
868.103	4455
868.233	4405
868.364	4398
868.495	4428
868.625	4641
868.756	4771
868.886	4531
869.017	4637
869.147	4767
869.278	4793
869.408	4630
869.539	4599
869.669	4729
869.799	4687
869.929	4698
870.06	4752
870.19	4946
870.32	4930
870.45	4915
870.58	5045
870.71	5086
870.84	5109
870.97	4896
871.1	4881
871.23	5128
871.36	5132
871.489	5003
871.619	5060
871.749	5094
871.879	5071
872.008	5143
872.138	5075
872.267	4987
872.397	4828
872.526	4793
872.656	4717
872.785	4763
872.915	4946
873.044	5033
873.173	4972
873.303	4919
873.432	4938
873.561	4938
873.69	4843
873.819	4873
873.948	4934
874.077	4850
874.206	4744
874.335	4805
874.464	4915
874.593	5067
874.722	4965
874.851	5056
874.979	5083
875.108	5037
875.237	4915
875.365	4862
875.494	4866
875.623	4919
875.751	4774
875.88	4892
876.008	4999
876.136	5033
876.265	5208
876.393	5307
876.521	5277
876.65	5250
876.778	5193
876.906	4995
877.034	4980
877.162	5071
877.29	4991
877.418	5014
877.546	5025
877.674	5029
877.802	5037
877.93	4995
878.058	4987
878.185	4900
878.313	4930
878.441	4938
878.568	4816
878.696	4854
878.824	4934
878.951	4949
879.079	5090
879.206	5212
879.333	5143
879.461	4972
879.588	4923
879.715	5079
879.842	5170
879.97	4961
880.097	4778
880.224	4755
880.351	4828
880.478	4812
880.605	4782
880.732	4782
880.859	5064
880.986	4904
881.112	4908
881.239	4809
881.366	4637
881.493	4626
881.619	4611
881.746	4668
881.872	4710
881.999	4645
882.125	4656
882.252	4774
882.378	4824
882.505	4991
882.631	4801
882.757	4649
882.883	4698
883.01	4706
883.136	4649
883.262	4535
883.388	4577
883.514	4809
883.64	4847
883.766	4778
883.892	4615
884.018	4698
884.143	4824
884.269	4987
884.395	4656
884.52	4615
884.646	4641
884.772	4538
884.897	4546
885.023	4626
885.148	4797
885.274	4847
885.399	4778
885.524	4710
885.65	4668
885.775	4706
885.9	4736
886.025	4866
886.15	4744
886.275	4691
886.4	4698
886.525	4736
886.65	4683
886.775	4649
886.9	4877
887.025	5041
887.149	4774
887.274	4660
887.399	4611
887.523	4538
887.648	4577
887.773	4546
887.897	4774
888.021	4801
888.146	4691
888.27	4835
888.395	4904
888.519	4839
888.643	4820
888.767	4850
888.891	4622
889.015	4599
889.139	4694
889.263	4565
889.387	4763
889.511	4866
889.635	4774
889.759	4607
889.883	4630
890.006	4702
890.13	4820
890.254	4615
890.377	4675
890.501	4546
890.624	4508
890.748	4596
890.871	4508
890.995	4398
891.118	4398
891.241	4546
891.364	4451
891.488	4634
891.611	4504
891.734	4504
891.857	4611
891.98	4535
892.103	4611
892.226	4573
892.349	4470
892.471	4424
892.594	4569
892.717	4580
892.839	4546
892.962	4580
893.085	4672
893.207	4634
893.33	4466
893.452	4508
893.575	4668
893.697	4550
893.819	4805
893.941	4816
894.064	4733
894.186	4580
894.308	4558
894.43	4687
894.552	4801
894.674	4725
894.796	4558
894.918	4577
895.04	4584
895.161	4691
895.283	4630
895.405	4577
895.526	4634
895.648	4656
895.769	4656
895.891	4698
896.012	4706
896.134	4714
896.255	4687
896.376	4615
896.498	4622
896.619	4714
896.74	4645
896.861	4622
896.982	4930
897.103	5083
897.224	4854
897.345	4740
897.466	4668
897.587	4744
897.708	4847
897.828	4797
897.949	4634
898.07	4546
898.19	4660
898.311	4755
898.431	4683
898.552	4710
898.672	4809
898.792	4805
898.913	4725
899.033	4599
899.153	4443
899.273	4413
899.393	4455
899.513	4489
899.633	4512
899.753	4546
899.873	4485
899.993	4622
900.113	4527
900.232	4596
900.352	4527
900.472	4493
900.591	4409
900.711	4497
900.83	4447
900.95	4596
901.069	4706
901.189	4527
901.308	4325
901.427	4306
901.546	4394
901.665	4474
901.784	4474
901.904	4375
902.023	4341
902.141	4147
902.26	4162
902.379	4257
902.498	4246
902.617	4215
902.735	4375
902.854	4371
902.973	4352
903.091	4223
903.21	4219
903.328	4299
903.446	4287
903.565	4303
903.683	4363
903.801	4249
903.919	4386
904.038	4421
904.156	4268
904.274	4405
904.392	4390
904.51	4447
904.627	4455
904.745	4558
904.863	4626
904.981	4383
905.098	4329
905.216	4360
905.334	4428
905.451	4390
905.569	4474
905.686	4588
905.803	4565
905.921	4417
906.038	4535
906.155	4519
906.272	4421
906.389	4424
906.506	4363
906.623	4360
906.74	4432
906.857	4284
906.974	4344
907.091	4592
907.208	4679
907.324	4592
907.441	4519
907.557	4318
907.674	4303
907.79	4303
907.907	4409
908.023	4455
908.139	4470
908.256	4417
908.372	4470
908.488	4447
908.604	4356
908.72	4299
908.836	4402
908.952	4348
909.068	4443
909.184	4558
909.3	4443
909.415	4535
909.531	4542
909.647	4402
909.762	4371
909.878	4299
909.993	4485
910.108	4405
910.224	4405
910.339	4527
910.454	4386
910.57	4333
910.685	4299
910.8	4603
910.915	4565
911.03	4500
911.145	4303
911.259	4303
911.374	4356
911.489	4280
911.604	4291
911.718	4181
911.833	4219
911.947	4029
912.062	4029
912.176	4207
912.291	4219
912.405	4207
912.519	4478
912.633	4527
912.748	4333
912.862	4299
912.976	4188
913.09	4093
913.204	4162
913.318	4230
913.431	4348
913.545	4390
913.659	4443
913.772	4348
913.886	4246
914	4204
914.113	4375
914.226	4421
914.34	4367
914.453	4257
914.566	4375
914.68	4306
914.793	4333
914.906	4139
915.019	4116
915.132	4071
915.245	4166
915.358	4177
915.47	4204
915.583	4284
915.696	4325
915.809	4421
915.921	4428
916.034	4276
916.146	4246
916.259	4242
916.371	4360
916.483	4375
916.595	4310
916.708	4375
916.82	4310
916.932	4333
917.044	4310
917.156	4341
917.268	4238
917.38	4234
917.491	4291
917.603	4333
917.715	4383
917.826	4398
917.938	4348
918.049	4204
918.161	4371
918.272	4516
918.384	4565
918.495	4424
918.606	4295
918.717	4234
918.828	4310
918.939	4356
919.05	4249
919.161	4348
919.272	4124
919.383	4227
919.494	4443
919.604	4603
919.715	4485
919.826	4360
919.936	4405
920.047	4512
920.157	4485
920.267	4660
920.378	4516
920.488	4497
920.598	4660
920.708	4889
920.818	4721
920.928	4752
921.038	4892
921.148	4892
921.258	4649
921.368	4500
921.477	4485
921.587	4489
921.697	4337
921.806	4561
921.916	4394
922.025	4261
922.134	4253
922.244	4230
922.353	4318
922.462	4135
922.571	4116
922.68	3994
922.789	4013
922.898	4048
923.007	3991
923.116	4093
923.224	4051
923.333	4067
923.442	3964
923.55	3998
923.659	3991
923.767	4086
923.876	4002
923.984	4135
924.092	4006
924.201	4059
924.309	4078
924.417	4109
924.525	4036
924.633	4093
924.741	5029
924.849	3922
924.956	4067
925.064	3964
925.172	3903
925.279	3945
925.387	4059
925.494	4040
925.602	4207
925.709	4177
925.816	4010
925.924	4143
926.031	4234
926.138	4177
926.245	4211
926.352	4090
926.459	4295
926.566	4280
926.673	4154
926.779	4128
926.886	4086
926.993	3987
927.099	3983
927.206	3949
927.312	3956
927.419	3979
927.525	4025
927.631	4109
927.737	3937
927.843	3918
927.95	3804
928.056	3918
928.162	3975
928.267	4063
928.373	4702
928.479	4090
928.585	3861
928.69	4006
928.796	4025
928.901	3975
929.007	3876
929.112	3960
929.218	3953
929.323	3907
929.428	3949
929.533	4071
929.638	3930
929.743	3968
929.848	4013
929.953	3975
930.058	3922
930.163	3808
930.267	3778
930.372	3937
930.477	3793
930.581	4078
930.685	3926
930.79	3846
930.894	3861
930.998	3831
931.103	3972
931.207	3724
931.311	3698
931.415	3675
931.519	3507
931.623	3538
