Data from test_V78500241_2813.txt Node
Date: Fri Mar 25 17:08:33 CST 2022
User: usil
Spectrometer: V785-0024
Trigger mode: 0
Integration Time (sec): 4.000000E-1
Scans to average: 1
Nonlinearity correction enabled: false
Boxcar width: 0
Storing dark spectrum: false
XAxis mode: Wavelengths
Number of Pixels in Spectrum: 1024
>>>>>Begin Spectral Data<<<<<
801.071	7978
801.214	8008
801.356	7849
801.499	7883
801.641	7746
801.783	7868
801.926	7986
802.068	7909
802.211	7986
802.353	7959
802.496	7814
802.638	7868
802.78	7925
802.923	7925
803.065	7856
803.208	7772
803.35	7955
803.492	8138
803.635	8191
803.777	8027
803.919	8081
804.061	8476
804.204	8111
804.346	8069
804.488	7928
804.63	8069
804.773	7997
804.915	8161
805.057	8263
805.199	8153
805.341	8237
805.483	8252
805.626	8214
805.768	8130
805.91	8164
806.052	8187
806.194	8153
806.336	8229
806.478	8161
806.62	8039
806.762	8107
806.904	8191
807.046	8419
807.188	8400
807.33	8301
807.472	8301
807.614	8180
807.756	8229
807.898	8020
808.04	7909
808.182	7921
808.324	7947
808.465	7921
808.607	8058
808.749	8134
808.891	8180
809.033	8351
809.174	8259
809.316	8058
809.458	8039
809.6	7928
809.741	8001
809.883	8054
810.025	8126
810.166	8081
810.308	8077
810.45	8054
810.591	7860
810.733	7677
810.875	7658
811.016	7533
811.158	7411
811.299	7594
811.441	7742
811.582	7693
811.724	7597
811.865	7571
812.007	7628
812.148	7556
812.29	7685
812.431	7769
812.573	7871
812.714	8062
812.855	8077
812.997	8240
813.138	8355
813.279	8157
813.421	8157
813.562	7967
813.703	7898
813.845	7761
813.986	7449
814.127	7301
814.268	7331
814.41	7190
814.551	7221
814.692	7225
814.833	7129
814.974	7038
815.115	7091
815.256	7008
815.397	6932
815.539	6947
815.68	6840
815.821	6806
815.962	6871
816.103	6871
816.244	6757
816.385	6623
816.526	6639
816.666	6517
816.807	6254
816.948	6399
817.089	6502
817.23	6414
817.371	6388
817.512	6304
817.653	6422
817.793	6331
817.934	6441
818.075	6506
818.216	6414
818.356	6441
818.497	6277
818.638	6095
818.778	6197
818.919	6167
819.06	6136
819.2	6315
819.341	6277
819.481	6334
819.622	6536
819.762	6707
819.903	6692
820.043	6593
820.184	6642
820.324	6570
820.465	6662
820.605	6719
820.746	6639
820.886	6547
821.026	6593
821.167	6703
821.307	6745
821.447	6787
821.588	6639
821.728	6646
821.868	6506
822.008	6338
822.149	6372
822.289	6338
822.429	6136
822.569	6087
822.709	6136
822.849	5965
822.99	5935
823.13	5901
823.27	5923
823.41	5760
823.55	5802
823.69	5737
823.83	5760
823.97	5619
824.11	5493
824.25	5501
824.389	5539
824.529	5611
824.669	5501
824.809	5672
824.949	5630
825.089	5630
825.228	5566
825.368	5349
825.508	5376
825.648	5406
825.787	5395
825.927	5414
826.067	5288
826.206	5311
826.346	5349
826.485	5417
826.625	5444
826.765	5592
826.904	5535
827.044	5292
827.183	5242
827.323	5197
827.462	5288
827.601	5208
827.741	5185
827.88	5246
828.02	5155
828.159	5292
828.298	5322
828.437	5398
828.577	5315
828.716	5528
828.855	5330
828.994	5197
829.134	5193
829.273	5201
829.412	5193
829.551	5170
829.69	5170
829.829	5277
829.968	5429
830.107	5311
830.246	5280
830.385	5223
830.524	5136
830.663	5052
830.802	5003
830.941	4915
831.08	4908
831.219	4972
831.357	4972
831.496	5204
831.635	4976
831.774	4908
831.913	4915
832.051	4778
832.19	4771
832.329	4858
832.467	4755
832.606	4683
832.744	4809
832.883	4778
833.022	4752
833.16	4835
833.299	4873
833.437	4881
833.576	4930
833.714	4892
833.852	4896
833.991	4980
834.129	5025
834.267	4991
834.406	4995
834.544	5003
834.682	5014
834.821	4991
834.959	5170
835.097	4999
835.235	5178
835.373	5140
835.511	5121
835.65	5067
835.788	5056
835.926	4915
836.064	4923
836.202	4953
836.34	5201
836.478	5269
836.615	5140
836.753	5220
836.891	5372
837.029	5303
837.167	5231
837.305	5162
837.443	5170
837.58	5162
837.718	5254
837.856	5193
837.993	5208
838.131	5280
838.269	5239
838.406	5242
838.544	5231
838.681	5079
838.819	5079
838.956	4968
839.094	4927
839.231	4995
839.369	5102
839.506	5414
839.643	5337
839.781	5105
839.918	5090
840.055	5159
840.193	5174
840.33	5185
840.467	5159
840.604	5166
840.742	5467
840.879	5105
841.016	5143
841.153	5181
841.29	5414
841.427	5360
841.564	5345
841.701	5353
841.838	5326
841.975	5258
842.112	5341
842.249	5174
842.385	5162
842.522	5387
842.659	5220
842.796	5227
842.933	5216
843.069	5185
843.206	5231
843.343	5353
843.479	5277
843.616	5288
843.752	5041
843.889	5033
844.025	5246
844.162	5033
844.298	5239
844.435	5102
844.571	5079
844.708	5208
844.844	5334
844.98	5360
845.117	5318
845.253	5223
845.389	5143
845.525	5197
845.661	5143
845.798	5033
845.934	5121
846.07	5094
846.206	5181
846.342	5299
846.478	5174
846.614	5094
846.75	5014
846.886	4953
847.022	5174
847.158	5041
847.294	5102
847.429	5143
847.565	5075
847.701	5368
847.837	4915
847.972	4839
848.108	4938
848.244	5048
848.379	4793
848.515	4805
848.65	4748
848.786	4805
848.921	4767
849.057	4900
849.192	4919
849.328	4805
849.463	4877
849.598	4790
849.734	4816
849.869	4733
850.004	4611
850.14	4736
850.275	4622
850.41	4550
850.545	4569
850.68	4626
850.815	4615
850.95	4645
851.085	4843
851.22	4816
851.355	4679
851.49	4645
851.625	4660
851.76	4645
851.895	4569
852.03	4561
852.165	4664
852.299	4755
852.434	4847
852.569	4797
852.703	4812
852.838	4908
852.973	4927
853.107	4968
853.242	4744
853.376	4660
853.511	4588
853.645	4683
853.78	4843
853.914	4710
854.048	4691
854.183	4702
854.317	4725
854.451	4911
854.585	4710
854.72	4630
854.854	4793
854.988	4656
855.122	4660
855.256	4554
855.39	4683
855.524	4831
855.658	4702
855.792	4721
855.926	4714
856.06	4752
856.194	4809
856.327	4721
856.461	4622
856.595	4664
856.729	4683
856.862	4790
856.996	4721
857.13	4748
857.263	4774
857.397	4816
857.53	4694
857.664	4744
857.797	4797
857.931	4820
858.064	4744
858.197	4809
858.331	4706
858.464	4622
858.597	4561
858.731	4694
858.864	4706
858.997	4653
859.13	4740
859.263	4664
859.396	4717
859.529	4611
859.662	4554
859.795	4577
859.928	4656
860.061	4790
860.194	4801
860.327	4645
860.46	4577
860.592	4752
860.725	4714
860.858	4748
860.99	4622
861.123	4565
861.256	4577
861.388	4641
861.521	5315
861.653	4474
861.786	4436
861.918	4523
862.05	4535
862.183	4577
862.315	4607
862.447	4664
862.58	4554
862.712	4451
862.844	4383
862.976	4493
863.108	4500
863.24	4812
863.372	4344
863.504	4478
863.636	4428
863.768	4493
863.9	4466
864.032	4344
864.164	4459
864.296	4523
864.428	4561
864.559	4584
864.691	4584
864.823	4550
864.954	4523
865.086	4516
865.217	4485
865.349	4455
865.48	4466
865.612	4478
865.743	4641
865.875	4470
866.006	4413
866.137	4470
866.269	4500
866.4	4421
866.531	4455
866.662	4432
866.793	4455
866.924	4409
867.055	4508
867.186	4462
867.317	4432
867.448	4409
867.579	4447
867.71	4440
867.841	4383
867.972	4516
868.103	4478
868.233	4493
868.364	4451
868.495	4512
868.625	4618
868.756	4797
868.886	4577
869.017	4706
869.147	4790
869.278	4774
869.408	4702
869.539	4675
869.669	4816
869.799	4733
869.929	4790
870.06	4797
870.19	5003
870.32	4953
870.45	4987
870.58	5060
870.71	5109
870.84	5147
870.97	4976
871.1	4927
871.23	5181
871.36	5147
871.489	5060
871.619	5143
871.749	5117
871.879	5155
872.008	5178
872.138	5037
872.267	5052
872.397	4904
872.526	4850
872.656	4763
872.785	4778
872.915	4984
873.044	5033
873.173	4957
873.303	5006
873.432	4896
873.561	4972
873.69	4908
873.819	4892
873.948	4942
874.077	4862
874.206	4774
874.335	4870
874.464	4930
874.593	5128
874.722	5003
874.851	5124
874.979	5090
875.108	5064
875.237	4968
875.365	4881
875.494	4904
875.623	4999
875.751	4858
875.88	4915
876.008	4984
876.136	5041
876.265	5288
876.393	5391
876.521	5269
876.65	5292
876.778	5094
876.906	5086
877.034	5033
877.162	5052
877.29	4984
877.418	5083
877.546	5098
877.674	5109
877.802	5052
877.93	5079
878.058	4919
878.185	4862
878.313	4976
878.441	4972
878.568	4858
878.696	4927
878.824	4961
878.951	4999
879.079	5159
879.206	5337
879.333	5094
879.461	4961
879.588	5022
879.715	5166
879.842	5212
879.97	4999
880.097	4812
880.224	4812
880.351	4793
880.478	4896
880.605	4858
880.732	4786
880.859	5105
880.986	4930
881.112	4946
881.239	4812
881.366	4729
881.493	4622
881.619	4622
881.746	4603
881.872	4717
881.999	4691
882.125	4710
882.252	4740
882.378	4850
882.505	5018
882.631	4843
882.757	4694
882.883	4752
883.01	4774
883.136	4679
883.262	4618
883.388	4668
883.514	4831
883.64	4885
883.766	4839
883.892	4706
884.018	4729
884.143	4885
884.269	5033
884.395	4691
884.52	4622
884.646	4645
884.772	4603
884.897	4611
885.023	4706
885.148	4847
885.274	4877
885.399	4816
885.524	4744
885.65	4679
885.775	4767
885.9	4736
886.025	4866
886.15	4839
886.275	4729
886.4	4668
886.525	4748
886.65	4668
886.775	4717
886.9	4919
887.025	5067
887.149	4809
887.274	4649
887.399	4599
887.523	4675
887.648	4641
887.773	4599
887.897	4763
888.021	4774
888.146	4771
888.27	4858
888.395	4889
888.519	4801
888.643	4828
888.767	4824
888.891	4714
889.015	4580
889.139	4679
889.263	4550
889.387	4809
889.511	4904
889.635	4828
889.759	4653
889.883	4653
890.006	4748
890.13	4885
890.254	4615
890.377	4717
890.501	4561
890.624	4508
890.748	4649
890.871	4538
890.995	4417
891.118	4413
891.241	4512
891.364	4573
891.488	4618
891.611	4535
891.734	4573
891.857	4588
891.98	4569
892.103	4664
892.226	4607
892.349	4516
892.471	4421
892.594	4561
892.717	4618
892.839	4588
892.962	4588
893.085	4717
893.207	4599
893.33	4508
893.452	4558
893.575	4668
893.697	4577
893.819	4790
893.941	4866
894.064	4786
894.186	4588
894.308	4588
894.43	4717
894.552	4828
894.674	4782
894.796	4546
894.918	4588
895.04	4599
895.161	4714
895.283	4691
895.405	4611
895.526	4660
895.648	4710
895.769	4729
895.891	4717
896.012	4755
896.134	4672
896.255	4649
896.376	4752
896.498	4683
896.619	4717
896.74	4588
896.861	4672
896.982	4934
897.103	5079
897.224	4801
897.345	4778
897.466	4694
897.587	4668
897.708	4896
897.828	4816
897.949	4668
898.07	4573
898.19	4622
898.311	4850
898.431	4721
898.552	4755
898.672	4778
898.792	4816
898.913	4790
899.033	4641
899.153	4531
899.273	4432
899.393	4508
899.513	4535
899.633	4523
899.753	4508
899.873	4565
899.993	4550
900.113	4531
900.232	4615
900.352	4554
900.472	4519
900.591	4413
900.711	4535
900.83	4459
900.95	4641
901.069	4710
901.189	4497
901.308	4405
901.427	4337
901.546	4344
901.665	4542
901.784	4596
901.904	4402
902.023	4318
902.141	4234
902.26	4200
902.379	4333
902.498	4287
902.617	4242
902.735	4379
902.854	4402
902.973	4394
903.091	4257
903.21	4238
903.328	4310
903.446	4325
903.565	4268
903.683	4379
903.801	4314
903.919	4443
904.038	4470
904.156	4363
904.274	4474
904.392	4466
904.51	4436
904.627	4489
904.745	4603
904.863	4683
904.981	4428
905.098	4318
905.216	4394
905.334	4447
905.451	4466
905.569	4474
905.686	4588
905.803	4603
905.921	4466
906.038	4626
906.155	4519
906.272	4455
906.389	4478
906.506	4394
906.623	4436
906.74	4462
906.857	4371
906.974	4421
907.091	4618
907.208	4706
907.324	4645
907.441	4558
907.557	4356
907.674	4386
907.79	4371
907.907	4459
908.023	4527
908.139	4558
908.256	4451
908.372	4550
908.488	4474
908.604	4363
908.72	4363
908.836	4405
908.952	4409
909.068	4436
909.184	4584
909.3	4558
909.415	4668
909.531	4546
909.647	4394
909.762	4405
909.878	4375
909.993	4440
910.108	4451
910.224	4512
910.339	4512
910.454	4481
910.57	4398
910.685	4356
910.8	4675
910.915	4637
911.03	4538
911.145	4371
911.259	4390
911.374	4413
911.489	4352
911.604	4333
911.718	4234
911.833	4261
911.947	4112
912.062	4090
912.176	4280
912.291	4242
912.405	4291
912.519	4512
912.633	4569
912.748	4421
912.862	4333
912.976	4242
913.09	4200
913.204	4257
913.318	4306
913.431	4428
913.545	4432
913.659	4493
913.772	4428
913.886	4249
914	4265
914.113	4424
914.226	4497
914.34	4432
914.453	4276
914.566	4428
914.68	4360
914.793	4333
914.906	4188
915.019	4204
915.132	4158
915.245	4238
915.358	4280
915.47	4261
915.583	4310
915.696	4314
915.809	4447
915.921	4474
916.034	4284
916.146	4291
916.259	4291
916.371	4390
916.483	4417
916.595	4284
916.708	4337
916.82	4363
916.932	4360
917.044	4356
917.156	4352
917.268	4272
917.38	4333
917.491	4291
917.603	4432
917.715	4500
917.826	4443
917.938	4405
918.049	4291
918.161	4428
918.272	4573
918.384	4550
918.495	4538
918.606	4386
918.717	4265
918.828	4360
918.939	4421
919.05	4314
919.161	4356
919.272	4200
919.383	4310
919.494	4478
919.604	4694
919.715	4470
919.826	4379
919.936	4447
920.047	4584
920.157	4561
920.267	4744
920.378	4592
920.488	4538
920.598	4759
920.708	4904
920.818	4809
920.928	4831
921.038	5014
921.148	4961
921.258	4637
921.368	4577
921.477	4478
921.587	4489
921.697	4447
921.806	4634
921.916	4485
922.025	4303
922.134	4341
922.244	4299
922.353	4314
922.462	4181
922.571	4188
922.68	4021
922.789	4071
922.898	4090
923.007	4029
923.116	4158
923.224	4109
923.333	4120
923.442	4036
923.55	3979
923.659	4105
923.767	4150
923.876	4090
923.984	4128
924.092	4010
924.201	4131
924.309	4135
924.417	4181
924.525	4090
924.633	4154
924.741	4938
924.849	3945
924.956	4196
925.064	4002
925.172	3934
925.279	3975
925.387	4067
925.494	4071
925.602	4223
925.709	4181
925.816	4071
925.924	4139
926.031	4306
926.138	4204
926.245	4253
926.352	4135
926.459	4295
926.566	4356
926.673	4207
926.779	4101
926.886	4169
926.993	3994
927.099	4051
927.206	4010
927.312	4017
927.419	4131
927.525	4078
927.631	4090
927.737	4063
927.843	3960
927.95	3876
928.056	3979
928.162	4013
928.267	4078
928.373	4752
928.479	4166
928.585	3899
928.69	4051
928.796	4128
928.901	3991
929.007	3880
929.112	4063
929.218	4021
929.323	3979
929.428	3956
929.533	4139
929.638	3922
929.743	4006
929.848	4109
929.953	4044
930.058	3972
930.163	3850
930.267	3838
930.372	4006
930.477	3842
930.581	4109
930.685	3960
930.79	3865
930.894	3861
930.998	3888
931.103	4082
931.207	3762
931.311	3778
931.415	3698
931.519	3622
931.623	3622
