Data from test_V78500241_131.txt Node
Date: Fri Mar 25 16:49:54 CST 2022
User: usil
Spectrometer: V785-0024
Trigger mode: 0
Integration Time (sec): 4.000000E-1
Scans to average: 1
Nonlinearity correction enabled: false
Boxcar width: 0
Storing dark spectrum: false
XAxis mode: Wavelengths
Number of Pixels in Spectrum: 1024
>>>>>Begin Spectral Data<<<<<
801.071	8024
801.214	8020
801.356	7890
801.499	7898
801.641	7811
801.783	7841
801.926	8069
802.068	8119
802.211	8031
802.353	7959
802.496	7947
802.638	7932
802.78	7963
802.923	8024
803.065	7864
803.208	7871
803.35	7989
803.492	8065
803.635	8126
803.777	7959
803.919	8096
804.061	8336
804.204	8103
804.346	7993
804.488	7925
804.63	8100
804.773	8077
804.915	8092
805.057	8218
805.199	8111
805.341	8134
805.483	8271
805.626	8210
805.768	8084
805.91	8233
806.052	8233
806.194	8149
806.336	8286
806.478	8187
806.62	8050
806.762	8172
806.904	8271
807.046	8480
807.188	8298
807.33	8347
807.472	8279
807.614	8214
807.756	8187
807.898	8024
808.04	7928
808.182	7970
808.324	7909
808.465	7940
808.607	8031
808.749	8145
808.891	8263
809.033	8332
809.174	8263
809.316	8065
809.458	8035
809.6	8046
809.741	8027
809.883	8081
810.025	8145
810.166	8065
810.308	8046
810.45	8016
810.591	7936
810.733	7830
810.875	7792
811.016	7575
811.158	7495
811.299	7677
811.441	7685
811.582	7738
811.724	7605
811.865	7624
812.007	7624
812.148	7696
812.29	7696
812.431	7807
812.573	7974
812.714	8027
812.855	8142
812.997	8347
813.138	8427
813.279	8210
813.421	8176
813.562	8103
813.703	7944
813.845	7830
813.986	7544
814.127	7289
814.268	7251
814.41	7278
814.551	7225
814.692	7179
814.833	7183
814.974	7187
815.115	7236
815.256	6993
815.397	6951
815.539	7023
815.68	6814
815.821	6779
815.962	6856
816.103	6844
816.244	6726
816.385	6669
816.526	6658
816.666	6532
816.807	6357
816.948	6456
817.089	6445
817.23	6498
817.371	6448
817.512	6445
817.653	6426
817.793	6388
817.934	6483
818.075	6437
818.216	6467
818.356	6357
818.497	6254
818.638	6117
818.778	6117
818.919	6152
819.06	6155
819.2	6273
819.341	6289
819.481	6422
819.622	6536
819.762	6764
819.903	6730
820.043	6604
820.184	6597
820.324	6608
820.465	6760
820.605	6646
820.746	6658
820.886	6502
821.026	6703
821.167	6719
821.307	6840
821.447	6818
821.588	6665
821.728	6646
821.868	6521
822.008	6353
822.149	6399
822.289	6350
822.429	6163
822.569	6053
822.709	6140
822.849	5950
822.99	5935
823.13	5946
823.27	5923
823.41	5821
823.55	5775
823.69	5760
823.83	5771
823.97	5691
824.11	5551
824.25	5581
824.389	5581
824.529	5596
824.669	5467
824.809	5668
824.949	5649
825.089	5684
825.228	5577
825.368	5379
825.508	5341
825.648	5349
825.787	5379
825.927	5414
826.067	5303
826.206	5296
826.346	5429
826.485	5425
826.625	5459
826.765	5566
826.904	5512
827.044	5296
827.183	5242
827.323	5159
827.462	5223
827.601	5212
827.741	5250
827.88	5239
828.02	5178
828.159	5341
828.298	5296
828.437	5417
828.577	5357
828.716	5543
828.855	5368
828.994	5261
829.134	5170
829.273	5296
829.412	5208
829.551	5174
829.69	5223
829.829	5326
829.968	5429
830.107	5296
830.246	5349
830.385	5246
830.524	5227
830.663	5147
830.802	5041
830.941	4942
831.08	5010
831.219	5010
831.357	5033
831.496	5189
831.635	4980
831.774	4892
831.913	4896
832.051	4812
832.19	4835
832.329	4919
832.467	4725
832.606	4694
832.744	4759
832.883	4755
833.022	4797
833.16	4824
833.299	4896
833.437	4908
833.576	4919
833.714	4896
833.852	4904
833.991	4946
834.129	4999
834.267	5033
834.406	4915
834.544	5048
834.682	5022
834.821	5025
834.959	5258
835.097	5052
835.235	5208
835.373	5178
835.511	5174
835.65	5094
835.788	5151
835.926	4949
836.064	4961
836.202	5006
836.34	5242
836.478	5326
836.615	5231
836.753	5334
836.891	5357
837.029	5307
837.167	5250
837.305	5174
837.443	5231
837.58	5124
837.718	5288
837.856	5261
837.993	5216
838.131	5258
838.269	5235
838.406	5250
838.544	5299
838.681	5079
838.819	5056
838.956	4968
839.094	4961
839.231	4999
839.369	5147
839.506	5482
839.643	5315
839.781	5109
839.918	5037
840.055	5223
840.193	5121
840.33	5155
840.467	5181
840.604	5216
840.742	5516
840.879	5147
841.016	5102
841.153	5208
841.29	5433
841.427	5372
841.564	5387
841.701	5417
841.838	5318
841.975	5250
842.112	5353
842.249	5193
842.385	5159
842.522	5372
842.659	5193
842.796	5235
842.933	5208
843.069	5143
843.206	5265
843.343	5322
843.479	5265
843.616	5330
843.752	5079
843.889	5064
844.025	5197
844.162	5060
844.298	5258
844.435	5128
844.571	5045
844.708	5223
844.844	5311
844.98	5372
845.117	5368
845.253	5212
845.389	5159
845.525	5201
845.661	5189
845.798	5056
845.934	5204
846.07	5113
846.206	5208
846.342	5360
846.478	5208
846.614	5010
846.75	5025
846.886	5014
847.022	5212
847.158	5094
847.294	5075
847.429	5162
847.565	5136
847.701	5372
847.837	4946
847.972	4858
848.108	4999
848.244	4953
848.379	4801
848.515	4793
848.65	4793
848.786	4778
848.921	4793
849.057	4957
849.192	4934
849.328	4900
849.463	4927
849.598	4847
849.734	4790
849.869	4755
850.004	4679
850.14	4740
850.275	4702
850.41	4550
850.545	4607
850.68	4679
850.815	4641
850.95	4630
851.085	4877
851.22	4790
851.355	4714
851.49	4656
851.625	4679
851.76	4691
851.895	4592
852.03	4592
852.165	4694
852.299	4752
852.434	4831
852.569	4767
852.703	4831
852.838	4919
852.973	4976
853.107	4927
853.242	4801
853.376	4694
853.511	4645
853.645	4679
853.78	4919
853.914	4717
854.048	4691
854.183	4702
854.317	4717
854.451	4908
854.585	4744
854.72	4664
854.854	4820
854.988	4626
855.122	4675
855.256	4592
855.39	4710
855.524	4854
855.658	4797
855.792	4702
855.926	4736
856.06	4778
856.194	4831
856.327	4729
856.461	4630
856.595	4672
856.729	4691
856.862	4797
856.996	4752
857.13	4786
857.263	4793
857.397	4809
857.53	4710
857.664	4725
857.797	4824
857.931	4858
858.064	4801
858.197	4812
858.331	4698
858.464	4694
858.597	4538
858.731	4698
858.864	4664
858.997	4649
859.13	4706
859.263	4729
859.396	4767
859.529	4637
859.662	4645
859.795	4592
859.928	4634
860.061	4824
860.194	4812
860.327	4637
860.46	4626
860.592	4725
860.725	4771
860.858	4797
860.99	4618
861.123	4580
861.256	4588
861.388	4691
861.521	5448
861.653	4527
861.786	4516
861.918	4531
862.05	4558
862.183	4554
862.315	4641
862.447	4668
862.58	4599
862.712	4440
862.844	4344
862.976	4538
863.108	4523
863.24	4877
863.372	4390
863.504	4443
863.636	4436
863.768	4531
863.9	4535
864.032	4379
864.164	4451
864.296	4504
864.428	4607
864.559	4584
864.691	4615
864.823	4516
864.954	4558
865.086	4569
865.217	4470
865.349	4459
865.48	4474
865.612	4592
865.743	4706
865.875	4527
866.006	4459
866.137	4504
866.269	4466
866.4	4497
866.531	4459
866.662	4478
866.793	4451
866.924	4478
867.055	4519
867.186	4516
867.317	4443
867.448	4455
867.579	4466
867.71	4443
867.841	4383
867.972	4481
868.103	4512
868.233	4508
868.364	4474
868.495	4512
868.625	4702
868.756	4843
868.886	4618
869.017	4649
869.147	4801
869.278	4793
869.408	4698
869.539	4691
869.669	4767
869.799	4725
869.929	4805
870.06	4744
870.19	4984
870.32	4976
870.45	5029
870.58	5052
870.71	5090
870.84	5147
870.97	4991
871.1	4946
871.23	5174
871.36	5162
871.489	5067
871.619	5056
871.749	5128
871.879	5197
872.008	5170
872.138	5109
872.267	5067
872.397	4927
872.526	4812
872.656	4748
872.785	4870
872.915	4972
873.044	5086
873.173	4965
873.303	4999
873.432	5018
873.561	4984
873.69	4900
873.819	4896
873.948	4961
874.077	4858
874.206	4797
874.335	4862
874.464	4949
874.593	5064
874.722	4976
874.851	5166
874.979	5132
875.108	5124
875.237	4980
875.365	4934
875.494	4919
875.623	5052
875.751	4854
875.88	4873
876.008	5048
876.136	5064
876.265	5239
876.393	5379
876.521	5299
876.65	5303
876.778	5208
876.906	5075
877.034	5029
877.162	5052
877.29	5010
877.418	5109
877.546	5083
877.674	5056
877.802	5052
877.93	5117
878.058	4927
878.185	4949
878.313	5010
878.441	4927
878.568	4778
878.696	4908
878.824	5010
878.951	5079
879.079	5151
879.206	5284
879.333	5159
879.461	5037
879.588	4980
879.715	5174
879.842	5273
879.97	5033
880.097	4805
880.224	4774
880.351	4824
880.478	4854
880.605	4824
880.732	4816
880.859	5151
880.986	4968
881.112	4976
881.239	4797
881.366	4683
881.493	4672
881.619	4634
881.746	4668
881.872	4668
881.999	4679
882.125	4759
882.252	4805
882.378	4835
882.505	4980
882.631	4797
882.757	4683
882.883	4801
883.01	4744
883.136	4725
883.262	4618
883.388	4660
883.514	4839
883.64	4889
883.766	4854
883.892	4702
884.018	4736
884.143	4915
884.269	5025
884.395	4714
884.52	4653
884.646	4683
884.772	4599
884.897	4573
885.023	4714
885.148	4797
885.274	4911
885.399	4881
885.524	4744
885.65	4763
885.775	4774
885.9	4820
886.025	4927
886.15	4812
886.275	4793
886.4	4721
886.525	4774
886.65	4702
886.775	4729
886.9	4946
887.025	5029
887.149	4839
887.274	4683
887.399	4626
887.523	4611
887.648	4641
887.773	4634
887.897	4752
888.021	4847
888.146	4702
888.27	4873
888.395	4980
888.519	4767
888.643	4873
888.767	4858
888.891	4744
889.015	4622
889.139	4721
889.263	4622
889.387	4801
889.511	4885
889.635	4839
889.759	4656
889.883	4714
890.006	4790
890.13	4847
890.254	4664
890.377	4740
890.501	4592
890.624	4538
890.748	4660
890.871	4535
890.995	4455
891.118	4383
891.241	4504
891.364	4596
891.488	4656
891.611	4519
891.734	4569
891.857	4641
891.98	4573
892.103	4729
892.226	4618
892.349	4558
892.471	4443
892.594	4641
892.717	4630
892.839	4599
892.962	4687
893.085	4698
893.207	4668
893.33	4516
893.452	4550
893.575	4698
893.697	4596
893.819	4786
893.941	4877
894.064	4774
894.186	4603
894.308	4607
894.43	4771
894.552	4812
894.674	4778
894.796	4561
894.918	4653
895.04	4641
895.161	4763
895.283	4733
895.405	4607
895.526	4675
895.648	4740
895.769	4721
895.891	4763
896.012	4786
896.134	4725
896.255	4706
896.376	4683
896.498	4675
896.619	4710
896.74	4675
896.861	4679
896.982	4995
897.103	5105
897.224	4885
897.345	4774
897.466	4675
897.587	4694
897.708	4904
897.828	4801
897.949	4733
898.07	4588
898.19	4634
898.311	4889
898.431	4740
898.552	4774
898.672	4927
898.792	4805
898.913	4744
899.033	4694
899.153	4558
899.273	4474
899.393	4508
899.513	4618
899.633	4577
899.753	4550
899.873	4546
899.993	4630
900.113	4588
900.232	4645
900.352	4592
900.472	4554
900.591	4455
900.711	4504
900.83	4508
900.95	4641
901.069	4679
901.189	4580
901.308	4405
901.427	4322
901.546	4421
901.665	4516
901.784	4546
901.904	4386
902.023	4314
902.141	4204
902.26	4246
902.379	4356
902.498	4261
902.617	4280
902.735	4371
902.854	4390
902.973	4375
903.091	4261
903.21	4268
903.328	4341
903.446	4314
903.565	4272
903.683	4413
903.801	4322
903.919	4432
904.038	4451
904.156	4394
904.274	4436
904.392	4417
904.51	4459
904.627	4481
904.745	4611
904.863	4672
904.981	4394
905.098	4360
905.216	4417
905.334	4421
905.451	4421
905.569	4451
905.686	4565
905.803	4596
905.921	4447
906.038	4550
906.155	4504
906.272	4424
906.389	4474
906.506	4413
906.623	4432
906.74	4428
906.857	4337
906.974	4424
907.091	4580
907.208	4714
907.324	4630
907.441	4535
907.557	4390
907.674	4352
907.79	4329
907.907	4432
908.023	4500
908.139	4508
908.256	4432
908.372	4478
908.488	4466
908.604	4390
908.72	4367
908.836	4375
908.952	4466
909.068	4459
909.184	4565
909.3	4550
909.415	4649
909.531	4569
909.647	4390
909.762	4379
909.878	4360
909.993	4519
910.108	4428
910.224	4428
910.339	4523
910.454	4451
910.57	4371
910.685	4367
910.8	4710
910.915	4607
911.03	4497
911.145	4386
911.259	4352
911.374	4352
911.489	4383
911.604	4325
911.718	4192
911.833	4265
911.947	4093
912.062	4051
912.176	4230
912.291	4276
912.405	4318
912.519	4527
912.633	4558
912.748	4417
912.862	4318
912.976	4200
913.09	4112
913.204	4166
913.318	4284
913.431	4371
913.545	4379
913.659	4447
913.772	4402
913.886	4295
914	4306
914.113	4375
914.226	4459
914.34	4447
914.453	4257
914.566	4462
914.68	4371
914.793	4356
914.906	4131
915.019	4139
915.132	4116
915.245	4215
915.358	4265
915.47	4257
915.583	4291
915.696	4356
915.809	4398
915.921	4493
916.034	4291
916.146	4272
916.259	4246
916.371	4398
916.483	4367
916.595	4280
916.708	4341
916.82	4352
916.932	4318
917.044	4344
917.156	4375
917.268	4238
917.38	4341
917.491	4246
917.603	4367
917.715	4440
917.826	4428
917.938	4394
918.049	4249
918.161	4413
918.272	4622
918.384	4542
918.495	4466
918.606	4329
918.717	4272
918.828	4352
918.939	4405
919.05	4272
919.161	4348
919.272	4154
919.383	4306
919.494	4478
919.604	4649
919.715	4481
919.826	4371
919.936	4455
920.047	4577
920.157	4516
920.267	4706
920.378	4573
920.488	4504
920.598	4748
920.708	4904
920.818	4812
920.928	4809
921.038	4980
921.148	4942
921.258	4656
921.368	4550
921.477	4462
921.587	4504
921.697	4386
921.806	4596
921.916	4455
922.025	4322
922.134	4287
922.244	4207
922.353	4352
922.462	4204
922.571	4173
922.68	4059
922.789	3994
922.898	4040
923.007	4021
923.116	4139
923.224	4086
923.333	4116
923.442	4044
923.55	4013
923.659	4078
923.767	4124
923.876	4067
923.984	4162
924.092	4036
924.201	4120
924.309	4109
924.417	4162
924.525	4074
924.633	4109
924.741	4881
924.849	3937
924.956	4131
925.064	3975
925.172	3968
925.279	3983
925.387	4078
925.494	4082
925.602	4227
925.709	4192
925.816	4032
925.924	4147
926.031	4242
926.138	4181
926.245	4230
926.352	4093
926.459	4253
926.566	4379
926.673	4177
926.779	4078
926.886	4090
926.993	4010
927.099	3964
927.206	3972
927.312	4010
927.419	4051
927.525	4055
927.631	4143
927.737	3994
927.843	3930
927.95	3854
928.056	3983
928.162	4025
928.267	4048
928.373	4599
928.479	4120
928.585	3873
928.69	4032
928.796	4116
928.901	3987
929.007	3888
929.112	4021
929.218	4010
929.323	3972
929.428	3964
929.533	4109
929.638	3888
929.743	3960
929.848	4040
929.953	4021
930.058	3964
930.163	3827
930.267	3854
930.372	3975
930.477	3789
930.581	4131
930.685	3953
930.79	3800
930.894	3899
930.998	3915
931.103	4074
931.207	3747
931.311	3682
931.415	3671
931.519	3538
931.623	3538
