Data from test_V78500241_1863.txt Node
Date: Fri Mar 25 17:01:57 CST 2022
User: usil
Spectrometer: V785-0024
Trigger mode: 0
Integration Time (sec): 4.000000E-1
Scans to average: 1
Nonlinearity correction enabled: false
Boxcar width: 0
Storing dark spectrum: false
XAxis mode: Wavelengths
Number of Pixels in Spectrum: 1024
>>>>>Begin Spectral Data<<<<<
801.071	8088
801.214	8043
801.356	7898
801.499	7887
801.641	7864
801.783	7936
801.926	7978
802.068	7932
802.211	8016
802.353	8024
802.496	7833
802.638	7978
802.78	7902
802.923	7917
803.065	7811
803.208	7845
803.35	7986
803.492	8050
803.635	8233
803.777	8115
803.919	8142
804.061	8434
804.204	8180
804.346	8069
804.488	8062
804.63	8103
804.773	8050
804.915	8134
805.057	8324
805.199	8138
805.341	8180
805.483	8225
805.626	8271
805.768	8107
805.91	8290
806.052	8244
806.194	8130
806.336	8324
806.478	8103
806.62	8005
806.762	8134
806.904	8282
807.046	8499
807.188	8450
807.33	8362
807.472	8301
807.614	8225
807.756	8142
807.898	8088
808.04	7875
808.182	7963
808.324	7868
808.465	7986
808.607	8138
808.749	8138
808.891	8214
809.033	8351
809.174	8244
809.316	8115
809.458	8126
809.6	8050
809.741	8081
809.883	8031
810.025	8126
810.166	8065
810.308	7997
810.45	8027
810.591	7951
810.733	7761
810.875	7647
811.016	7544
811.158	7472
811.299	7624
811.441	7818
811.582	7715
811.724	7632
811.865	7533
812.007	7556
812.148	7571
812.29	7666
812.431	7818
812.573	7871
812.714	7967
812.855	8126
812.997	8195
813.138	8317
813.279	8191
813.421	8214
813.562	7932
813.703	7871
813.845	7746
813.986	7434
814.127	7278
814.268	7209
814.41	7301
814.551	7225
814.692	7263
814.833	7129
814.974	7168
815.115	7168
815.256	6970
815.397	6920
815.539	6943
815.68	6795
815.821	6783
815.962	6897
816.103	6791
816.244	6719
816.385	6616
816.526	6662
816.666	6536
816.807	6327
816.948	6490
817.089	6433
817.23	6471
817.371	6315
817.512	6388
817.653	6433
817.793	6388
817.934	6445
818.075	6433
818.216	6445
818.356	6475
818.497	6270
818.638	6159
818.778	6163
818.919	6114
819.06	6194
819.2	6292
819.341	6262
819.481	6395
819.622	6559
819.762	6791
819.903	6726
820.043	6593
820.184	6540
820.324	6631
820.465	6726
820.605	6730
820.746	6707
820.886	6483
821.026	6707
821.167	6734
821.307	6757
821.447	6711
821.588	6726
821.728	6631
821.868	6509
822.008	6372
822.149	6361
822.289	6350
822.429	6205
822.569	6102
822.709	6163
822.849	5950
822.99	5901
823.13	5923
823.27	5958
823.41	5775
823.55	5840
823.69	5802
823.83	5802
823.97	5680
824.11	5528
824.25	5551
824.389	5543
824.529	5585
824.669	5547
824.809	5642
824.949	5672
825.089	5630
825.228	5524
825.368	5452
825.508	5376
825.648	5360
825.787	5357
825.927	5421
826.067	5322
826.206	5288
826.346	5379
826.485	5410
826.625	5486
826.765	5509
826.904	5482
827.044	5258
827.183	5220
827.323	5147
827.462	5269
827.601	5170
827.741	5185
827.88	5220
828.02	5124
828.159	5208
828.298	5318
828.437	5387
828.577	5288
828.716	5440
828.855	5330
828.994	5178
829.134	5189
829.273	5193
829.412	5193
829.551	5178
829.69	5193
829.829	5235
829.968	5357
830.107	5273
830.246	5261
830.385	5212
830.524	5223
830.663	5086
830.802	5018
830.941	4889
831.08	4904
831.219	5029
831.357	5006
831.496	5121
831.635	4972
831.774	4866
831.913	4850
832.051	4725
832.19	4759
832.329	4812
832.467	4687
832.606	4672
832.744	4691
832.883	4725
833.022	4752
833.16	4820
833.299	4850
833.437	4812
833.576	4820
833.714	4831
833.852	4847
833.991	4911
834.129	4953
834.267	4949
834.406	4953
834.544	5003
834.682	4923
834.821	4968
834.959	5185
835.097	5018
835.235	5193
835.373	5079
835.511	5048
835.65	5033
835.788	5025
835.926	4885
836.064	4873
836.202	4892
836.34	5159
836.478	5246
836.615	5102
836.753	5166
836.891	5292
837.029	5261
837.167	5261
837.305	5155
837.443	5159
837.58	5098
837.718	5216
837.856	5178
837.993	5136
838.131	5277
838.269	5227
838.406	5189
838.544	5216
838.681	5041
838.819	5029
838.956	4923
839.094	4919
839.231	4946
839.369	5083
839.506	5459
839.643	5277
839.781	5067
839.918	5010
840.055	5136
840.193	5071
840.33	5098
840.467	5166
840.604	5178
840.742	5482
840.879	5113
841.016	5128
841.153	5155
841.29	5417
841.427	5349
841.564	5292
841.701	5330
841.838	5288
841.975	5246
842.112	5258
842.249	5178
842.385	5102
842.522	5341
842.659	5159
842.796	5121
842.933	5193
843.069	5143
843.206	5140
843.343	5330
843.479	5250
843.616	5307
843.752	5014
843.889	5052
844.025	5174
844.162	5045
844.298	5239
844.435	5041
844.571	5045
844.708	5132
844.844	5303
844.98	5337
845.117	5311
845.253	5151
845.389	5121
845.525	5151
845.661	5121
845.798	5064
845.934	5136
846.07	5060
846.206	5208
846.342	5326
846.478	5170
846.614	4991
846.75	5037
846.886	4938
847.022	5162
847.158	5052
847.294	5060
847.429	5121
847.565	5029
847.701	5330
847.837	4854
847.972	4847
848.108	5006
848.244	4904
848.379	4790
848.515	4694
848.65	4774
848.786	4759
848.921	4740
849.057	4896
849.192	4919
849.328	4812
849.463	4870
849.598	4763
849.734	4744
849.869	4698
850.004	4649
850.14	4691
850.275	4615
850.41	4523
850.545	4554
850.68	4615
850.815	4649
850.95	4641
851.085	4824
851.22	4740
851.355	4675
851.49	4611
851.625	4645
851.76	4668
851.895	4573
852.03	4546
852.165	4683
852.299	4710
852.434	4786
852.569	4736
852.703	4809
852.838	4805
852.973	4934
853.107	4892
853.242	4736
853.376	4668
853.511	4542
853.645	4615
853.78	4824
853.914	4679
854.048	4717
854.183	4675
854.317	4664
854.451	4858
854.585	4691
854.72	4683
854.854	4733
854.988	4603
855.122	4618
855.256	4569
855.39	4710
855.524	4805
855.658	4717
855.792	4691
855.926	4744
856.06	4778
856.194	4801
856.327	4675
856.461	4577
856.595	4630
856.729	4599
856.862	4725
856.996	4687
857.13	4721
857.263	4733
857.397	4767
857.53	4668
857.664	4694
857.797	4725
857.931	4759
858.064	4660
858.197	4740
858.331	4664
858.464	4580
858.597	4451
858.731	4573
858.864	4615
858.997	4569
859.13	4687
859.263	4687
859.396	4649
859.529	4599
859.662	4535
859.795	4504
859.928	4577
860.061	4755
860.194	4759
860.327	4558
860.46	4573
860.592	4687
860.725	4702
860.858	4740
860.99	4554
861.123	4523
861.256	4497
861.388	4596
861.521	5326
861.653	4455
861.786	4443
861.918	4443
862.05	4531
862.183	4577
862.315	4577
862.447	4641
862.58	4554
862.712	4459
862.844	4337
862.976	4497
863.108	4405
863.24	4866
863.372	4333
863.504	4466
863.636	4421
863.768	4466
863.9	4459
864.032	4360
864.164	4432
864.296	4481
864.428	4546
864.559	4531
864.691	4550
864.823	4512
864.954	4481
865.086	4504
865.217	4424
865.349	4421
865.48	4413
865.612	4466
865.743	4637
865.875	4462
866.006	4440
866.137	4512
866.269	4405
866.4	4478
866.531	4413
866.662	4424
866.793	4371
866.924	4440
867.055	4489
867.186	4424
867.317	4421
867.448	4371
867.579	4424
867.71	4409
867.841	4337
867.972	4379
868.103	4447
868.233	4466
868.364	4447
868.495	4478
868.625	4664
868.756	4786
868.886	4554
869.017	4615
869.147	4717
869.278	4774
869.408	4649
869.539	4622
869.669	4656
869.799	4679
869.929	4752
870.06	4714
870.19	4908
870.32	4934
870.45	4949
870.58	5029
870.71	5071
870.84	5075
870.97	4946
871.1	4873
871.23	5094
871.36	5086
871.489	5060
871.619	5064
871.749	5102
871.879	5140
872.008	5216
872.138	5075
872.267	4995
872.397	4877
872.526	4816
872.656	4755
872.785	4816
872.915	4885
873.044	5014
873.173	4934
873.303	4980
873.432	4919
873.561	4908
873.69	4839
873.819	4870
873.948	4911
874.077	4759
874.206	4774
874.335	4786
874.464	4946
874.593	5045
874.722	5018
874.851	5113
874.979	5029
875.108	5003
875.237	4923
875.365	4911
875.494	4995
875.623	4972
875.751	4858
875.88	4904
876.008	4946
876.136	5025
876.265	5227
876.393	5326
876.521	5277
876.65	5242
876.778	5159
876.906	5041
877.034	5094
877.162	5064
877.29	4980
877.418	5094
877.546	5025
877.674	5018
877.802	5018
877.93	5022
878.058	4896
878.185	4870
878.313	4942
878.441	4896
878.568	4843
878.696	4873
878.824	4938
878.951	5006
879.079	5090
879.206	5277
879.333	5090
879.461	4961
879.588	5025
879.715	5136
879.842	5235
879.97	4995
880.097	4812
880.224	4748
880.351	4835
880.478	4854
880.605	4782
880.732	4812
880.859	5045
880.986	4866
881.112	4896
881.239	4835
881.366	4706
881.493	4596
881.619	4588
881.746	4653
881.872	4675
881.999	4660
882.125	4694
882.252	4748
882.378	4816
882.505	4942
882.631	4786
882.757	4714
882.883	4744
883.01	4733
883.136	4656
883.262	4607
883.388	4622
883.514	4812
883.64	4835
883.766	4774
883.892	4679
884.018	4717
884.143	4942
884.269	4999
884.395	4656
884.52	4634
884.646	4603
884.772	4603
884.897	4565
885.023	4645
885.148	4793
885.274	4850
885.399	4816
885.524	4679
885.65	4679
885.775	4771
885.9	4626
886.025	4847
886.15	4759
886.275	4714
886.4	4683
886.525	4786
886.65	4634
886.775	4672
886.9	4934
887.025	5022
887.149	4809
887.274	4618
887.399	4561
887.523	4656
887.648	4558
887.773	4603
887.897	4714
888.021	4767
888.146	4664
888.27	4854
888.395	4900
888.519	4790
888.643	4862
888.767	4839
888.891	4721
889.015	4622
889.139	4664
889.263	4584
889.387	4721
889.511	4873
889.635	4755
889.759	4577
889.883	4664
890.006	4679
890.13	4820
890.254	4618
890.377	4637
890.501	4554
890.624	4500
890.748	4637
890.871	4538
890.995	4375
891.118	4371
891.241	4504
891.364	4531
891.488	4611
891.611	4485
891.734	4546
891.857	4580
891.98	4538
892.103	4630
892.226	4637
892.349	4504
892.471	4447
892.594	4538
892.717	4554
892.839	4588
892.962	4527
893.085	4660
893.207	4592
893.33	4436
893.452	4569
893.575	4649
893.697	4561
893.819	4725
893.941	4828
894.064	4744
894.186	4554
894.308	4550
894.43	4710
894.552	4843
894.674	4801
894.796	4615
894.918	4596
895.04	4550
895.161	4702
895.283	4668
895.405	4603
895.526	4653
895.648	4736
895.769	4736
895.891	4702
896.012	4698
896.134	4771
896.255	4660
896.376	4607
896.498	4622
896.619	4679
896.74	4588
896.861	4637
896.982	4923
897.103	5086
897.224	4892
897.345	4744
897.466	4622
897.587	4725
897.708	4824
897.828	4782
897.949	4679
898.07	4535
898.19	4618
898.311	4797
898.431	4679
898.552	4702
898.672	4904
898.792	4778
898.913	4759
899.033	4653
899.153	4519
899.273	4440
899.393	4527
899.513	4485
899.633	4497
899.753	4516
899.873	4516
899.993	4584
900.113	4508
900.232	4577
900.352	4561
900.472	4462
900.591	4417
900.711	4519
900.83	4451
900.95	4603
901.069	4683
901.189	4573
901.308	4360
901.427	4314
901.546	4352
901.665	4489
901.784	4535
901.904	4402
902.023	4367
902.141	4177
902.26	4147
902.379	4333
902.498	4219
902.617	4215
902.735	4363
902.854	4363
902.973	4325
903.091	4227
903.21	4230
903.328	4318
903.446	4276
903.565	4242
903.683	4341
903.801	4284
903.919	4394
904.038	4428
904.156	4344
904.274	4474
904.392	4402
904.51	4417
904.627	4451
904.745	4580
904.863	4618
904.981	4402
905.098	4291
905.216	4295
905.334	4371
905.451	4440
905.569	4451
905.686	4538
905.803	4546
905.921	4379
906.038	4577
906.155	4447
906.272	4375
906.389	4455
906.506	4367
906.623	4352
906.74	4405
906.857	4295
906.974	4409
907.091	4535
907.208	4656
907.324	4577
907.441	4466
907.557	4337
907.674	4322
907.79	4356
907.907	4371
908.023	4474
908.139	4466
908.256	4402
908.372	4455
908.488	4478
908.604	4329
908.72	4306
908.836	4394
908.952	4409
909.068	4394
909.184	4596
909.3	4500
909.415	4554
909.531	4531
909.647	4383
909.762	4352
909.878	4314
909.993	4440
910.108	4402
910.224	4413
910.339	4447
910.454	4402
910.57	4360
910.685	4299
910.8	4691
910.915	4584
911.03	4432
911.145	4337
911.259	4348
911.374	4379
911.489	4333
911.604	4291
911.718	4192
911.833	4158
911.947	4071
912.062	4067
912.176	4204
912.291	4234
912.405	4219
912.519	4474
912.633	4538
912.748	4325
912.862	4310
912.976	4200
913.09	4101
913.204	4173
913.318	4249
913.431	4394
913.545	4386
913.659	4405
913.772	4379
913.886	4223
914	4207
914.113	4356
914.226	4424
914.34	4413
914.453	4223
914.566	4436
914.68	4325
914.793	4348
914.906	4139
915.019	4139
915.132	4093
915.245	4162
915.358	4200
915.47	4196
915.583	4230
915.696	4257
915.809	4386
915.921	4436
916.034	4238
916.146	4223
916.259	4230
916.371	4402
916.483	4341
916.595	4257
916.708	4341
916.82	4268
916.932	4295
917.044	4310
917.156	4314
917.268	4261
917.38	4299
917.491	4223
917.603	4379
917.715	4421
917.826	4459
917.938	4303
918.049	4234
918.161	4386
918.272	4538
918.384	4550
918.495	4424
918.606	4291
918.717	4257
918.828	4383
918.939	4341
919.05	4287
919.161	4333
919.272	4093
919.383	4181
919.494	4489
919.604	4588
919.715	4466
919.826	4333
919.936	4383
920.047	4531
920.157	4451
920.267	4672
920.378	4519
920.488	4500
920.598	4767
920.708	4847
920.818	4778
920.928	4790
921.038	4961
921.148	4858
921.258	4599
921.368	4550
921.477	4440
921.587	4493
921.697	4371
921.806	4500
921.916	4398
922.025	4238
922.134	4268
922.244	4230
922.353	4333
922.462	4169
922.571	4158
922.68	3964
922.789	3998
922.898	4006
923.007	3994
923.116	4051
923.224	4036
923.333	4063
923.442	3968
923.55	3960
923.659	4040
923.767	4078
923.876	3998
923.984	4093
924.092	3949
924.201	4032
924.309	4086
924.417	4116
924.525	4048
924.633	4055
924.741	5041
924.849	3915
924.956	4074
925.064	3945
925.172	3915
925.279	3941
925.387	4048
925.494	4025
925.602	4162
925.709	4173
925.816	4040
925.924	4124
926.031	4215
926.138	4162
926.245	4200
926.352	4090
926.459	4253
926.566	4268
926.673	4120
926.779	4105
926.886	4074
926.993	3964
927.099	3956
927.206	3941
927.312	3915
927.419	4040
927.525	4029
927.631	4078
927.737	3991
927.843	3953
927.95	3846
928.056	3918
928.162	3987
928.267	4036
928.373	4527
928.479	4116
928.585	3854
928.69	4017
928.796	4059
928.901	3926
929.007	3819
929.112	3968
929.218	3934
929.323	3941
929.428	3911
929.533	4128
929.638	3892
929.743	3930
929.848	4029
929.953	4021
930.058	3945
930.163	3770
930.267	3850
930.372	3972
930.477	3827
930.581	4071
930.685	3964
930.79	3842
930.894	3880
930.998	3903
931.103	3983
931.207	3709
931.311	3701
931.415	3633
931.519	3469
931.623	3584
