Data from test_V78500241_390.txt Node
Date: Fri Mar 25 16:51:42 CST 2022
User: usil
Spectrometer: V785-0024
Trigger mode: 0
Integration Time (sec): 4.000000E-1
Scans to average: 1
Nonlinearity correction enabled: false
Boxcar width: 0
Storing dark spectrum: false
XAxis mode: Wavelengths
Number of Pixels in Spectrum: 1024
>>>>>Begin Spectral Data<<<<<
801.071	8168
801.214	8096
801.356	7963
801.499	7913
801.641	7887
801.783	7936
801.926	8069
802.068	8020
802.211	8008
802.353	8069
802.496	7902
802.638	7955
802.78	7947
802.923	7947
803.065	7868
803.208	7902
803.35	7940
803.492	8092
803.635	8119
803.777	8008
803.919	8149
804.061	8514
804.204	8119
804.346	7959
804.488	7982
804.63	8111
804.773	8027
804.915	8134
805.057	8320
805.199	8206
805.341	8199
805.483	8248
805.626	8191
805.768	8107
805.91	8149
806.052	8229
806.194	8069
806.336	8351
806.478	8168
806.62	8157
806.762	8233
806.904	8282
807.046	8511
807.188	8370
807.33	8267
807.472	8332
807.614	8199
807.756	8233
807.898	8043
808.04	7921
808.182	7974
808.324	7978
808.465	7959
808.607	8077
808.749	8107
808.891	8225
809.033	8343
809.174	8229
809.316	8092
809.458	8103
809.6	8077
809.741	8073
809.883	8077
810.025	8115
810.166	8065
810.308	8103
810.45	8020
810.591	7909
810.733	7776
810.875	7655
811.016	7514
811.158	7559
811.299	7647
811.441	7860
811.582	7761
811.724	7632
811.865	7639
812.007	7655
812.148	7632
812.29	7655
812.431	7822
812.573	7970
812.714	8062
812.855	8103
812.997	8206
813.138	8313
813.279	8168
813.421	8065
813.562	8065
813.703	7875
813.845	7769
813.986	7563
814.127	7384
814.268	7327
814.41	7225
814.551	7225
814.692	7259
814.833	7179
814.974	7164
815.115	7145
815.256	7023
815.397	6954
815.539	7027
815.68	6867
815.821	6814
815.962	6954
816.103	6871
816.244	6764
816.385	6707
816.526	6662
816.666	6490
816.807	6353
816.948	6517
817.089	6448
817.23	6433
817.371	6506
817.512	6441
817.653	6441
817.793	6376
817.934	6429
818.075	6483
818.216	6433
818.356	6433
818.497	6235
818.638	6163
818.778	6148
818.919	6175
819.06	6201
819.2	6289
819.341	6277
819.481	6384
819.622	6540
819.762	6806
819.903	6753
820.043	6585
820.184	6574
820.324	6608
820.465	6673
820.605	6662
820.746	6711
820.886	6551
821.026	6738
821.167	6749
821.307	6863
821.447	6760
821.588	6681
821.728	6642
821.868	6574
822.008	6357
822.149	6395
822.289	6365
822.429	6121
822.569	6136
822.709	6175
822.849	5969
822.99	5977
823.13	5961
823.27	5961
823.41	5821
823.55	5828
823.69	5824
823.83	5760
823.97	5707
824.11	5554
824.25	5528
824.389	5604
824.529	5653
824.669	5573
824.809	5630
824.949	5707
825.089	5649
825.228	5539
825.368	5379
825.508	5296
825.648	5353
825.787	5387
825.927	5353
826.067	5318
826.206	5330
826.346	5410
826.485	5436
826.625	5376
826.765	5566
826.904	5512
827.044	5292
827.183	5273
827.323	5181
827.462	5235
827.601	5178
827.741	5181
827.88	5258
828.02	5056
828.159	5284
828.298	5357
828.437	5391
828.577	5273
828.716	5478
828.855	5372
828.994	5201
829.134	5178
829.273	5201
829.412	5159
829.551	5136
829.69	5166
829.829	5307
829.968	5360
830.107	5277
830.246	5307
830.385	5223
830.524	5208
830.663	5124
830.802	5045
830.941	4885
831.08	4896
831.219	5025
831.357	4938
831.496	5181
831.635	4991
831.774	4812
831.913	4900
832.051	4740
832.19	4752
832.329	4881
832.467	4721
832.606	4634
832.744	4706
832.883	4744
833.022	4729
833.16	4839
833.299	4854
833.437	4862
833.576	4847
833.714	4847
833.852	4908
833.991	4904
834.129	4980
834.267	4965
834.406	4999
834.544	4987
834.682	5041
834.821	4984
834.959	5178
835.097	5037
835.235	5193
835.373	5136
835.511	5105
835.65	5064
835.788	5067
835.926	4866
836.064	4915
836.202	4904
836.34	5201
836.478	5220
836.615	5132
836.753	5185
836.891	5303
837.029	5258
837.167	5189
837.305	5159
837.443	5132
837.58	5102
837.718	5185
837.856	5201
837.993	5174
838.131	5239
838.269	5258
838.406	5258
838.544	5178
838.681	5018
838.819	4987
838.956	4946
839.094	4995
839.231	4930
839.369	5075
839.506	5444
839.643	5246
839.781	5071
839.918	5067
840.055	5132
840.193	5094
840.33	5147
840.467	5162
840.604	5227
840.742	5421
840.879	5109
841.016	5174
841.153	5166
841.29	5353
841.427	5341
841.564	5307
841.701	5353
841.838	5280
841.975	5246
842.112	5326
842.249	5155
842.385	5128
842.522	5376
842.659	5124
842.796	5162
842.933	5273
843.069	5201
843.206	5162
843.343	5322
843.479	5239
843.616	5277
843.752	5010
843.889	5064
844.025	5239
844.162	5022
844.298	5197
844.435	5079
844.571	5041
844.708	5212
844.844	5318
844.98	5345
845.117	5303
845.253	5189
845.389	5083
845.525	5212
845.661	5193
845.798	5071
845.934	5181
846.07	5048
846.206	5216
846.342	5322
846.478	5197
846.614	5052
846.75	4999
846.886	4968
847.022	5143
847.158	5006
847.294	5071
847.429	5075
847.565	4999
847.701	5326
847.837	4862
847.972	4809
848.108	4968
848.244	4934
848.379	4771
848.515	4725
848.65	4725
848.786	4801
848.921	4771
849.057	4896
849.192	4908
849.328	4858
849.463	4877
849.598	4797
849.734	4763
849.869	4710
850.004	4660
850.14	4683
850.275	4588
850.41	4542
850.545	4603
850.68	4645
850.815	4641
850.95	4641
851.085	4805
851.22	4755
851.355	4641
851.49	4618
851.625	4660
851.76	4687
851.895	4580
852.03	4569
852.165	4649
852.299	4733
852.434	4778
852.569	4748
852.703	4767
852.838	4877
852.973	4892
853.107	4896
853.242	4744
853.376	4679
853.511	4516
853.645	4584
853.78	4828
853.914	4702
854.048	4687
854.183	4656
854.317	4675
854.451	4831
854.585	4672
854.72	4641
854.854	4839
854.988	4584
855.122	4706
855.256	4500
855.39	4714
855.524	4782
855.658	4706
855.792	4736
855.926	4733
856.06	4774
856.194	4816
856.327	4683
856.461	4580
856.595	4645
856.729	4637
856.862	4793
856.996	4679
857.13	4755
857.263	4786
857.397	4835
857.53	4679
857.664	4725
857.797	4729
857.931	4801
858.064	4714
858.197	4736
858.331	4691
858.464	4603
858.597	4580
858.731	4679
858.864	4660
858.997	4615
859.13	4698
859.263	4675
859.396	4729
859.529	4641
859.662	4565
859.795	4523
859.928	4641
860.061	4812
860.194	4755
860.327	4630
860.46	4596
860.592	4721
860.725	4733
860.858	4706
860.99	4637
861.123	4554
861.256	4546
861.388	4641
861.521	5353
861.653	4432
861.786	4443
861.918	4489
862.05	4531
862.183	4596
862.315	4599
862.447	4649
862.58	4527
862.712	4436
862.844	4363
862.976	4455
863.108	4478
863.24	4835
863.372	4379
863.504	4455
863.636	4398
863.768	4481
863.9	4478
864.032	4375
864.164	4421
864.296	4478
864.428	4527
864.559	4504
864.691	4561
864.823	4550
864.954	4546
865.086	4569
865.217	4424
865.349	4405
865.48	4497
865.612	4481
865.743	4675
865.875	4489
866.006	4466
866.137	4455
866.269	4497
866.4	4466
866.531	4421
866.662	4440
866.793	4390
866.924	4428
867.055	4500
867.186	4508
867.317	4455
867.448	4432
867.579	4352
867.71	4432
867.841	4348
867.972	4489
868.103	4478
868.233	4474
868.364	4436
868.495	4478
868.625	4668
868.756	4805
868.886	4546
869.017	4656
869.147	4767
869.278	4812
869.408	4660
869.539	4630
869.669	4744
869.799	4656
869.929	4744
870.06	4717
870.19	4995
870.32	4968
870.45	4987
870.58	5029
870.71	5124
870.84	5083
870.97	4942
871.1	4923
871.23	5124
871.36	5098
871.489	5064
871.619	5121
871.749	5140
871.879	5083
872.008	5159
872.138	5045
872.267	4930
872.397	4847
872.526	4805
872.656	4687
872.785	4805
872.915	4942
873.044	5014
873.173	4949
873.303	4984
873.432	4957
873.561	4957
873.69	4896
873.819	4824
873.948	4965
874.077	4801
874.206	4824
874.335	4763
874.464	4942
874.593	5041
874.722	4987
874.851	5067
874.979	5105
875.108	5022
875.237	4938
875.365	4911
875.494	4877
875.623	4961
875.751	4786
875.88	4866
876.008	4968
876.136	5025
876.265	5216
876.393	5322
876.521	5246
876.65	5250
876.778	5121
876.906	5151
877.034	5052
877.162	5071
877.29	5003
877.418	5083
877.546	5067
877.674	5075
877.802	5086
877.93	5018
878.058	4965
878.185	4889
878.313	4957
878.441	5033
878.568	4843
878.696	4885
878.824	4961
878.951	4949
879.079	5162
879.206	5311
879.333	5064
879.461	5018
879.588	5033
879.715	5162
879.842	5162
879.97	5041
880.097	4801
880.224	4763
880.351	4816
880.478	4835
880.605	4828
880.732	4820
880.859	5102
880.986	4862
881.112	4965
881.239	4816
881.366	4683
881.493	4683
881.619	4637
881.746	4641
881.872	4687
881.999	4645
882.125	4694
882.252	4752
882.378	4797
882.505	4976
882.631	4805
882.757	4630
882.883	4721
883.01	4721
883.136	4675
883.262	4653
883.388	4656
883.514	4854
883.64	4847
883.766	4824
883.892	4687
884.018	4717
884.143	4858
884.269	5003
884.395	4687
884.52	4664
884.646	4675
884.772	4573
884.897	4550
885.023	4672
885.148	4748
885.274	4881
885.399	4858
885.524	4717
885.65	4729
885.775	4748
885.9	4725
886.025	4866
886.15	4801
886.275	4790
886.4	4630
886.525	4702
886.65	4694
886.775	4694
886.9	4927
887.025	5109
887.149	4843
887.274	4675
887.399	4611
887.523	4607
887.648	4596
887.773	4550
887.897	4702
888.021	4797
888.146	4694
888.27	4839
888.395	4953
888.519	4858
888.643	4801
888.767	4820
888.891	4717
889.015	4641
889.139	4607
889.263	4599
889.387	4748
889.511	4858
889.635	4714
889.759	4618
889.883	4618
890.006	4748
890.13	4873
890.254	4660
890.377	4653
890.501	4596
890.624	4504
890.748	4679
890.871	4527
890.995	4428
891.118	4405
891.241	4523
891.364	4584
891.488	4634
891.611	4516
891.734	4531
891.857	4584
891.98	4569
892.103	4683
892.226	4615
892.349	4550
892.471	4478
892.594	4577
892.717	4603
892.839	4558
892.962	4611
893.085	4672
893.207	4634
893.33	4478
893.452	4531
893.575	4649
893.697	4592
893.819	4767
893.941	4839
894.064	4763
894.186	4588
894.308	4554
894.43	4763
894.552	4809
894.674	4725
894.796	4611
894.918	4573
895.04	4596
895.161	4694
895.283	4653
895.405	4588
895.526	4596
895.648	4687
895.769	4664
895.891	4736
896.012	4694
896.134	4675
896.255	4717
896.376	4637
896.498	4641
896.619	4694
896.74	4626
896.861	4660
896.982	4934
897.103	5067
897.224	4873
897.345	4733
897.466	4706
897.587	4733
897.708	4839
897.828	4786
897.949	4687
898.07	4584
898.19	4637
898.311	4809
898.431	4683
898.552	4793
898.672	4809
898.792	4812
898.913	4797
899.033	4599
899.153	4489
899.273	4394
899.393	4535
899.513	4584
899.633	4531
899.753	4569
899.873	4516
899.993	4626
900.113	4535
900.232	4607
900.352	4554
900.472	4538
900.591	4398
900.711	4432
900.83	4436
900.95	4603
901.069	4675
901.189	4542
901.308	4325
901.427	4329
901.546	4402
901.665	4451
901.784	4500
901.904	4417
902.023	4348
902.141	4188
902.26	4188
902.379	4310
902.498	4249
902.617	4204
902.735	4367
902.854	4405
902.973	4390
903.091	4234
903.21	4227
903.328	4318
903.446	4276
903.565	4276
903.683	4383
903.801	4268
903.919	4421
904.038	4443
904.156	4303
904.274	4417
904.392	4379
904.51	4424
904.627	4443
904.745	4580
904.863	4656
904.981	4424
905.098	4325
905.216	4379
905.334	4451
905.451	4443
905.569	4413
905.686	4538
905.803	4538
905.921	4428
906.038	4542
906.155	4447
906.272	4413
906.389	4440
906.506	4360
906.623	4432
906.74	4394
906.857	4379
906.974	4371
907.091	4554
907.208	4714
907.324	4607
907.441	4470
907.557	4360
907.674	4348
907.79	4310
907.907	4447
908.023	4527
908.139	4466
908.256	4398
908.372	4462
908.488	4447
908.604	4360
908.72	4337
908.836	4360
908.952	4379
909.068	4417
909.184	4550
909.3	4481
909.415	4577
909.531	4527
909.647	4325
909.762	4363
909.878	4333
909.993	4394
910.108	4474
910.224	4413
910.339	4474
910.454	4424
910.57	4375
910.685	4314
910.8	4679
910.915	4626
911.03	4497
911.145	4363
911.259	4333
911.374	4379
911.489	4310
911.604	4295
911.718	4211
911.833	4169
911.947	4078
912.062	4029
912.176	4215
912.291	4211
912.405	4291
912.519	4447
912.633	4493
912.748	4398
912.862	4329
912.976	4196
913.09	4078
913.204	4173
913.318	4230
913.431	4421
913.545	4375
913.659	4440
913.772	4322
913.886	4230
914	4257
914.113	4379
914.226	4421
914.34	4398
914.453	4257
914.566	4428
914.68	4344
914.793	4337
914.906	4181
915.019	4124
915.132	4074
915.245	4192
915.358	4246
915.47	4234
915.583	4280
915.696	4333
915.809	4421
915.921	4398
916.034	4295
916.146	4230
916.259	4230
916.371	4436
916.483	4383
916.595	4242
916.708	4329
916.82	4379
916.932	4337
917.044	4363
917.156	4306
917.268	4223
917.38	4284
917.491	4272
917.603	4333
917.715	4421
917.826	4474
917.938	4314
918.049	4310
918.161	4421
918.272	4512
918.384	4573
918.495	4443
918.606	4310
918.717	4280
918.828	4341
918.939	4383
919.05	4261
919.161	4322
919.272	4139
919.383	4234
919.494	4459
919.604	4630
919.715	4504
919.826	4348
919.936	4432
920.047	4516
920.157	4497
920.267	4660
920.378	4580
920.488	4493
920.598	4744
920.708	4911
920.818	4748
920.928	4771
921.038	4934
921.148	4942
921.258	4645
921.368	4603
921.477	4493
921.587	4443
921.697	4383
921.806	4561
921.916	4459
922.025	4287
922.134	4310
922.244	4242
922.353	4299
922.462	4162
922.571	4109
922.68	4021
922.789	3983
922.898	4059
923.007	4017
923.116	4105
923.224	4074
923.333	4090
923.442	4002
923.55	3975
923.659	3994
923.767	4112
923.876	4036
923.984	4112
924.092	4032
924.201	4101
924.309	4074
924.417	4078
924.525	4055
924.633	4166
924.741	5029
924.849	3918
924.956	4143
925.064	3964
925.172	3903
925.279	3987
925.387	4059
925.494	4067
925.602	4246
925.709	4181
925.816	4036
925.924	4135
926.031	4204
926.138	4185
926.245	4238
926.352	4055
926.459	4295
926.566	4310
926.673	4200
926.779	4040
926.886	4067
926.993	4017
927.099	3968
927.206	3956
927.312	3930
927.419	4067
927.525	4048
927.631	4135
927.737	3983
927.843	3930
927.95	3861
928.056	3949
928.162	4029
928.267	4071
928.373	4710
928.479	4150
928.585	3865
928.69	4048
928.796	4131
928.901	3998
929.007	3854
929.112	4013
929.218	3983
929.323	3930
929.428	3964
929.533	4135
929.638	3918
929.743	3918
929.848	4063
929.953	4006
930.058	3922
930.163	3804
930.267	3831
930.372	3983
930.477	3857
930.581	4101
930.685	3972
930.79	3793
930.894	3880
930.998	3888
931.103	4032
931.207	3698
931.311	3686
931.415	3709
931.519	3515
931.623	3553
