Data from test_V78500241_2460.txt Node
Date: Fri Mar 25 17:06:06 CST 2022
User: usil
Spectrometer: V785-0024
Trigger mode: 0
Integration Time (sec): 4.000000E-1
Scans to average: 1
Nonlinearity correction enabled: false
Boxcar width: 0
Storing dark spectrum: false
XAxis mode: Wavelengths
Number of Pixels in Spectrum: 1024
>>>>>Begin Spectral Data<<<<<
801.071	7967
801.214	8001
801.356	7807
801.499	7913
801.641	7830
801.783	7871
801.926	7902
802.068	7947
802.211	8008
802.353	8031
802.496	7856
802.638	7860
802.78	7875
802.923	7951
803.065	7894
803.208	7833
803.35	8016
803.492	8008
803.635	8077
803.777	8046
803.919	8107
804.061	8374
804.204	8161
804.346	8077
804.488	7944
804.63	8092
804.773	8054
804.915	8130
805.057	8286
805.199	8157
805.341	8263
805.483	8221
805.626	8218
805.768	8142
805.91	8214
806.052	8214
806.194	8088
806.336	8240
806.478	8054
806.62	8016
806.762	8130
806.904	8237
807.046	8377
807.188	8408
807.33	8290
807.472	8328
807.614	8214
807.756	8088
807.898	8008
808.04	7906
808.182	7830
808.324	7841
808.465	7860
808.607	8073
808.749	8176
808.891	8248
809.033	8313
809.174	8180
809.316	8103
809.458	8077
809.6	8035
809.741	7974
809.883	8111
810.025	8088
810.166	8073
810.308	8035
810.45	7997
810.591	7841
810.733	7788
810.875	7674
811.016	7445
811.158	7400
811.299	7563
811.441	7738
811.582	7590
811.724	7582
811.865	7495
812.007	7575
812.148	7601
812.29	7738
812.431	7742
812.573	7830
812.714	7928
812.855	8176
812.997	8221
813.138	8282
813.279	8149
813.421	8119
813.562	7951
813.703	7856
813.845	7700
813.986	7483
814.127	7266
814.268	7270
814.41	7221
814.551	7225
814.692	7202
814.833	7072
814.974	7133
815.115	7168
815.256	6970
815.397	6894
815.539	6947
815.68	6848
815.821	6802
815.962	6852
816.103	6772
816.244	6734
816.385	6601
816.526	6570
816.666	6445
816.807	6331
816.948	6426
817.089	6483
817.23	6445
817.371	6426
817.512	6361
817.653	6376
817.793	6338
817.934	6399
818.075	6418
818.216	6429
818.356	6346
818.497	6239
818.638	6114
818.778	6144
818.919	6175
819.06	6209
819.2	6308
819.341	6334
819.481	6384
819.622	6536
819.762	6745
819.903	6722
820.043	6585
820.184	6650
820.324	6547
820.465	6700
820.605	6669
820.746	6749
820.886	6585
821.026	6722
821.167	6738
821.307	6833
821.447	6829
821.588	6696
821.728	6612
821.868	6528
822.008	6357
822.149	6426
822.289	6384
822.429	6171
822.569	6117
822.709	6186
822.849	5916
822.99	5992
823.13	5992
823.27	5961
823.41	5828
823.55	5832
823.69	5779
823.83	5809
823.97	5676
824.11	5570
824.25	5577
824.389	5573
824.529	5691
824.669	5623
824.809	5714
824.949	5699
825.089	5600
825.228	5608
825.368	5467
825.508	5368
825.648	5414
825.787	5440
825.927	5425
826.067	5337
826.206	5322
826.346	5421
826.485	5417
826.625	5436
826.765	5585
826.904	5543
827.044	5288
827.183	5250
827.323	5181
827.462	5299
827.601	5258
827.741	5204
827.88	5299
828.02	5185
828.159	5280
828.298	5334
828.437	5410
828.577	5303
828.716	5532
828.855	5353
828.994	5242
829.134	5185
829.273	5216
829.412	5227
829.551	5220
829.69	5269
829.829	5261
829.968	5436
830.107	5307
830.246	5299
830.385	5216
830.524	5181
830.663	5155
830.802	4976
830.941	4946
831.08	4919
831.219	5045
831.357	5037
831.496	5170
831.635	4942
831.774	4877
831.913	4934
832.051	4778
832.19	4816
832.329	4889
832.467	4694
832.606	4683
832.744	4744
832.883	4801
833.022	4729
833.16	4812
833.299	4904
833.437	4896
833.576	4904
833.714	4866
833.852	4904
833.991	4934
834.129	4991
834.267	4987
834.406	4949
834.544	4957
834.682	5018
834.821	5025
834.959	5220
835.097	5064
835.235	5166
835.373	5113
835.511	5159
835.65	5067
835.788	5060
835.926	4976
836.064	4915
836.202	4976
836.34	5159
836.478	5254
836.615	5147
836.753	5220
836.891	5334
837.029	5299
837.167	5208
837.305	5235
837.443	5124
837.58	5162
837.718	5307
837.856	5288
837.993	5197
838.131	5299
838.269	5216
838.406	5265
838.544	5216
838.681	5056
838.819	5056
838.956	4892
839.094	4942
839.231	4999
839.369	5132
839.506	5410
839.643	5258
839.781	5113
839.918	5037
840.055	5170
840.193	5174
840.33	5143
840.467	5162
840.604	5220
840.742	5478
840.879	5140
841.016	5121
841.153	5185
841.29	5429
841.427	5357
841.564	5379
841.701	5376
841.838	5349
841.975	5277
842.112	5326
842.249	5166
842.385	5113
842.522	5337
842.659	5246
842.796	5159
842.933	5242
843.069	5204
843.206	5185
843.343	5296
843.479	5246
843.616	5296
843.752	5079
843.889	5056
844.025	5254
844.162	5045
844.298	5220
844.435	5109
844.571	5132
844.708	5242
844.844	5296
844.98	5372
845.117	5318
845.253	5204
845.389	5136
845.525	5155
845.661	5181
845.798	5060
845.934	5223
846.07	5079
846.206	5246
846.342	5341
846.478	5284
846.614	5025
846.75	4991
846.886	4927
847.022	5174
847.158	5067
847.294	5041
847.429	5124
847.565	5048
847.701	5341
847.837	4934
847.972	4797
848.108	4972
848.244	4957
848.379	4797
848.515	4744
848.65	4725
848.786	4752
848.921	4801
849.057	4896
849.192	4972
849.328	4816
849.463	4900
849.598	4854
849.734	4786
849.869	4679
850.004	4660
850.14	4706
850.275	4626
850.41	4596
850.545	4603
850.68	4611
850.815	4656
850.95	4672
851.085	4828
851.22	4774
851.355	4714
851.49	4687
851.625	4717
851.76	4653
851.895	4565
852.03	4561
852.165	4687
852.299	4744
852.434	4778
852.569	4763
852.703	4816
852.838	4850
852.973	4976
853.107	4915
853.242	4759
853.376	4687
853.511	4584
853.645	4694
853.78	4858
853.914	4698
854.048	4660
854.183	4637
854.317	4736
854.451	4900
854.585	4683
854.72	4687
854.854	4805
854.988	4637
855.122	4698
855.256	4504
855.39	4710
855.524	4797
855.658	4790
855.792	4721
855.926	4778
856.06	4816
856.194	4835
856.327	4714
856.461	4672
856.595	4630
856.729	4626
856.862	4786
856.996	4714
857.13	4710
857.263	4812
857.397	4839
857.53	4664
857.664	4733
857.797	4763
857.931	4801
858.064	4752
858.197	4782
858.331	4683
858.464	4596
858.597	4573
858.731	4603
858.864	4626
858.997	4584
859.13	4714
859.263	4729
859.396	4793
859.529	4596
859.662	4596
859.795	4554
859.928	4668
860.061	4790
860.194	4790
860.327	4664
860.46	4569
860.592	4759
860.725	4801
860.858	4755
860.99	4561
861.123	4588
861.256	4554
861.388	4668
861.521	5280
861.653	4538
861.786	4470
861.918	4481
862.05	4508
862.183	4588
862.315	4637
862.447	4710
862.58	4523
862.712	4440
862.844	4341
862.976	4519
863.108	4558
863.24	4896
863.372	4333
863.504	4424
863.636	4428
863.768	4478
863.9	4455
864.032	4436
864.164	4428
864.296	4497
864.428	4577
864.559	4569
864.691	4550
864.823	4538
864.954	4538
865.086	4542
865.217	4497
865.349	4417
865.48	4474
865.612	4527
865.743	4683
865.875	4466
866.006	4451
866.137	4523
866.269	4508
866.4	4432
866.531	4383
866.662	4421
866.793	4402
866.924	4462
867.055	4512
867.186	4436
867.317	4447
867.448	4413
867.579	4402
867.71	4432
867.841	4375
867.972	4478
868.103	4470
868.233	4516
868.364	4485
868.495	4546
868.625	4687
868.756	4805
868.886	4599
869.017	4656
869.147	4793
869.278	4843
869.408	4694
869.539	4679
869.669	4759
869.799	4683
869.929	4763
870.06	4759
870.19	4995
870.32	4946
870.45	4942
870.58	5056
870.71	5113
870.84	5109
870.97	4946
871.1	4915
871.23	5174
871.36	5159
871.489	5067
871.619	5075
871.749	5155
871.879	5136
872.008	5185
872.138	5128
872.267	5018
872.397	4835
872.526	4889
872.656	4774
872.785	4870
872.915	4965
873.044	5056
873.173	4949
873.303	4946
873.432	4984
873.561	4961
873.69	4873
873.819	4927
873.948	4930
874.077	4858
874.206	4740
874.335	4793
874.464	4965
874.593	5075
874.722	4953
874.851	5147
874.979	5102
875.108	5083
875.237	4934
875.365	4930
875.494	4908
875.623	4961
875.751	4877
875.88	4923
876.008	4984
876.136	5014
876.265	5261
876.393	5357
876.521	5277
876.65	5250
876.778	5159
876.906	5041
877.034	5037
877.162	5037
877.29	4976
877.418	5109
877.546	5048
877.674	5117
877.802	5105
877.93	5029
878.058	4934
878.185	4908
878.313	4999
878.441	5006
878.568	4824
878.696	4938
878.824	4957
878.951	5029
879.079	5147
879.206	5307
879.333	5071
879.461	4984
879.588	5079
879.715	5178
879.842	5269
879.97	5056
880.097	4835
880.224	4717
880.351	4816
880.478	4847
880.605	4797
880.732	4820
880.859	5083
880.986	4873
881.112	4934
881.239	4824
881.366	4656
881.493	4596
881.619	4653
881.746	4626
881.872	4702
881.999	4668
882.125	4683
882.252	4809
882.378	4862
882.505	5018
882.631	4820
882.757	4637
882.883	4748
883.01	4755
883.136	4668
883.262	4599
883.388	4637
883.514	4771
883.64	4835
883.766	4801
883.892	4683
884.018	4752
884.143	4896
884.269	5022
884.395	4702
884.52	4694
884.646	4660
884.772	4573
884.897	4546
885.023	4698
885.148	4812
885.274	4850
885.399	4870
885.524	4729
885.65	4736
885.775	4793
885.9	4740
886.025	4904
886.15	4763
886.275	4740
886.4	4637
886.525	4755
886.65	4755
886.775	4691
886.9	4976
887.025	5064
887.149	4870
887.274	4641
887.399	4573
887.523	4592
887.648	4580
887.773	4542
887.897	4763
888.021	4778
888.146	4710
888.27	4812
888.395	4930
888.519	4812
888.643	4870
888.767	4824
888.891	4694
889.015	4634
889.139	4687
889.263	4630
889.387	4782
889.511	4896
889.635	4816
889.759	4683
889.883	4660
890.006	4683
890.13	4839
890.254	4645
890.377	4694
890.501	4584
890.624	4504
890.748	4664
890.871	4554
890.995	4462
891.118	4428
891.241	4523
891.364	4497
891.488	4630
891.611	4535
891.734	4599
891.857	4626
891.98	4577
892.103	4706
892.226	4630
892.349	4497
892.471	4462
892.594	4550
892.717	4580
892.839	4565
892.962	4664
893.085	4679
893.207	4618
893.33	4478
893.452	4542
893.575	4679
893.697	4554
893.819	4786
893.941	4824
894.064	4725
894.186	4592
894.308	4584
894.43	4759
894.552	4881
894.674	4782
894.796	4577
894.918	4634
895.04	4615
895.161	4721
895.283	4702
895.405	4599
895.526	4618
895.648	4691
895.769	4710
895.891	4717
896.012	4736
896.134	4763
896.255	4653
896.376	4664
896.498	4630
896.619	4672
896.74	4615
896.861	4645
896.982	4904
897.103	5064
897.224	4862
897.345	4702
897.466	4664
897.587	4729
897.708	4854
897.828	4782
897.949	4656
898.07	4546
898.19	4626
898.311	4831
898.431	4721
898.552	4752
898.672	4782
898.792	4801
898.913	4714
899.033	4592
899.153	4516
899.273	4466
899.393	4493
899.513	4542
899.633	4538
899.753	4558
899.873	4489
899.993	4656
900.113	4565
900.232	4607
900.352	4603
900.472	4485
900.591	4390
900.711	4512
900.83	4440
900.95	4660
901.069	4679
901.189	4546
901.308	4409
901.427	4344
901.546	4386
901.665	4474
901.784	4485
901.904	4409
902.023	4337
902.141	4112
902.26	4120
902.379	4348
902.498	4268
902.617	4234
902.735	4363
902.854	4398
902.973	4322
903.091	4253
903.21	4234
903.328	4344
903.446	4284
903.565	4265
903.683	4363
903.801	4325
903.919	4367
904.038	4436
904.156	4348
904.274	4489
904.392	4405
904.51	4424
904.627	4497
904.745	4580
904.863	4630
904.981	4375
905.098	4299
905.216	4333
905.334	4436
905.451	4481
905.569	4436
905.686	4527
905.803	4607
905.921	4428
906.038	4546
906.155	4474
906.272	4402
906.389	4462
906.506	4352
906.623	4390
906.74	4375
906.857	4291
906.974	4356
907.091	4542
907.208	4691
907.324	4561
907.441	4504
907.557	4360
907.674	4394
907.79	4306
907.907	4402
908.023	4527
908.139	4459
908.256	4409
908.372	4523
908.488	4462
908.604	4379
908.72	4329
908.836	4363
908.952	4379
909.068	4440
909.184	4550
909.3	4466
909.415	4603
909.531	4599
909.647	4344
909.762	4352
909.878	4341
909.993	4409
910.108	4447
910.224	4409
910.339	4466
910.454	4443
910.57	4360
910.685	4348
910.8	4653
910.915	4645
911.03	4523
911.145	4303
911.259	4413
911.374	4405
911.489	4284
911.604	4272
911.718	4173
911.833	4169
911.947	4147
912.062	4048
912.176	4192
912.291	4272
912.405	4230
912.519	4508
912.633	4500
912.748	4367
912.862	4303
912.976	4181
913.09	4109
913.204	4200
913.318	4295
913.431	4398
913.545	4379
913.659	4462
913.772	4379
913.886	4246
914	4234
914.113	4363
914.226	4413
914.34	4379
914.453	4287
914.566	4413
914.68	4287
914.793	4287
914.906	4131
915.019	4169
915.132	4063
915.245	4204
915.358	4223
915.47	4227
915.583	4287
915.696	4337
915.809	4413
915.921	4375
916.034	4280
916.146	4295
916.259	4215
916.371	4325
916.483	4356
916.595	4272
916.708	4348
916.82	4333
916.932	4341
917.044	4337
917.156	4318
917.268	4230
917.38	4246
917.491	4287
917.603	4329
917.715	4474
917.826	4485
917.938	4352
918.049	4238
918.161	4428
918.272	4538
918.384	4535
918.495	4481
918.606	4314
918.717	4261
918.828	4299
918.939	4310
919.05	4265
919.161	4322
919.272	4131
919.383	4249
919.494	4455
919.604	4641
919.715	4386
919.826	4352
919.936	4394
920.047	4542
920.157	4493
920.267	4714
920.378	4531
920.488	4546
920.598	4687
920.708	4915
920.818	4740
920.928	4763
921.038	4934
921.148	4858
921.258	4645
921.368	4584
921.477	4523
921.587	4459
921.697	4402
921.806	4561
921.916	4405
922.025	4280
922.134	4333
922.244	4230
922.353	4325
922.462	4215
922.571	4120
922.68	4051
922.789	3987
922.898	4013
923.007	4048
923.116	4067
923.224	4086
923.333	4071
923.442	4010
923.55	3987
923.659	4021
923.767	4112
923.876	4040
923.984	4074
924.092	4029
924.201	4101
924.309	4116
924.417	4112
924.525	4051
924.633	4124
924.741	5071
924.849	3918
924.956	4086
925.064	3941
925.172	3907
925.279	3926
925.387	4116
925.494	4029
925.602	4227
925.709	4207
925.816	4032
925.924	4158
926.031	4207
926.138	4147
926.245	4188
926.352	4082
926.459	4249
926.566	4284
926.673	4116
926.779	4090
926.886	4063
926.993	3998
927.099	3987
927.206	3915
927.312	3953
927.419	4036
927.525	4029
927.631	4131
927.737	3987
927.843	3945
927.95	3846
928.056	3926
928.162	3979
928.267	4055
928.373	4687
928.479	4124
928.585	3854
928.69	4063
928.796	4051
928.901	3972
929.007	3861
929.112	3968
929.218	3994
929.323	4006
929.428	3945
929.533	4112
929.638	3934
929.743	3949
929.848	4036
929.953	3987
930.058	3930
930.163	3804
930.267	3808
930.372	3972
930.477	3827
930.581	4120
930.685	3960
930.79	3827
930.894	3876
930.998	3869
931.103	4055
931.207	3728
931.311	3728
931.415	3656
931.519	3504
931.623	3568
