Data from test_V78500241_321.txt Node
Date: Fri Mar 25 16:51:14 CST 2022
User: usil
Spectrometer: V785-0024
Trigger mode: 0
Integration Time (sec): 4.000000E-1
Scans to average: 1
Nonlinearity correction enabled: false
Boxcar width: 0
Storing dark spectrum: false
XAxis mode: Wavelengths
Number of Pixels in Spectrum: 1024
>>>>>Begin Spectral Data<<<<<
801.071	8103
801.214	8084
801.356	7822
801.499	7928
801.641	7784
801.783	7837
801.926	7989
802.068	8024
802.211	8027
802.353	8012
802.496	7944
802.638	7959
802.78	7974
802.923	7955
803.065	7856
803.208	7849
803.35	8050
803.492	8020
803.635	8130
803.777	7959
803.919	8123
804.061	8518
804.204	8225
804.346	8050
804.488	7955
804.63	8111
804.773	8024
804.915	8077
805.057	8259
805.199	8199
805.341	8183
805.483	8237
805.626	8244
805.768	8123
805.91	8172
806.052	8221
806.194	8164
806.336	8286
806.478	8138
806.62	8119
806.762	8168
806.904	8259
807.046	8450
807.188	8339
807.33	8347
807.472	8339
807.614	8111
807.756	8161
807.898	8020
808.04	7940
808.182	7951
808.324	7909
808.465	7986
808.607	8081
808.749	8183
808.891	8214
809.033	8294
809.174	8206
809.316	8035
809.458	8046
809.6	7982
809.741	8043
809.883	8065
810.025	8103
810.166	8119
810.308	8046
810.45	8054
810.591	7921
810.733	7734
810.875	7662
811.016	7529
811.158	7491
811.299	7639
811.441	7700
811.582	7776
811.724	7628
811.865	7571
812.007	7639
812.148	7605
812.29	7647
812.431	7742
812.573	7868
812.714	7909
812.855	8020
812.997	8183
813.138	8336
813.279	8195
813.421	8054
813.562	7986
813.703	7856
813.845	7830
813.986	7472
814.127	7244
814.268	7244
814.41	7221
814.551	7141
814.692	7202
814.833	7008
814.974	7065
815.115	7050
815.256	6962
815.397	6916
815.539	7000
815.68	6878
815.821	6741
815.962	6935
816.103	6848
816.244	6719
816.385	6692
816.526	6662
816.666	6574
816.807	6331
816.948	6399
817.089	6471
817.23	6445
817.371	6369
817.512	6376
817.653	6376
817.793	6350
817.934	6414
818.075	6479
818.216	6414
818.356	6372
818.497	6270
818.638	6102
818.778	6159
818.919	6155
819.06	6167
819.2	6338
819.341	6357
819.481	6384
819.622	6528
819.762	6719
819.903	6715
820.043	6635
820.184	6608
820.324	6578
820.465	6741
820.605	6631
820.746	6662
820.886	6536
821.026	6677
821.167	6677
821.307	6863
821.447	6818
821.588	6730
821.728	6623
821.868	6509
822.008	6342
822.149	6388
822.289	6410
822.429	6197
822.569	6106
822.709	6148
822.849	6007
822.99	5950
823.13	5935
823.27	5973
823.41	5855
823.55	5809
823.69	5809
823.83	5786
823.97	5741
824.11	5634
824.25	5532
824.389	5581
824.529	5566
824.669	5501
824.809	5676
824.949	5695
825.089	5604
825.228	5665
825.368	5501
825.508	5440
825.648	5436
825.787	5444
825.927	5436
826.067	5296
826.206	5311
826.346	5425
826.485	5452
826.625	5463
826.765	5627
826.904	5566
827.044	5311
827.183	5216
827.323	5242
827.462	5288
827.601	5288
827.741	5246
827.88	5303
828.02	5220
828.159	5322
828.298	5349
828.437	5398
828.577	5353
828.716	5528
828.855	5330
828.994	5223
829.134	5261
829.273	5250
829.412	5216
829.551	5201
829.69	5223
829.829	5296
829.968	5417
830.107	5311
830.246	5311
830.385	5216
830.524	5147
830.663	5162
830.802	5025
830.941	4957
831.08	4965
831.219	5006
831.357	5037
831.496	5185
831.635	4892
831.774	4877
831.913	4889
832.051	4786
832.19	4755
832.329	4885
832.467	4748
832.606	4683
832.744	4812
832.883	4755
833.022	4752
833.16	4809
833.299	4908
833.437	4843
833.576	4854
833.714	4911
833.852	4942
833.991	4930
834.129	5022
834.267	4995
834.406	4927
834.544	5045
834.682	5045
834.821	5022
834.959	5178
835.097	5060
835.235	5174
835.373	5140
835.511	5197
835.65	5014
835.788	5056
835.926	4942
836.064	5033
836.202	4953
836.34	5197
836.478	5227
836.615	5166
836.753	5242
836.891	5364
837.029	5318
837.167	5193
837.305	5216
837.443	5174
837.58	5151
837.718	5322
837.856	5231
837.993	5216
838.131	5288
838.269	5296
838.406	5220
838.544	5235
838.681	5121
838.819	5064
838.956	4953
839.094	4961
839.231	5006
839.369	5124
839.506	5482
839.643	5341
839.781	5128
839.918	5052
840.055	5117
840.193	5151
840.33	5143
840.467	5197
840.604	5220
840.742	5478
840.879	5162
841.016	5193
841.153	5208
841.29	5463
841.427	5410
841.564	5364
841.701	5376
841.838	5307
841.975	5261
842.112	5288
842.249	5178
842.385	5128
842.522	5341
842.659	5239
842.796	5223
842.933	5261
843.069	5151
843.206	5143
843.343	5345
843.479	5250
843.616	5307
843.752	5071
843.889	5003
844.025	5277
844.162	5048
844.298	5193
844.435	5086
844.571	5117
844.708	5212
844.844	5360
844.98	5391
845.117	5345
845.253	5185
845.389	5117
845.525	5151
845.661	5143
845.798	5086
845.934	5201
846.07	5048
846.206	5170
846.342	5296
846.478	5239
846.614	5041
846.75	5025
846.886	4968
847.022	5178
847.158	5083
847.294	5117
847.429	5151
847.565	5121
847.701	5414
847.837	4870
847.972	4809
848.108	4984
848.244	4995
848.379	4824
848.515	4759
848.65	4763
848.786	4778
848.921	4831
849.057	4877
849.192	4904
849.328	4866
849.463	4862
849.598	4816
849.734	4801
849.869	4710
850.004	4683
850.14	4710
850.275	4641
850.41	4599
850.545	4603
850.68	4653
850.815	4710
850.95	4664
851.085	4892
851.22	4790
851.355	4664
851.49	4645
851.625	4698
851.76	4698
851.895	4607
852.03	4626
852.165	4683
852.299	4767
852.434	4824
852.569	4774
852.703	4824
852.838	4881
852.973	4881
853.107	4911
853.242	4755
853.376	4729
853.511	4573
853.645	4649
853.78	4839
853.914	4729
854.048	4744
854.183	4664
854.317	4755
854.451	4850
854.585	4721
854.72	4691
854.854	4767
854.988	4634
855.122	4653
855.256	4523
855.39	4717
855.524	4824
855.658	4778
855.792	4725
855.926	4782
856.06	4767
856.194	4793
856.327	4729
856.461	4603
856.595	4664
856.729	4668
856.862	4778
856.996	4702
857.13	4744
857.263	4786
857.397	4850
857.53	4687
857.664	4755
857.797	4778
857.931	4809
858.064	4706
858.197	4809
858.331	4691
858.464	4626
858.597	4573
858.731	4649
858.864	4637
858.997	4675
859.13	4683
859.263	4721
859.396	4752
859.529	4607
859.662	4592
859.795	4569
859.928	4653
860.061	4824
860.194	4782
860.327	4694
860.46	4580
860.592	4812
860.725	4733
860.858	4782
860.99	4618
861.123	4516
861.256	4561
861.388	4660
861.521	5364
861.653	4523
861.786	4489
861.918	4519
862.05	4580
862.183	4592
862.315	4622
862.447	4649
862.58	4584
862.712	4424
862.844	4318
862.976	4527
863.108	4516
863.24	4835
863.372	4375
863.504	4459
863.636	4424
863.768	4478
863.9	4478
864.032	4394
864.164	4455
864.296	4508
864.428	4630
864.559	4615
864.691	4603
864.823	4584
864.954	4550
865.086	4577
865.217	4527
865.349	4428
865.48	4478
865.612	4577
865.743	4637
865.875	4478
866.006	4447
866.137	4489
866.269	4478
866.4	4436
866.531	4440
866.662	4455
866.793	4379
866.924	4451
867.055	4519
867.186	4504
867.317	4409
867.448	4360
867.579	4383
867.71	4481
867.841	4447
867.972	4527
868.103	4512
868.233	4497
868.364	4493
868.495	4493
868.625	4687
868.756	4824
868.886	4603
869.017	4626
869.147	4786
869.278	4801
869.408	4656
869.539	4717
869.669	4736
869.799	4744
869.929	4782
870.06	4797
870.19	4976
870.32	4972
870.45	4980
870.58	5037
870.71	5086
870.84	5113
870.97	4953
871.1	4900
871.23	5151
871.36	5170
871.489	5014
871.619	5105
871.749	5083
871.879	5166
872.008	5197
872.138	5117
872.267	4999
872.397	4908
872.526	4805
872.656	4790
872.785	4812
872.915	4968
873.044	5041
873.173	4961
873.303	5010
873.432	4999
873.561	4972
873.69	4870
873.819	4908
873.948	4984
874.077	4824
874.206	4702
874.335	4858
874.464	4953
874.593	5090
874.722	4991
874.851	5143
874.979	5113
875.108	5132
875.237	4946
875.365	4889
875.494	4881
875.623	4980
875.751	4881
875.88	4889
876.008	5052
876.136	5067
876.265	5246
876.393	5368
876.521	5318
876.65	5284
876.778	5174
876.906	5060
877.034	5064
877.162	5067
877.29	5064
877.418	5071
877.546	5136
877.674	5071
877.802	5124
877.93	5060
878.058	4953
878.185	4938
878.313	4961
878.441	4965
878.568	4824
878.696	4858
878.824	4946
878.951	5022
879.079	5136
879.206	5299
879.333	5105
879.461	4965
879.588	5014
879.715	5136
879.842	5242
879.97	5003
880.097	4778
880.224	4793
880.351	4824
880.478	4847
880.605	4831
880.732	4801
880.859	5113
880.986	4908
881.112	4946
881.239	4763
881.366	4634
881.493	4645
881.619	4649
881.746	4679
881.872	4679
881.999	4672
882.125	4733
882.252	4839
882.378	4858
882.505	4957
882.631	4850
882.757	4702
882.883	4767
883.01	4721
883.136	4740
883.262	4607
883.388	4649
883.514	4820
883.64	4892
883.766	4835
883.892	4649
884.018	4778
884.143	4919
884.269	5079
884.395	4702
884.52	4611
884.646	4649
884.772	4626
884.897	4535
885.023	4675
885.148	4812
885.274	4896
885.399	4809
885.524	4706
885.65	4744
885.775	4774
885.9	4733
886.025	4889
886.15	4824
886.275	4733
886.4	4679
886.525	4782
886.65	4687
886.775	4740
886.9	4889
887.025	5060
887.149	4824
887.274	4637
887.399	4634
887.523	4668
887.648	4634
887.773	4626
887.897	4755
888.021	4786
888.146	4706
888.27	4843
888.395	4873
888.519	4801
888.643	4797
888.767	4816
888.891	4721
889.015	4630
889.139	4637
889.263	4675
889.387	4771
889.511	4870
889.635	4812
889.759	4653
889.883	4660
890.006	4748
890.13	4866
890.254	4603
890.377	4656
890.501	4519
890.624	4546
890.748	4569
890.871	4554
890.995	4428
891.118	4409
891.241	4519
891.364	4565
891.488	4634
891.611	4527
891.734	4535
891.857	4637
891.98	4584
892.103	4687
892.226	4630
892.349	4550
892.471	4424
892.594	4626
892.717	4622
892.839	4603
892.962	4611
893.085	4702
893.207	4561
893.33	4470
893.452	4588
893.575	4656
893.697	4641
893.819	4862
893.941	4824
894.064	4771
894.186	4603
894.308	4599
894.43	4752
894.552	4889
894.674	4809
894.796	4599
894.918	4611
895.04	4573
895.161	4740
895.283	4675
895.405	4649
895.526	4649
895.648	4714
895.769	4736
895.891	4736
896.012	4752
896.134	4782
896.255	4683
896.376	4694
896.498	4630
896.619	4683
896.74	4618
896.861	4664
896.982	4908
897.103	5086
897.224	4858
897.345	4752
897.466	4622
897.587	4714
897.708	4847
897.828	4801
897.949	4691
898.07	4603
898.19	4618
898.311	4866
898.431	4698
898.552	4755
898.672	4873
898.792	4847
898.913	4752
899.033	4630
899.153	4519
899.273	4409
899.393	4527
899.513	4607
899.633	4535
899.753	4550
899.873	4546
899.993	4622
900.113	4546
900.232	4615
900.352	4626
900.472	4500
900.591	4459
900.711	4500
900.83	4466
900.95	4577
901.069	4717
901.189	4565
901.308	4386
901.427	4341
901.546	4360
901.665	4497
901.784	4558
901.904	4417
902.023	4356
902.141	4215
902.26	4185
902.379	4272
902.498	4261
902.617	4230
902.735	4398
902.854	4390
902.973	4371
903.091	4196
903.21	4238
903.328	4276
903.446	4257
903.565	4284
903.683	4379
903.801	4272
903.919	4413
904.038	4512
904.156	4344
904.274	4459
904.392	4451
904.51	4485
904.627	4481
904.745	4527
904.863	4645
904.981	4375
905.098	4318
905.216	4394
905.334	4470
905.451	4398
905.569	4428
905.686	4569
905.803	4538
905.921	4421
906.038	4561
906.155	4519
906.272	4443
906.389	4485
906.506	4348
906.623	4436
906.74	4421
906.857	4337
906.974	4443
907.091	4554
907.208	4672
907.324	4596
907.441	4481
907.557	4329
907.674	4348
907.79	4329
907.907	4375
908.023	4497
908.139	4481
908.256	4432
908.372	4535
908.488	4481
908.604	4386
908.72	4318
908.836	4341
908.952	4363
909.068	4428
909.184	4584
909.3	4512
909.415	4538
909.531	4561
909.647	4325
909.762	4394
909.878	4356
909.993	4462
910.108	4421
910.224	4421
910.339	4493
910.454	4428
910.57	4322
910.685	4299
910.8	4664
910.915	4626
911.03	4497
911.145	4344
911.259	4322
911.374	4322
911.489	4329
911.604	4295
911.718	4181
911.833	4204
911.947	4101
912.062	4025
912.176	4230
912.291	4234
912.405	4246
912.519	4474
912.633	4489
912.748	4386
912.862	4291
912.976	4211
913.09	4150
913.204	4196
913.318	4234
913.431	4443
913.545	4394
913.659	4466
913.772	4417
913.886	4227
914	4230
914.113	4421
914.226	4402
914.34	4436
914.453	4230
914.566	4417
914.68	4303
914.793	4356
914.906	4185
915.019	4120
915.132	4063
915.245	4215
915.358	4234
915.47	4242
915.583	4223
915.696	4299
915.809	4417
915.921	4466
916.034	4280
916.146	4246
916.259	4230
916.371	4386
916.483	4398
916.595	4287
916.708	4322
916.82	4310
916.932	4356
917.044	4333
917.156	4348
917.268	4265
917.38	4249
917.491	4242
917.603	4325
917.715	4428
917.826	4417
917.938	4341
918.049	4280
918.161	4375
918.272	4565
918.384	4527
918.495	4424
918.606	4341
918.717	4257
918.828	4318
918.939	4379
919.05	4284
919.161	4341
919.272	4135
919.383	4242
919.494	4443
919.604	4675
919.715	4462
919.826	4390
919.936	4443
920.047	4500
920.157	4519
920.267	4721
920.378	4592
920.488	4508
920.598	4698
920.708	4885
920.818	4771
920.928	4733
921.038	4984
921.148	4904
921.258	4672
921.368	4596
921.477	4485
921.587	4443
921.697	4367
921.806	4542
921.916	4413
922.025	4276
922.134	4227
922.244	4196
922.353	4295
922.462	4192
922.571	4101
922.68	4044
922.789	3956
922.898	4044
923.007	4055
923.116	4097
923.224	4074
923.333	4040
923.442	3972
923.55	3964
923.659	4059
923.767	4116
923.876	3975
923.984	4128
924.092	4010
924.201	4051
924.309	4071
924.417	4181
924.525	4093
924.633	4105
924.741	4881
924.849	3926
924.956	4112
925.064	3937
925.172	3907
925.279	3975
925.387	4071
925.494	4010
925.602	4249
925.709	4204
925.816	4010
925.924	4166
926.031	4238
926.138	4192
926.245	4211
926.352	4131
926.459	4257
926.566	4352
926.673	4200
926.779	4063
926.886	4090
926.993	4032
927.099	3964
927.206	3907
927.312	3926
927.419	4071
927.525	4055
927.631	4105
927.737	3987
927.843	3915
927.95	3880
928.056	3956
928.162	4040
928.267	4063
928.373	4694
928.479	4158
928.585	3884
928.69	4002
928.796	4097
928.901	3979
929.007	3865
929.112	4013
929.218	4017
929.323	3979
929.428	3941
929.533	4120
929.638	3915
929.743	4010
929.848	4097
929.953	3956
930.058	3945
930.163	3812
930.267	3880
930.372	4017
930.477	3797
930.581	4143
930.685	3972
930.79	3861
930.894	3869
930.998	3899
931.103	4067
931.207	3728
931.311	3717
931.415	3660
931.519	3526
931.623	3523
