Data from test_V78500241_1923.txt Node
Date: Fri Mar 25 17:02:22 CST 2022
User: usil
Spectrometer: V785-0024
Trigger mode: 0
Integration Time (sec): 4.000000E-1
Scans to average: 1
Nonlinearity correction enabled: false
Boxcar width: 0
Storing dark spectrum: false
XAxis mode: Wavelengths
Number of Pixels in Spectrum: 1024
>>>>>Begin Spectral Data<<<<<
801.071	7974
801.214	7963
801.356	7902
801.499	7906
801.641	7780
801.783	7868
801.926	7944
802.068	7955
802.211	8016
802.353	7970
802.496	7940
802.638	7849
802.78	7860
802.923	7909
803.065	7822
803.208	7864
803.35	7959
803.492	8058
803.635	8202
803.777	8035
803.919	8138
804.061	8408
804.204	8107
804.346	8062
804.488	7967
804.63	8069
804.773	8035
804.915	8100
805.057	8324
805.199	8172
805.341	8199
805.483	8286
805.626	8252
805.768	8111
805.91	8202
806.052	8202
806.194	8100
806.336	8259
806.478	8081
806.62	8092
806.762	8119
806.904	8248
807.046	8374
807.188	8389
807.33	8324
807.472	8332
807.614	8195
807.756	8153
807.898	8001
808.04	7898
808.182	7913
808.324	7871
808.465	7868
808.607	8100
808.749	8073
808.891	8252
809.033	8202
809.174	8218
809.316	8138
809.458	8050
809.6	8020
809.741	8065
809.883	8039
810.025	8046
810.166	8046
810.308	8050
810.45	8005
810.591	7788
810.733	7769
810.875	7670
811.016	7609
811.158	7483
811.299	7540
811.441	7750
811.582	7655
811.724	7514
811.865	7594
812.007	7525
812.148	7605
812.29	7575
812.431	7738
812.573	7909
812.714	7928
812.855	8180
812.997	8218
813.138	8248
813.279	8115
813.421	8050
813.562	7925
813.703	7818
813.845	7742
813.986	7491
814.127	7274
814.268	7164
814.41	7221
814.551	7187
814.692	7187
814.833	7076
814.974	7095
815.115	7141
815.256	6989
815.397	6977
815.539	6962
815.68	6859
815.821	6749
815.962	6818
816.103	6787
816.244	6673
816.385	6627
816.526	6608
816.666	6494
816.807	6331
816.948	6441
817.089	6506
817.23	6391
817.371	6414
817.512	6388
817.653	6380
817.793	6384
817.934	6384
818.075	6414
818.216	6437
818.356	6369
818.497	6266
818.638	6102
818.778	6091
818.919	6133
819.06	6148
819.2	6342
819.341	6338
819.481	6361
819.622	6517
819.762	6783
819.903	6700
820.043	6593
820.184	6593
820.324	6593
820.465	6711
820.605	6688
820.746	6665
820.886	6498
821.026	6639
821.167	6677
821.307	6734
821.447	6745
821.588	6604
821.728	6585
821.868	6502
822.008	6395
822.149	6448
822.289	6369
822.429	6163
822.569	6053
822.709	6152
822.849	5996
822.99	5893
823.13	5958
823.27	5923
823.41	5790
823.55	5832
823.69	5718
823.83	5802
823.97	5649
824.11	5547
824.25	5516
824.389	5573
824.529	5581
824.669	5512
824.809	5657
824.949	5657
825.089	5638
825.228	5581
825.368	5387
825.508	5341
825.648	5345
825.787	5345
825.927	5395
826.067	5330
826.206	5265
826.346	5368
826.485	5383
826.625	5406
826.765	5535
826.904	5478
827.044	5242
827.183	5204
827.323	5147
827.462	5265
827.601	5204
827.741	5204
827.88	5220
828.02	5121
828.159	5227
828.298	5280
828.437	5341
828.577	5284
828.716	5478
828.855	5357
828.994	5166
829.134	5117
829.273	5162
829.412	5147
829.551	5117
829.69	5178
829.829	5197
829.968	5326
830.107	5246
830.246	5311
830.385	5197
830.524	5170
830.663	5094
830.802	4946
830.941	4892
831.08	4900
831.219	4972
831.357	4987
831.496	5132
831.635	4946
831.774	4812
831.913	4812
832.051	4717
832.19	4805
832.329	4831
832.467	4660
832.606	4664
832.744	4729
832.883	4740
833.022	4725
833.16	4812
833.299	4828
833.437	4774
833.576	4854
833.714	4824
833.852	4919
833.991	4889
834.129	4946
834.267	4873
834.406	4892
834.544	4949
834.682	4995
834.821	4972
834.959	5166
835.097	5010
835.235	5140
835.373	5071
835.511	5132
835.65	5064
835.788	4991
835.926	4843
836.064	4850
836.202	4908
836.34	5136
836.478	5178
836.615	5117
836.753	5216
836.891	5258
837.029	5227
837.167	5204
837.305	5208
837.443	5162
837.58	5181
837.718	5250
837.856	5193
837.993	5151
838.131	5185
838.269	5223
838.406	5231
838.544	5189
838.681	5006
838.819	5014
838.956	4858
839.094	4896
839.231	4919
839.369	5102
839.506	5410
839.643	5265
839.781	5056
839.918	5010
840.055	5117
840.193	5117
840.33	5067
840.467	5117
840.604	5166
840.742	5421
840.879	5041
841.016	5083
841.153	5178
841.29	5391
841.427	5357
841.564	5337
841.701	5349
841.838	5265
841.975	5261
842.112	5204
842.249	5128
842.385	5140
842.522	5269
842.659	5216
842.796	5155
842.933	5201
843.069	5181
843.206	5166
843.343	5292
843.479	5280
843.616	5220
843.752	4984
843.889	5041
844.025	5193
844.162	4995
844.298	5212
844.435	5056
844.571	5056
844.708	5193
844.844	5318
844.98	5353
845.117	5242
845.253	5132
845.389	5098
845.525	5174
845.661	5143
845.798	5010
845.934	5071
846.07	4976
846.206	5227
846.342	5273
846.478	5204
846.614	4999
846.75	4957
846.886	4904
847.022	5113
847.158	4999
847.294	5094
847.429	5136
847.565	5117
847.701	5349
847.837	4870
847.972	4820
848.108	4987
848.244	4953
848.379	4816
848.515	4767
848.65	4679
848.786	4702
848.921	4774
849.057	4873
849.192	4870
849.328	4805
849.463	4843
849.598	4843
849.734	4752
849.869	4679
850.004	4611
850.14	4653
850.275	4573
850.41	4531
850.545	4584
850.68	4577
850.815	4645
850.95	4660
851.085	4904
851.22	4729
851.355	4622
851.49	4641
851.625	4634
851.76	4615
851.895	4565
852.03	4538
852.165	4641
852.299	4740
852.434	4778
852.569	4752
852.703	4763
852.838	4809
852.973	4930
853.107	4908
853.242	4748
853.376	4679
853.511	4523
853.645	4630
853.78	4805
853.914	4710
854.048	4634
854.183	4694
854.317	4740
854.451	4850
854.585	4729
854.72	4607
854.854	4793
854.988	4569
855.122	4634
855.256	4535
855.39	4691
855.524	4793
855.658	4717
855.792	4714
855.926	4736
856.06	4752
856.194	4816
856.327	4717
856.461	4584
856.595	4641
856.729	4637
856.862	4793
856.996	4683
857.13	4725
857.263	4744
857.397	4759
857.53	4599
857.664	4748
857.797	4725
857.931	4786
858.064	4660
858.197	4744
858.331	4641
858.464	4656
858.597	4523
858.731	4687
858.864	4653
858.997	4603
859.13	4664
859.263	4641
859.396	4698
859.529	4542
859.662	4535
859.795	4542
859.928	4607
860.061	4714
860.194	4771
860.327	4641
860.46	4565
860.592	4687
860.725	4736
860.858	4717
860.99	4546
861.123	4561
861.256	4535
861.388	4592
861.521	5284
861.653	4466
861.786	4436
861.918	4398
862.05	4550
862.183	4615
862.315	4561
862.447	4618
862.58	4561
862.712	4440
862.844	4348
862.976	4516
863.108	4478
863.24	4740
863.372	4367
863.504	4379
863.636	4379
863.768	4451
863.9	4417
864.032	4386
864.164	4398
864.296	4462
864.428	4550
864.559	4596
864.691	4485
864.823	4542
864.954	4451
865.086	4523
865.217	4466
865.349	4394
865.48	4436
865.612	4489
865.743	4630
865.875	4470
866.006	4451
866.137	4459
866.269	4443
866.4	4455
866.531	4443
866.662	4428
866.793	4398
866.924	4402
867.055	4440
867.186	4436
867.317	4443
867.448	4371
867.579	4386
867.71	4405
867.841	4394
867.972	4466
868.103	4459
868.233	4413
868.364	4527
868.495	4504
868.625	4615
868.756	4752
868.886	4550
869.017	4596
869.147	4797
869.278	4694
869.408	4668
869.539	4645
869.669	4717
869.799	4649
869.929	4733
870.06	4729
870.19	4946
870.32	4911
870.45	4976
870.58	5010
870.71	5083
870.84	5094
870.97	4946
871.1	4866
871.23	5159
871.36	5105
871.489	5056
871.619	5064
871.749	5121
871.879	5124
872.008	5166
872.138	5033
872.267	4980
872.397	4843
872.526	4782
872.656	4706
872.785	4797
872.915	4915
873.044	5064
873.173	4927
873.303	4972
873.432	4915
873.561	4900
873.69	4881
873.819	4843
873.948	4923
874.077	4854
874.206	4740
874.335	4816
874.464	4889
874.593	5022
874.722	4949
874.851	5102
874.979	5003
875.108	5083
875.237	4911
875.365	4885
875.494	4847
875.623	4991
875.751	4805
875.88	4911
876.008	4995
876.136	5033
876.265	5235
876.393	5296
876.521	5216
876.65	5231
876.778	5178
876.906	5071
877.034	4999
877.162	5071
877.29	4976
877.418	5067
877.546	5079
877.674	5033
877.802	5014
877.93	5025
878.058	4934
878.185	4835
878.313	4991
878.441	4991
878.568	4801
878.696	4900
878.824	4984
878.951	4995
879.079	5105
879.206	5284
879.333	5124
879.461	4957
879.588	5022
879.715	5098
879.842	5178
879.97	4995
880.097	4786
880.224	4706
880.351	4816
880.478	4797
880.605	4786
880.732	4801
880.859	5105
880.986	4885
881.112	4938
881.239	4786
881.366	4645
881.493	4618
881.619	4618
881.746	4611
881.872	4649
881.999	4596
882.125	4668
882.252	4809
882.378	4786
882.505	4991
882.631	4816
882.757	4721
882.883	4733
883.01	4748
883.136	4634
883.262	4599
883.388	4577
883.514	4839
883.64	4866
883.766	4778
883.892	4675
884.018	4752
884.143	4873
884.269	4968
884.395	4691
884.52	4656
884.646	4664
884.772	4558
884.897	4611
885.023	4592
885.148	4805
885.274	4847
885.399	4839
885.524	4752
885.65	4725
885.775	4733
885.9	4740
886.025	4854
886.15	4782
886.275	4691
886.4	4622
886.525	4740
886.65	4660
886.775	4694
886.9	4900
887.025	5060
887.149	4816
887.274	4580
887.399	4596
887.523	4599
887.648	4558
887.773	4580
887.897	4736
888.021	4752
888.146	4645
888.27	4774
888.395	4919
888.519	4824
888.643	4809
888.767	4801
888.891	4653
889.015	4645
889.139	4599
889.263	4599
889.387	4740
889.511	4885
889.635	4820
889.759	4618
889.883	4626
890.006	4717
890.13	4774
890.254	4580
890.377	4687
890.501	4569
890.624	4519
890.748	4664
890.871	4519
890.995	4424
891.118	4386
891.241	4512
891.364	4512
891.488	4634
891.611	4489
891.734	4554
891.857	4580
891.98	4558
892.103	4668
892.226	4542
892.349	4508
892.471	4398
892.594	4538
892.717	4577
892.839	4554
892.962	4618
893.085	4698
893.207	4641
893.33	4443
893.452	4489
893.575	4649
893.697	4561
893.819	4767
893.941	4809
894.064	4774
894.186	4550
894.308	4550
894.43	4687
894.552	4809
894.674	4755
894.796	4550
894.918	4580
895.04	4558
895.161	4736
895.283	4649
895.405	4634
895.526	4645
895.648	4675
895.769	4687
895.891	4645
896.012	4774
896.134	4721
896.255	4691
896.376	4622
896.498	4577
896.619	4691
896.74	4573
896.861	4694
896.982	4915
897.103	5025
897.224	4847
897.345	4736
897.466	4653
897.587	4714
897.708	4873
897.828	4793
897.949	4649
898.07	4565
898.19	4603
898.311	4790
898.431	4641
898.552	4763
898.672	4767
898.792	4797
898.913	4771
899.033	4588
899.153	4508
899.273	4428
899.393	4504
899.513	4485
899.633	4508
899.753	4542
899.873	4516
899.993	4538
900.113	4550
900.232	4573
900.352	4523
900.472	4478
900.591	4360
900.711	4478
900.83	4466
900.95	4584
901.069	4660
901.189	4538
901.308	4375
901.427	4356
901.546	4322
901.665	4497
901.784	4523
901.904	4424
902.023	4272
902.141	4188
902.26	4128
902.379	4322
902.498	4215
902.617	4280
902.735	4341
902.854	4386
902.973	4371
903.091	4192
903.21	4200
903.328	4299
903.446	4284
903.565	4211
903.683	4360
903.801	4325
903.919	4375
904.038	4443
904.156	4333
904.274	4443
904.392	4394
904.51	4489
904.627	4451
904.745	4630
904.863	4634
904.981	4394
905.098	4303
905.216	4379
905.334	4436
905.451	4440
905.569	4402
905.686	4519
905.803	4527
905.921	4421
906.038	4580
906.155	4512
906.272	4371
906.389	4428
906.506	4390
906.623	4432
906.74	4371
906.857	4303
906.974	4394
907.091	4531
907.208	4683
907.324	4584
907.441	4470
907.557	4341
907.674	4356
907.79	4291
907.907	4428
908.023	4466
908.139	4424
908.256	4451
908.372	4451
908.488	4497
908.604	4337
908.72	4318
908.836	4379
908.952	4402
909.068	4440
909.184	4535
909.3	4500
909.415	4588
909.531	4519
909.647	4337
909.762	4367
909.878	4348
909.993	4459
910.108	4413
910.224	4447
910.339	4466
910.454	4421
910.57	4375
910.685	4337
910.8	4706
910.915	4603
911.03	4508
911.145	4284
911.259	4306
911.374	4375
911.489	4261
911.604	4265
911.718	4154
911.833	4211
911.947	4059
912.062	4002
912.176	4215
912.291	4246
912.405	4268
912.519	4489
912.633	4527
912.748	4363
912.862	4287
912.976	4185
913.09	4105
913.204	4192
913.318	4276
913.431	4333
913.545	4375
913.659	4440
913.772	4398
913.886	4204
914	4192
914.113	4379
914.226	4440
914.34	4360
914.453	4238
914.566	4402
914.68	4299
914.793	4352
914.906	4196
915.019	4139
915.132	4071
915.245	4112
915.358	4173
915.47	4268
915.583	4246
915.696	4329
915.809	4394
915.921	4402
916.034	4246
916.146	4280
916.259	4211
916.371	4402
916.483	4325
916.595	4272
916.708	4306
916.82	4329
916.932	4310
917.044	4322
917.156	4360
917.268	4272
917.38	4276
917.491	4261
917.603	4329
917.715	4405
917.826	4428
917.938	4356
918.049	4242
918.161	4363
918.272	4558
918.384	4538
918.495	4455
918.606	4341
918.717	4230
918.828	4310
918.939	4367
919.05	4219
919.161	4329
919.272	4105
919.383	4246
919.494	4447
919.604	4634
919.715	4424
919.826	4344
919.936	4375
920.047	4485
920.157	4527
920.267	4664
920.378	4542
920.488	4512
920.598	4710
920.708	4858
920.818	4736
920.928	4774
921.038	4930
921.148	4908
921.258	4607
921.368	4596
921.477	4497
921.587	4459
921.697	4371
921.806	4569
921.916	4409
922.025	4246
922.134	4261
922.244	4280
922.353	4348
922.462	4196
922.571	4147
922.68	3994
922.789	3987
922.898	4032
923.007	3998
923.116	4143
923.224	4063
923.333	4074
923.442	3975
923.55	3945
923.659	4021
923.767	4112
923.876	3945
923.984	4105
924.092	4002
924.201	4082
924.309	4097
924.417	4158
924.525	4078
924.633	4101
924.741	5052
924.849	3956
924.956	4135
925.064	3941
925.172	3953
925.279	3975
925.387	4074
925.494	4017
925.602	4223
925.709	4139
925.816	4048
925.924	4055
926.031	4249
926.138	4154
926.245	4181
926.352	4074
926.459	4284
926.566	4299
926.673	4147
926.779	4025
926.886	4101
926.993	3979
927.099	3960
927.206	3945
927.312	3922
927.419	4071
927.525	3983
927.631	4086
927.737	3953
927.843	3915
927.95	3880
928.056	3945
928.162	3979
928.267	4059
928.373	4569
928.479	4105
928.585	3873
928.69	3998
928.796	4074
928.901	3979
929.007	3857
929.112	4006
929.218	3945
929.323	3918
929.428	3941
929.533	4112
929.638	3930
929.743	3926
929.848	3994
929.953	4002
930.058	3949
930.163	3770
930.267	3846
930.372	3949
930.477	3819
930.581	4109
930.685	3926
930.79	3812
930.894	3922
930.998	3854
931.103	4048
931.207	3751
931.311	3690
931.415	3648
931.519	3523
931.623	3549
