Data from test_V78500241_895.txt Node
Date: Fri Mar 25 16:55:13 CST 2022
User: usil
Spectrometer: V785-0024
Trigger mode: 0
Integration Time (sec): 4.000000E-1
Scans to average: 1
Nonlinearity correction enabled: false
Boxcar width: 0
Storing dark spectrum: false
XAxis mode: Wavelengths
Number of Pixels in Spectrum: 1024
>>>>>Begin Spectral Data<<<<<
801.071	8024
801.214	8005
801.356	7788
801.499	7890
801.641	7738
801.783	7803
801.926	7970
802.068	7925
802.211	7909
802.353	7906
802.496	7795
802.638	7860
802.78	7883
802.923	7894
803.065	7826
803.208	7871
803.35	7989
803.492	8157
803.635	8142
803.777	7944
803.919	8065
804.061	8473
804.204	8149
804.346	8008
804.488	7986
804.63	8069
804.773	7982
804.915	8043
805.057	8256
805.199	8157
805.341	8214
805.483	8240
805.626	8195
805.768	8103
805.91	8176
806.052	8187
806.194	8031
806.336	8252
806.478	8043
806.62	8088
806.762	8111
806.904	8240
807.046	8503
807.188	8385
807.33	8301
807.472	8339
807.614	8123
807.756	8157
807.898	7970
808.04	7864
808.182	7917
808.324	7868
808.465	7982
808.607	8069
808.749	8073
808.891	8183
809.033	8282
809.174	8214
809.316	8096
809.458	8054
809.6	7925
809.741	8027
809.883	8054
810.025	8088
810.166	8058
810.308	8016
810.45	8024
810.591	7822
810.733	7753
810.875	7696
811.016	7529
811.158	7567
811.299	7548
811.441	7731
811.582	7647
811.724	7586
811.865	7556
812.007	7518
812.148	7582
812.29	7575
812.431	7700
812.573	7890
812.714	7959
812.855	8153
812.997	8153
813.138	8324
813.279	8149
813.421	8062
813.562	7989
813.703	7887
813.845	7799
813.986	7480
814.127	7331
814.268	7179
814.41	7149
814.551	7072
814.692	7187
814.833	7053
814.974	7103
815.115	7129
815.256	6977
815.397	6943
815.539	6958
815.68	6856
815.821	6783
815.962	6863
816.103	6821
816.244	6715
816.385	6620
816.526	6654
816.666	6555
816.807	6292
816.948	6441
817.089	6483
817.23	6429
817.371	6384
817.512	6308
817.653	6448
817.793	6353
817.934	6437
818.075	6471
818.216	6380
818.356	6357
818.497	6167
818.638	6106
818.778	6106
818.919	6129
819.06	6133
819.2	6300
819.341	6239
819.481	6365
819.622	6506
819.762	6700
819.903	6692
820.043	6551
820.184	6563
820.324	6601
820.465	6684
820.605	6627
820.746	6646
820.886	6532
821.026	6642
821.167	6703
821.307	6787
821.447	6734
821.588	6582
821.728	6547
821.868	6460
822.008	6319
822.149	6384
822.289	6254
822.429	6060
822.569	6041
822.709	6136
822.849	5874
822.99	5855
823.13	5882
823.27	5866
823.41	5764
823.55	5790
823.69	5764
823.83	5783
823.97	5627
824.11	5486
824.25	5524
824.389	5528
824.529	5581
824.669	5547
824.809	5596
824.949	5710
825.089	5566
825.228	5566
825.368	5383
825.508	5280
825.648	5292
825.787	5372
825.927	5395
826.067	5353
826.206	5303
826.346	5345
826.485	5410
826.625	5467
826.765	5558
826.904	5467
827.044	5269
827.183	5204
827.323	5147
827.462	5292
827.601	5227
827.741	5166
827.88	5231
828.02	5136
828.159	5223
828.298	5318
828.437	5357
828.577	5292
828.716	5528
828.855	5421
828.994	5151
829.134	5193
829.273	5189
829.412	5162
829.551	5147
829.69	5170
829.829	5269
829.968	5410
830.107	5288
830.246	5250
830.385	5189
830.524	5197
830.663	5071
830.802	5006
830.941	4873
831.08	4915
831.219	5029
831.357	4953
831.496	5204
831.635	4976
831.774	4942
831.913	4927
832.051	4782
832.19	4790
832.329	4847
832.467	4710
832.606	4687
832.744	4744
832.883	4698
833.022	4736
833.16	4797
833.299	4831
833.437	4820
833.576	4881
833.714	4870
833.852	4892
833.991	4953
834.129	5006
834.267	4965
834.406	4942
834.544	5014
834.682	4968
834.821	5056
834.959	5185
835.097	5037
835.235	5159
835.373	5086
835.511	5136
835.65	5048
835.788	5060
835.926	4972
836.064	4946
836.202	4984
836.34	5162
836.478	5235
836.615	5151
836.753	5239
836.891	5273
837.029	5315
837.167	5216
837.305	5212
837.443	5189
837.58	5102
837.718	5299
837.856	5185
837.993	5201
838.131	5273
838.269	5208
838.406	5246
838.544	5239
838.681	5079
838.819	5079
838.956	4980
839.094	4930
839.231	5041
839.369	5090
839.506	5436
839.643	5284
839.781	5083
839.918	5098
840.055	5109
840.193	5094
840.33	5090
840.467	5155
840.604	5204
840.742	5455
840.879	5064
841.016	5159
841.153	5136
841.29	5395
841.427	5337
841.564	5292
841.701	5372
841.838	5322
841.975	5292
842.112	5280
842.249	5166
842.385	5204
842.522	5406
842.659	5235
842.796	5143
842.933	5216
843.069	5193
843.206	5151
843.343	5357
843.479	5231
843.616	5299
843.752	5018
843.889	5029
844.025	5227
844.162	5014
844.298	5239
844.435	5102
844.571	5060
844.708	5261
844.844	5322
844.98	5353
845.117	5376
845.253	5143
845.389	5105
845.525	5117
845.661	5185
845.798	5067
845.934	5136
846.07	5064
846.206	5227
846.342	5288
846.478	5235
846.614	5128
846.75	4961
846.886	4915
847.022	5185
847.158	5045
847.294	5075
847.429	5147
847.565	5121
847.701	5349
847.837	4900
847.972	4793
848.108	4976
848.244	4968
848.379	4824
848.515	4744
848.65	4691
848.786	4801
848.921	4759
849.057	4858
849.192	4927
849.328	4824
849.463	4862
849.598	4831
849.734	4763
849.869	4691
850.004	4626
850.14	4691
850.275	4622
850.41	4558
850.545	4622
850.68	4645
850.815	4660
850.95	4645
851.085	4847
851.22	4740
851.355	4694
851.49	4668
851.625	4649
851.76	4596
851.895	4626
852.03	4577
852.165	4653
852.299	4774
852.434	4862
852.569	4755
852.703	4805
852.838	4866
852.973	4961
853.107	4919
853.242	4733
853.376	4694
853.511	4599
853.645	4611
853.78	4793
853.914	4759
854.048	4630
854.183	4645
854.317	4702
854.451	4812
854.585	4714
854.72	4626
854.854	4767
854.988	4607
855.122	4653
855.256	4523
855.39	4668
855.524	4801
855.658	4725
855.792	4714
855.926	4752
856.06	4778
856.194	4786
856.327	4668
856.461	4672
856.595	4649
856.729	4607
856.862	4771
856.996	4694
857.13	4729
857.263	4752
857.397	4782
857.53	4672
857.664	4771
857.797	4771
857.931	4797
858.064	4721
858.197	4812
858.331	4653
858.464	4641
858.597	4523
858.731	4596
858.864	4641
858.997	4618
859.13	4672
859.263	4702
859.396	4694
859.529	4611
859.662	4599
859.795	4546
859.928	4611
860.061	4767
860.194	4797
860.327	4634
860.46	4569
860.592	4691
860.725	4729
860.858	4755
860.99	4622
861.123	4512
861.256	4538
861.388	4679
861.521	5193
861.653	4550
861.786	4451
861.918	4481
862.05	4527
862.183	4580
862.315	4558
862.447	4611
862.58	4565
862.712	4344
862.844	4367
862.976	4485
863.108	4504
863.24	4740
863.372	4329
863.504	4428
863.636	4447
863.768	4493
863.9	4443
864.032	4394
864.164	4451
864.296	4466
864.428	4531
864.559	4588
864.691	4573
864.823	4508
864.954	4485
865.086	4554
865.217	4497
865.349	4413
865.48	4478
865.612	4493
865.743	4687
865.875	4474
866.006	4413
866.137	4489
866.269	4504
866.4	4459
866.531	4383
866.662	4436
866.793	4489
866.924	4405
867.055	4470
867.186	4455
867.317	4462
867.448	4394
867.579	4421
867.71	4421
867.841	4310
867.972	4459
868.103	4478
868.233	4474
868.364	4485
868.495	4474
868.625	4668
868.756	4755
868.886	4538
869.017	4626
869.147	4778
869.278	4767
869.408	4706
869.539	4660
869.669	4759
869.799	4702
869.929	4797
870.06	4733
870.19	4930
870.32	4889
870.45	4946
870.58	4995
870.71	5143
870.84	5056
870.97	4938
871.1	4911
871.23	5117
871.36	5208
871.489	5041
871.619	5056
871.749	5083
871.879	5105
872.008	5227
872.138	5014
872.267	4968
872.397	4839
872.526	4820
872.656	4733
872.785	4870
872.915	4953
873.044	5052
873.173	4934
873.303	4946
873.432	4949
873.561	4946
873.69	4885
873.819	4885
873.948	4889
874.077	4816
874.206	4725
874.335	4850
874.464	4896
874.593	5064
874.722	4949
874.851	5079
874.979	5086
875.108	5086
875.237	4919
875.365	4885
875.494	4896
875.623	4957
875.751	4790
875.88	4927
876.008	4980
876.136	5014
876.265	5246
876.393	5368
876.521	5273
876.65	5246
876.778	5151
876.906	5109
877.034	5029
877.162	5086
877.29	4987
877.418	5045
877.546	4980
877.674	5010
877.802	5064
877.93	5018
878.058	5003
878.185	4900
878.313	4980
878.441	4908
878.568	4778
878.696	4889
878.824	4980
878.951	5056
879.079	5132
879.206	5288
879.333	5056
879.461	4987
879.588	4976
879.715	5113
879.842	5208
879.97	4980
880.097	4824
880.224	4725
880.351	4862
880.478	4892
880.605	4790
880.732	4835
880.859	5105
880.986	4911
881.112	4915
881.239	4790
881.366	4641
881.493	4615
881.619	4622
881.746	4618
881.872	4653
881.999	4626
882.125	4675
882.252	4820
882.378	4885
882.505	4953
882.631	4828
882.757	4702
882.883	4710
883.01	4752
883.136	4691
883.262	4637
883.388	4634
883.514	4847
883.64	4904
883.766	4805
883.892	4668
884.018	4759
884.143	4949
884.269	5018
884.395	4691
884.52	4649
884.646	4656
884.772	4603
884.897	4599
885.023	4706
885.148	4835
885.274	4900
885.399	4839
885.524	4729
885.65	4683
885.775	4752
885.9	4679
886.025	4866
886.15	4786
886.275	4717
886.4	4645
886.525	4725
886.65	4694
886.775	4702
886.9	4968
887.025	5025
887.149	4812
887.274	4710
887.399	4599
887.523	4584
887.648	4546
887.773	4603
887.897	4797
888.021	4824
888.146	4721
888.27	4812
888.395	4930
888.519	4793
888.643	4774
888.767	4828
888.891	4702
889.015	4645
889.139	4675
889.263	4592
889.387	4755
889.511	4934
889.635	4839
889.759	4675
889.883	4634
890.006	4767
890.13	4828
890.254	4577
890.377	4672
890.501	4516
890.624	4519
890.748	4596
890.871	4493
890.995	4481
891.118	4432
891.241	4523
891.364	4519
891.488	4653
891.611	4474
891.734	4561
891.857	4611
891.98	4569
892.103	4630
892.226	4569
892.349	4592
892.471	4432
892.594	4516
892.717	4611
892.839	4577
892.962	4641
893.085	4694
893.207	4645
893.33	4409
893.452	4538
893.575	4672
893.697	4611
893.819	4850
893.941	4847
894.064	4771
894.186	4565
894.308	4542
894.43	4710
894.552	4843
894.674	4748
894.796	4569
894.918	4592
895.04	4588
895.161	4714
895.283	4694
895.405	4592
895.526	4603
895.648	4714
895.769	4691
895.891	4698
896.012	4755
896.134	4748
896.255	4656
896.376	4607
896.498	4668
896.619	4683
896.74	4622
896.861	4660
896.982	4934
897.103	5109
897.224	4816
897.345	4748
897.466	4687
897.587	4797
897.708	4881
897.828	4828
897.949	4653
898.07	4569
898.19	4679
898.311	4801
898.431	4744
898.552	4755
898.672	4839
898.792	4786
898.913	4755
899.033	4645
899.153	4485
899.273	4394
899.393	4500
899.513	4519
899.633	4523
899.753	4569
899.873	4504
899.993	4550
900.113	4546
900.232	4561
900.352	4569
900.472	4497
900.591	4386
900.711	4508
900.83	4462
900.95	4626
901.069	4664
901.189	4611
901.308	4379
901.427	4295
901.546	4344
901.665	4447
901.784	4504
901.904	4352
902.023	4356
902.141	4215
902.26	4185
902.379	4287
902.498	4257
902.617	4249
902.735	4413
902.854	4402
902.973	4375
903.091	4265
903.21	4249
903.328	4287
903.446	4261
903.565	4268
903.683	4356
903.801	4276
903.919	4417
904.038	4447
904.156	4333
904.274	4436
904.392	4421
904.51	4428
904.627	4500
904.745	4596
904.863	4622
904.981	4402
905.098	4314
905.216	4367
905.334	4424
905.451	4421
905.569	4402
905.686	4550
905.803	4580
905.921	4424
906.038	4527
906.155	4478
906.272	4398
906.389	4447
906.506	4383
906.623	4409
906.74	4371
906.857	4306
906.974	4363
907.091	4527
907.208	4668
907.324	4584
907.441	4481
907.557	4287
907.674	4348
907.79	4318
907.907	4402
908.023	4508
908.139	4474
908.256	4466
908.372	4493
908.488	4478
908.604	4367
908.72	4360
908.836	4409
908.952	4398
909.068	4390
909.184	4573
909.3	4478
909.415	4565
909.531	4546
909.647	4371
909.762	4360
909.878	4360
909.993	4417
910.108	4390
910.224	4417
910.339	4466
910.454	4455
910.57	4383
910.685	4287
910.8	4653
910.915	4592
911.03	4478
911.145	4356
911.259	4306
911.374	4383
911.489	4284
911.604	4318
911.718	4177
911.833	4185
911.947	4090
912.062	4025
912.176	4188
912.291	4192
912.405	4227
912.519	4462
912.633	4531
912.748	4405
912.862	4276
912.976	4200
913.09	4120
913.204	4200
913.318	4265
913.431	4413
913.545	4341
913.659	4398
913.772	4371
913.886	4265
914	4207
914.113	4409
914.226	4428
914.34	4428
914.453	4287
914.566	4409
914.68	4257
914.793	4318
914.906	4154
915.019	4188
915.132	4063
915.245	4166
915.358	4181
915.47	4265
915.583	4238
915.696	4223
915.809	4409
915.921	4421
916.034	4246
916.146	4246
916.259	4200
916.371	4383
916.483	4360
916.595	4284
916.708	4306
916.82	4367
916.932	4352
917.044	4303
917.156	4352
917.268	4204
917.38	4310
917.491	4318
917.603	4333
917.715	4451
917.826	4428
917.938	4360
918.049	4276
918.161	4383
918.272	4527
918.384	4523
918.495	4421
918.606	4291
918.717	4211
918.828	4371
918.939	4363
919.05	4230
919.161	4322
919.272	4124
919.383	4238
919.494	4466
919.604	4664
919.715	4459
919.826	4306
919.936	4402
920.047	4478
920.157	4462
920.267	4725
920.378	4527
920.488	4512
920.598	4649
920.708	4866
920.818	4740
920.928	4748
921.038	4923
921.148	4919
921.258	4626
921.368	4573
921.477	4459
921.587	4497
921.697	4417
921.806	4535
921.916	4462
922.025	4291
922.134	4265
922.244	4211
922.353	4310
922.462	4173
922.571	4135
922.68	3987
922.789	3979
922.898	4002
923.007	3979
923.116	4082
923.224	4059
923.333	4036
923.442	3998
923.55	3975
923.659	4067
923.767	4086
923.876	4010
923.984	4135
924.092	3960
924.201	4078
924.309	4086
924.417	4086
924.525	4109
924.633	4093
924.741	4889
924.849	3907
924.956	4116
925.064	3968
925.172	3907
925.279	3998
925.387	4082
925.494	4025
925.602	4200
925.709	4188
925.816	4010
925.924	4154
926.031	4246
926.138	4181
926.245	4204
926.352	4112
926.459	4238
926.566	4341
926.673	4143
926.779	4074
926.886	4067
926.993	3991
927.099	4006
927.206	3926
927.312	3926
927.419	4051
927.525	3972
927.631	4067
927.737	3956
927.843	3972
927.95	3831
928.056	3964
928.162	3987
928.267	4071
928.373	4607
928.479	4086
928.585	3869
928.69	3979
928.796	4112
928.901	3972
929.007	3861
929.112	4017
929.218	3979
929.323	3968
929.428	3896
929.533	4109
929.638	3880
929.743	3960
929.848	4013
929.953	3994
930.058	3884
930.163	3705
930.267	3850
930.372	4006
930.477	3797
930.581	4086
930.685	3884
930.79	3808
930.894	3838
930.998	3823
931.103	4025
931.207	3705
931.311	3675
931.415	3690
931.519	3511
931.623	3553
