Data from test_V78500241_1725.txt Node
Date: Fri Mar 25 17:00:59 CST 2022
User: usil
Spectrometer: V785-0024
Trigger mode: 0
Integration Time (sec): 4.000000E-1
Scans to average: 1
Nonlinearity correction enabled: false
Boxcar width: 0
Storing dark spectrum: false
XAxis mode: Wavelengths
Number of Pixels in Spectrum: 1024
>>>>>Begin Spectral Data<<<<<
801.071	7959
801.214	8012
801.356	7818
801.499	7799
801.641	7830
801.783	7761
801.926	7898
802.068	7967
802.211	7970
802.353	7944
802.496	7841
802.638	7792
802.78	7860
802.923	7837
803.065	7845
803.208	7909
803.35	8005
803.492	7989
803.635	8115
803.777	7993
803.919	8050
804.061	8446
804.204	8161
804.346	8092
804.488	7917
804.63	8111
804.773	7993
804.915	8065
805.057	8313
805.199	8100
805.341	8202
805.483	8195
805.626	8199
805.768	8065
805.91	8221
806.052	8183
806.194	8130
806.336	8286
806.478	8115
806.62	8081
806.762	8077
806.904	8309
807.046	8461
807.188	8370
807.33	8313
807.472	8328
807.614	8103
807.756	8123
807.898	8008
808.04	7913
808.182	7932
808.324	7860
808.465	7955
808.607	8107
808.749	8069
808.891	8111
809.033	8286
809.174	8142
809.316	7936
809.458	8130
809.6	7974
809.741	8001
809.883	8092
810.025	8077
810.166	8054
810.308	7993
810.45	7932
810.591	7799
810.733	7742
810.875	7685
811.016	7529
811.158	7533
811.299	7613
811.441	7681
811.582	7689
811.724	7518
811.865	7556
812.007	7514
812.148	7597
812.29	7658
812.431	7685
812.573	7894
812.714	7913
812.855	8168
812.997	8153
813.138	8275
813.279	8248
813.421	8134
813.562	7940
813.703	7780
813.845	7746
813.986	7422
814.127	7209
814.268	7206
814.41	7209
814.551	7114
814.692	7228
814.833	7080
814.974	7141
815.115	7080
815.256	6894
815.397	6993
815.539	6913
815.68	6837
815.821	6696
815.962	6852
816.103	6810
816.244	6665
816.385	6589
816.526	6612
816.666	6483
816.807	6376
816.948	6437
817.089	6441
817.23	6460
817.371	6319
817.512	6376
817.653	6327
817.793	6403
817.934	6418
818.075	6388
818.216	6384
818.356	6422
818.497	6296
818.638	6140
818.778	6144
818.919	6148
819.06	6194
819.2	6365
819.341	6262
819.481	6369
819.622	6521
819.762	6749
819.903	6692
820.043	6570
820.184	6620
820.324	6479
820.465	6669
820.605	6681
820.746	6665
820.886	6544
821.026	6673
821.167	6669
821.307	6734
821.447	6779
821.588	6730
821.728	6521
821.868	6471
822.008	6285
822.149	6361
822.289	6315
822.429	6155
822.569	6053
822.709	6110
822.849	5859
822.99	5889
823.13	5878
823.27	5950
823.41	5771
823.55	5802
823.69	5722
823.83	5794
823.97	5676
824.11	5535
824.25	5474
824.389	5570
824.529	5547
824.669	5543
824.809	5630
824.949	5653
825.089	5570
825.228	5532
825.368	5349
825.508	5364
825.648	5398
825.787	5379
825.927	5353
826.067	5299
826.206	5360
826.346	5357
826.485	5364
826.625	5410
826.765	5486
826.904	5482
827.044	5201
827.183	5246
827.323	5117
827.462	5231
827.601	5185
827.741	5159
827.88	5174
828.02	5143
828.159	5208
828.298	5322
828.437	5357
828.577	5250
828.716	5474
828.855	5387
828.994	5151
829.134	5132
829.273	5212
829.412	5140
829.551	5140
829.69	5189
829.829	5250
829.968	5353
830.107	5250
830.246	5258
830.385	5181
830.524	5159
830.663	5105
830.802	4972
830.941	4885
831.08	4866
831.219	5025
831.357	4953
831.496	5174
831.635	4889
831.774	4831
831.913	4805
832.051	4687
832.19	4744
832.329	4866
832.467	4691
832.606	4649
832.744	4694
832.883	4714
833.022	4714
833.16	4771
833.299	4809
833.437	4843
833.576	4816
833.714	4835
833.852	4809
833.991	4854
834.129	4946
834.267	4946
834.406	4881
834.544	4965
834.682	4965
834.821	4980
834.959	5105
835.097	5037
835.235	5136
835.373	5086
835.511	5121
835.65	5006
835.788	4991
835.926	4843
836.064	4927
836.202	4904
836.34	5185
836.478	5258
836.615	5105
836.753	5185
836.891	5208
837.029	5231
837.167	5170
837.305	5223
837.443	5117
837.58	5083
837.718	5178
837.856	5265
837.993	5155
838.131	5147
838.269	5159
838.406	5208
838.544	5159
838.681	5029
838.819	5010
838.956	4873
839.094	4877
839.231	4949
839.369	5121
839.506	5337
839.643	5273
839.781	5067
839.918	5003
840.055	5132
840.193	5102
840.33	5105
840.467	5151
840.604	5155
840.742	5387
840.879	5048
841.016	5105
841.153	5143
841.29	5379
841.427	5318
841.564	5258
841.701	5353
841.838	5246
841.975	5201
842.112	5277
842.249	5113
842.385	5098
842.522	5364
842.659	5185
842.796	5117
842.933	5174
843.069	5060
843.206	5083
843.343	5299
843.479	5235
843.616	5231
843.752	5029
843.889	5045
844.025	5223
844.162	4999
844.298	5189
844.435	5048
844.571	5025
844.708	5132
844.844	5341
844.98	5277
845.117	5269
845.253	5162
845.389	5075
845.525	5121
845.661	5128
845.798	5018
845.934	5094
846.07	5075
846.206	5178
846.342	5288
846.478	5132
846.614	4961
846.75	5006
846.886	4934
847.022	5140
847.158	5064
847.294	5037
847.429	5052
847.565	5056
847.701	5315
847.837	4858
847.972	4820
848.108	4908
848.244	4934
848.379	4816
848.515	4725
848.65	4683
848.786	4755
848.921	4782
849.057	4870
849.192	4877
849.328	4828
849.463	4828
849.598	4820
849.734	4752
849.869	4672
850.004	4607
850.14	4641
850.275	4580
850.41	4485
850.545	4554
850.68	4637
850.815	4599
850.95	4675
851.085	4820
851.22	4755
851.355	4653
851.49	4641
851.625	4641
851.76	4634
851.895	4527
852.03	4527
852.165	4645
852.299	4675
852.434	4805
852.569	4706
852.703	4759
852.838	4797
852.973	4938
853.107	4934
853.242	4755
853.376	4649
853.511	4527
853.645	4565
853.78	4733
853.914	4733
854.048	4679
854.183	4641
854.317	4687
854.451	4805
854.585	4653
854.72	4588
854.854	4729
854.988	4596
855.122	4626
855.256	4546
855.39	4675
855.524	4748
855.658	4675
855.792	4698
855.926	4717
856.06	4702
856.194	4759
856.327	4683
856.461	4626
856.595	4599
856.729	4626
856.862	4759
856.996	4683
857.13	4702
857.263	4748
857.397	4774
857.53	4645
857.664	4710
857.797	4748
857.931	4778
858.064	4660
858.197	4771
858.331	4626
858.464	4592
858.597	4500
858.731	4588
858.864	4599
858.997	4599
859.13	4656
859.263	4664
859.396	4706
859.529	4592
859.662	4558
859.795	4527
859.928	4580
860.061	4736
860.194	4744
860.327	4615
860.46	4615
860.592	4714
860.725	4694
860.858	4725
860.99	4588
861.123	4512
861.256	4500
861.388	4603
861.521	5216
861.653	4478
861.786	4424
861.918	4409
862.05	4485
862.183	4546
862.315	4588
862.447	4656
862.58	4485
862.712	4356
862.844	4314
862.976	4440
863.108	4428
863.24	4873
863.372	4386
863.504	4398
863.636	4409
863.768	4421
863.9	4417
864.032	4383
864.164	4386
864.296	4413
864.428	4565
864.559	4569
864.691	4516
864.823	4485
864.954	4493
865.086	4489
865.217	4466
865.349	4398
865.48	4470
865.612	4504
865.743	4599
865.875	4470
866.006	4413
866.137	4440
866.269	4409
866.4	4386
866.531	4379
866.662	4386
866.793	4390
866.924	4417
867.055	4451
867.186	4417
867.317	4344
867.448	4367
867.579	4363
867.71	4383
867.841	4348
867.972	4443
868.103	4447
868.233	4459
868.364	4447
868.495	4489
868.625	4668
868.756	4721
868.886	4516
869.017	4577
869.147	4767
869.278	4714
869.408	4580
869.539	4645
869.669	4744
869.799	4668
869.929	4771
870.06	4653
870.19	4949
870.32	4843
870.45	5003
870.58	4942
870.71	5090
870.84	5086
870.97	4930
871.1	4889
871.23	5086
871.36	5109
871.489	5003
871.619	5037
871.749	5124
871.879	5090
872.008	5178
872.138	5022
872.267	4957
872.397	4850
872.526	4812
872.656	4698
872.785	4778
872.915	4942
873.044	5010
873.173	4953
873.303	4930
873.432	4911
873.561	4904
873.69	4870
873.819	4862
873.948	4877
874.077	4801
874.206	4748
874.335	4797
874.464	4866
874.593	5029
874.722	4957
874.851	5105
874.979	5067
875.108	4984
875.237	4976
875.365	4896
875.494	4858
875.623	4938
875.751	4801
875.88	4877
876.008	4965
876.136	5014
876.265	5132
876.393	5318
876.521	5280
876.65	5136
876.778	5140
876.906	5071
877.034	5010
877.162	5060
877.29	4946
877.418	4961
877.546	5014
877.674	5056
877.802	4999
877.93	5064
878.058	4949
878.185	4873
878.313	4938
878.441	4965
878.568	4767
878.696	4866
878.824	4987
878.951	4949
879.079	5132
879.206	5261
879.333	5075
879.461	5033
879.588	5048
879.715	5094
879.842	5216
879.97	5048
880.097	4835
880.224	4786
880.351	4843
880.478	4797
880.605	4839
880.732	4767
880.859	5094
880.986	4942
881.112	4900
881.239	4812
881.366	4691
881.493	4607
881.619	4577
881.746	4675
881.872	4675
881.999	4691
882.125	4660
882.252	4839
882.378	4843
882.505	5006
882.631	4862
882.757	4717
882.883	4759
883.01	4759
883.136	4675
883.262	4630
883.388	4694
883.514	4850
883.64	4953
883.766	4816
883.892	4687
884.018	4736
884.143	4934
884.269	5048
884.395	4714
884.52	4649
884.646	4694
884.772	4622
884.897	4611
885.023	4664
885.148	4847
885.274	4892
885.399	4835
885.524	4748
885.65	4679
885.775	4835
885.9	4733
886.025	4889
886.15	4835
886.275	4771
886.4	4649
886.525	4755
886.65	4717
886.775	4691
886.9	4908
887.025	5067
887.149	4881
887.274	4736
887.399	4599
887.523	4683
887.648	4634
887.773	4596
887.897	4824
888.021	4782
888.146	4729
888.27	4812
888.395	4927
888.519	4790
888.643	4847
888.767	4896
888.891	4755
889.015	4664
889.139	4660
889.263	4649
889.387	4752
889.511	4870
889.635	4831
889.759	4694
889.883	4694
890.006	4763
890.13	4850
890.254	4645
890.377	4733
890.501	4622
890.624	4584
890.748	4706
890.871	4561
890.995	4485
891.118	4402
891.241	4599
891.364	4542
891.488	4687
891.611	4558
891.734	4580
891.857	4634
891.98	4580
892.103	4683
892.226	4660
892.349	4519
892.471	4462
892.594	4565
892.717	4626
892.839	4565
892.962	4637
893.085	4691
893.207	4618
893.33	4481
893.452	4580
893.575	4637
893.697	4622
893.819	4828
893.941	4839
894.064	4805
894.186	4561
894.308	4607
894.43	4774
894.552	4885
894.674	4812
894.796	4599
894.918	4637
895.04	4577
895.161	4771
895.283	4656
895.405	4584
895.526	4675
895.648	4675
895.769	4717
895.891	4778
896.012	4748
896.134	4797
896.255	4714
896.376	4691
896.498	4634
896.619	4714
896.74	4630
896.861	4710
896.982	5010
897.103	5102
897.224	4847
897.345	4759
897.466	4691
897.587	4752
897.708	4911
897.828	4797
897.949	4664
898.07	4603
898.19	4641
898.311	4835
898.431	4683
898.552	4740
898.672	4831
898.792	4824
898.913	4771
899.033	4637
899.153	4508
899.273	4447
899.393	4538
899.513	4588
899.633	4558
899.753	4577
899.873	4577
899.993	4626
900.113	4588
900.232	4615
900.352	4584
900.472	4466
900.591	4436
900.711	4508
900.83	4527
900.95	4679
901.069	4706
901.189	4550
901.308	4383
901.427	4363
901.546	4413
901.665	4535
901.784	4603
901.904	4440
902.023	4325
902.141	4196
902.26	4234
902.379	4314
902.498	4261
902.617	4227
902.735	4424
902.854	4390
902.973	4386
903.091	4234
903.21	4265
903.328	4325
903.446	4291
903.565	4295
903.683	4375
903.801	4284
903.919	4462
904.038	4417
904.156	4363
904.274	4493
904.392	4432
904.51	4455
904.627	4459
904.745	4641
904.863	4649
904.981	4398
905.098	4325
905.216	4424
905.334	4485
905.451	4474
905.569	4440
905.686	4588
905.803	4641
905.921	4474
906.038	4584
906.155	4546
906.272	4424
906.389	4542
906.506	4394
906.623	4394
906.74	4413
906.857	4341
906.974	4386
907.091	4626
907.208	4656
907.324	4618
907.441	4542
907.557	4402
907.674	4333
907.79	4295
907.907	4436
908.023	4516
908.139	4500
908.256	4470
908.372	4493
908.488	4405
908.604	4398
908.72	4375
908.836	4356
908.952	4390
909.068	4447
909.184	4558
909.3	4519
909.415	4596
909.531	4527
909.647	4413
909.762	4375
909.878	4371
909.993	4428
910.108	4413
910.224	4428
910.339	4538
910.454	4398
910.57	4386
910.685	4337
910.8	4672
910.915	4588
911.03	4497
911.145	4344
911.259	4367
911.374	4417
911.489	4383
911.604	4318
911.718	4211
911.833	4219
911.947	4097
912.062	4082
912.176	4234
912.291	4246
912.405	4268
912.519	4508
912.633	4535
912.748	4428
912.862	4371
912.976	4280
913.09	4120
913.204	4261
913.318	4261
913.431	4379
913.545	4383
913.659	4500
913.772	4371
913.886	4268
914	4249
914.113	4348
914.226	4447
914.34	4402
914.453	4242
914.566	4436
914.68	4337
914.793	4333
914.906	4185
915.019	4071
915.132	4101
915.245	4223
915.358	4230
915.47	4253
915.583	4242
915.696	4337
915.809	4417
915.921	4424
916.034	4322
916.146	4272
916.259	4257
916.371	4375
916.483	4375
916.595	4246
916.708	4379
916.82	4363
916.932	4344
917.044	4341
917.156	4318
917.268	4280
917.38	4299
917.491	4280
917.603	4386
917.715	4398
917.826	4436
917.938	4390
918.049	4268
918.161	4421
918.272	4573
918.384	4603
918.495	4470
918.606	4295
918.717	4284
918.828	4379
918.939	4428
919.05	4272
919.161	4344
919.272	4143
919.383	4230
919.494	4455
919.604	4634
919.715	4478
919.826	4348
919.936	4451
920.047	4523
920.157	4546
920.267	4691
920.378	4580
920.488	4523
920.598	4725
920.708	4911
920.818	4774
920.928	4774
921.038	4896
921.148	4911
921.258	4660
921.368	4626
921.477	4554
921.587	4497
921.697	4398
921.806	4550
921.916	4440
922.025	4291
922.134	4280
922.244	4268
922.353	4344
922.462	4162
922.571	4154
922.68	4013
922.789	3998
922.898	4082
923.007	4051
923.116	4131
923.224	4074
923.333	4101
923.442	4021
923.55	3975
923.659	4059
923.767	4150
923.876	4032
923.984	4162
924.092	4013
924.201	4139
924.309	4120
924.417	4090
924.525	4105
924.633	4139
924.741	4862
924.849	3922
924.956	4188
925.064	3975
925.172	3892
925.279	3968
925.387	4101
925.494	4051
925.602	4257
925.709	4207
925.816	4048
925.924	4112
926.031	4272
926.138	4219
926.245	4223
926.352	4097
926.459	4295
926.566	4352
926.673	4185
926.779	4101
926.886	4074
926.993	3968
927.099	3987
927.206	3968
927.312	3953
927.419	4101
927.525	4032
927.631	4097
927.737	3987
927.843	3960
927.95	3869
928.056	3968
928.162	4025
928.267	4093
928.373	4771
928.479	4177
928.585	3861
928.69	4051
928.796	4090
928.901	3991
929.007	3846
929.112	3983
929.218	3972
929.323	3983
929.428	3922
929.533	4128
929.638	3918
929.743	4006
929.848	4051
929.953	4029
930.058	3926
930.163	3800
930.267	3823
930.372	3956
930.477	3827
930.581	4093
930.685	3953
930.79	3854
930.894	3903
930.998	3857
931.103	4063
931.207	3740
931.311	3701
931.415	3698
931.519	3549
931.623	3557
