Data from test_V78500241_641.txt Node
Date: Fri Mar 25 16:53:27 CST 2022
User: usil
Spectrometer: V785-0024
Trigger mode: 0
Integration Time (sec): 4.000000E-1
Scans to average: 1
Nonlinearity correction enabled: false
Boxcar width: 0
Storing dark spectrum: false
XAxis mode: Wavelengths
Number of Pixels in Spectrum: 1024
>>>>>Begin Spectral Data<<<<<
801.071	8035
801.214	8027
801.356	7928
801.499	7909
801.641	7845
801.783	7875
801.926	8054
802.068	7982
802.211	8024
802.353	8084
802.496	7887
802.638	7986
802.78	7936
802.923	7978
803.065	7833
803.208	7833
803.35	8005
803.492	8168
803.635	8142
803.777	8046
803.919	8092
804.061	8473
804.204	8130
804.346	8020
804.488	7978
804.63	8126
804.773	8084
804.915	8073
805.057	8286
805.199	8214
805.341	8259
805.483	8290
805.626	8233
805.768	8168
805.91	8229
806.052	8275
806.194	8123
806.336	8301
806.478	8092
806.62	8180
806.762	8180
806.904	8252
807.046	8522
807.188	8358
807.33	8309
807.472	8313
807.614	8176
807.756	8176
807.898	8008
808.04	7913
808.182	7898
808.324	7887
808.465	7947
808.607	8077
808.749	8187
808.891	8240
809.033	8275
809.174	8164
809.316	8043
809.458	8092
809.6	8062
809.741	8012
809.883	8062
810.025	8088
810.166	8031
810.308	8035
810.45	8050
810.591	7970
810.733	7792
810.875	7792
811.016	7559
811.158	7495
811.299	7590
811.441	7807
811.582	7742
811.724	7639
811.865	7518
812.007	7601
812.148	7601
812.29	7628
812.431	7761
812.573	7826
812.714	7993
812.855	8115
812.997	8191
813.138	8408
813.279	8229
813.421	8183
813.562	8115
813.703	7852
813.845	7864
813.986	7476
814.127	7335
814.268	7270
814.41	7221
814.551	7164
814.692	7156
814.833	7088
814.974	7057
815.115	7156
815.256	7012
815.397	6905
815.539	6985
815.68	6882
815.821	6806
815.962	6905
816.103	6894
816.244	6715
816.385	6642
816.526	6635
816.666	6547
816.807	6399
816.948	6433
817.089	6532
817.23	6410
817.371	6399
817.512	6418
817.653	6376
817.793	6308
817.934	6433
818.075	6475
818.216	6486
818.356	6471
818.497	6273
818.638	6110
818.778	6136
818.919	6190
819.06	6117
819.2	6315
819.341	6357
819.481	6464
819.622	6509
819.762	6749
819.903	6730
820.043	6601
820.184	6601
820.324	6578
820.465	6684
820.605	6703
820.746	6608
820.886	6506
821.026	6669
821.167	6772
821.307	6764
821.447	6757
821.588	6673
821.728	6563
821.868	6509
822.008	6308
822.149	6395
822.289	6369
822.429	6155
822.569	6155
822.709	6076
822.849	5916
822.99	5908
823.13	5927
823.27	5942
823.41	5809
823.55	5767
823.69	5786
823.83	5790
823.97	5718
824.11	5467
824.25	5532
824.389	5543
824.529	5600
824.669	5539
824.809	5649
824.949	5691
825.089	5608
825.228	5589
825.368	5414
825.508	5357
825.648	5417
825.787	5391
825.927	5448
826.067	5341
826.206	5307
826.346	5372
826.485	5395
826.625	5440
826.765	5604
826.904	5493
827.044	5246
827.183	5242
827.323	5143
827.462	5280
827.601	5174
827.741	5223
827.88	5265
828.02	5155
828.159	5204
828.298	5299
828.437	5387
828.577	5322
828.716	5478
828.855	5357
828.994	5174
829.134	5162
829.273	5193
829.412	5155
829.551	5162
829.69	5204
829.829	5280
829.968	5383
830.107	5280
830.246	5296
830.385	5178
830.524	5201
830.663	5090
830.802	4999
830.941	4915
831.08	4877
831.219	4972
831.357	4961
831.496	5185
831.635	4946
831.774	4805
831.913	4850
832.051	4744
832.19	4736
832.329	4850
832.467	4687
832.606	4683
832.744	4748
832.883	4721
833.022	4771
833.16	4835
833.299	4820
833.437	4843
833.576	4870
833.714	4911
833.852	4919
833.991	4896
834.129	4980
834.267	4957
834.406	4908
834.544	4972
834.682	4976
834.821	4976
834.959	5197
835.097	5003
835.235	5162
835.373	5098
835.511	5151
835.65	5060
835.788	5029
835.926	4930
836.064	4908
836.202	4972
836.34	5178
836.478	5223
836.615	5151
836.753	5208
836.891	5284
837.029	5239
837.167	5181
837.305	5223
837.443	5113
837.58	5105
837.718	5227
837.856	5147
837.993	5178
838.131	5258
838.269	5261
838.406	5220
838.544	5193
838.681	5037
838.819	4965
838.956	4965
839.094	4946
839.231	4987
839.369	5102
839.506	5440
839.643	5288
839.781	5079
839.918	5079
840.055	5029
840.193	5102
840.33	5166
840.467	5189
840.604	5197
840.742	5455
840.879	5113
841.016	5132
841.153	5121
841.29	5387
841.427	5368
841.564	5284
841.701	5425
841.838	5296
841.975	5235
842.112	5303
842.249	5181
842.385	5090
842.522	5349
842.659	5204
842.796	5170
842.933	5216
843.069	5189
843.206	5174
843.343	5277
843.479	5246
843.616	5254
843.752	5075
843.889	5037
844.025	5231
844.162	5003
844.298	5258
844.435	5151
844.571	5041
844.708	5193
844.844	5341
844.98	5322
845.117	5292
845.253	5140
845.389	5098
845.525	5193
845.661	5136
845.798	5083
845.934	5189
846.07	5090
846.206	5201
846.342	5258
846.478	5201
846.614	5029
846.75	5014
846.886	4957
847.022	5166
847.158	5037
847.294	5124
847.429	5113
847.565	5056
847.701	5284
847.837	4881
847.972	4839
848.108	4961
848.244	4938
848.379	4877
848.515	4733
848.65	4717
848.786	4710
848.921	4767
849.057	4812
849.192	4942
849.328	4809
849.463	4896
849.598	4847
849.734	4774
849.869	4679
850.004	4641
850.14	4622
850.275	4573
850.41	4542
850.545	4580
850.68	4596
850.815	4691
850.95	4641
851.085	4824
851.22	4744
851.355	4641
851.49	4592
851.625	4611
851.76	4668
851.895	4565
852.03	4527
852.165	4618
852.299	4675
852.434	4782
852.569	4755
852.703	4805
852.838	4843
852.973	4881
853.107	4908
853.242	4744
853.376	4672
853.511	4558
853.645	4584
853.78	4862
853.914	4649
854.048	4714
854.183	4656
854.317	4656
854.451	4866
854.585	4736
854.72	4645
854.854	4744
854.988	4611
855.122	4641
855.256	4538
855.39	4641
855.524	4740
855.658	4721
855.792	4649
855.926	4763
856.06	4752
856.194	4774
856.327	4706
856.461	4607
856.595	4656
856.729	4615
856.862	4744
856.996	4752
857.13	4778
857.263	4771
857.397	4866
857.53	4656
857.664	4725
857.797	4809
857.931	4816
858.064	4710
858.197	4793
858.331	4660
858.464	4649
858.597	4561
858.731	4599
858.864	4687
858.997	4618
859.13	4618
859.263	4714
859.396	4679
859.529	4603
859.662	4592
859.795	4558
859.928	4634
860.061	4771
860.194	4767
860.327	4599
860.46	4577
860.592	4752
860.725	4748
860.858	4725
860.99	4634
861.123	4508
861.256	4516
861.388	4615
861.521	5296
861.653	4478
861.786	4436
861.918	4489
862.05	4474
862.183	4535
862.315	4607
862.447	4660
862.58	4519
862.712	4386
862.844	4352
862.976	4554
863.108	4440
863.24	4892
863.372	4367
863.504	4367
863.636	4440
863.768	4455
863.9	4428
864.032	4371
864.164	4386
864.296	4508
864.428	4519
864.559	4596
864.691	4599
864.823	4546
864.954	4500
865.086	4432
865.217	4504
865.349	4432
865.48	4436
865.612	4485
865.743	4607
865.875	4493
866.006	4390
866.137	4508
866.269	4447
866.4	4424
866.531	4386
866.662	4417
866.793	4379
866.924	4421
867.055	4478
867.186	4421
867.317	4481
867.448	4424
867.579	4394
867.71	4398
867.841	4383
867.972	4504
868.103	4504
868.233	4436
868.364	4508
868.495	4519
868.625	4687
868.756	4763
868.886	4554
869.017	4634
869.147	4759
869.278	4782
869.408	4691
869.539	4660
869.669	4691
869.799	4702
869.929	4816
870.06	4774
870.19	4995
870.32	4942
870.45	4930
870.58	5056
870.71	5064
870.84	5121
870.97	4946
871.1	4957
871.23	5117
871.36	5136
871.489	5033
871.619	5045
871.749	5041
871.879	5132
872.008	5185
872.138	5060
872.267	4987
872.397	4908
872.526	4786
872.656	4721
872.785	4797
872.915	4911
873.044	5014
873.173	4911
873.303	4961
873.432	4953
873.561	4942
873.69	4900
873.819	4877
873.948	4908
874.077	4858
874.206	4755
874.335	4793
874.464	4987
874.593	5079
874.722	4957
874.851	5151
874.979	5029
875.108	5056
875.237	4923
875.365	4930
875.494	4908
875.623	4972
875.751	4835
875.88	4847
876.008	4934
876.136	5014
876.265	5189
876.393	5364
876.521	5258
876.65	5239
876.778	5155
876.906	5098
877.034	5041
877.162	5071
877.29	4968
877.418	5052
877.546	5033
877.674	5041
877.802	5075
877.93	4984
878.058	4984
878.185	4866
878.313	4987
878.441	4949
878.568	4843
878.696	4896
878.824	4946
878.951	4984
879.079	5181
879.206	5292
879.333	5102
879.461	4930
879.588	5029
879.715	5124
879.842	5250
879.97	5029
880.097	4797
880.224	4706
880.351	4774
880.478	4839
880.605	4866
880.732	4786
880.859	5067
880.986	4923
881.112	4927
881.239	4759
881.366	4588
881.493	4599
881.619	4573
881.746	4679
881.872	4668
881.999	4672
882.125	4706
882.252	4797
882.378	4812
882.505	4934
882.631	4755
882.757	4679
882.883	4744
883.01	4771
883.136	4691
883.262	4641
883.388	4634
883.514	4767
883.64	4805
883.766	4805
883.892	4649
884.018	4710
884.143	4850
884.269	5045
884.395	4706
884.52	4615
884.646	4622
884.772	4546
884.897	4607
885.023	4687
885.148	4873
885.274	4889
885.399	4778
885.524	4679
885.65	4675
885.775	4744
885.9	4698
886.025	4873
886.15	4843
886.275	4679
886.4	4649
886.525	4736
886.65	4694
886.775	4710
886.9	4968
887.025	4991
887.149	4755
887.274	4668
887.399	4599
887.523	4554
887.648	4569
887.773	4599
887.897	4759
888.021	4729
888.146	4653
888.27	4793
888.395	4892
888.519	4801
888.643	4812
888.767	4850
888.891	4656
889.015	4637
889.139	4672
889.263	4634
889.387	4740
889.511	4847
889.635	4782
889.759	4630
889.883	4668
890.006	4702
890.13	4862
890.254	4622
890.377	4740
890.501	4573
890.624	4535
890.748	4645
890.871	4497
890.995	4417
891.118	4405
891.241	4527
891.364	4519
891.488	4656
891.611	4504
891.734	4531
891.857	4592
891.98	4580
892.103	4656
892.226	4622
892.349	4500
892.471	4455
892.594	4603
892.717	4588
892.839	4527
892.962	4584
893.085	4672
893.207	4637
893.33	4493
893.452	4561
893.575	4656
893.697	4550
893.819	4824
893.941	4820
894.064	4748
894.186	4577
894.308	4565
894.43	4736
894.552	4805
894.674	4816
894.796	4546
894.918	4558
895.04	4577
895.161	4725
895.283	4649
895.405	4584
895.526	4596
895.648	4675
895.769	4683
895.891	4755
896.012	4805
896.134	4721
896.255	4637
896.376	4660
896.498	4607
896.619	4626
896.74	4599
896.861	4653
896.982	4923
897.103	5075
897.224	4812
897.345	4774
897.466	4656
897.587	4683
897.708	4862
897.828	4843
897.949	4683
898.07	4573
898.19	4656
898.311	4809
898.431	4637
898.552	4706
898.672	4759
898.792	4797
898.913	4679
899.033	4622
899.153	4512
899.273	4421
899.393	4459
899.513	4535
899.633	4485
899.753	4558
899.873	4489
899.993	4558
900.113	4519
900.232	4558
900.352	4516
900.472	4474
900.591	4398
900.711	4523
900.83	4428
900.95	4622
901.069	4660
901.189	4519
901.308	4341
901.427	4322
901.546	4424
901.665	4470
901.784	4459
901.904	4379
902.023	4322
902.141	4185
902.26	4196
902.379	4314
902.498	4223
902.617	4196
902.735	4383
902.854	4428
902.973	4390
903.091	4219
903.21	4249
903.328	4272
903.446	4253
903.565	4284
903.683	4379
903.801	4276
903.919	4436
904.038	4436
904.156	4295
904.274	4462
904.392	4341
904.51	4455
904.627	4478
904.745	4573
904.863	4626
904.981	4421
905.098	4310
905.216	4367
905.334	4466
905.451	4413
905.569	4440
905.686	4538
905.803	4535
905.921	4405
906.038	4504
906.155	4497
906.272	4386
906.389	4535
906.506	4341
906.623	4390
906.74	4398
906.857	4329
906.974	4383
907.091	4542
907.208	4691
907.324	4580
907.441	4436
907.557	4314
907.674	4325
907.79	4352
907.907	4402
908.023	4519
908.139	4474
908.256	4409
908.372	4466
908.488	4481
908.604	4356
908.72	4325
908.836	4371
908.952	4375
909.068	4398
909.184	4542
909.3	4466
909.415	4588
909.531	4550
909.647	4367
909.762	4329
909.878	4341
909.993	4443
910.108	4421
910.224	4337
910.339	4478
910.454	4379
910.57	4394
910.685	4291
910.8	4679
910.915	4580
911.03	4481
911.145	4322
911.259	4314
911.374	4344
911.489	4314
911.604	4238
911.718	4139
911.833	4181
911.947	4078
912.062	4055
912.176	4261
912.291	4261
912.405	4211
912.519	4436
912.633	4462
912.748	4386
912.862	4344
912.976	4177
913.09	4078
913.204	4162
913.318	4284
913.431	4367
913.545	4424
913.659	4432
913.772	4329
913.886	4291
914	4249
914.113	4352
914.226	4432
914.34	4394
914.453	4234
914.566	4440
914.68	4363
914.793	4329
914.906	4188
915.019	4112
915.132	4071
915.245	4150
915.358	4204
915.47	4223
915.583	4246
915.696	4306
915.809	4405
915.921	4451
916.034	4246
916.146	4215
916.259	4215
916.371	4386
916.483	4360
916.595	4276
916.708	4272
916.82	4310
916.932	4337
917.044	4325
917.156	4337
917.268	4249
917.38	4268
917.491	4295
917.603	4352
917.715	4421
917.826	4432
917.938	4333
918.049	4230
918.161	4367
918.272	4558
918.384	4546
918.495	4436
918.606	4268
918.717	4238
918.828	4306
918.939	4379
919.05	4261
919.161	4314
919.272	4169
919.383	4246
919.494	4405
919.604	4584
919.715	4413
919.826	4371
919.936	4390
920.047	4538
920.157	4481
920.267	4660
920.378	4546
920.488	4474
920.598	4675
920.708	4866
920.818	4748
920.928	4725
921.038	4968
921.148	4987
921.258	4588
921.368	4546
921.477	4523
921.587	4436
921.697	4402
921.806	4558
921.916	4440
922.025	4265
922.134	4295
922.244	4215
922.353	4371
922.462	4147
922.571	4078
922.68	3983
922.789	3998
922.898	4048
923.007	3934
923.116	4071
923.224	4059
923.333	4071
923.442	3975
923.55	3991
923.659	4040
923.767	4131
923.876	4025
923.984	4128
924.092	3941
924.201	4059
924.309	4059
924.417	4093
924.525	4036
924.633	4059
924.741	5041
924.849	3934
924.956	4116
925.064	3953
925.172	3892
925.279	3930
925.387	4010
925.494	4074
925.602	4173
925.709	4135
925.816	4036
925.924	4150
926.031	4234
926.138	4158
926.245	4158
926.352	4105
926.459	4177
926.566	4306
926.673	4154
926.779	4051
926.886	4036
926.993	3975
927.099	3956
927.206	3960
927.312	3884
927.419	4067
927.525	4013
927.631	4063
927.737	3964
927.843	3960
927.95	3850
928.056	3960
928.162	4021
928.267	4067
928.373	4641
928.479	4128
928.585	3857
928.69	4006
928.796	4090
928.901	3968
929.007	3785
929.112	3975
929.218	3991
929.323	3899
929.428	3922
929.533	4109
929.638	3922
929.743	3956
929.848	4036
929.953	3941
930.058	3911
930.163	3800
930.267	3808
930.372	3930
930.477	3797
930.581	4063
930.685	3907
930.79	3823
930.894	3865
930.998	3854
931.103	4029
931.207	3713
931.311	3679
931.415	3675
931.519	3481
931.623	3526
