Data from test_V78500241_2552.txt Node
Date: Fri Mar 25 17:06:44 CST 2022
User: usil
Spectrometer: V785-0024
Trigger mode: 0
Integration Time (sec): 4.000000E-1
Scans to average: 1
Nonlinearity correction enabled: false
Boxcar width: 0
Storing dark spectrum: false
XAxis mode: Wavelengths
Number of Pixels in Spectrum: 1024
>>>>>Begin Spectral Data<<<<<
801.071	7940
801.214	8001
801.356	7795
801.499	7879
801.641	7765
801.783	7845
801.926	7951
802.068	7947
802.211	7997
802.353	8008
802.496	7864
802.638	7845
802.78	7879
802.923	7940
803.065	7902
803.208	7776
803.35	7879
803.492	8046
803.635	8191
803.777	8016
803.919	8157
804.061	8457
804.204	8153
804.346	8088
804.488	7913
804.63	8103
804.773	8039
804.915	8161
805.057	8267
805.199	8088
805.341	8221
805.483	8244
805.626	8271
805.768	8157
805.91	8199
806.052	8164
806.194	8062
806.336	8252
806.478	8123
806.62	8024
806.762	8119
806.904	8202
807.046	8396
807.188	8381
807.33	8248
807.472	8328
807.614	8183
807.756	8126
807.898	8016
808.04	7909
808.182	7849
808.324	7925
808.465	7967
808.607	8134
808.749	8187
808.891	8195
809.033	8317
809.174	8259
809.316	8115
809.458	8096
809.6	7978
809.741	8024
809.883	8008
810.025	8153
810.166	8103
810.308	7978
810.45	8012
810.591	7849
810.733	7700
810.875	7662
811.016	7521
811.158	7438
811.299	7613
811.441	7753
811.582	7715
811.724	7639
811.865	7571
812.007	7601
812.148	7700
812.29	7601
812.431	7708
812.573	7826
812.714	7963
812.855	8046
812.997	8202
813.138	8237
813.279	8145
813.421	8088
813.562	7959
813.703	7856
813.845	7765
813.986	7453
814.127	7278
814.268	7221
814.41	7225
814.551	7217
814.692	7217
814.833	7069
814.974	7084
815.115	7122
815.256	6981
815.397	6970
815.539	6962
815.68	6825
815.821	6791
815.962	6871
816.103	6844
816.244	6673
816.385	6692
816.526	6635
816.666	6452
816.807	6361
816.948	6433
817.089	6456
817.23	6456
817.371	6429
817.512	6418
817.653	6445
817.793	6365
817.934	6437
818.075	6448
818.216	6422
818.356	6338
818.497	6243
818.638	6114
818.778	6163
818.919	6121
819.06	6140
819.2	6380
819.341	6391
819.481	6433
819.622	6540
819.762	6821
819.903	6703
820.043	6616
820.184	6563
820.324	6623
820.465	6715
820.605	6681
820.746	6669
820.886	6589
821.026	6696
821.167	6734
821.307	6787
821.447	6787
821.588	6639
821.728	6597
821.868	6506
822.008	6338
822.149	6369
822.289	6361
822.429	6178
822.569	6133
822.709	6117
822.849	5916
822.99	5954
823.13	5950
823.27	6019
823.41	5775
823.55	5783
823.69	5710
823.83	5798
823.97	5634
824.11	5509
824.25	5532
824.389	5535
824.529	5596
824.669	5524
824.809	5562
824.949	5646
825.089	5600
825.228	5600
825.368	5372
825.508	5345
825.648	5322
825.787	5379
825.927	5345
826.067	5315
826.206	5292
826.346	5414
826.485	5391
826.625	5455
826.765	5562
826.904	5497
827.044	5231
827.183	5193
827.323	5147
827.462	5265
827.601	5166
827.741	5128
827.88	5181
828.02	5098
828.159	5231
828.298	5265
828.437	5383
828.577	5341
828.716	5528
828.855	5284
828.994	5166
829.134	5155
829.273	5220
829.412	5181
829.551	5090
829.69	5124
829.829	5250
829.968	5341
830.107	5277
830.246	5273
830.385	5185
830.524	5170
830.663	5060
830.802	4976
830.941	4923
831.08	4866
831.219	5010
831.357	4957
831.496	5124
831.635	4900
831.774	4828
831.913	4847
832.051	4733
832.19	4729
832.329	4870
832.467	4710
832.606	4672
832.744	4702
832.883	4733
833.022	4710
833.16	4782
833.299	4843
833.437	4824
833.576	4809
833.714	4870
833.852	4870
833.991	4877
834.129	4900
834.267	4942
834.406	4877
834.544	4961
834.682	4976
834.821	4934
834.959	5136
835.097	5018
835.235	5185
835.373	5052
835.511	5090
835.65	5052
835.788	5033
835.926	4908
836.064	4889
836.202	4927
836.34	5147
836.478	5231
836.615	5121
836.753	5117
836.891	5258
837.029	5284
837.167	5242
837.305	5147
837.443	5170
837.58	5086
837.718	5246
837.856	5204
837.993	5155
838.131	5216
838.269	5197
838.406	5204
838.544	5216
838.681	4991
838.819	5003
838.956	4911
839.094	4896
839.231	4919
839.369	5086
839.506	5368
839.643	5235
839.781	5045
839.918	5025
840.055	5113
840.193	5060
840.33	5170
840.467	5155
840.604	5151
840.742	5459
840.879	5090
841.016	5098
841.153	5121
841.29	5341
841.427	5337
841.564	5284
841.701	5436
841.838	5242
841.975	5258
842.112	5277
842.249	5124
842.385	5113
842.522	5334
842.659	5220
842.796	5113
842.933	5216
843.069	5128
843.206	5162
843.343	5254
843.479	5235
843.616	5265
843.752	5064
843.889	4999
844.025	5242
844.162	5041
844.298	5193
844.435	5090
844.571	5071
844.708	5223
844.844	5269
844.98	5330
845.117	5299
845.253	5151
845.389	5086
845.525	5151
845.661	5143
845.798	5045
845.934	5124
846.07	5090
846.206	5197
846.342	5254
846.478	5204
846.614	5014
846.75	4976
846.886	4900
847.022	5170
847.158	5006
847.294	5067
847.429	5098
847.565	5064
847.701	5288
847.837	4881
847.972	4767
848.108	4957
848.244	4953
848.379	4763
848.515	4755
848.65	4683
848.786	4733
848.921	4763
849.057	4854
849.192	4908
849.328	4831
849.463	4831
849.598	4778
849.734	4721
849.869	4645
850.004	4603
850.14	4656
850.275	4596
850.41	4531
850.545	4538
850.68	4584
850.815	4607
850.95	4649
851.085	4854
851.22	4698
851.355	4725
851.49	4679
851.625	4622
851.76	4599
851.895	4596
852.03	4569
852.165	4626
852.299	4763
852.434	4755
852.569	4729
852.703	4812
852.838	4835
852.973	4896
853.107	4847
853.242	4687
853.376	4687
853.511	4569
853.645	4584
853.78	4774
853.914	4672
854.048	4664
854.183	4641
854.317	4672
854.451	4812
854.585	4714
854.72	4618
854.854	4748
854.988	4645
855.122	4691
855.256	4554
855.39	4660
855.524	4790
855.658	4702
855.792	4649
855.926	4774
856.06	4774
856.194	4763
856.327	4725
856.461	4599
856.595	4637
856.729	4626
856.862	4736
856.996	4687
857.13	4774
857.263	4744
857.397	4816
857.53	4683
857.664	4706
857.797	4797
857.931	4771
858.064	4675
858.197	4729
858.331	4679
858.464	4656
858.597	4531
858.731	4649
858.864	4607
858.997	4592
859.13	4660
859.263	4656
859.396	4702
859.529	4573
859.662	4569
859.795	4523
859.928	4607
860.061	4717
860.194	4782
860.327	4607
860.46	4561
860.592	4698
860.725	4729
860.858	4691
860.99	4599
861.123	4519
861.256	4512
861.388	4626
861.521	5231
861.653	4478
861.786	4398
861.918	4459
862.05	4546
862.183	4561
862.315	4626
862.447	4656
862.58	4573
862.712	4386
862.844	4329
862.976	4432
863.108	4447
863.24	4717
863.372	4318
863.504	4409
863.636	4417
863.768	4519
863.9	4417
864.032	4390
864.164	4413
864.296	4440
864.428	4546
864.559	4554
864.691	4565
864.823	4493
864.954	4493
865.086	4481
865.217	4459
865.349	4371
865.48	4470
865.612	4497
865.743	4611
865.875	4478
866.006	4447
866.137	4497
866.269	4481
866.4	4443
866.531	4424
866.662	4356
866.793	4428
866.924	4428
867.055	4481
867.186	4466
867.317	4436
867.448	4367
867.579	4390
867.71	4379
867.841	4386
867.972	4485
868.103	4455
868.233	4432
868.364	4508
868.495	4546
868.625	4706
868.756	4755
868.886	4531
869.017	4607
869.147	4733
869.278	4786
869.408	4630
869.539	4603
869.669	4736
869.799	4637
869.929	4687
870.06	4729
870.19	4942
870.32	4908
870.45	4919
870.58	5029
870.71	5037
870.84	5071
870.97	4946
871.1	4900
871.23	5105
871.36	5136
871.489	4999
871.619	5041
871.749	5132
871.879	5086
872.008	5124
872.138	5067
872.267	4946
872.397	4786
872.526	4809
872.656	4702
872.785	4801
872.915	4980
873.044	4991
873.173	4953
873.303	4942
873.432	4938
873.561	4942
873.69	4877
873.819	4885
873.948	4919
874.077	4782
874.206	4793
874.335	4831
874.464	4927
874.593	5083
874.722	4923
874.851	5117
874.979	5083
875.108	5056
875.237	4942
875.365	4923
875.494	4900
875.623	5037
875.751	4812
875.88	4831
876.008	5022
876.136	5045
876.265	5174
876.393	5364
876.521	5284
876.65	5197
876.778	5197
876.906	5060
877.034	5018
877.162	4987
877.29	4949
877.418	5075
877.546	5052
877.674	5025
877.802	4995
877.93	5041
878.058	4911
878.185	4873
878.313	4961
878.441	4972
878.568	4801
878.696	4862
878.824	4938
878.951	5018
879.079	5140
879.206	5216
879.333	5105
879.461	4987
879.588	4984
879.715	5136
879.842	5242
879.97	5048
880.097	4763
880.224	4782
880.351	4801
880.478	4862
880.605	4820
880.732	4812
880.859	5067
880.986	4870
881.112	4904
881.239	4755
881.366	4653
881.493	4592
881.619	4599
881.746	4630
881.872	4618
881.999	4637
882.125	4687
882.252	4767
882.378	4862
882.505	4946
882.631	4831
882.757	4675
882.883	4748
883.01	4733
883.136	4710
883.262	4603
883.388	4630
883.514	4805
883.64	4854
883.766	4782
883.892	4679
884.018	4759
884.143	4870
884.269	5006
884.395	4649
884.52	4603
884.646	4626
884.772	4577
884.897	4485
885.023	4649
885.148	4710
885.274	4835
885.399	4847
885.524	4721
885.65	4736
885.775	4767
885.9	4702
886.025	4881
886.15	4828
886.275	4721
886.4	4672
886.525	4706
886.65	4725
886.775	4702
886.9	4854
887.025	4984
887.149	4767
887.274	4630
887.399	4527
887.523	4599
887.648	4516
887.773	4584
887.897	4786
888.021	4797
888.146	4733
888.27	4831
888.395	4915
888.519	4805
888.643	4793
888.767	4850
888.891	4641
889.015	4584
889.139	4679
889.263	4626
889.387	4793
889.511	4877
889.635	4767
889.759	4599
889.883	4637
890.006	4679
890.13	4843
890.254	4607
890.377	4675
890.501	4531
890.624	4508
890.748	4660
890.871	4527
890.995	4459
891.118	4360
891.241	4554
891.364	4497
891.488	4611
891.611	4527
891.734	4542
891.857	4607
891.98	4508
892.103	4645
892.226	4569
892.349	4519
892.471	4417
892.594	4500
892.717	4611
892.839	4607
892.962	4607
893.085	4679
893.207	4622
893.33	4409
893.452	4573
893.575	4626
893.697	4531
893.819	4790
893.941	4858
894.064	4759
894.186	4550
894.308	4622
894.43	4706
894.552	4786
894.674	4774
894.796	4550
894.918	4603
895.04	4542
895.161	4740
895.283	4687
895.405	4504
895.526	4618
895.648	4637
895.769	4672
895.891	4679
896.012	4759
896.134	4755
896.255	4645
896.376	4634
896.498	4584
896.619	4687
896.74	4607
896.861	4645
896.982	4938
897.103	5071
897.224	4820
897.345	4740
897.466	4649
897.587	4744
897.708	4812
897.828	4744
897.949	4687
898.07	4516
898.19	4607
898.311	4809
898.431	4668
898.552	4698
898.672	4774
898.792	4717
898.913	4721
899.033	4630
899.153	4523
899.273	4447
899.393	4519
899.513	4519
899.633	4538
899.753	4546
899.873	4459
899.993	4565
900.113	4565
900.232	4558
900.352	4535
900.472	4519
900.591	4394
900.711	4523
900.83	4470
900.95	4645
901.069	4714
901.189	4531
901.308	4383
901.427	4352
901.546	4371
901.665	4440
901.784	4474
901.904	4386
902.023	4337
902.141	4181
902.26	4166
902.379	4363
902.498	4253
902.617	4196
902.735	4383
902.854	4386
902.973	4352
903.091	4211
903.21	4227
903.328	4318
903.446	4265
903.565	4261
903.683	4341
903.801	4272
903.919	4413
904.038	4402
904.156	4318
904.274	4455
904.392	4405
904.51	4409
904.627	4459
904.745	4542
904.863	4584
904.981	4402
905.098	4272
905.216	4363
905.334	4432
905.451	4390
905.569	4440
905.686	4542
905.803	4603
905.921	4428
906.038	4558
906.155	4493
906.272	4409
906.389	4436
906.506	4322
906.623	4371
906.74	4375
906.857	4314
906.974	4413
907.091	4546
907.208	4672
907.324	4588
907.441	4462
907.557	4318
907.674	4333
907.79	4303
907.907	4424
908.023	4470
908.139	4493
908.256	4417
908.372	4470
908.488	4440
908.604	4383
908.72	4310
908.836	4371
908.952	4394
909.068	4394
909.184	4497
909.3	4535
909.415	4622
909.531	4535
909.647	4344
909.762	4398
909.878	4360
909.993	4459
910.108	4417
910.224	4402
910.339	4447
910.454	4413
910.57	4402
910.685	4303
910.8	4649
910.915	4584
911.03	4485
911.145	4322
911.259	4329
911.374	4417
911.489	4284
911.604	4280
911.718	4139
911.833	4219
911.947	4044
912.062	4010
912.176	4219
912.291	4200
912.405	4253
912.519	4489
912.633	4485
912.748	4383
912.862	4306
912.976	4154
913.09	4128
913.204	4185
913.318	4242
913.431	4356
913.545	4363
913.659	4417
913.772	4344
913.886	4234
914	4246
914.113	4344
914.226	4451
914.34	4360
914.453	4268
914.566	4379
914.68	4299
914.793	4310
914.906	4150
915.019	4135
915.132	4059
915.245	4211
915.358	4230
915.47	4234
915.583	4253
915.696	4295
915.809	4443
915.921	4405
916.034	4242
916.146	4303
916.259	4223
916.371	4375
916.483	4379
916.595	4284
916.708	4352
916.82	4333
916.932	4325
917.044	4341
917.156	4352
917.268	4223
917.38	4295
917.491	4268
917.603	4348
917.715	4379
917.826	4451
917.938	4379
918.049	4238
918.161	4424
918.272	4558
918.384	4531
918.495	4462
918.606	4276
918.717	4280
918.828	4333
918.939	4314
919.05	4268
919.161	4356
919.272	4131
919.383	4204
919.494	4462
919.604	4607
919.715	4417
919.826	4383
919.936	4363
920.047	4577
920.157	4478
920.267	4706
920.378	4512
920.488	4478
920.598	4744
920.708	4881
920.818	4721
920.928	4778
921.038	4953
921.148	4915
921.258	4656
921.368	4561
921.477	4519
921.587	4424
921.697	4383
921.806	4535
921.916	4402
922.025	4280
922.134	4272
922.244	4249
922.353	4333
922.462	4173
922.571	4124
922.68	4021
922.789	3960
922.898	4013
923.007	3994
923.116	4147
923.224	4059
923.333	4067
923.442	3994
923.55	3926
923.659	4010
923.767	4044
923.876	4010
923.984	4147
924.092	3956
924.201	4051
924.309	4101
924.417	4101
924.525	4048
924.633	4101
924.741	5083
924.849	3907
924.956	4074
925.064	3964
925.172	3903
925.279	3941
925.387	4006
925.494	4082
925.602	4207
925.709	4169
925.816	4040
925.924	4112
926.031	4215
926.138	4154
926.245	4211
926.352	4063
926.459	4253
926.566	4310
926.673	4173
926.779	4074
926.886	4078
926.993	3953
927.099	3949
927.206	4006
927.312	3911
927.419	4071
927.525	4048
927.631	4116
927.737	3960
927.843	3922
927.95	3842
928.056	3922
928.162	3964
928.267	4055
928.373	4584
928.479	4135
928.585	3876
928.69	4029
928.796	4010
928.901	3911
929.007	3816
929.112	4006
929.218	3956
929.323	3972
929.428	3918
929.533	4059
929.638	3953
929.743	3949
929.848	4051
929.953	4025
930.058	3922
930.163	3781
930.267	3865
930.372	3937
930.477	3823
930.581	4093
930.685	3926
930.79	3827
930.894	3854
930.998	3915
931.103	4002
931.207	3713
931.311	3709
931.415	3701
931.519	3500
931.623	3557
