Data from test_V78500241_1578.txt Node
Date: Fri Mar 25 16:59:58 CST 2022
User: usil
Spectrometer: V785-0024
Trigger mode: 0
Integration Time (sec): 4.000000E-1
Scans to average: 1
Nonlinearity correction enabled: false
Boxcar width: 0
Storing dark spectrum: false
XAxis mode: Wavelengths
Number of Pixels in Spectrum: 1024
>>>>>Begin Spectral Data<<<<<
801.071	8035
801.214	8027
801.356	7898
801.499	7871
801.641	7792
801.783	7830
801.926	7925
802.068	7917
802.211	7940
802.353	7936
802.496	7814
802.638	7963
802.78	7887
802.923	7906
803.065	7822
803.208	7849
803.35	7978
803.492	8069
803.635	8142
803.777	7955
803.919	8084
804.061	8450
804.204	8130
804.346	7993
804.488	7951
804.63	8100
804.773	8035
804.915	8043
805.057	8298
805.199	8187
805.341	8199
805.483	8149
805.626	8142
805.768	8126
805.91	8157
806.052	8199
806.194	8103
806.336	8279
806.478	8039
806.62	8081
806.762	8161
806.904	8263
807.046	8446
807.188	8343
807.33	8362
807.472	8324
807.614	8176
807.756	8115
807.898	8005
808.04	7841
808.182	7879
808.324	7890
808.465	7864
808.607	8046
808.749	8157
808.891	8172
809.033	8252
809.174	8206
809.316	8084
809.458	8103
809.6	8020
809.741	8020
809.883	8027
810.025	8081
810.166	8096
810.308	8050
810.45	7986
810.591	7818
810.733	7765
810.875	7746
811.016	7518
811.158	7487
811.299	7559
811.441	7620
811.582	7712
811.724	7586
811.865	7457
812.007	7552
812.148	7567
812.29	7639
812.431	7689
812.573	7917
812.714	7970
812.855	8020
812.997	8172
813.138	8290
813.279	8157
813.421	8103
813.562	8008
813.703	7818
813.845	7780
813.986	7422
814.127	7270
814.268	7263
814.41	7183
814.551	7168
814.692	7202
814.833	7122
814.974	7156
815.115	7107
815.256	6962
815.397	6993
815.539	6913
815.68	6825
815.821	6863
815.962	6844
816.103	6749
816.244	6700
816.385	6631
816.526	6551
816.666	6521
816.807	6308
816.948	6407
817.089	6376
817.23	6407
817.371	6331
817.512	6372
817.653	6395
817.793	6338
817.934	6414
818.075	6456
818.216	6422
818.356	6448
818.497	6224
818.638	6121
818.778	6155
818.919	6136
819.06	6144
819.2	6292
819.341	6353
819.481	6357
819.622	6536
819.762	6753
819.903	6681
820.043	6601
820.184	6551
820.324	6654
820.465	6703
820.605	6623
820.746	6608
820.886	6540
821.026	6627
821.167	6684
821.307	6760
821.447	6738
821.588	6677
821.728	6513
821.868	6486
822.008	6266
822.149	6369
822.289	6361
822.429	6197
822.569	6114
822.709	6098
822.849	5897
822.99	5908
823.13	5893
823.27	5908
823.41	5783
823.55	5779
823.69	5764
823.83	5783
823.97	5680
824.11	5566
824.25	5543
824.389	5619
824.529	5600
824.669	5532
824.809	5608
824.949	5672
825.089	5615
825.228	5520
825.368	5364
825.508	5341
825.648	5296
825.787	5334
825.927	5357
826.067	5334
826.206	5280
826.346	5368
826.485	5383
826.625	5417
826.765	5562
826.904	5448
827.044	5242
827.183	5220
827.323	5037
827.462	5220
827.601	5166
827.741	5174
827.88	5185
828.02	5067
828.159	5197
828.298	5269
828.437	5372
828.577	5197
828.716	5463
828.855	5292
828.994	5170
829.134	5178
829.273	5193
829.412	5136
829.551	5132
829.69	5159
829.829	5273
829.968	5467
830.107	5261
830.246	5303
830.385	5147
830.524	5060
830.663	5048
830.802	4866
830.941	4862
831.08	4862
831.219	4942
831.357	4942
831.496	5140
831.635	4896
831.774	4847
831.913	4793
832.051	4729
832.19	4755
832.329	4835
832.467	4706
832.606	4664
832.744	4767
832.883	4714
833.022	4622
833.16	4816
833.299	4801
833.437	4843
833.576	4805
833.714	4843
833.852	4824
833.991	4820
834.129	4949
834.267	4965
834.406	4911
834.544	4976
834.682	4965
834.821	4911
834.959	5193
835.097	4976
835.235	5166
835.373	5071
835.511	5090
835.65	5037
835.788	5056
835.926	4904
836.064	4889
836.202	4866
836.34	5079
836.478	5227
836.615	5117
836.753	5235
836.891	5261
837.029	5246
837.167	5201
837.305	5189
837.443	5124
837.58	5052
837.718	5273
837.856	5159
837.993	5109
838.131	5212
838.269	5216
838.406	5174
838.544	5216
838.681	5003
838.819	4968
838.956	4911
839.094	4854
839.231	4991
839.369	5060
839.506	5379
839.643	5235
839.781	5052
839.918	5041
840.055	5079
840.193	5060
840.33	5090
840.467	5136
840.604	5136
840.742	5444
840.879	5045
841.016	5136
841.153	5155
841.29	5376
841.427	5296
841.564	5303
841.701	5345
841.838	5269
841.975	5254
842.112	5223
842.249	5124
842.385	5105
842.522	5315
842.659	5136
842.796	5079
842.933	5181
843.069	5136
843.206	5117
843.343	5273
843.479	5201
843.616	5246
843.752	4991
843.889	5003
844.025	5178
844.162	5052
844.298	5197
844.435	5048
844.571	5086
844.708	5189
844.844	5280
844.98	5322
845.117	5349
845.253	5094
845.389	5060
845.525	5170
845.661	5162
845.798	5037
845.934	5136
846.07	5045
846.206	5178
846.342	5360
846.478	5166
846.614	4984
846.75	4927
846.886	4949
847.022	5064
847.158	5029
847.294	5064
847.429	5075
847.565	5090
847.701	5326
847.837	4881
847.972	4816
848.108	4949
848.244	4896
848.379	4778
848.515	4710
848.65	4733
848.786	4812
848.921	4763
849.057	4858
849.192	4965
849.328	4816
849.463	4828
849.598	4774
849.734	4809
849.869	4668
850.004	4611
850.14	4630
850.275	4603
850.41	4531
850.545	4573
850.68	4626
850.815	4660
850.95	4573
851.085	4870
851.22	4710
851.355	4634
851.49	4630
851.625	4622
851.76	4649
851.895	4500
852.03	4516
852.165	4679
852.299	4702
852.434	4812
852.569	4790
852.703	4706
852.838	4850
852.973	4934
853.107	4911
853.242	4706
853.376	4694
853.511	4577
853.645	4588
853.78	4797
853.914	4656
854.048	4641
854.183	4668
854.317	4653
854.451	4847
854.585	4694
854.72	4611
854.854	4755
854.988	4569
855.122	4565
855.256	4554
855.39	4641
855.524	4805
855.658	4725
855.792	4733
855.926	4714
856.06	4759
856.194	4752
856.327	4649
856.461	4637
856.595	4592
856.729	4618
856.862	4763
856.996	4656
857.13	4694
857.263	4729
857.397	4854
857.53	4599
857.664	4733
857.797	4759
857.931	4774
858.064	4706
858.197	4778
858.331	4637
858.464	4592
858.597	4493
858.731	4645
858.864	4668
858.997	4565
859.13	4618
859.263	4683
859.396	4694
859.529	4546
859.662	4550
859.795	4546
859.928	4641
860.061	4706
860.194	4752
860.327	4622
860.46	4573
860.592	4710
860.725	4702
860.858	4702
860.99	4565
861.123	4485
861.256	4519
861.388	4554
861.521	5208
861.653	4542
861.786	4478
861.918	4474
862.05	4478
862.183	4558
862.315	4607
862.447	4641
862.58	4531
862.712	4371
862.844	4310
862.976	4455
863.108	4466
863.24	4774
863.372	4306
863.504	4417
863.636	4417
863.768	4421
863.9	4451
864.032	4344
864.164	4447
864.296	4485
864.428	4554
864.559	4577
864.691	4523
864.823	4500
864.954	4508
865.086	4474
865.217	4432
865.349	4405
865.48	4432
865.612	4523
865.743	4641
865.875	4470
866.006	4432
866.137	4481
866.269	4462
866.4	4402
866.531	4424
866.662	4394
866.793	4413
866.924	4443
867.055	4508
867.186	4451
867.317	4394
867.448	4409
867.579	4394
867.71	4379
867.841	4363
867.972	4436
868.103	4417
868.233	4402
868.364	4424
868.495	4447
868.625	4679
868.756	4748
868.886	4577
869.017	4626
869.147	4790
869.278	4774
869.408	4649
869.539	4630
869.669	4725
869.799	4656
869.929	4725
870.06	4706
870.19	4957
870.32	4911
870.45	4957
870.58	5041
870.71	5060
870.84	5067
870.97	4904
871.1	4896
871.23	5162
871.36	5128
871.489	5033
871.619	5060
871.749	5071
871.879	5151
872.008	5185
872.138	5014
872.267	4927
872.397	4820
872.526	4786
872.656	4710
872.785	4835
872.915	4961
873.044	4987
873.173	4946
873.303	4919
873.432	4896
873.561	4942
873.69	4858
873.819	4877
873.948	4919
874.077	4786
874.206	4767
874.335	4854
874.464	4900
874.593	5083
874.722	4900
874.851	5045
874.979	5060
875.108	5022
875.237	4889
875.365	4896
875.494	4870
875.623	5022
875.751	4824
875.88	4866
876.008	4934
876.136	4957
876.265	5181
876.393	5337
876.521	5261
876.65	5258
876.778	5204
876.906	5117
877.034	4995
877.162	5079
877.29	4946
877.418	5029
877.546	5025
877.674	5022
877.802	5003
877.93	4957
878.058	4927
878.185	4885
878.313	4942
878.441	4949
878.568	4774
878.696	4862
878.824	4965
878.951	5014
879.079	5098
879.206	5273
879.333	5075
879.461	5003
879.588	5033
879.715	5109
879.842	5231
879.97	5045
880.097	4790
880.224	4752
880.351	4793
880.478	4790
880.605	4740
880.732	4771
880.859	5052
880.986	4900
881.112	4873
881.239	4744
881.366	4649
881.493	4592
881.619	4580
881.746	4618
881.872	4687
881.999	4656
882.125	4698
882.252	4740
882.378	4820
882.505	4953
882.631	4774
882.757	4664
882.883	4740
883.01	4729
883.136	4630
883.262	4592
883.388	4645
883.514	4763
883.64	4858
883.766	4725
883.892	4649
884.018	4721
884.143	4828
884.269	5029
884.395	4691
884.52	4615
884.646	4615
884.772	4561
884.897	4542
885.023	4683
885.148	4812
885.274	4896
885.399	4736
885.524	4752
885.65	4721
885.775	4714
885.9	4698
886.025	4801
886.15	4812
886.275	4698
886.4	4637
886.525	4725
886.65	4660
886.775	4675
886.9	4866
887.025	5056
887.149	4809
887.274	4710
887.399	4592
887.523	4599
887.648	4519
887.773	4603
887.897	4786
888.021	4759
888.146	4656
888.27	4782
888.395	4892
888.519	4771
888.643	4812
888.767	4839
888.891	4649
889.015	4603
889.139	4645
889.263	4599
889.387	4752
889.511	4820
889.635	4759
889.759	4660
889.883	4630
890.006	4748
890.13	4835
890.254	4584
890.377	4691
890.501	4508
890.624	4573
890.748	4626
890.871	4474
890.995	4447
891.118	4375
891.241	4519
891.364	4504
891.488	4603
891.611	4497
891.734	4584
891.857	4588
891.98	4542
892.103	4641
892.226	4573
892.349	4512
892.471	4432
892.594	4538
892.717	4550
892.839	4569
892.962	4588
893.085	4649
893.207	4561
893.33	4504
893.452	4565
893.575	4649
893.697	4592
893.819	4801
893.941	4839
894.064	4721
894.186	4577
894.308	4580
894.43	4687
894.552	4831
894.674	4824
894.796	4588
894.918	4569
895.04	4538
895.161	4675
895.283	4694
895.405	4596
895.526	4603
895.648	4672
895.769	4714
895.891	4702
896.012	4740
896.134	4733
896.255	4660
896.376	4664
896.498	4622
896.619	4694
896.74	4584
896.861	4634
896.982	4870
897.103	5132
897.224	4809
897.345	4759
897.466	4672
897.587	4702
897.708	4854
897.828	4759
897.949	4634
898.07	4558
898.19	4626
898.311	4847
898.431	4626
898.552	4771
898.672	4801
898.792	4793
898.913	4729
899.033	4615
899.153	4500
899.273	4436
899.393	4485
899.513	4512
899.633	4527
899.753	4546
899.873	4527
899.993	4615
900.113	4531
900.232	4618
900.352	4538
900.472	4508
900.591	4409
900.711	4508
900.83	4417
900.95	4607
901.069	4675
901.189	4500
901.308	4375
901.427	4329
901.546	4371
901.665	4432
901.784	4500
901.904	4394
902.023	4329
902.141	4196
902.26	4120
902.379	4257
902.498	4215
902.617	4192
902.735	4356
902.854	4421
902.973	4325
903.091	4219
903.21	4169
903.328	4265
903.446	4257
903.565	4227
903.683	4367
903.801	4280
903.919	4413
904.038	4424
904.156	4325
904.274	4413
904.392	4356
904.51	4455
904.627	4466
904.745	4535
904.863	4634
904.981	4352
905.098	4322
905.216	4303
905.334	4428
905.451	4402
905.569	4470
905.686	4542
905.803	4535
905.921	4386
906.038	4546
906.155	4519
906.272	4371
906.389	4455
906.506	4325
906.623	4344
906.74	4386
906.857	4329
906.974	4360
907.091	4588
907.208	4645
907.324	4569
907.441	4527
907.557	4363
907.674	4344
907.79	4303
907.907	4356
908.023	4508
908.139	4508
908.256	4447
908.372	4451
908.488	4459
908.604	4344
908.72	4310
908.836	4371
908.952	4367
909.068	4413
909.184	4580
909.3	4470
909.415	4584
909.531	4554
909.647	4348
909.762	4333
909.878	4318
909.993	4436
910.108	4436
910.224	4424
910.339	4462
910.454	4421
910.57	4356
910.685	4322
910.8	4679
910.915	4626
911.03	4481
911.145	4287
911.259	4280
911.374	4344
911.489	4276
911.604	4280
911.718	4188
911.833	4200
911.947	4074
912.062	3991
912.176	4177
912.291	4227
912.405	4234
912.519	4436
912.633	4481
912.748	4405
912.862	4318
912.976	4215
913.09	4059
913.204	4173
913.318	4291
913.431	4379
913.545	4344
913.659	4421
913.772	4352
913.886	4238
914	4207
914.113	4394
914.226	4417
914.34	4409
914.453	4265
914.566	4390
914.68	4367
914.793	4333
914.906	4158
915.019	4116
915.132	4093
915.245	4169
915.358	4207
915.47	4257
915.583	4242
915.696	4329
915.809	4409
915.921	4402
916.034	4249
916.146	4276
916.259	4196
916.371	4417
916.483	4322
916.595	4291
916.708	4291
916.82	4287
916.932	4352
917.044	4322
917.156	4310
917.268	4253
917.38	4261
917.491	4246
917.603	4341
917.715	4367
917.826	4424
917.938	4356
918.049	4211
918.161	4367
918.272	4596
918.384	4493
918.495	4459
918.606	4268
918.717	4227
918.828	4314
918.939	4390
919.05	4200
919.161	4295
919.272	4150
919.383	4196
919.494	4428
919.604	4630
919.715	4409
919.826	4344
919.936	4379
920.047	4542
920.157	4485
920.267	4702
920.378	4538
920.488	4455
920.598	4691
920.708	4809
920.818	4782
920.928	4778
921.038	4908
921.148	4877
921.258	4656
921.368	4546
921.477	4504
921.587	4459
921.697	4329
921.806	4561
921.916	4409
922.025	4265
922.134	4287
922.244	4223
922.353	4284
922.462	4162
922.571	4086
922.68	4010
922.789	4017
922.898	4055
923.007	3983
923.116	4059
923.224	4055
923.333	4112
923.442	3964
923.55	3956
923.659	4071
923.767	4090
923.876	4021
923.984	4109
924.092	3998
924.201	4032
924.309	4086
924.417	4109
924.525	4063
924.633	4086
924.741	4797
924.849	3899
924.956	4074
925.064	3975
925.172	3899
925.279	3926
925.387	4078
925.494	4025
925.602	4154
925.709	4200
925.816	4067
925.924	4097
926.031	4207
926.138	4185
926.245	4230
926.352	4105
926.459	4238
926.566	4306
926.673	4169
926.779	4044
926.886	4082
926.993	3975
927.099	3968
927.206	3918
927.312	3941
927.419	4048
927.525	4017
927.631	4093
927.737	4002
927.843	3930
927.95	3846
928.056	3926
928.162	3979
928.267	4067
928.373	4588
928.479	4116
928.585	3884
928.69	4006
928.796	4078
928.901	3987
929.007	3835
929.112	3994
929.218	3972
929.323	3934
929.428	3907
929.533	4097
929.638	3896
929.743	3956
929.848	4032
929.953	3968
930.058	3899
930.163	3778
930.267	3842
930.372	3972
930.477	3812
930.581	4051
930.685	3964
930.79	3816
930.894	3861
930.998	3869
931.103	4021
931.207	3705
931.311	3720
931.415	3705
931.519	3561
931.623	3492
