Data from test_V78500241_1730.txt Node
Date: Fri Mar 25 17:01:01 CST 2022
User: usil
Spectrometer: V785-0024
Trigger mode: 0
Integration Time (sec): 4.000000E-1
Scans to average: 1
Nonlinearity correction enabled: false
Boxcar width: 0
Storing dark spectrum: false
XAxis mode: Wavelengths
Number of Pixels in Spectrum: 1024
>>>>>Begin Spectral Data<<<<<
801.071	7936
801.214	7974
801.356	7906
801.499	7856
801.641	7814
801.783	7803
801.926	7913
802.068	7989
802.211	8016
802.353	8031
802.496	7860
802.638	7864
802.78	7890
802.923	7864
803.065	7883
803.208	7818
803.35	7982
803.492	8081
803.635	8126
803.777	7989
803.919	8035
804.061	8469
804.204	8180
804.346	7993
804.488	7932
804.63	8050
804.773	8039
804.915	8035
805.057	8256
805.199	8142
805.341	8168
805.483	8233
805.626	8134
805.768	8050
805.91	8202
806.052	8180
806.194	8145
806.336	8252
806.478	8119
806.62	8081
806.762	8119
806.904	8271
807.046	8419
807.188	8400
807.33	8336
807.472	8320
807.614	8187
807.756	8149
807.898	7955
808.04	7875
808.182	7913
808.324	7864
808.465	7925
808.607	7917
808.749	8081
808.891	8191
809.033	8313
809.174	8218
809.316	8138
809.458	8058
809.6	7978
809.741	8031
809.883	7989
810.025	8065
810.166	8020
810.308	8062
810.45	7955
810.591	7864
810.733	7765
810.875	7693
811.016	7567
811.158	7468
811.299	7590
811.441	7696
811.582	7632
811.724	7571
811.865	7514
812.007	7578
812.148	7544
812.29	7616
812.431	7765
812.573	7925
812.714	8024
812.855	8149
812.997	8134
813.138	8259
813.279	8214
813.421	8027
813.562	7947
813.703	7822
813.845	7662
813.986	7441
814.127	7266
814.268	7266
814.41	7152
814.551	7122
814.692	7160
814.833	7141
814.974	7084
815.115	7156
815.256	6939
815.397	6977
815.539	6886
815.68	6818
815.821	6757
815.962	6806
816.103	6753
816.244	6673
816.385	6608
816.526	6631
816.666	6494
816.807	6285
816.948	6399
817.089	6452
817.23	6445
817.371	6380
817.512	6403
817.653	6365
817.793	6323
817.934	6395
818.075	6445
818.216	6414
818.356	6464
818.497	6213
818.638	6136
818.778	6155
818.919	6125
819.06	6129
819.2	6319
819.341	6277
819.481	6350
819.622	6486
819.762	6734
819.903	6726
820.043	6585
820.184	6536
820.324	6578
820.465	6711
820.605	6662
820.746	6673
820.886	6479
821.026	6669
821.167	6719
821.307	6798
821.447	6772
821.588	6654
821.728	6559
821.868	6448
822.008	6315
822.149	6334
822.289	6338
822.429	6125
822.569	6102
822.709	6064
822.849	5920
822.99	5897
823.13	5893
823.27	5935
823.41	5786
823.55	5817
823.69	5775
823.83	5783
823.97	5661
824.11	5554
824.25	5505
824.389	5516
824.529	5611
824.669	5535
824.809	5604
824.949	5657
825.089	5570
825.228	5532
825.368	5383
825.508	5307
825.648	5280
825.787	5337
825.927	5364
826.067	5326
826.206	5322
826.346	5387
826.485	5410
826.625	5417
826.765	5497
826.904	5482
827.044	5231
827.183	5166
827.323	5067
827.462	5208
827.601	5193
827.741	5197
827.88	5208
828.02	5136
828.159	5201
828.298	5280
828.437	5341
828.577	5299
828.716	5444
828.855	5284
828.994	5162
829.134	5121
829.273	5193
829.412	5162
829.551	5147
829.69	5159
829.829	5235
829.968	5364
830.107	5288
830.246	5273
830.385	5174
830.524	5147
830.663	5052
830.802	4972
830.941	4911
831.08	4866
831.219	4991
831.357	4980
831.496	5155
831.635	4889
831.774	4824
831.913	4858
832.051	4759
832.19	4755
832.329	4797
832.467	4691
832.606	4634
832.744	4710
832.883	4668
833.022	4702
833.16	4755
833.299	4771
833.437	4786
833.576	4843
833.714	4866
833.852	4824
833.991	4850
834.129	4930
834.267	4953
834.406	4889
834.544	4919
834.682	4957
834.821	4972
834.959	5155
835.097	5022
835.235	5193
835.373	5029
835.511	5025
835.65	5022
835.788	4995
835.926	4908
836.064	4934
836.202	4946
836.34	5121
836.478	5235
836.615	5105
836.753	5212
836.891	5277
837.029	5216
837.167	5162
837.305	5140
837.443	5117
837.58	5064
837.718	5242
837.856	5174
837.993	5132
838.131	5284
838.269	5212
838.406	5189
838.544	5212
838.681	5006
838.819	5071
838.956	4892
839.094	4881
839.231	4957
839.369	5060
839.506	5372
839.643	5201
839.781	5075
839.918	4976
840.055	5083
840.193	5098
840.33	5124
840.467	5159
840.604	5147
840.742	5398
840.879	5109
841.016	5155
841.153	5159
841.29	5357
841.427	5280
841.564	5311
841.701	5318
841.838	5246
841.975	5185
842.112	5296
842.249	5151
842.385	5086
842.522	5322
842.659	5140
842.796	5098
842.933	5159
843.069	5113
843.206	5204
843.343	5277
843.479	5227
843.616	5269
843.752	4957
843.889	5006
844.025	5181
844.162	4957
844.298	5178
844.435	5029
844.571	5064
844.708	5204
844.844	5269
844.98	5307
845.117	5345
845.253	5132
845.389	5071
845.525	5143
845.661	5109
845.798	5025
845.934	5181
846.07	4991
846.206	5189
846.342	5239
846.478	5178
846.614	4995
846.75	4923
846.886	4946
847.022	5071
847.158	5045
847.294	5025
847.429	5075
847.565	5090
847.701	5334
847.837	4839
847.972	4831
848.108	4938
848.244	4923
848.379	4786
848.515	4725
848.65	4717
848.786	4774
848.921	4759
849.057	4858
849.192	4885
849.328	4790
849.463	4862
849.598	4782
849.734	4755
849.869	4649
850.004	4634
850.14	4634
850.275	4596
850.41	4523
850.545	4531
850.68	4611
850.815	4611
850.95	4641
851.085	4862
851.22	4771
851.355	4698
851.49	4577
851.625	4588
851.76	4634
851.895	4538
852.03	4485
852.165	4672
852.299	4744
852.434	4717
852.569	4778
852.703	4733
852.838	4801
852.973	4946
853.107	4942
853.242	4725
853.376	4668
853.511	4561
853.645	4584
853.78	4771
853.914	4668
854.048	4641
854.183	4611
854.317	4729
854.451	4801
854.585	4664
854.72	4637
854.854	4664
854.988	4584
855.122	4607
855.256	4527
855.39	4615
855.524	4843
855.658	4721
855.792	4679
855.926	4717
856.06	4706
856.194	4759
856.327	4679
856.461	4592
856.595	4611
856.729	4596
856.862	4725
856.996	4653
857.13	4721
857.263	4744
857.397	4843
857.53	4641
857.664	4698
857.797	4763
857.931	4771
858.064	4672
858.197	4733
858.331	4596
858.464	4641
858.597	4516
858.731	4634
858.864	4588
858.997	4569
859.13	4683
859.263	4683
859.396	4706
859.529	4569
859.662	4565
859.795	4584
859.928	4615
860.061	4725
860.194	4790
860.327	4611
860.46	4565
860.592	4698
860.725	4714
860.858	4774
860.99	4542
861.123	4519
861.256	4554
861.388	4603
861.521	5212
861.653	4481
861.786	4424
861.918	4470
862.05	4527
862.183	4542
862.315	4611
862.447	4683
862.58	4565
862.712	4341
862.844	4318
862.976	4500
863.108	4413
863.24	4915
863.372	4318
863.504	4367
863.636	4371
863.768	4516
863.9	4462
864.032	4363
864.164	4394
864.296	4474
864.428	4512
864.559	4569
864.691	4485
864.823	4481
864.954	4474
865.086	4512
865.217	4451
865.349	4440
865.48	4470
865.612	4478
865.743	4618
865.875	4455
866.006	4402
866.137	4466
866.269	4432
866.4	4424
866.531	4417
866.662	4394
866.793	4341
866.924	4417
867.055	4402
867.186	4470
867.317	4436
867.448	4356
867.579	4379
867.71	4379
867.841	4306
867.972	4519
868.103	4451
868.233	4478
868.364	4447
868.495	4516
868.625	4641
868.756	4729
868.886	4588
869.017	4550
869.147	4714
869.278	4790
869.408	4653
869.539	4660
869.669	4710
869.799	4691
869.929	4721
870.06	4725
870.19	4942
870.32	4896
870.45	4942
870.58	4995
870.71	5109
870.84	5113
870.97	4923
871.1	4892
871.23	5109
871.36	5197
871.489	5029
871.619	5121
871.749	5086
871.879	5151
872.008	5170
872.138	5067
872.267	4995
872.397	4873
872.526	4820
872.656	4729
872.785	4812
872.915	4930
873.044	5018
873.173	4968
873.303	4953
873.432	4976
873.561	4942
873.69	4889
873.819	4885
873.948	4923
874.077	4793
874.206	4790
874.335	4782
874.464	4873
874.593	5037
874.722	4930
874.851	5128
874.979	5105
875.108	5022
875.237	4870
875.365	4839
875.494	4892
875.623	4976
875.751	4850
875.88	4885
876.008	4976
876.136	5037
876.265	5174
876.393	5345
876.521	5246
876.65	5288
876.778	5174
876.906	5052
877.034	5045
877.162	5014
877.29	4927
877.418	5041
877.546	5064
877.674	5083
877.802	5060
877.93	5014
878.058	4900
878.185	4908
878.313	4991
878.441	4949
878.568	4782
878.696	4877
878.824	4957
878.951	5003
879.079	5151
879.206	5250
879.333	5098
879.461	4957
879.588	4972
879.715	5113
879.842	5208
879.97	5025
880.097	4744
880.224	4744
880.351	4831
880.478	4831
880.605	4816
880.732	4774
880.859	5113
880.986	4911
881.112	4908
881.239	4805
881.366	4641
881.493	4573
881.619	4599
881.746	4641
881.872	4649
881.999	4668
882.125	4672
882.252	4748
882.378	4858
882.505	4949
882.631	4790
882.757	4649
882.883	4752
883.01	4683
883.136	4618
883.262	4569
883.388	4580
883.514	4843
883.64	4843
883.766	4763
883.892	4672
884.018	4774
884.143	4915
884.269	4949
884.395	4649
884.52	4592
884.646	4626
884.772	4573
884.897	4531
885.023	4611
885.148	4763
885.274	4896
885.399	4797
885.524	4740
885.65	4687
885.775	4774
885.9	4694
886.025	4824
886.15	4782
886.275	4691
886.4	4672
886.525	4733
886.65	4717
886.775	4714
886.9	4915
887.025	5056
887.149	4824
887.274	4672
887.399	4542
887.523	4626
887.648	4565
887.773	4611
887.897	4763
888.021	4721
888.146	4653
888.27	4831
888.395	4881
888.519	4755
888.643	4809
888.767	4805
888.891	4664
889.015	4569
889.139	4683
889.263	4584
889.387	4740
889.511	4854
889.635	4793
889.759	4615
889.883	4649
890.006	4702
890.13	4850
890.254	4561
890.377	4683
890.501	4561
890.624	4527
890.748	4573
890.871	4504
890.995	4409
891.118	4405
891.241	4573
891.364	4565
891.488	4637
891.611	4474
891.734	4497
891.857	4603
891.98	4569
892.103	4611
892.226	4603
892.349	4558
892.471	4451
892.594	4558
892.717	4603
892.839	4577
892.962	4542
893.085	4603
893.207	4565
893.33	4428
893.452	4546
893.575	4649
893.697	4596
893.819	4755
893.941	4812
894.064	4725
894.186	4561
894.308	4561
894.43	4694
894.552	4831
894.674	4752
894.796	4535
894.918	4599
895.04	4569
895.161	4694
895.283	4637
895.405	4565
895.526	4622
895.648	4698
895.769	4668
895.891	4698
896.012	4774
896.134	4698
896.255	4672
896.376	4588
896.498	4641
896.619	4664
896.74	4561
896.861	4622
896.982	4968
897.103	5041
897.224	4847
897.345	4717
897.466	4618
897.587	4706
897.708	4858
897.828	4759
897.949	4729
898.07	4573
898.19	4664
898.311	4847
898.431	4630
898.552	4752
898.672	4816
898.792	4835
898.913	4744
899.033	4645
899.153	4519
899.273	4402
899.393	4508
899.513	4500
899.633	4504
899.753	4504
899.873	4542
899.993	4577
900.113	4538
900.232	4607
900.352	4485
900.472	4493
900.591	4383
900.711	4451
900.83	4428
900.95	4615
901.069	4706
901.189	4554
901.308	4341
901.427	4276
901.546	4341
901.665	4462
901.784	4527
901.904	4363
902.023	4341
902.141	4196
902.26	4158
902.379	4272
902.498	4230
902.617	4238
902.735	4386
902.854	4413
902.973	4371
903.091	4219
903.21	4211
903.328	4303
903.446	4272
903.565	4230
903.683	4375
903.801	4265
903.919	4390
904.038	4383
904.156	4322
904.274	4417
904.392	4375
904.51	4424
904.627	4478
904.745	4622
904.863	4592
904.981	4371
905.098	4284
905.216	4386
905.334	4371
905.451	4470
905.569	4440
905.686	4561
905.803	4584
905.921	4409
906.038	4550
906.155	4462
906.272	4383
906.389	4485
906.506	4322
906.623	4432
906.74	4428
906.857	4272
906.974	4386
907.091	4618
907.208	4683
907.324	4554
907.441	4481
907.557	4341
907.674	4341
907.79	4363
907.907	4390
908.023	4493
908.139	4504
908.256	4459
908.372	4405
908.488	4500
908.604	4367
908.72	4337
908.836	4367
908.952	4436
909.068	4417
909.184	4584
909.3	4455
909.415	4615
909.531	4561
909.647	4314
909.762	4310
909.878	4299
909.993	4413
910.108	4443
910.224	4402
910.339	4531
910.454	4432
910.57	4348
910.685	4303
910.8	4611
910.915	4588
911.03	4493
911.145	4276
911.259	4360
911.374	4386
911.489	4287
911.604	4295
911.718	4196
911.833	4215
911.947	4067
912.062	4032
912.176	4200
912.291	4249
912.405	4299
912.519	4462
912.633	4500
912.748	4371
912.862	4318
912.976	4131
913.09	4128
913.204	4128
913.318	4261
913.431	4379
913.545	4375
913.659	4451
913.772	4375
913.886	4287
914	4227
914.113	4398
914.226	4459
914.34	4386
914.453	4242
914.566	4421
914.68	4306
914.793	4348
914.906	4181
915.019	4143
915.132	4105
915.245	4169
915.358	4207
915.47	4257
915.583	4246
915.696	4291
915.809	4428
915.921	4375
916.034	4287
916.146	4211
916.259	4196
916.371	4409
916.483	4337
916.595	4268
916.708	4303
916.82	4337
916.932	4284
917.044	4287
917.156	4352
917.268	4223
917.38	4265
917.491	4242
917.603	4352
917.715	4417
917.826	4413
917.938	4383
918.049	4261
918.161	4375
918.272	4508
918.384	4554
918.495	4459
918.606	4261
918.717	4207
918.828	4352
918.939	4333
919.05	4280
919.161	4348
919.272	4090
919.383	4272
919.494	4493
919.604	4622
919.715	4432
919.826	4386
919.936	4363
920.047	4554
920.157	4531
920.267	4694
920.378	4535
920.488	4535
920.598	4729
920.708	4908
920.818	4786
920.928	4767
921.038	4938
921.148	4904
921.258	4649
921.368	4523
921.477	4462
921.587	4493
921.697	4375
921.806	4546
921.916	4413
922.025	4227
922.134	4284
922.244	4173
922.353	4310
922.462	4128
922.571	4162
922.68	4013
922.789	3968
922.898	4021
923.007	4010
923.116	4139
923.224	4051
923.333	4093
923.442	3991
923.55	3960
923.659	4002
923.767	4086
923.876	4017
923.984	4101
924.092	3975
924.201	4109
924.309	4109
924.417	4101
924.525	4029
924.633	4040
924.741	4831
924.849	3926
924.956	4131
925.064	3975
925.172	3915
925.279	3972
925.387	4044
925.494	4017
925.602	4181
925.709	4181
925.816	4051
925.924	4128
926.031	4238
926.138	4192
926.245	4154
926.352	4071
926.459	4291
926.566	4299
926.673	4158
926.779	4082
926.886	4101
926.993	4002
927.099	3937
927.206	3907
927.312	3972
927.419	4086
927.525	4044
927.631	4078
927.737	3975
927.843	3956
927.95	3823
928.056	3930
928.162	3953
928.267	4071
928.373	4618
928.479	4116
928.585	3884
928.69	4002
928.796	4086
928.901	3979
929.007	3831
929.112	4017
929.218	3960
929.323	3945
929.428	3941
929.533	4051
929.638	3903
929.743	3968
929.848	3994
929.953	4013
930.058	3903
930.163	3781
930.267	3823
930.372	3994
930.477	3800
930.581	4128
930.685	3911
930.79	3789
930.894	3861
930.998	3880
931.103	4051
931.207	3724
931.311	3686
931.415	3701
931.519	3473
931.623	3584
