Data from test_V78500241_1905.txt Node
Date: Fri Mar 25 17:02:14 CST 2022
User: usil
Spectrometer: V785-0024
Trigger mode: 0
Integration Time (sec): 4.000000E-1
Scans to average: 1
Nonlinearity correction enabled: false
Boxcar width: 0
Storing dark spectrum: false
XAxis mode: Wavelengths
Number of Pixels in Spectrum: 1024
>>>>>Begin Spectral Data<<<<<
801.071	7989
801.214	8024
801.356	7902
801.499	7845
801.641	7826
801.783	7883
801.926	7997
802.068	7947
802.211	7993
802.353	7967
802.496	7799
802.638	7818
802.78	7837
802.923	7879
803.065	7917
803.208	7879
803.35	7921
803.492	8035
803.635	8134
803.777	8001
803.919	8191
804.061	8484
804.204	8172
804.346	8103
804.488	7982
804.63	8138
804.773	7989
804.915	8119
805.057	8294
805.199	8115
805.341	8202
805.483	8214
805.626	8233
805.768	8149
805.91	8142
806.052	8233
806.194	8149
806.336	8343
806.478	8107
806.62	8088
806.762	8130
806.904	8206
807.046	8446
807.188	8412
807.33	8313
807.472	8320
807.614	8168
807.756	8142
807.898	8065
808.04	7879
808.182	7959
808.324	7902
808.465	7852
808.607	8077
808.749	8138
808.891	8248
809.033	8355
809.174	8240
809.316	8111
809.458	8046
809.6	8062
809.741	8031
809.883	8039
810.025	8100
810.166	8145
810.308	8020
810.45	8012
810.591	7837
810.733	7662
810.875	7674
811.016	7502
811.158	7491
811.299	7540
811.441	7727
811.582	7681
811.724	7529
811.865	7506
812.007	7586
812.148	7556
812.29	7620
812.431	7712
812.573	7967
812.714	7936
812.855	8088
812.997	8206
813.138	8313
813.279	8138
813.421	8077
813.562	7955
813.703	7803
813.845	7719
813.986	7457
814.127	7164
814.268	7194
814.41	7171
814.551	7255
814.692	7213
814.833	7080
814.974	7168
815.115	7122
815.256	6951
815.397	6916
815.539	6951
815.68	6818
815.821	6741
815.962	6760
816.103	6806
816.244	6673
816.385	6604
816.526	6601
816.666	6471
816.807	6338
816.948	6464
817.089	6467
817.23	6445
817.371	6369
817.512	6376
817.653	6399
817.793	6365
817.934	6445
818.075	6452
818.216	6384
818.356	6414
818.497	6213
818.638	6114
818.778	6167
818.919	6167
819.06	6148
819.2	6331
819.341	6304
819.481	6350
819.622	6555
819.762	6730
819.903	6700
820.043	6620
820.184	6623
820.324	6547
820.465	6757
820.605	6658
820.746	6673
820.886	6513
821.026	6658
821.167	6688
821.307	6783
821.447	6779
821.588	6665
821.728	6578
821.868	6464
822.008	6331
822.149	6357
822.289	6331
822.429	6194
822.569	6076
822.709	6152
822.849	5923
822.99	5931
823.13	5878
823.27	5897
823.41	5771
823.55	5741
823.69	5733
823.83	5752
823.97	5688
824.11	5520
824.25	5497
824.389	5516
824.529	5592
824.669	5471
824.809	5600
824.949	5672
825.089	5581
825.228	5562
825.368	5429
825.508	5296
825.648	5364
825.787	5391
825.927	5334
826.067	5330
826.206	5311
826.346	5357
826.485	5440
826.625	5429
826.765	5596
826.904	5467
827.044	5284
827.183	5174
827.323	5105
827.462	5223
827.601	5147
827.741	5143
827.88	5197
828.02	5140
828.159	5204
828.298	5360
828.437	5379
828.577	5334
828.716	5448
828.855	5303
828.994	5151
829.134	5143
829.273	5181
829.412	5121
829.551	5098
829.69	5155
829.829	5162
829.968	5360
830.107	5212
830.246	5246
830.385	5155
830.524	5143
830.663	5033
830.802	4968
830.941	4873
831.08	4831
831.219	5022
831.357	4953
831.496	5189
831.635	4885
831.774	4839
831.913	4870
832.051	4694
832.19	4702
832.329	4835
832.467	4645
832.606	4622
832.744	4694
832.883	4698
833.022	4710
833.16	4763
833.299	4820
833.437	4786
833.576	4862
833.714	4858
833.852	4843
833.991	4919
834.129	4885
834.267	4908
834.406	4850
834.544	4972
834.682	5003
834.821	4980
834.959	5143
835.097	5022
835.235	5178
835.373	5079
835.511	5128
835.65	5006
835.788	4927
835.926	4850
836.064	4877
836.202	4843
836.34	5170
836.478	5174
836.615	5079
836.753	5208
836.891	5273
837.029	5231
837.167	5155
837.305	5147
837.443	5162
837.58	5113
837.718	5239
837.856	5128
837.993	5178
838.131	5254
838.269	5197
838.406	5208
838.544	5212
838.681	5037
838.819	5025
838.956	4820
839.094	4881
839.231	4915
839.369	5048
839.506	5387
839.643	5284
839.781	5071
839.918	5022
840.055	5109
840.193	5128
840.33	5117
840.467	5094
840.604	5220
840.742	5414
840.879	5071
841.016	5033
841.153	5166
841.29	5410
841.427	5296
841.564	5250
841.701	5326
841.838	5216
841.975	5208
842.112	5307
842.249	5201
842.385	5121
842.522	5311
842.659	5159
842.796	5155
842.933	5235
843.069	5128
843.206	5136
843.343	5345
843.479	5201
843.616	5277
843.752	5033
843.889	5018
844.025	5204
844.162	5064
844.298	5189
844.435	5060
844.571	5041
844.708	5151
844.844	5246
844.98	5330
845.117	5261
845.253	5166
845.389	5060
845.525	5147
845.661	5132
845.798	5045
845.934	5132
846.07	4995
846.206	5208
846.342	5250
846.478	5174
846.614	5041
846.75	4900
846.886	4957
847.022	5162
847.158	4980
847.294	5071
847.429	5052
847.565	5029
847.701	5258
847.837	4866
847.972	4797
848.108	4942
848.244	4961
848.379	4774
848.515	4664
848.65	4660
848.786	4797
848.921	4812
849.057	4877
849.192	4919
849.328	4831
849.463	4824
849.598	4763
849.734	4733
849.869	4672
850.004	4561
850.14	4645
850.275	4588
850.41	4527
850.545	4577
850.68	4607
850.815	4596
850.95	4588
851.085	4805
851.22	4744
851.355	4687
851.49	4630
851.625	4618
851.76	4630
851.895	4577
852.03	4535
852.165	4683
852.299	4702
852.434	4782
852.569	4740
852.703	4793
852.838	4824
852.973	4980
853.107	4900
853.242	4729
853.376	4679
853.511	4535
853.645	4645
853.78	4824
853.914	4660
854.048	4656
854.183	4630
854.317	4744
854.451	4911
854.585	4618
854.72	4626
854.854	4763
854.988	4580
855.122	4660
855.256	4508
855.39	4706
855.524	4755
855.658	4698
855.792	4679
855.926	4687
856.06	4729
856.194	4793
856.327	4672
856.461	4558
856.595	4630
856.729	4645
856.862	4759
856.996	4733
857.13	4706
857.263	4816
857.397	4755
857.53	4664
857.664	4706
857.797	4729
857.931	4797
858.064	4691
858.197	4729
858.331	4599
858.464	4584
858.597	4558
858.731	4618
858.864	4596
858.997	4558
859.13	4645
859.263	4656
859.396	4679
859.529	4569
859.662	4592
859.795	4565
859.928	4592
860.061	4755
860.194	4774
860.327	4584
860.46	4607
860.592	4645
860.725	4771
860.858	4725
860.99	4558
861.123	4538
861.256	4527
861.388	4618
861.521	5280
861.653	4493
861.786	4421
861.918	4478
862.05	4527
862.183	4493
862.315	4577
862.447	4615
862.58	4558
862.712	4417
862.844	4383
862.976	4455
863.108	4436
863.24	4797
863.372	4356
863.504	4383
863.636	4413
863.768	4459
863.9	4424
864.032	4390
864.164	4390
864.296	4432
864.428	4527
864.559	4561
864.691	4531
864.823	4508
864.954	4489
865.086	4481
865.217	4462
865.349	4398
865.48	4451
865.612	4478
865.743	4558
865.875	4478
866.006	4405
866.137	4470
866.269	4398
866.4	4409
866.531	4440
866.662	4379
866.793	4402
866.924	4409
867.055	4508
867.186	4516
867.317	4402
867.448	4341
867.579	4424
867.71	4341
867.841	4360
867.972	4447
868.103	4440
868.233	4470
868.364	4470
868.495	4447
868.625	4656
868.756	4744
868.886	4573
869.017	4618
869.147	4771
869.278	4733
869.408	4641
869.539	4656
869.669	4710
869.799	4679
869.929	4755
870.06	4710
870.19	4972
870.32	4961
870.45	4946
870.58	4987
870.71	5075
870.84	5064
870.97	4896
871.1	4885
871.23	5098
871.36	5178
871.489	4991
871.619	5094
871.749	5064
871.879	5132
872.008	5136
872.138	5022
872.267	4976
872.397	4831
872.526	4790
872.656	4698
872.785	4805
872.915	4957
873.044	5052
873.173	4946
873.303	4946
873.432	4938
873.561	4919
873.69	4885
873.819	4870
873.948	4934
874.077	4820
874.206	4729
874.335	4816
874.464	4953
874.593	5102
874.722	4923
874.851	5124
874.979	5056
875.108	5045
875.237	4889
875.365	4850
875.494	4843
875.623	5010
875.751	4782
875.88	4881
876.008	5003
876.136	5045
876.265	5174
876.393	5349
876.521	5235
876.65	5189
876.778	5185
876.906	5098
877.034	4984
877.162	5060
877.29	4987
877.418	5109
877.546	5029
877.674	5048
877.802	5010
877.93	5029
878.058	4953
878.185	4858
878.313	4976
878.441	4995
878.568	4812
878.696	4858
878.824	4965
878.951	4991
879.079	5178
879.206	5303
879.333	5083
879.461	4968
879.588	5022
879.715	5124
879.842	5181
879.97	5037
880.097	4809
880.224	4755
880.351	4774
880.478	4839
880.605	4786
880.732	4812
880.859	5113
880.986	4915
881.112	4889
881.239	4733
881.366	4691
881.493	4615
881.619	4565
881.746	4577
881.872	4653
881.999	4656
882.125	4668
882.252	4763
882.378	4782
882.505	4946
882.631	4843
882.757	4683
882.883	4698
883.01	4748
883.136	4694
883.262	4607
883.388	4584
883.514	4805
883.64	4847
883.766	4774
883.892	4592
884.018	4702
884.143	4915
884.269	4972
884.395	4668
884.52	4611
884.646	4626
884.772	4561
884.897	4538
885.023	4656
885.148	4729
885.274	4911
885.399	4824
885.524	4710
885.65	4748
885.775	4755
885.9	4714
886.025	4877
886.15	4809
886.275	4717
886.4	4645
886.525	4744
886.65	4683
886.775	4656
886.9	4923
887.025	5052
887.149	4736
887.274	4649
887.399	4542
887.523	4622
887.648	4584
887.773	4603
887.897	4752
888.021	4805
888.146	4672
888.27	4801
888.395	4949
888.519	4816
888.643	4763
888.767	4812
888.891	4717
889.015	4569
889.139	4626
889.263	4596
889.387	4733
889.511	4828
889.635	4778
889.759	4660
889.883	4641
890.006	4717
890.13	4805
890.254	4603
890.377	4717
890.501	4565
890.624	4516
890.748	4611
890.871	4512
890.995	4424
891.118	4432
891.241	4538
891.364	4554
891.488	4592
891.611	4516
891.734	4546
891.857	4580
891.98	4558
892.103	4653
892.226	4538
892.349	4561
892.471	4409
892.594	4531
892.717	4538
892.839	4580
892.962	4592
893.085	4637
893.207	4573
893.33	4455
893.452	4512
893.575	4649
893.697	4588
893.819	4801
893.941	4797
894.064	4778
894.186	4561
894.308	4542
894.43	4698
894.552	4801
894.674	4721
894.796	4512
894.918	4565
895.04	4580
895.161	4668
895.283	4649
895.405	4584
895.526	4573
895.648	4649
895.769	4675
895.891	4694
896.012	4740
896.134	4725
896.255	4660
896.376	4607
896.498	4637
896.619	4698
896.74	4660
896.861	4622
896.982	4919
897.103	5048
897.224	4778
897.345	4721
897.466	4672
897.587	4710
897.708	4889
897.828	4835
897.949	4634
898.07	4569
898.19	4649
898.311	4812
898.431	4675
898.552	4778
898.672	4774
898.792	4793
898.913	4691
899.033	4603
899.153	4466
899.273	4402
899.393	4485
899.513	4459
899.633	4542
899.753	4550
899.873	4485
899.993	4565
900.113	4531
900.232	4592
900.352	4550
900.472	4443
900.591	4424
900.711	4478
900.83	4413
900.95	4649
901.069	4645
901.189	4519
901.308	4360
901.427	4318
901.546	4352
901.665	4421
901.784	4516
901.904	4394
902.023	4322
902.141	4147
902.26	4173
902.379	4287
902.498	4207
902.617	4211
902.735	4322
902.854	4375
902.973	4356
903.091	4238
903.21	4196
903.328	4284
903.446	4268
903.565	4257
903.683	4337
903.801	4265
903.919	4390
904.038	4405
904.156	4318
904.274	4455
904.392	4409
904.51	4436
904.627	4462
904.745	4538
904.863	4588
904.981	4363
905.098	4261
905.216	4371
905.334	4402
905.451	4462
905.569	4424
905.686	4535
905.803	4546
905.921	4428
906.038	4603
906.155	4516
906.272	4443
906.389	4478
906.506	4325
906.623	4379
906.74	4348
906.857	4265
906.974	4417
907.091	4538
907.208	4634
907.324	4596
907.441	4436
907.557	4344
907.674	4306
907.79	4341
907.907	4394
908.023	4489
908.139	4470
908.256	4447
908.372	4466
908.488	4421
908.604	4356
908.72	4383
908.836	4333
908.952	4363
909.068	4383
909.184	4535
909.3	4485
909.415	4531
909.531	4573
909.647	4405
909.762	4367
909.878	4337
909.993	4459
910.108	4417
910.224	4367
910.339	4474
910.454	4363
910.57	4371
910.685	4310
910.8	4649
910.915	4603
911.03	4497
911.145	4318
911.259	4348
911.374	4386
911.489	4333
911.604	4238
911.718	4162
911.833	4188
911.947	4071
912.062	4021
912.176	4169
912.291	4230
912.405	4219
912.519	4451
912.633	4497
912.748	4386
912.862	4303
912.976	4219
913.09	4071
913.204	4177
913.318	4219
913.431	4356
913.545	4371
913.659	4421
913.772	4356
913.886	4215
914	4257
914.113	4356
914.226	4417
914.34	4413
914.453	4249
914.566	4478
914.68	4287
914.793	4337
914.906	4120
915.019	4101
915.132	4051
915.245	4131
915.358	4242
915.47	4219
915.583	4204
915.696	4291
915.809	4402
915.921	4424
916.034	4246
916.146	4253
916.259	4200
916.371	4375
916.483	4337
916.595	4268
916.708	4310
916.82	4363
916.932	4329
917.044	4348
917.156	4329
917.268	4200
917.38	4291
917.491	4287
917.603	4337
917.715	4417
917.826	4443
917.938	4333
918.049	4223
918.161	4409
918.272	4516
918.384	4561
918.495	4424
918.606	4291
918.717	4196
918.828	4318
918.939	4424
919.05	4249
919.161	4325
919.272	4147
919.383	4238
919.494	4462
919.604	4656
919.715	4440
919.826	4303
919.936	4375
920.047	4516
920.157	4516
920.267	4744
920.378	4516
920.488	4493
920.598	4740
920.708	4831
920.818	4763
920.928	4759
921.038	4961
921.148	4930
921.258	4603
921.368	4561
921.477	4493
921.587	4432
921.697	4314
921.806	4550
921.916	4413
922.025	4268
922.134	4261
922.244	4204
922.353	4287
922.462	4188
922.571	4116
922.68	4021
922.789	3941
922.898	4025
923.007	3953
923.116	4090
923.224	4074
923.333	4093
923.442	4006
923.55	3968
923.659	3994
923.767	4074
923.876	4002
923.984	4086
924.092	3979
924.201	4086
924.309	4059
924.417	4082
924.525	4051
924.633	4082
924.741	5052
924.849	3953
924.956	4120
925.064	3956
925.172	3873
925.279	3956
925.387	4078
925.494	4029
925.602	4234
925.709	4192
925.816	4055
925.924	4128
926.031	4215
926.138	4169
926.245	4211
926.352	4101
926.459	4276
926.566	4291
926.673	4169
926.779	4116
926.886	4082
926.993	3964
927.099	3937
927.206	3922
927.312	3937
927.419	4067
927.525	4044
927.631	4116
927.737	3987
927.843	3941
927.95	3854
928.056	3949
928.162	3983
928.267	4101
928.373	4554
928.479	4086
928.585	3846
928.69	4025
928.796	4032
928.901	3972
929.007	3831
929.112	3926
929.218	3987
929.323	3987
929.428	3922
929.533	4082
929.638	3915
929.743	3930
929.848	4048
929.953	3979
930.058	3926
930.163	3751
930.267	3800
930.372	3983
930.477	3838
930.581	4071
930.685	3953
930.79	3831
930.894	3857
930.998	3846
931.103	4067
931.207	3701
931.311	3694
931.415	3648
931.519	3545
931.623	3538
