Data from test_V78500241_2064.txt Node
Date: Fri Mar 25 17:03:21 CST 2022
User: usil
Spectrometer: V785-0024
Trigger mode: 0
Integration Time (sec): 4.000000E-1
Scans to average: 1
Nonlinearity correction enabled: false
Boxcar width: 0
Storing dark spectrum: false
XAxis mode: Wavelengths
Number of Pixels in Spectrum: 1024
>>>>>Begin Spectral Data<<<<<
801.071	8024
801.214	8058
801.356	7925
801.499	7940
801.641	7845
801.783	7822
801.926	7959
802.068	7989
802.211	8012
802.353	8001
802.496	7951
802.638	7856
802.78	7928
802.923	7925
803.065	7909
803.208	7890
803.35	7917
803.492	8065
803.635	8107
803.777	8035
803.919	8138
804.061	8503
804.204	8267
804.346	8119
804.488	8016
804.63	8206
804.773	7978
804.915	8130
805.057	8313
805.199	8172
805.341	8237
805.483	8244
805.626	8256
805.768	8134
805.91	8286
806.052	8244
806.194	8100
806.336	8351
806.478	8134
806.62	8119
806.762	8187
806.904	8328
807.046	8507
807.188	8450
807.33	8309
807.472	8305
807.614	8172
807.756	8210
807.898	8088
808.04	7894
808.182	7970
808.324	7852
808.465	7913
808.607	8107
808.749	8119
808.891	8202
809.033	8294
809.174	8317
809.316	8191
809.458	8176
809.6	8005
809.741	8058
809.883	8054
810.025	8058
810.166	8153
810.308	8035
810.45	8005
810.591	7871
810.733	7746
810.875	7624
811.016	7537
811.158	7476
811.299	7537
811.441	7765
811.582	7727
811.724	7540
811.865	7601
812.007	7613
812.148	7540
812.29	7624
812.431	7795
812.573	7944
812.714	8005
812.855	8187
812.997	8187
813.138	8317
813.279	8183
813.421	8134
813.562	7963
813.703	7909
813.845	7784
813.986	7468
814.127	7305
814.268	7217
814.41	7221
814.551	7168
814.692	7289
814.833	7103
814.974	7099
815.115	7168
815.256	6973
815.397	6989
815.539	7057
815.68	6814
815.821	6745
815.962	6890
816.103	6882
816.244	6677
816.385	6642
816.526	6601
816.666	6429
816.807	6376
816.948	6536
817.089	6471
817.23	6452
817.371	6365
817.512	6369
817.653	6433
817.793	6403
817.934	6445
818.075	6445
818.216	6429
818.356	6467
818.497	6266
818.638	6091
818.778	6140
818.919	6136
819.06	6190
819.2	6391
819.341	6334
819.481	6407
819.622	6509
819.762	6681
819.903	6791
820.043	6627
820.184	6612
820.324	6555
820.465	6673
820.605	6734
820.746	6681
820.886	6509
821.026	6692
821.167	6760
821.307	6806
821.447	6745
821.588	6692
821.728	6597
821.868	6502
822.008	6315
822.149	6426
822.289	6342
822.429	6270
822.569	6102
822.709	6110
822.849	5988
822.99	5942
823.13	5920
823.27	5950
823.41	5836
823.55	5874
823.69	5821
823.83	5813
823.97	5668
824.11	5509
824.25	5535
824.389	5573
824.529	5604
824.669	5608
824.809	5634
824.949	5676
825.089	5649
825.228	5627
825.368	5417
825.508	5387
825.648	5376
825.787	5368
825.927	5402
826.067	5318
826.206	5330
826.346	5341
826.485	5421
826.625	5406
826.765	5528
826.904	5558
827.044	5322
827.183	5250
827.323	5159
827.462	5269
827.601	5197
827.741	5216
827.88	5204
828.02	5162
828.159	5246
828.298	5273
828.437	5383
828.577	5273
828.716	5512
828.855	5330
828.994	5147
829.134	5151
829.273	5201
829.412	5162
829.551	5170
829.69	5231
829.829	5303
829.968	5406
830.107	5292
830.246	5341
830.385	5204
830.524	5147
830.663	5086
830.802	5010
830.941	4942
831.08	4965
831.219	5006
831.357	4999
831.496	5178
831.635	4957
831.774	4835
831.913	4854
832.051	4820
832.19	4771
832.329	4858
832.467	4771
832.606	4710
832.744	4714
832.883	4767
833.022	4744
833.16	4767
833.299	4850
833.437	4831
833.576	4828
833.714	4908
833.852	4870
833.991	4911
834.129	4953
834.267	4957
834.406	4915
834.544	4980
834.682	4968
834.821	4942
834.959	5181
835.097	5033
835.235	5147
835.373	5083
835.511	5185
835.65	5060
835.788	5037
835.926	4896
836.064	4946
836.202	4953
836.34	5178
836.478	5220
836.615	5162
836.753	5204
836.891	5318
837.029	5258
837.167	5201
837.305	5181
837.443	5193
837.58	5128
837.718	5318
837.856	5197
837.993	5197
838.131	5223
838.269	5242
838.406	5235
838.544	5140
838.681	5060
838.819	5029
838.956	4896
839.094	4908
839.231	4980
839.369	5105
839.506	5452
839.643	5318
839.781	5083
839.918	5045
840.055	5128
840.193	5140
840.33	5128
840.467	5216
840.604	5189
840.742	5459
840.879	5109
841.016	5064
841.153	5159
841.29	5368
841.427	5337
841.564	5341
841.701	5364
841.838	5299
841.975	5261
842.112	5288
842.249	5105
842.385	5155
842.522	5391
842.659	5159
842.796	5140
842.933	5235
843.069	5128
843.206	5166
843.343	5303
843.479	5307
843.616	5330
843.752	5048
843.889	5041
844.025	5231
844.162	5060
844.298	5227
844.435	5121
844.571	5060
844.708	5185
844.844	5322
844.98	5345
845.117	5337
845.253	5128
845.389	5079
845.525	5162
845.661	5147
845.798	4995
845.934	5117
846.07	5041
846.206	5204
846.342	5322
846.478	5220
846.614	5067
846.75	4957
846.886	4972
847.022	5147
847.158	5060
847.294	5117
847.429	5117
847.565	5045
847.701	5318
847.837	4896
847.972	4820
848.108	4987
848.244	4934
848.379	4786
848.515	4748
848.65	4752
848.786	4759
848.921	4816
849.057	4892
849.192	4896
849.328	4824
849.463	4828
849.598	4771
849.734	4847
849.869	4740
850.004	4668
850.14	4649
850.275	4596
850.41	4523
850.545	4592
850.68	4630
850.815	4649
850.95	4656
851.085	4805
851.22	4736
851.355	4714
851.49	4641
851.625	4691
851.76	4649
851.895	4558
852.03	4584
852.165	4641
852.299	4736
852.434	4790
852.569	4763
852.703	4778
852.838	4835
852.973	4987
853.107	4946
853.242	4721
853.376	4694
853.511	4603
853.645	4599
853.78	4801
853.914	4664
854.048	4645
854.183	4683
854.317	4679
854.451	4797
854.585	4748
854.72	4660
854.854	4729
854.988	4615
855.122	4653
855.256	4516
855.39	4694
855.524	4797
855.658	4755
855.792	4717
855.926	4774
856.06	4767
856.194	4782
856.327	4668
856.461	4672
856.595	4596
856.729	4664
856.862	4786
856.996	4668
857.13	4736
857.263	4797
857.397	4812
857.53	4660
857.664	4721
857.797	4752
857.931	4828
858.064	4755
858.197	4694
858.331	4607
858.464	4615
858.597	4523
858.731	4683
858.864	4653
858.997	4630
859.13	4637
859.263	4668
859.396	4691
859.529	4535
859.662	4527
859.795	4527
859.928	4641
860.061	4748
860.194	4759
860.327	4584
860.46	4588
860.592	4736
860.725	4721
860.858	4748
860.99	4580
861.123	4546
861.256	4535
861.388	4599
861.521	5284
861.653	4485
861.786	4432
861.918	4436
862.05	4531
862.183	4580
862.315	4660
862.447	4630
862.58	4592
862.712	4443
862.844	4322
862.976	4455
863.108	4466
863.24	4774
863.372	4386
863.504	4421
863.636	4428
863.768	4474
863.9	4432
864.032	4390
864.164	4424
864.296	4466
864.428	4550
864.559	4577
864.691	4485
864.823	4523
864.954	4485
865.086	4481
865.217	4432
865.349	4394
865.48	4466
865.612	4500
865.743	4611
865.875	4489
866.006	4432
866.137	4470
866.269	4459
866.4	4424
866.531	4409
866.662	4421
866.793	4405
866.924	4428
867.055	4550
867.186	4428
867.317	4413
867.448	4352
867.579	4371
867.71	4383
867.841	4413
867.972	4447
868.103	4432
868.233	4481
868.364	4470
868.495	4504
868.625	4672
868.756	4759
868.886	4565
869.017	4653
869.147	4797
869.278	4793
869.408	4622
869.539	4611
869.669	4710
869.799	4645
869.929	4759
870.06	4763
870.19	4949
870.32	4972
870.45	4946
870.58	5067
870.71	5151
870.84	5117
870.97	4953
871.1	4904
871.23	5140
871.36	5117
871.489	5079
871.619	5105
871.749	5124
871.879	5071
872.008	5170
872.138	5060
872.267	4946
872.397	4908
872.526	4801
872.656	4729
872.785	4774
872.915	4961
873.044	5029
873.173	4957
873.303	4965
873.432	4968
873.561	4896
873.69	4885
873.819	4873
873.948	4923
874.077	4824
874.206	4752
874.335	4831
874.464	4919
874.593	5003
874.722	4972
874.851	5094
874.979	5105
875.108	5037
875.237	4942
875.365	4896
875.494	4900
875.623	4995
875.751	4816
875.88	4927
876.008	5056
876.136	5052
876.265	5193
876.393	5353
876.521	5254
876.65	5246
876.778	5193
876.906	5140
877.034	5014
877.162	5094
877.29	5029
877.418	5083
877.546	5037
877.674	5064
877.802	5010
877.93	5029
878.058	4938
878.185	4873
878.313	4911
878.441	4919
878.568	4843
878.696	4831
878.824	4984
878.951	4949
879.079	5151
879.206	5322
879.333	5090
879.461	4987
879.588	5037
879.715	5090
879.842	5242
879.97	5048
880.097	4774
880.224	4767
880.351	4820
880.478	4793
880.605	4805
880.732	4725
880.859	5094
880.986	4919
881.112	4919
881.239	4782
881.366	4675
881.493	4577
881.619	4634
881.746	4626
881.872	4637
881.999	4618
882.125	4660
882.252	4816
882.378	4812
882.505	4999
882.631	4831
882.757	4687
882.883	4706
883.01	4714
883.136	4729
883.262	4573
883.388	4584
883.514	4812
883.64	4850
883.766	4774
883.892	4656
884.018	4721
884.143	4908
884.269	5003
884.395	4714
884.52	4645
884.646	4634
884.772	4558
884.897	4527
885.023	4679
885.148	4763
885.274	4843
885.399	4835
885.524	4710
885.65	4729
885.775	4755
885.9	4649
886.025	4820
886.15	4771
886.275	4717
886.4	4687
886.525	4721
886.65	4683
886.775	4679
886.9	4877
887.025	5037
887.149	4820
887.274	4649
887.399	4615
887.523	4542
887.648	4592
887.773	4588
887.897	4759
888.021	4748
888.146	4702
888.27	4801
888.395	4885
888.519	4767
888.643	4797
888.767	4820
888.891	4668
889.015	4592
889.139	4649
889.263	4603
889.387	4812
889.511	4900
889.635	4801
889.759	4637
889.883	4615
890.006	4767
890.13	4866
890.254	4622
890.377	4664
890.501	4592
890.624	4504
890.748	4637
890.871	4542
890.995	4363
891.118	4405
891.241	4489
891.364	4561
891.488	4611
891.611	4512
891.734	4558
891.857	4634
891.98	4554
892.103	4599
892.226	4580
892.349	4558
892.471	4436
892.594	4573
892.717	4607
892.839	4577
892.962	4592
893.085	4691
893.207	4599
893.33	4436
893.452	4508
893.575	4630
893.697	4565
893.819	4774
893.941	4797
894.064	4782
894.186	4622
894.308	4588
894.43	4710
894.552	4828
894.674	4767
894.796	4588
894.918	4554
895.04	4569
895.161	4706
895.283	4653
895.405	4580
895.526	4637
895.648	4687
895.769	4660
895.891	4736
896.012	4729
896.134	4752
896.255	4687
896.376	4622
896.498	4603
896.619	4706
896.74	4603
896.861	4675
896.982	4930
897.103	5071
897.224	4820
897.345	4790
897.466	4626
897.587	4710
897.708	4839
897.828	4854
897.949	4668
898.07	4577
898.19	4626
898.311	4797
898.431	4675
898.552	4733
898.672	4793
898.792	4809
898.913	4733
899.033	4664
899.153	4542
899.273	4405
899.393	4470
899.513	4489
899.633	4546
899.753	4519
899.873	4508
899.993	4611
900.113	4531
900.232	4653
900.352	4599
900.472	4493
900.591	4390
900.711	4459
900.83	4493
900.95	4592
901.069	4664
901.189	4485
901.308	4352
901.427	4280
901.546	4356
901.665	4447
901.784	4516
901.904	4417
902.023	4253
902.141	4192
902.26	4196
902.379	4306
902.498	4268
902.617	4227
902.735	4379
902.854	4432
902.973	4318
903.091	4169
903.21	4261
903.328	4257
903.446	4234
903.565	4295
903.683	4363
903.801	4268
903.919	4379
904.038	4405
904.156	4314
904.274	4451
904.392	4451
904.51	4440
904.627	4443
904.745	4588
904.863	4615
904.981	4375
905.098	4344
905.216	4352
905.334	4489
905.451	4386
905.569	4455
905.686	4603
905.803	4531
905.921	4440
906.038	4523
906.155	4459
906.272	4394
906.389	4432
906.506	4379
906.623	4337
906.74	4371
906.857	4261
906.974	4371
907.091	4523
907.208	4683
907.324	4607
907.441	4493
907.557	4310
907.674	4329
907.79	4348
907.907	4413
908.023	4504
908.139	4478
908.256	4474
908.372	4417
908.488	4466
908.604	4337
908.72	4337
908.836	4352
908.952	4371
909.068	4413
909.184	4607
909.3	4462
909.415	4580
909.531	4569
909.647	4303
909.762	4360
909.878	4344
909.993	4455
910.108	4417
910.224	4390
910.339	4462
910.454	4405
910.57	4341
910.685	4325
910.8	4645
910.915	4584
911.03	4504
911.145	4337
911.259	4375
911.374	4394
911.489	4333
911.604	4249
911.718	4181
911.833	4196
911.947	4036
912.062	4029
912.176	4185
912.291	4272
912.405	4246
912.519	4523
912.633	4535
912.748	4356
912.862	4234
912.976	4177
913.09	4105
913.204	4207
913.318	4215
913.431	4356
913.545	4379
913.659	4451
913.772	4352
913.886	4242
914	4169
914.113	4424
914.226	4474
914.34	4363
914.453	4223
914.566	4417
914.68	4295
914.793	4322
914.906	4147
915.019	4097
915.132	4063
915.245	4177
915.358	4249
915.47	4253
915.583	4261
915.696	4333
915.809	4405
915.921	4443
916.034	4238
916.146	4272
916.259	4238
916.371	4386
916.483	4325
916.595	4238
916.708	4329
916.82	4333
916.932	4341
917.044	4322
917.156	4318
917.268	4261
917.38	4280
917.491	4280
917.603	4360
917.715	4383
917.826	4421
917.938	4341
918.049	4249
918.161	4398
918.272	4531
918.384	4516
918.495	4459
918.606	4333
918.717	4253
918.828	4318
918.939	4367
919.05	4249
919.161	4265
919.272	4074
919.383	4227
919.494	4489
919.604	4649
919.715	4409
919.826	4341
919.936	4379
920.047	4538
920.157	4455
920.267	4706
920.378	4516
920.488	4474
920.598	4687
920.708	4866
920.818	4664
920.928	4740
921.038	4934
921.148	4927
921.258	4675
921.368	4565
921.477	4497
921.587	4481
921.697	4379
921.806	4542
921.916	4470
922.025	4227
922.134	4295
922.244	4230
922.353	4299
922.462	4173
922.571	4143
922.68	4017
922.789	4013
922.898	4017
923.007	4010
923.116	4082
923.224	4071
923.333	4105
923.442	3979
923.55	3953
923.659	4048
923.767	4067
923.876	4010
923.984	4143
924.092	4021
924.201	4071
924.309	4112
924.417	4097
924.525	4040
924.633	4105
924.741	5056
924.849	3922
924.956	4101
925.064	3934
925.172	3884
925.279	4002
925.387	4021
925.494	4067
925.602	4207
925.709	4204
925.816	4055
925.924	4162
926.031	4234
926.138	4188
926.245	4135
926.352	4082
926.459	4246
926.566	4272
926.673	4143
926.779	4109
926.886	4116
926.993	3983
927.099	3956
927.206	3937
927.312	3945
927.419	4048
927.525	4055
927.631	4044
927.737	3960
927.843	3911
927.95	3808
928.056	3922
928.162	3960
928.267	4063
928.373	4558
928.479	4112
928.585	3823
928.69	4067
928.796	4086
928.901	3979
929.007	3835
929.112	4002
929.218	3998
929.323	3964
929.428	3918
929.533	4101
929.638	3880
929.743	3949
929.848	4025
929.953	4029
930.058	3945
930.163	3740
930.267	3850
930.372	3960
930.477	3827
930.581	4105
930.685	3960
930.79	3812
930.894	3865
930.998	3899
931.103	4055
931.207	3740
931.311	3717
931.415	3660
931.519	3515
931.623	3530
