Data from test_V78500241_2824.txt Node
Date: Fri Mar 25 17:08:38 CST 2022
User: usil
Spectrometer: V785-0024
Trigger mode: 0
Integration Time (sec): 4.000000E-1
Scans to average: 1
Nonlinearity correction enabled: false
Boxcar width: 0
Storing dark spectrum: false
XAxis mode: Wavelengths
Number of Pixels in Spectrum: 1024
>>>>>Begin Spectral Data<<<<<
801.071	7970
801.214	7989
801.356	7936
801.499	7860
801.641	7795
801.783	7780
801.926	7989
802.068	7890
802.211	7993
802.353	7940
802.496	7925
802.638	7963
802.78	7925
802.923	7959
803.065	7837
803.208	7894
803.35	7982
803.492	8111
803.635	8168
803.777	8065
803.919	8107
804.061	8541
804.204	8233
804.346	8020
804.488	7940
804.63	8088
804.773	8027
804.915	8100
805.057	8221
805.199	8115
805.341	8229
805.483	8309
805.626	8240
805.768	8187
805.91	8290
806.052	8263
806.194	8134
806.336	8301
806.478	8065
806.62	8001
806.762	8073
806.904	8282
807.046	8396
807.188	8381
807.33	8343
807.472	8358
807.614	8187
807.756	8202
807.898	7978
808.04	7852
808.182	7970
808.324	7974
808.465	7993
808.607	8020
808.749	8145
808.891	8336
809.033	8347
809.174	8225
809.316	8081
809.458	8092
809.6	8016
809.741	8084
809.883	8058
810.025	8168
810.166	8050
810.308	8039
810.45	7940
810.591	7860
810.733	7757
810.875	7662
811.016	7578
811.158	7540
811.299	7632
811.441	7792
811.582	7723
811.724	7525
811.865	7556
812.007	7605
812.148	7605
812.29	7636
812.431	7712
812.573	7906
812.714	7967
812.855	8153
812.997	8282
813.138	8320
813.279	8210
813.421	8065
813.562	8039
813.703	7898
813.845	7784
813.986	7472
814.127	7274
814.268	7228
814.41	7221
814.551	7126
814.692	7236
814.833	7103
814.974	7129
815.115	7046
815.256	6958
815.397	6916
815.539	6916
815.68	6821
815.821	6738
815.962	6878
816.103	6848
816.244	6745
816.385	6566
816.526	6646
816.666	6551
816.807	6353
816.948	6445
817.089	6536
817.23	6437
817.371	6403
817.512	6372
817.653	6380
817.793	6334
817.934	6418
818.075	6456
818.216	6429
818.356	6407
818.497	6209
818.638	6091
818.778	6148
818.919	6178
819.06	6148
819.2	6365
819.341	6315
819.481	6357
819.622	6578
819.762	6734
819.903	6711
820.043	6525
820.184	6525
820.324	6635
820.465	6719
820.605	6753
820.746	6639
820.886	6544
821.026	6696
821.167	6692
821.307	6795
821.447	6730
821.588	6696
821.728	6521
821.868	6486
822.008	6350
822.149	6391
822.289	6418
822.429	6194
822.569	6064
822.709	6182
822.849	5958
822.99	5931
823.13	5939
823.27	5912
823.41	5783
823.55	5817
823.69	5817
823.83	5741
823.97	5642
824.11	5516
824.25	5532
824.389	5554
824.529	5581
824.669	5532
824.809	5600
824.949	5703
825.089	5566
825.228	5566
825.368	5402
825.508	5357
825.648	5311
825.787	5379
825.927	5414
826.067	5311
826.206	5261
826.346	5433
826.485	5391
826.625	5387
826.765	5532
826.904	5493
827.044	5277
827.183	5201
827.323	5143
827.462	5231
827.601	5178
827.741	5193
827.88	5220
828.02	5094
828.159	5269
828.298	5315
828.437	5364
828.577	5303
828.716	5448
828.855	5280
828.994	5151
829.134	5121
829.273	5239
829.412	5181
829.551	5155
829.69	5132
829.829	5216
829.968	5330
830.107	5277
830.246	5280
830.385	5193
830.524	5143
830.663	5075
830.802	4923
830.941	4858
831.08	4873
831.219	4968
831.357	4995
831.496	5102
831.635	4896
831.774	4854
831.913	4809
832.051	4702
832.19	4698
832.329	4866
832.467	4694
832.606	4645
832.744	4782
832.883	4721
833.022	4721
833.16	4831
833.299	4831
833.437	4862
833.576	4812
833.714	4847
833.852	4835
833.991	4889
834.129	4942
834.267	4927
834.406	4854
834.544	4949
834.682	5022
834.821	4968
834.959	5170
835.097	5018
835.235	5185
835.373	5052
835.511	5067
835.65	5048
835.788	5045
835.926	4873
836.064	4892
836.202	4889
836.34	5124
836.478	5197
836.615	5151
836.753	5174
836.891	5273
837.029	5269
837.167	5220
837.305	5159
837.443	5151
837.58	5090
837.718	5258
837.856	5181
837.993	5151
838.131	5197
838.269	5185
838.406	5239
838.544	5178
838.681	5022
838.819	4980
838.956	4889
839.094	4889
839.231	4923
839.369	5041
839.506	5383
839.643	5250
839.781	5067
839.918	5079
840.055	5060
840.193	5086
840.33	5105
840.467	5121
840.604	5189
840.742	5455
840.879	5056
841.016	5136
841.153	5147
841.29	5406
841.427	5315
841.564	5277
841.701	5364
841.838	5250
841.975	5216
842.112	5235
842.249	5136
842.385	5109
842.522	5299
842.659	5159
842.796	5132
842.933	5174
843.069	5124
843.206	5102
843.343	5330
843.479	5242
843.616	5250
843.752	5037
843.889	5014
844.025	5174
844.162	4972
844.298	5250
844.435	5067
844.571	5071
844.708	5212
844.844	5254
844.98	5299
845.117	5269
845.253	5109
845.389	5071
845.525	5128
845.661	5143
845.798	5048
845.934	5151
846.07	5037
846.206	5204
846.342	5239
846.478	5189
846.614	5056
846.75	4984
846.886	4946
847.022	5170
847.158	4987
847.294	5037
847.429	5094
847.565	5018
847.701	5326
847.837	4877
847.972	4828
848.108	4923
848.244	4934
848.379	4778
848.515	4755
848.65	4721
848.786	4721
848.921	4752
849.057	4858
849.192	4870
849.328	4870
849.463	4809
849.598	4778
849.734	4805
849.869	4710
850.004	4683
850.14	4645
850.275	4626
850.41	4542
850.545	4527
850.68	4580
850.815	4599
850.95	4653
851.085	4870
851.22	4744
851.355	4656
851.49	4596
851.625	4634
851.76	4634
851.895	4519
852.03	4500
852.165	4687
852.299	4740
852.434	4740
852.569	4748
852.703	4763
852.838	4850
852.973	4908
853.107	4892
853.242	4691
853.376	4683
853.511	4554
853.645	4615
853.78	4805
853.914	4687
854.048	4679
854.183	4596
854.317	4679
854.451	4812
854.585	4664
854.72	4603
854.854	4717
854.988	4626
855.122	4649
855.256	4531
855.39	4675
855.524	4797
855.658	4733
855.792	4717
855.926	4752
856.06	4683
856.194	4828
856.327	4656
856.461	4626
856.595	4596
856.729	4649
856.862	4778
856.996	4653
857.13	4694
857.263	4767
857.397	4782
857.53	4607
857.664	4664
857.797	4752
857.931	4729
858.064	4672
858.197	4755
858.331	4668
858.464	4618
858.597	4459
858.731	4649
858.864	4577
858.997	4599
859.13	4668
859.263	4637
859.396	4691
859.529	4596
859.662	4561
859.795	4538
859.928	4649
860.061	4782
860.194	4793
860.327	4622
860.46	4569
860.592	4679
860.725	4729
860.858	4714
860.99	4611
861.123	4554
861.256	4523
861.388	4637
861.521	5334
861.653	4508
861.786	4459
861.918	4428
862.05	4527
862.183	4535
862.315	4626
862.447	4694
862.58	4531
862.712	4432
862.844	4371
862.976	4432
863.108	4443
863.24	4706
863.372	4287
863.504	4428
863.636	4386
863.768	4470
863.9	4432
864.032	4360
864.164	4375
864.296	4497
864.428	4504
864.559	4580
864.691	4493
864.823	4504
864.954	4538
865.086	4481
865.217	4432
865.349	4421
865.48	4417
865.612	4478
865.743	4622
865.875	4489
866.006	4386
866.137	4417
866.269	4398
866.4	4409
866.531	4436
866.662	4390
866.793	4405
866.924	4417
867.055	4489
867.186	4421
867.317	4417
867.448	4398
867.579	4421
867.71	4390
867.841	4344
867.972	4451
868.103	4409
868.233	4478
868.364	4447
868.495	4462
868.625	4634
868.756	4744
868.886	4573
869.017	4618
869.147	4752
869.278	4729
869.408	4653
869.539	4607
869.669	4725
869.799	4641
869.929	4771
870.06	4744
870.19	4972
870.32	4934
870.45	4953
870.58	4987
870.71	5083
870.84	5075
870.97	4927
871.1	4904
871.23	5140
871.36	5113
871.489	4987
871.619	5075
871.749	5124
871.879	5147
872.008	5185
872.138	5033
872.267	4957
872.397	4873
872.526	4828
872.656	4729
872.785	4824
872.915	4980
873.044	5041
873.173	4923
873.303	4991
873.432	4976
873.561	4942
873.69	4824
873.819	4835
873.948	4911
874.077	4831
874.206	4755
874.335	4805
874.464	4858
874.593	5033
874.722	4934
874.851	5064
874.979	5045
875.108	5056
875.237	4915
875.365	4889
875.494	4919
875.623	4968
875.751	4835
875.88	4892
876.008	5006
876.136	5006
876.265	5231
876.393	5326
876.521	5254
876.65	5239
876.778	5174
876.906	5052
877.034	4984
877.162	4972
877.29	4961
877.418	5079
877.546	5048
877.674	5045
877.802	5071
877.93	5041
878.058	4911
878.185	4870
878.313	4915
878.441	4949
878.568	4797
878.696	4892
878.824	4949
878.951	5010
879.079	5140
879.206	5311
879.333	5124
879.461	4961
879.588	5052
879.715	5132
879.842	5204
879.97	4987
880.097	4778
880.224	4714
880.351	4831
880.478	4877
880.605	4786
880.732	4793
880.859	5109
880.986	4854
881.112	4908
881.239	4778
881.366	4668
881.493	4664
881.619	4592
881.746	4634
881.872	4630
881.999	4618
882.125	4668
882.252	4847
882.378	4809
882.505	4946
882.631	4820
882.757	4698
882.883	4725
883.01	4752
883.136	4611
883.262	4649
883.388	4630
883.514	4759
883.64	4828
883.766	4797
883.892	4706
884.018	4763
884.143	4881
884.269	4965
884.395	4672
884.52	4649
884.646	4637
884.772	4569
884.897	4554
885.023	4668
885.148	4793
885.274	4858
885.399	4866
885.524	4736
885.65	4672
885.775	4725
885.9	4717
886.025	4831
886.15	4831
886.275	4694
886.4	4656
886.525	4729
886.65	4698
886.775	4710
886.9	4866
887.025	5006
887.149	4809
887.274	4679
887.399	4558
887.523	4588
887.648	4599
887.773	4596
887.897	4744
888.021	4790
888.146	4660
888.27	4816
888.395	4949
888.519	4790
888.643	4816
888.767	4740
888.891	4694
889.015	4622
889.139	4645
889.263	4584
889.387	4812
889.511	4881
889.635	4801
889.759	4679
889.883	4641
890.006	4721
890.13	4831
890.254	4618
890.377	4645
890.501	4573
890.624	4535
890.748	4649
890.871	4485
890.995	4428
891.118	4371
891.241	4508
891.364	4561
891.488	4634
891.611	4497
891.734	4577
891.857	4596
891.98	4527
892.103	4611
892.226	4546
892.349	4504
892.471	4417
892.594	4542
892.717	4573
892.839	4535
892.962	4599
893.085	4637
893.207	4634
893.33	4489
893.452	4569
893.575	4660
893.697	4592
893.819	4771
893.941	4820
894.064	4771
894.186	4519
894.308	4577
894.43	4660
894.552	4778
894.674	4805
894.796	4508
894.918	4592
895.04	4538
895.161	4706
895.283	4653
895.405	4573
895.526	4603
895.648	4649
895.769	4664
895.891	4721
896.012	4786
896.134	4748
896.255	4675
896.376	4653
896.498	4607
896.619	4694
896.74	4622
896.861	4660
896.982	4934
897.103	5102
897.224	4812
897.345	4755
897.466	4656
897.587	4725
897.708	4850
897.828	4733
897.949	4679
898.07	4561
898.19	4664
898.311	4828
898.431	4694
898.552	4729
898.672	4854
898.792	4816
898.913	4706
899.033	4634
899.153	4500
899.273	4436
899.393	4459
899.513	4508
899.633	4523
899.753	4516
899.873	4447
899.993	4554
900.113	4538
900.232	4634
900.352	4516
900.472	4489
900.591	4398
900.711	4497
900.83	4440
900.95	4618
901.069	4683
901.189	4554
901.308	4363
901.427	4329
901.546	4329
901.665	4436
901.784	4500
901.904	4337
902.023	4360
902.141	4207
902.26	4150
902.379	4352
902.498	4246
902.617	4227
902.735	4348
902.854	4443
902.973	4379
903.091	4261
903.21	4211
903.328	4325
903.446	4230
903.565	4268
903.683	4348
903.801	4287
903.919	4379
904.038	4459
904.156	4314
904.274	4417
904.392	4413
904.51	4402
904.627	4493
904.745	4523
904.863	4634
904.981	4421
905.098	4253
905.216	4386
905.334	4409
905.451	4459
905.569	4424
905.686	4573
905.803	4542
905.921	4413
906.038	4538
906.155	4508
906.272	4390
906.389	4470
906.506	4337
906.623	4356
906.74	4360
906.857	4337
906.974	4367
907.091	4527
907.208	4691
907.324	4558
907.441	4470
907.557	4344
907.674	4329
907.79	4352
907.907	4402
908.023	4504
908.139	4497
908.256	4447
908.372	4462
908.488	4462
908.604	4341
908.72	4318
908.836	4383
908.952	4352
909.068	4417
909.184	4535
909.3	4478
909.415	4603
909.531	4577
909.647	4333
909.762	4394
909.878	4348
909.993	4462
910.108	4424
910.224	4356
910.339	4462
910.454	4398
910.57	4329
910.685	4299
910.8	4641
910.915	4596
911.03	4538
911.145	4310
911.259	4337
911.374	4379
911.489	4246
911.604	4230
911.718	4207
911.833	4207
911.947	4082
912.062	3994
912.176	4169
912.291	4219
912.405	4234
912.519	4447
912.633	4554
912.748	4367
912.862	4341
912.976	4192
913.09	4097
913.204	4185
913.318	4257
913.431	4348
913.545	4356
913.659	4394
913.772	4360
913.886	4207
914	4200
914.113	4371
914.226	4455
914.34	4383
914.453	4253
914.566	4413
914.68	4291
914.793	4318
914.906	4112
915.019	4124
915.132	4063
915.245	4223
915.358	4204
915.47	4207
915.583	4242
915.696	4360
915.809	4371
915.921	4443
916.034	4246
916.146	4223
916.259	4211
916.371	4303
916.483	4348
916.595	4242
916.708	4318
916.82	4329
916.932	4322
917.044	4291
917.156	4329
917.268	4238
917.38	4280
917.491	4265
917.603	4352
917.715	4390
917.826	4417
917.938	4329
918.049	4162
918.161	4333
918.272	4573
918.384	4565
918.495	4443
918.606	4253
918.717	4242
918.828	4341
918.939	4371
919.05	4242
919.161	4333
919.272	4097
919.383	4196
919.494	4428
919.604	4618
919.715	4409
919.826	4375
919.936	4363
920.047	4527
920.157	4485
920.267	4664
920.378	4550
920.488	4489
920.598	4687
920.708	4824
920.818	4774
920.928	4748
921.038	4938
921.148	4904
921.258	4592
921.368	4573
921.477	4508
921.587	4459
921.697	4383
921.806	4550
921.916	4417
922.025	4303
922.134	4257
922.244	4204
922.353	4333
922.462	4166
922.571	4128
922.68	3979
922.789	3972
922.898	4036
923.007	3968
923.116	4116
923.224	4059
923.333	4055
923.442	3972
923.55	3968
923.659	4036
923.767	4105
923.876	3994
923.984	4090
924.092	3956
924.201	4078
924.309	4128
924.417	4124
924.525	4040
924.633	4105
924.741	4934
924.849	3869
924.956	4139
925.064	3926
925.172	3922
925.279	3960
925.387	4071
925.494	4067
925.602	4261
925.709	4181
925.816	4029
925.924	4128
926.031	4253
926.138	4169
926.245	4242
926.352	4105
926.459	4276
926.566	4360
926.673	4173
926.779	4067
926.886	4078
926.993	3991
927.099	4013
927.206	3956
927.312	3949
927.419	4067
927.525	4086
927.631	4090
927.737	4006
927.843	3941
927.95	3854
928.056	3975
928.162	4029
928.267	4082
928.373	4634
928.479	4188
928.585	3888
928.69	4040
928.796	4067
928.901	4021
929.007	3884
929.112	4067
929.218	4025
929.323	3956
929.428	3991
929.533	4150
929.638	3907
929.743	4010
929.848	4059
929.953	4029
930.058	3987
930.163	3850
930.267	3850
930.372	4051
930.477	3850
930.581	4097
930.685	3964
930.79	3888
930.894	3972
930.998	3876
931.103	4071
931.207	3732
931.311	3774
931.415	3701
931.519	3587
931.623	3614
