Data from test_V78500241_623.txt Node
Date: Fri Mar 25 16:53:20 CST 2022
User: usil
Spectrometer: V785-0024
Trigger mode: 0
Integration Time (sec): 4.000000E-1
Scans to average: 1
Nonlinearity correction enabled: false
Boxcar width: 0
Storing dark spectrum: false
XAxis mode: Wavelengths
Number of Pixels in Spectrum: 1024
>>>>>Begin Spectral Data<<<<<
801.071	7986
801.214	8012
801.356	7833
801.499	7875
801.641	7803
801.783	7887
801.926	7986
802.068	7986
802.211	8001
802.353	7963
802.496	7860
802.638	7883
802.78	7921
802.923	7989
803.065	7818
803.208	7864
803.35	7928
803.492	8058
803.635	8138
803.777	8115
803.919	8126
804.061	8389
804.204	8145
804.346	7982
804.488	7955
804.63	8088
804.773	8020
804.915	8065
805.057	8336
805.199	8164
805.341	8214
805.483	8343
805.626	8263
805.768	8092
805.91	8183
806.052	8252
806.194	8103
806.336	8256
806.478	8088
806.62	8001
806.762	8176
806.904	8214
807.046	8457
807.188	8358
807.33	8252
807.472	8328
807.614	8168
807.756	8138
807.898	7993
808.04	7845
808.182	7909
808.324	7883
808.465	8001
808.607	8073
808.749	8092
808.891	8210
809.033	8221
809.174	8199
809.316	8081
809.458	8088
809.6	8012
809.741	7944
809.883	8046
810.025	8138
810.166	8077
810.308	8024
810.45	8062
810.591	7902
810.733	7734
810.875	7624
811.016	7483
811.158	7480
811.299	7674
811.441	7772
811.582	7712
811.724	7525
811.865	7544
812.007	7540
812.148	7567
812.29	7628
812.431	7715
812.573	7879
812.714	7917
812.855	8134
812.997	8214
813.138	8328
813.279	8206
813.421	8210
813.562	8020
813.703	7864
813.845	7807
813.986	7449
814.127	7358
814.268	7316
814.41	7213
814.551	7198
814.692	7202
814.833	7080
814.974	7133
815.115	7095
815.256	6966
815.397	6920
815.539	6932
815.68	6840
815.821	6833
815.962	6901
816.103	6791
816.244	6745
816.385	6669
816.526	6658
816.666	6517
816.807	6300
816.948	6464
817.089	6422
817.23	6498
817.371	6407
817.512	6353
817.653	6331
817.793	6372
817.934	6395
818.075	6498
818.216	6483
818.356	6376
818.497	6342
818.638	6148
818.778	6110
818.919	6175
819.06	6117
819.2	6304
819.341	6304
819.481	6334
819.622	6532
819.762	6696
819.903	6654
820.043	6563
820.184	6570
820.324	6528
820.465	6700
820.605	6673
820.746	6604
820.886	6544
821.026	6677
821.167	6681
821.307	6787
821.447	6703
821.588	6642
821.728	6517
821.868	6437
822.008	6300
822.149	6308
822.289	6376
822.429	6121
822.569	6110
822.709	6102
822.849	5885
822.99	5847
823.13	5927
823.27	5859
823.41	5779
823.55	5691
823.69	5752
823.83	5783
823.97	5688
824.11	5551
824.25	5543
824.389	5497
824.529	5581
824.669	5520
824.809	5642
824.949	5695
825.089	5562
825.228	5566
825.368	5391
825.508	5311
825.648	5345
825.787	5326
825.927	5391
826.067	5322
826.206	5322
826.346	5406
826.485	5414
826.625	5391
826.765	5554
826.904	5417
827.044	5273
827.183	5185
827.323	5140
827.462	5261
827.601	5178
827.741	5178
827.88	5261
828.02	5128
828.159	5181
828.298	5280
828.437	5357
828.577	5254
828.716	5444
828.855	5307
828.994	5174
829.134	5155
829.273	5174
829.412	5140
829.551	5140
829.69	5159
829.829	5288
829.968	5341
830.107	5296
830.246	5265
830.385	5147
830.524	5117
830.663	5041
830.802	5014
830.941	4873
831.08	4854
831.219	4976
831.357	4972
831.496	5197
831.635	4908
831.774	4828
831.913	4835
832.051	4725
832.19	4763
832.329	4839
832.467	4740
832.606	4630
832.744	4755
832.883	4744
833.022	4729
833.16	4774
833.299	4786
833.437	4850
833.576	4824
833.714	4900
833.852	4812
833.991	4892
834.129	4949
834.267	4946
834.406	4885
834.544	4972
834.682	4991
834.821	5033
834.959	5208
835.097	5003
835.235	5136
835.373	5090
835.511	5117
835.65	5056
835.788	5018
835.926	4908
836.064	4881
836.202	4904
836.34	5128
836.478	5212
836.615	5109
836.753	5185
836.891	5254
837.029	5242
837.167	5170
837.305	5162
837.443	5162
837.58	5079
837.718	5284
837.856	5193
837.993	5204
838.131	5220
838.269	5220
838.406	5170
838.544	5147
838.681	5056
838.819	5045
838.956	4896
839.094	4949
839.231	4972
839.369	5086
839.506	5433
839.643	5307
839.781	5037
839.918	5048
840.055	5075
840.193	5166
840.33	5109
840.467	5162
840.604	5136
840.742	5391
840.879	5041
841.016	5098
841.153	5136
841.29	5383
841.427	5326
841.564	5387
841.701	5376
841.838	5261
841.975	5227
842.112	5246
842.249	5162
842.385	5102
842.522	5269
842.659	5174
842.796	5143
842.933	5208
843.069	5185
843.206	5166
843.343	5284
843.479	5208
843.616	5250
843.752	5048
843.889	5029
844.025	5189
844.162	4995
844.298	5227
844.435	5060
844.571	5079
844.708	5227
844.844	5292
844.98	5284
845.117	5280
845.253	5128
845.389	5071
845.525	5162
845.661	5189
845.798	5006
845.934	5109
846.07	5056
846.206	5181
846.342	5250
846.478	5155
846.614	5018
846.75	4995
846.886	4911
847.022	5162
847.158	5025
847.294	5090
847.429	5109
847.565	5083
847.701	5326
847.837	4896
847.972	4839
848.108	4961
848.244	4930
848.379	4786
848.515	4759
848.65	4698
848.786	4805
848.921	4763
849.057	4843
849.192	4930
849.328	4812
849.463	4904
849.598	4847
849.734	4782
849.869	4649
850.004	4664
850.14	4679
850.275	4611
850.41	4554
850.545	4558
850.68	4607
850.815	4649
850.95	4607
851.085	4866
851.22	4729
851.355	4694
851.49	4596
851.625	4630
851.76	4679
851.895	4531
852.03	4561
852.165	4637
852.299	4717
852.434	4786
852.569	4725
852.703	4790
852.838	4839
852.973	4873
853.107	4934
853.242	4755
853.376	4645
853.511	4558
853.645	4634
853.78	4835
853.914	4660
854.048	4710
854.183	4687
854.317	4702
854.451	4812
854.585	4634
854.72	4615
854.854	4763
854.988	4554
855.122	4634
855.256	4474
855.39	4626
855.524	4740
855.658	4702
855.792	4706
855.926	4729
856.06	4763
856.194	4801
856.327	4698
856.461	4611
856.595	4618
856.729	4611
856.862	4771
856.996	4675
857.13	4706
857.263	4733
857.397	4778
857.53	4656
857.664	4675
857.797	4809
857.931	4778
858.064	4702
858.197	4748
858.331	4664
858.464	4607
858.597	4577
858.731	4592
858.864	4630
858.997	4611
859.13	4698
859.263	4729
859.396	4672
859.529	4565
859.662	4565
859.795	4531
859.928	4656
860.061	4736
860.194	4767
860.327	4596
860.46	4550
860.592	4691
860.725	4710
860.858	4714
860.99	4542
861.123	4500
861.256	4519
861.388	4618
861.521	5299
861.653	4497
861.786	4440
861.918	4493
862.05	4489
862.183	4561
862.315	4577
862.447	4599
862.58	4516
862.712	4402
862.844	4337
862.976	4459
863.108	4466
863.24	4873
863.372	4318
863.504	4440
863.636	4379
863.768	4508
863.9	4466
864.032	4352
864.164	4379
864.296	4478
864.428	4580
864.559	4558
864.691	4542
864.823	4519
864.954	4489
865.086	4489
865.217	4428
865.349	4360
865.48	4440
865.612	4466
865.743	4622
865.875	4466
866.006	4440
866.137	4504
866.269	4455
866.4	4443
866.531	4421
866.662	4421
866.793	4432
866.924	4421
867.055	4516
867.186	4424
867.317	4356
867.448	4383
867.579	4443
867.71	4371
867.841	4367
867.972	4481
868.103	4474
868.233	4432
868.364	4443
868.495	4523
868.625	4634
868.756	4763
868.886	4584
869.017	4683
869.147	4771
869.278	4774
869.408	4679
869.539	4603
869.669	4660
869.799	4702
869.929	4786
870.06	4740
870.19	4934
870.32	4965
870.45	4961
870.58	4953
870.71	5086
870.84	5079
870.97	4942
871.1	4919
871.23	5105
871.36	5143
871.489	5037
871.619	5075
871.749	5128
871.879	5113
872.008	5102
872.138	5083
872.267	4961
872.397	4889
872.526	4877
872.656	4675
872.785	4786
872.915	4949
873.044	5033
873.173	4915
873.303	4965
873.432	4938
873.561	4961
873.69	4866
873.819	4877
873.948	4927
874.077	4828
874.206	4767
874.335	4793
874.464	4866
874.593	5045
874.722	4942
874.851	5098
874.979	5025
875.108	5037
875.237	4870
875.365	4881
875.494	4919
875.623	4968
875.751	4782
875.88	4831
876.008	4999
876.136	4968
876.265	5162
876.393	5330
876.521	5212
876.65	5185
876.778	5159
876.906	5037
877.034	4965
877.162	5064
877.29	5014
877.418	5045
877.546	5048
877.674	5079
877.802	5056
877.93	5045
878.058	4919
878.185	4843
878.313	4934
878.441	4961
878.568	4763
878.696	4862
878.824	4957
878.951	4987
879.079	5121
879.206	5280
879.333	5109
879.461	4961
879.588	5006
879.715	5143
879.842	5197
879.97	4976
880.097	4714
880.224	4767
880.351	4805
880.478	4873
880.605	4782
880.732	4725
880.859	5064
880.986	4885
881.112	4877
881.239	4801
881.366	4691
881.493	4603
881.619	4573
881.746	4683
881.872	4675
881.999	4672
882.125	4714
882.252	4782
882.378	4850
882.505	4919
882.631	4797
882.757	4683
882.883	4740
883.01	4805
883.136	4664
883.262	4599
883.388	4611
883.514	4809
883.64	4862
883.766	4801
883.892	4691
884.018	4729
884.143	4889
884.269	5010
884.395	4721
884.52	4615
884.646	4664
884.772	4599
884.897	4535
885.023	4721
885.148	4790
885.274	4900
885.399	4812
885.524	4733
885.65	4664
885.775	4752
885.9	4729
886.025	4809
886.15	4774
886.275	4717
886.4	4634
886.525	4691
886.65	4698
886.775	4691
886.9	4885
887.025	5006
887.149	4797
887.274	4668
887.399	4535
887.523	4599
887.648	4554
887.773	4573
887.897	4744
888.021	4793
888.146	4634
888.27	4790
888.395	4923
888.519	4748
888.643	4786
888.767	4809
888.891	4691
889.015	4615
889.139	4702
889.263	4611
889.387	4812
889.511	4847
889.635	4847
889.759	4660
889.883	4656
890.006	4725
890.13	4790
890.254	4626
890.377	4683
890.501	4565
890.624	4577
890.748	4622
890.871	4474
890.995	4443
891.118	4402
891.241	4535
891.364	4577
891.488	4641
891.611	4485
891.734	4535
891.857	4577
891.98	4577
892.103	4702
892.226	4618
892.349	4516
892.471	4428
892.594	4584
892.717	4611
892.839	4531
892.962	4622
893.085	4615
893.207	4550
893.33	4474
893.452	4596
893.575	4660
893.697	4577
893.819	4805
893.941	4843
894.064	4786
894.186	4603
894.308	4558
894.43	4729
894.552	4793
894.674	4748
894.796	4577
894.918	4577
895.04	4603
895.161	4714
895.283	4683
895.405	4584
895.526	4637
895.648	4664
895.769	4698
895.891	4679
896.012	4729
896.134	4706
896.255	4675
896.376	4653
896.498	4607
896.619	4645
896.74	4588
896.861	4668
896.982	4938
897.103	5079
897.224	4835
897.345	4759
897.466	4679
897.587	4717
897.708	4847
897.828	4778
897.949	4710
898.07	4603
898.19	4626
898.311	4885
898.431	4725
898.552	4763
898.672	4797
898.792	4782
898.913	4740
899.033	4622
899.153	4493
899.273	4436
899.393	4481
899.513	4459
899.633	4550
899.753	4542
899.873	4500
899.993	4550
900.113	4504
900.232	4573
900.352	4531
900.472	4523
900.591	4344
900.711	4466
900.83	4451
900.95	4519
901.069	4691
901.189	4546
901.308	4367
901.427	4299
901.546	4356
901.665	4500
901.784	4554
901.904	4402
902.023	4291
902.141	4177
902.26	4143
902.379	4295
902.498	4230
902.617	4166
902.735	4367
902.854	4413
902.973	4386
903.091	4227
903.21	4280
903.328	4268
903.446	4325
903.565	4284
903.683	4371
903.801	4303
903.919	4371
904.038	4497
904.156	4284
904.274	4428
904.392	4379
904.51	4470
904.627	4474
904.745	4577
904.863	4599
904.981	4390
905.098	4306
905.216	4344
905.334	4417
905.451	4424
905.569	4428
905.686	4546
905.803	4584
905.921	4436
906.038	4542
906.155	4466
906.272	4402
906.389	4478
906.506	4386
906.623	4371
906.74	4352
906.857	4322
906.974	4363
907.091	4558
907.208	4672
907.324	4637
907.441	4485
907.557	4306
907.674	4371
907.79	4295
907.907	4348
908.023	4489
908.139	4436
908.256	4394
908.372	4440
908.488	4459
908.604	4341
908.72	4303
908.836	4379
908.952	4352
909.068	4424
909.184	4554
909.3	4470
909.415	4634
909.531	4535
909.647	4375
909.762	4394
909.878	4375
909.993	4451
910.108	4363
910.224	4443
910.339	4527
910.454	4398
910.57	4386
910.685	4314
910.8	4649
910.915	4618
911.03	4531
911.145	4322
911.259	4333
911.374	4383
911.489	4341
911.604	4284
911.718	4143
911.833	4230
911.947	4097
912.062	4036
912.176	4215
912.291	4257
912.405	4261
912.519	4466
912.633	4474
912.748	4383
912.862	4341
912.976	4230
913.09	4124
913.204	4181
913.318	4253
913.431	4375
913.545	4348
913.659	4436
913.772	4360
913.886	4265
914	4196
914.113	4383
914.226	4390
914.34	4363
914.453	4261
914.566	4451
914.68	4318
914.793	4276
914.906	4143
915.019	4090
915.132	4082
915.245	4169
915.358	4234
915.47	4192
915.583	4272
915.696	4287
915.809	4447
915.921	4417
916.034	4257
916.146	4249
916.259	4238
916.371	4314
916.483	4386
916.595	4276
916.708	4329
916.82	4318
916.932	4337
917.044	4318
917.156	4280
917.268	4234
917.38	4310
917.491	4341
917.603	4329
917.715	4371
917.826	4443
917.938	4363
918.049	4272
918.161	4371
918.272	4512
918.384	4542
918.495	4436
918.606	4299
918.717	4234
918.828	4360
918.939	4424
919.05	4238
919.161	4303
919.272	4128
919.383	4230
919.494	4493
919.604	4653
919.715	4421
919.826	4375
919.936	4409
920.047	4527
920.157	4516
920.267	4679
920.378	4538
920.488	4459
920.598	4733
920.708	4862
920.818	4763
920.928	4763
921.038	4930
921.148	4919
921.258	4603
921.368	4523
921.477	4466
921.587	4512
921.697	4405
921.806	4546
921.916	4440
922.025	4280
922.134	4310
922.244	4200
922.353	4344
922.462	4181
922.571	4162
922.68	4017
922.789	3983
922.898	4059
923.007	3991
923.116	4090
923.224	4040
923.333	4078
923.442	3987
923.55	3968
923.659	4044
923.767	4154
923.876	3998
923.984	4131
924.092	4032
924.201	4086
924.309	4090
924.417	4120
924.525	4040
924.633	4097
924.741	5064
924.849	3907
924.956	4112
925.064	3934
925.172	3896
925.279	3945
925.387	4048
925.494	4059
925.602	4181
925.709	4147
925.816	4044
925.924	4154
926.031	4249
926.138	4162
926.245	4223
926.352	4116
926.459	4207
926.566	4333
926.673	4158
926.779	4090
926.886	4048
926.993	3968
927.099	3975
927.206	3915
927.312	3960
927.419	4048
927.525	4067
927.631	4078
927.737	3960
927.843	3964
927.95	3827
928.056	3941
928.162	3968
928.267	4059
928.373	4694
928.479	4143
928.585	3884
928.69	4063
928.796	4059
928.901	3956
929.007	3857
929.112	4010
929.218	4017
929.323	3918
929.428	3949
929.533	4086
929.638	3934
929.743	3918
929.848	4048
929.953	3945
930.058	3899
930.163	3770
930.267	3823
930.372	4006
930.477	3808
930.581	4120
930.685	3941
930.79	3827
930.894	3873
930.998	3873
931.103	4074
931.207	3732
931.311	3690
931.415	3682
931.519	3523
931.623	3557
