Data from test_V78500241_1846.txt Node
Date: Fri Mar 25 17:01:50 CST 2022
User: usil
Spectrometer: V785-0024
Trigger mode: 0
Integration Time (sec): 4.000000E-1
Scans to average: 1
Nonlinearity correction enabled: false
Boxcar width: 0
Storing dark spectrum: false
XAxis mode: Wavelengths
Number of Pixels in Spectrum: 1024
>>>>>Begin Spectral Data<<<<<
801.071	8065
801.214	8050
801.356	7928
801.499	7837
801.641	7822
801.783	7795
801.926	7940
802.068	7940
802.211	7967
802.353	8027
802.496	7875
802.638	7856
802.78	7932
802.923	7902
803.065	7818
803.208	7830
803.35	7986
803.492	8081
803.635	8142
803.777	8039
803.919	8149
804.061	8507
804.204	8214
804.346	8088
804.488	7947
804.63	8065
804.773	8069
804.915	8119
805.057	8313
805.199	8149
805.341	8195
805.483	8252
805.626	8210
805.768	8168
805.91	8187
806.052	8229
806.194	8096
806.336	8267
806.478	8123
806.62	8062
806.762	8119
806.904	8279
807.046	8541
807.188	8374
807.33	8347
807.472	8305
807.614	8195
807.756	8168
807.898	8027
808.04	7845
808.182	7879
808.324	7921
808.465	7925
808.607	8012
808.749	8126
808.891	8195
809.033	8328
809.174	8225
809.316	8065
809.458	8088
809.6	8115
809.741	8016
809.883	8020
810.025	8123
810.166	8069
810.308	8073
810.45	7997
810.591	7852
810.733	7727
810.875	7674
811.016	7537
811.158	7510
811.299	7639
811.441	7738
811.582	7632
811.724	7533
811.865	7578
812.007	7639
812.148	7597
812.29	7658
812.431	7803
812.573	7921
812.714	7997
812.855	8183
812.997	8187
813.138	8370
813.279	8206
813.421	8050
813.562	7925
813.703	7807
813.845	7761
813.986	7415
814.127	7206
814.268	7209
814.41	7247
814.551	7156
814.692	7308
814.833	7080
814.974	7065
815.115	7126
815.256	6932
815.397	6905
815.539	6954
815.68	6852
815.821	6821
815.962	6913
816.103	6810
816.244	6707
816.385	6627
816.526	6589
816.666	6509
816.807	6346
816.948	6361
817.089	6483
817.23	6475
817.371	6380
817.512	6376
817.653	6395
817.793	6353
817.934	6388
818.075	6437
818.216	6464
818.356	6433
818.497	6277
818.638	6102
818.778	6110
818.919	6117
819.06	6205
819.2	6334
819.341	6311
819.481	6372
819.622	6486
819.762	6764
819.903	6700
820.043	6578
820.184	6597
820.324	6540
820.465	6719
820.605	6669
820.746	6593
820.886	6490
821.026	6696
821.167	6711
821.307	6825
821.447	6791
821.588	6726
821.728	6559
821.868	6494
822.008	6292
822.149	6350
822.289	6334
822.429	6182
822.569	6072
822.709	6140
822.849	5897
822.99	5901
823.13	5908
823.27	5980
823.41	5836
823.55	5790
823.69	5764
823.83	5798
823.97	5688
824.11	5570
824.25	5516
824.389	5532
824.529	5570
824.669	5570
824.809	5684
824.949	5695
825.089	5627
825.228	5509
825.368	5379
825.508	5349
825.648	5311
825.787	5376
825.927	5353
826.067	5292
826.206	5318
826.346	5368
826.485	5376
826.625	5391
826.765	5589
826.904	5429
827.044	5223
827.183	5269
827.323	5147
827.462	5212
827.601	5151
827.741	5174
827.88	5201
828.02	5124
828.159	5277
828.298	5265
828.437	5357
828.577	5299
828.716	5509
828.855	5307
828.994	5189
829.134	5181
829.273	5216
829.412	5132
829.551	5197
829.69	5162
829.829	5318
829.968	5349
830.107	5303
830.246	5315
830.385	5181
830.524	5170
830.663	5086
830.802	5006
830.941	4885
831.08	4915
831.219	4987
831.357	4972
831.496	5166
831.635	4965
831.774	4892
831.913	4831
832.051	4763
832.19	4774
832.329	4816
832.467	4717
832.606	4618
832.744	4706
832.883	4668
833.022	4755
833.16	4778
833.299	4850
833.437	4831
833.576	4828
833.714	4828
833.852	4877
833.991	4904
834.129	4942
834.267	4942
834.406	4892
834.544	4980
834.682	4965
834.821	4953
834.959	5162
835.097	5022
835.235	5121
835.373	5113
835.511	5102
835.65	4991
835.788	5045
835.926	4911
836.064	4866
836.202	4911
836.34	5159
836.478	5212
836.615	5147
836.753	5212
836.891	5345
837.029	5231
837.167	5250
837.305	5178
837.443	5132
837.58	5132
837.718	5231
837.856	5201
837.993	5102
838.131	5239
838.269	5185
838.406	5208
838.544	5208
838.681	5025
838.819	4984
838.956	4911
839.094	4877
839.231	4968
839.369	5098
839.506	5425
839.643	5261
839.781	5052
839.918	4976
840.055	5136
840.193	5094
840.33	5132
840.467	5147
840.604	5185
840.742	5440
840.879	5041
841.016	5067
841.153	5166
841.29	5345
841.427	5326
841.564	5330
841.701	5383
841.838	5220
841.975	5227
842.112	5322
842.249	5166
842.385	5121
842.522	5357
842.659	5223
842.796	5143
842.933	5170
843.069	5189
843.206	5105
843.343	5288
843.479	5227
843.616	5242
843.752	5102
843.889	5048
844.025	5216
844.162	5010
844.298	5204
844.435	5105
844.571	5006
844.708	5132
844.844	5296
844.98	5341
845.117	5299
845.253	5170
845.389	5075
845.525	5204
845.661	5155
845.798	5014
845.934	5155
846.07	5117
846.206	5220
846.342	5242
846.478	5178
846.614	4976
846.75	4995
846.886	4930
847.022	5132
847.158	5006
847.294	5067
847.429	5166
847.565	4999
847.701	5334
847.837	4835
847.972	4778
848.108	4976
848.244	4927
848.379	4839
848.515	4771
848.65	4721
848.786	4793
848.921	4790
849.057	4858
849.192	4885
849.328	4828
849.463	4812
849.598	4801
849.734	4744
849.869	4706
850.004	4592
850.14	4675
850.275	4672
850.41	4504
850.545	4546
850.68	4615
850.815	4634
850.95	4683
851.085	4850
851.22	4714
851.355	4653
851.49	4577
851.625	4607
851.76	4611
851.895	4618
852.03	4550
852.165	4668
852.299	4717
852.434	4771
852.569	4668
852.703	4721
852.838	4835
852.973	4908
853.107	4866
853.242	4763
853.376	4626
853.511	4561
853.645	4615
853.78	4778
853.914	4668
854.048	4675
854.183	4637
854.317	4675
854.451	4847
854.585	4683
854.72	4637
854.854	4812
854.988	4641
855.122	4653
855.256	4485
855.39	4645
855.524	4752
855.658	4725
855.792	4687
855.926	4736
856.06	4725
856.194	4759
856.327	4641
856.461	4611
856.595	4645
856.729	4611
856.862	4721
856.996	4721
857.13	4725
857.263	4714
857.397	4778
857.53	4664
857.664	4706
857.797	4793
857.931	4809
858.064	4679
858.197	4767
858.331	4668
858.464	4653
858.597	4497
858.731	4668
858.864	4668
858.997	4611
859.13	4660
859.263	4672
859.396	4683
859.529	4580
859.662	4565
859.795	4523
859.928	4615
860.061	4736
860.194	4755
860.327	4618
860.46	4535
860.592	4706
860.725	4744
860.858	4733
860.99	4569
861.123	4558
861.256	4493
861.388	4588
861.521	5425
861.653	4440
861.786	4405
861.918	4485
862.05	4542
862.183	4558
862.315	4611
862.447	4660
862.58	4512
862.712	4451
862.844	4299
862.976	4470
863.108	4413
863.24	4873
863.372	4318
863.504	4379
863.636	4367
863.768	4474
863.9	4455
864.032	4337
864.164	4421
864.296	4466
864.428	4573
864.559	4561
864.691	4512
864.823	4516
864.954	4478
865.086	4519
865.217	4443
865.349	4447
865.48	4455
865.612	4512
865.743	4588
865.875	4443
866.006	4462
866.137	4493
866.269	4459
866.4	4421
866.531	4405
866.662	4405
866.793	4409
866.924	4417
867.055	4466
867.186	4421
867.317	4432
867.448	4402
867.579	4375
867.71	4375
867.841	4363
867.972	4470
868.103	4489
868.233	4455
868.364	4455
868.495	4466
868.625	4668
868.756	4717
868.886	4565
869.017	4596
869.147	4725
869.278	4771
869.408	4668
869.539	4641
869.669	4733
869.799	4672
869.929	4725
870.06	4755
870.19	4908
870.32	4889
870.45	4930
870.58	4980
870.71	5033
870.84	5132
870.97	5003
871.1	4862
871.23	5121
871.36	5102
871.489	4991
871.619	5045
871.749	5045
871.879	5128
872.008	5170
872.138	5064
872.267	4961
872.397	4892
872.526	4790
872.656	4717
872.785	4828
872.915	4900
873.044	5052
873.173	4908
873.303	4938
873.432	5022
873.561	4873
873.69	4946
873.819	4881
873.948	4923
874.077	4892
874.206	4702
874.335	4854
874.464	4885
874.593	5056
874.722	4946
874.851	5098
874.979	5090
875.108	5014
875.237	4873
875.365	4828
875.494	4870
875.623	4995
875.751	4805
875.88	4908
876.008	4980
876.136	5048
876.265	5193
876.393	5341
876.521	5204
876.65	5254
876.778	5204
876.906	5052
877.034	5018
877.162	4965
877.29	4976
877.418	5086
877.546	4972
877.674	5025
877.802	4980
877.93	4976
878.058	4866
878.185	4915
878.313	4923
878.441	4949
878.568	4793
878.696	4839
878.824	4942
878.951	4987
879.079	5071
879.206	5265
879.333	5060
879.461	4957
879.588	4984
879.715	5064
879.842	5223
879.97	5006
880.097	4805
880.224	4771
880.351	4786
880.478	4847
880.605	4797
880.732	4812
880.859	5086
880.986	4934
881.112	4877
881.239	4767
881.366	4683
881.493	4626
881.619	4596
881.746	4615
881.872	4679
881.999	4653
882.125	4710
882.252	4805
882.378	4816
882.505	4953
882.631	4774
882.757	4660
882.883	4717
883.01	4702
883.136	4626
883.262	4649
883.388	4664
883.514	4854
883.64	4858
883.766	4793
883.892	4618
884.018	4691
884.143	4889
884.269	5010
884.395	4653
884.52	4637
884.646	4634
884.772	4622
884.897	4599
885.023	4706
885.148	4820
885.274	4866
885.399	4835
885.524	4714
885.65	4687
885.775	4752
885.9	4694
886.025	4881
886.15	4812
886.275	4710
886.4	4710
886.525	4752
886.65	4714
886.775	4672
886.9	4881
887.025	5033
887.149	4801
887.274	4653
887.399	4599
887.523	4592
887.648	4622
887.773	4573
887.897	4725
888.021	4778
888.146	4702
888.27	4782
888.395	4896
888.519	4782
888.643	4835
888.767	4873
888.891	4653
889.015	4622
889.139	4675
889.263	4580
889.387	4759
889.511	4828
889.635	4767
889.759	4653
889.883	4603
890.006	4702
890.13	4835
890.254	4656
890.377	4683
890.501	4535
890.624	4489
890.748	4618
890.871	4478
890.995	4405
891.118	4398
891.241	4531
891.364	4550
891.488	4596
891.611	4527
891.734	4527
891.857	4599
891.98	4584
892.103	4653
892.226	4569
892.349	4485
892.471	4394
892.594	4554
892.717	4580
892.839	4634
892.962	4592
893.085	4626
893.207	4584
893.33	4440
893.452	4523
893.575	4660
893.697	4577
893.819	4816
893.941	4847
894.064	4786
894.186	4573
894.308	4588
894.43	4736
894.552	4839
894.674	4752
894.796	4554
894.918	4603
895.04	4569
895.161	4698
895.283	4641
895.405	4558
895.526	4615
895.648	4694
895.769	4672
895.891	4687
896.012	4694
896.134	4702
896.255	4596
896.376	4645
896.498	4611
896.619	4645
896.74	4615
896.861	4668
896.982	4873
897.103	5056
897.224	4873
897.345	4714
897.466	4698
897.587	4714
897.708	4839
897.828	4767
897.949	4660
898.07	4512
898.19	4645
898.311	4793
898.431	4702
898.552	4710
898.672	4805
898.792	4782
898.913	4698
899.033	4626
899.153	4497
899.273	4417
899.393	4516
899.513	4527
899.633	4527
899.753	4558
899.873	4538
899.993	4561
900.113	4519
900.232	4611
900.352	4504
900.472	4455
900.591	4363
900.711	4451
900.83	4432
900.95	4622
901.069	4691
901.189	4535
901.308	4417
901.427	4337
901.546	4394
901.665	4447
901.784	4542
901.904	4386
902.023	4352
902.141	4173
902.26	4158
902.379	4306
902.498	4200
902.617	4219
902.735	4379
902.854	4367
902.973	4329
903.091	4204
903.21	4215
903.328	4261
903.446	4246
903.565	4280
903.683	4379
903.801	4261
903.919	4417
904.038	4413
904.156	4268
904.274	4405
904.392	4379
904.51	4398
904.627	4466
904.745	4565
904.863	4630
904.981	4417
905.098	4295
905.216	4344
905.334	4413
905.451	4451
905.569	4440
905.686	4535
905.803	4573
905.921	4360
906.038	4538
906.155	4474
906.272	4405
906.389	4440
906.506	4322
906.623	4390
906.74	4390
906.857	4268
906.974	4348
907.091	4573
907.208	4672
907.324	4542
907.441	4459
907.557	4356
907.674	4344
907.79	4314
907.907	4371
908.023	4493
908.139	4443
908.256	4451
908.372	4466
908.488	4455
908.604	4299
908.72	4295
908.836	4421
908.952	4398
909.068	4466
909.184	4565
909.3	4462
909.415	4554
909.531	4516
909.647	4337
909.762	4337
909.878	4363
909.993	4436
910.108	4417
910.224	4451
910.339	4455
910.454	4417
910.57	4398
910.685	4318
910.8	4641
910.915	4580
911.03	4451
911.145	4379
911.259	4360
911.374	4329
911.489	4257
911.604	4265
911.718	4135
911.833	4200
911.947	4032
912.062	4029
912.176	4253
912.291	4261
912.405	4246
912.519	4470
912.633	4459
912.748	4371
912.862	4268
912.976	4242
913.09	4059
913.204	4131
913.318	4207
913.431	4329
913.545	4379
913.659	4440
913.772	4333
913.886	4219
914	4147
914.113	4390
914.226	4424
914.34	4386
914.453	4246
914.566	4413
914.68	4303
914.793	4306
914.906	4120
915.019	4059
915.132	4090
915.245	4158
915.358	4211
915.47	4196
915.583	4329
915.696	4306
915.809	4379
915.921	4398
916.034	4265
916.146	4234
916.259	4261
916.371	4363
916.483	4352
916.595	4276
916.708	4322
916.82	4329
916.932	4344
917.044	4333
917.156	4348
917.268	4204
917.38	4284
917.491	4284
917.603	4341
917.715	4398
917.826	4459
917.938	4325
918.049	4295
918.161	4398
918.272	4546
918.384	4561
918.495	4443
918.606	4314
918.717	4230
918.828	4344
918.939	4310
919.05	4246
919.161	4318
919.272	4150
919.383	4219
919.494	4436
919.604	4668
919.715	4367
919.826	4306
919.936	4375
920.047	4558
920.157	4493
920.267	4698
920.378	4546
920.488	4504
920.598	4714
920.708	4896
920.818	4755
920.928	4786
921.038	4957
921.148	4927
921.258	4634
921.368	4599
921.477	4485
921.587	4519
921.697	4379
921.806	4535
921.916	4409
922.025	4295
922.134	4261
922.244	4185
922.353	4291
922.462	4143
922.571	4093
922.68	4017
922.789	3979
922.898	3998
923.007	3975
923.116	4112
923.224	4021
923.333	4082
923.442	3975
923.55	3983
923.659	4048
923.767	4063
923.876	4067
923.984	4116
924.092	3994
924.201	4082
924.309	4063
924.417	4093
924.525	4025
924.633	4078
924.741	5018
924.849	3926
924.956	4143
925.064	3907
925.172	3937
925.279	3983
925.387	4017
925.494	4074
925.602	4196
925.709	4173
925.816	4051
925.924	4162
926.031	4211
926.138	4169
926.245	4188
926.352	4169
926.459	4215
926.566	4287
926.673	4158
926.779	4074
926.886	4082
926.993	4013
927.099	3987
927.206	3903
927.312	3941
927.419	4044
927.525	4006
927.631	4071
927.737	3968
927.843	3975
927.95	3854
928.056	3930
928.162	3956
928.267	4055
928.373	4599
928.479	4059
928.585	3899
928.69	4029
928.796	4120
928.901	3968
929.007	3800
929.112	4017
929.218	4017
929.323	3979
929.428	3926
929.533	4105
929.638	3941
929.743	3964
929.848	4048
929.953	4021
930.058	3930
930.163	3785
930.267	3831
930.372	3930
930.477	3835
930.581	4074
930.685	3960
930.79	3800
930.894	3865
930.998	3854
931.103	4055
931.207	3709
931.311	3724
931.415	3679
931.519	3542
931.623	3557
