Data from test_V78500241_2822.txt Node
Date: Fri Mar 25 17:08:37 CST 2022
User: usil
Spectrometer: V785-0024
Trigger mode: 0
Integration Time (sec): 4.000000E-1
Scans to average: 1
Nonlinearity correction enabled: false
Boxcar width: 0
Storing dark spectrum: false
XAxis mode: Wavelengths
Number of Pixels in Spectrum: 1024
>>>>>Begin Spectral Data<<<<<
801.071	8115
801.214	8062
801.356	7967
801.499	7917
801.641	7871
801.783	7902
801.926	8054
802.068	7986
802.211	8062
802.353	8043
802.496	7860
802.638	7940
802.78	7974
802.923	7982
803.065	7921
803.208	7868
803.35	7997
803.492	8100
803.635	8138
803.777	8092
803.919	8180
804.061	8381
804.204	8126
804.346	8115
804.488	8043
804.63	8153
804.773	8035
804.915	8096
805.057	8221
805.199	8176
805.341	8225
805.483	8244
805.626	8286
805.768	8195
805.91	8237
806.052	8210
806.194	8199
806.336	8294
806.478	8168
806.62	8138
806.762	8172
806.904	8339
807.046	8480
807.188	8415
807.33	8389
807.472	8320
807.614	8176
807.756	8218
807.898	8027
808.04	7932
808.182	7833
808.324	7928
808.465	7978
808.607	8161
808.749	8187
808.891	8279
809.033	8389
809.174	8221
809.316	8172
809.458	8073
809.6	8039
809.741	8027
809.883	8119
810.025	8134
810.166	7997
810.308	8100
810.45	8016
810.591	7871
810.733	7746
810.875	7719
811.016	7559
811.158	7540
811.299	7586
811.441	7753
811.582	7803
811.724	7651
811.865	7540
812.007	7651
812.148	7616
812.29	7613
812.431	7765
812.573	7868
812.714	7959
812.855	8111
812.997	8202
813.138	8259
813.279	8221
813.421	8111
813.562	8031
813.703	7902
813.845	7792
813.986	7483
814.127	7358
814.268	7251
814.41	7263
814.551	7145
814.692	7198
814.833	7114
814.974	7084
815.115	7160
815.256	7038
815.397	6932
815.539	7038
815.68	6875
815.821	6886
815.962	6901
816.103	6833
816.244	6745
816.385	6662
816.526	6597
816.666	6536
816.807	6372
816.948	6414
817.089	6506
817.23	6429
817.371	6380
817.512	6433
817.653	6372
817.793	6384
817.934	6475
818.075	6517
818.216	6475
818.356	6452
818.497	6258
818.638	6087
818.778	6144
818.919	6167
819.06	6201
819.2	6395
819.341	6315
819.481	6422
819.622	6559
819.762	6760
819.903	6734
820.043	6654
820.184	6681
820.324	6646
820.465	6726
820.605	6684
820.746	6646
820.886	6547
821.026	6700
821.167	6703
821.307	6886
821.447	6814
821.588	6684
821.728	6593
821.868	6498
822.008	6285
822.149	6403
822.289	6452
822.429	6152
822.569	6175
822.709	6144
822.849	5942
822.99	5893
823.13	5885
823.27	5958
823.41	5779
823.55	5760
823.69	5813
823.83	5802
823.97	5680
824.11	5524
824.25	5478
824.389	5566
824.529	5611
824.669	5581
824.809	5623
824.949	5672
825.089	5634
825.228	5539
825.368	5429
825.508	5364
825.648	5334
825.787	5436
825.927	5376
826.067	5254
826.206	5307
826.346	5368
826.485	5417
826.625	5383
826.765	5600
826.904	5501
827.044	5296
827.183	5212
827.323	5159
827.462	5284
827.601	5201
827.741	5216
827.88	5242
828.02	5140
828.159	5258
828.298	5345
828.437	5353
828.577	5277
828.716	5478
828.855	5341
828.994	5174
829.134	5189
829.273	5201
829.412	5178
829.551	5136
829.69	5204
829.829	5231
829.968	5387
830.107	5299
830.246	5318
830.385	5231
830.524	5105
830.663	5052
830.802	4980
830.941	4927
831.08	4877
831.219	4980
831.357	5014
831.496	5147
831.635	4930
831.774	4767
831.913	4881
832.051	4778
832.19	4759
832.329	4824
832.467	4733
832.606	4714
832.744	4767
832.883	4740
833.022	4778
833.16	4774
833.299	4839
833.437	4847
833.576	4873
833.714	4889
833.852	4892
833.991	4900
834.129	4968
834.267	4923
834.406	4908
834.544	5003
834.682	5029
834.821	5003
834.959	5189
835.097	4972
835.235	5132
835.373	5079
835.511	5105
835.65	5041
835.788	5060
835.926	4900
836.064	4889
836.202	4911
836.34	5193
836.478	5250
836.615	5117
836.753	5201
836.891	5334
837.029	5277
837.167	5174
837.305	5178
837.443	5181
837.58	5140
837.718	5307
837.856	5162
837.993	5143
838.131	5216
838.269	5197
838.406	5166
838.544	5174
838.681	5052
838.819	4961
838.956	4927
839.094	4938
839.231	4972
839.369	5083
839.506	5421
839.643	5254
839.781	5060
839.918	4995
840.055	5105
840.193	5075
840.33	5109
840.467	5143
840.604	5227
840.742	5444
840.879	5098
841.016	5132
841.153	5159
841.29	5391
841.427	5341
841.564	5368
841.701	5376
841.838	5307
841.975	5235
842.112	5292
842.249	5193
842.385	5079
842.522	5357
842.659	5181
842.796	5105
842.933	5185
843.069	5178
843.206	5162
843.343	5315
843.479	5220
843.616	5326
843.752	5083
843.889	5045
844.025	5242
844.162	5064
844.298	5174
844.435	5094
844.571	5083
844.708	5220
844.844	5315
844.98	5364
845.117	5364
845.253	5132
845.389	5075
845.525	5201
845.661	5166
845.798	5064
845.934	5174
846.07	5102
846.206	5220
846.342	5261
846.478	5208
846.614	5033
846.75	4938
846.886	4949
847.022	5178
847.158	5029
847.294	5102
847.429	5079
847.565	5056
847.701	5326
847.837	4923
847.972	4797
848.108	4923
848.244	4938
848.379	4824
848.515	4752
848.65	4714
848.786	4786
848.921	4828
849.057	4847
849.192	4904
849.328	4786
849.463	4828
849.598	4786
849.734	4797
849.869	4706
850.004	4630
850.14	4698
850.275	4596
850.41	4542
850.545	4611
850.68	4653
850.815	4618
850.95	4637
851.085	4858
851.22	4736
851.355	4691
851.49	4603
851.625	4634
851.76	4637
851.895	4550
852.03	4542
852.165	4622
852.299	4675
852.434	4793
852.569	4778
852.703	4782
852.838	4866
852.973	4927
853.107	4896
853.242	4763
853.376	4672
853.511	4603
853.645	4668
853.78	4820
853.914	4626
854.048	4725
854.183	4653
854.317	4706
854.451	4892
854.585	4706
854.72	4664
854.854	4763
854.988	4622
855.122	4607
855.256	4603
855.39	4653
855.524	4812
855.658	4717
855.792	4675
855.926	4736
856.06	4774
856.194	4809
856.327	4649
856.461	4630
856.595	4664
856.729	4634
856.862	4771
856.996	4675
857.13	4717
857.263	4736
857.397	4854
857.53	4687
857.664	4710
857.797	4774
857.931	4816
858.064	4683
858.197	4691
858.331	4664
858.464	4618
858.597	4516
858.731	4637
858.864	4622
858.997	4599
859.13	4653
859.263	4664
859.396	4649
859.529	4599
859.662	4584
859.795	4542
859.928	4645
860.061	4729
860.194	4782
860.327	4668
860.46	4554
860.592	4706
860.725	4733
860.858	4710
860.99	4588
861.123	4504
861.256	4535
861.388	4584
861.521	5341
861.653	4470
861.786	4474
861.918	4497
862.05	4561
862.183	4527
862.315	4626
862.447	4630
862.58	4535
862.712	4390
862.844	4341
862.976	4481
863.108	4466
863.24	4774
863.372	4344
863.504	4417
863.636	4383
863.768	4523
863.9	4466
864.032	4383
864.164	4379
864.296	4504
864.428	4531
864.559	4588
864.691	4580
864.823	4538
864.954	4527
865.086	4489
865.217	4459
865.349	4417
865.48	4493
865.612	4512
865.743	4630
865.875	4481
866.006	4421
866.137	4493
866.269	4455
866.4	4413
866.531	4402
866.662	4390
866.793	4462
866.924	4352
867.055	4500
867.186	4443
867.317	4413
867.448	4371
867.579	4417
867.71	4379
867.841	4371
867.972	4470
868.103	4466
868.233	4478
868.364	4455
868.495	4500
868.625	4668
868.756	4763
868.886	4569
869.017	4656
869.147	4771
869.278	4820
869.408	4622
869.539	4637
869.669	4759
869.799	4649
869.929	4748
870.06	4733
870.19	4968
870.32	4889
870.45	4923
870.58	5029
870.71	5128
870.84	5117
870.97	4923
871.1	4923
871.23	5189
871.36	5193
871.489	5045
871.619	5109
871.749	5075
871.879	5132
872.008	5189
872.138	5086
872.267	4961
872.397	4828
872.526	4828
872.656	4672
872.785	4820
872.915	4965
873.044	5041
873.173	4934
873.303	4972
873.432	5003
873.561	4961
873.69	4877
873.819	4866
873.948	4873
874.077	4828
874.206	4752
874.335	4767
874.464	4854
874.593	5083
874.722	4957
874.851	5018
874.979	5083
875.108	4957
875.237	4972
875.365	4885
875.494	4919
875.623	4957
875.751	4847
875.88	4915
876.008	4987
876.136	5014
876.265	5170
876.393	5322
876.521	5269
876.65	5242
876.778	5201
876.906	5102
877.034	5022
877.162	5056
877.29	5006
877.418	5086
877.546	5033
877.674	5079
877.802	5041
877.93	5067
878.058	4930
878.185	4881
878.313	4984
878.441	4927
878.568	4843
878.696	4911
878.824	4968
878.951	4995
879.079	5109
879.206	5299
879.333	5143
879.461	4999
879.588	4987
879.715	5109
879.842	5254
879.97	5022
880.097	4786
880.224	4786
880.351	4824
880.478	4862
880.605	4850
880.732	4774
880.859	5121
880.986	4919
881.112	4911
881.239	4782
881.366	4656
881.493	4622
881.619	4592
881.746	4656
881.872	4656
881.999	4683
882.125	4664
882.252	4820
882.378	4843
882.505	4915
882.631	4812
882.757	4668
882.883	4740
883.01	4729
883.136	4683
883.262	4634
883.388	4580
883.514	4809
883.64	4908
883.766	4763
883.892	4687
884.018	4721
884.143	4862
884.269	5025
884.395	4664
884.52	4691
884.646	4664
884.772	4618
884.897	4569
885.023	4592
885.148	4812
885.274	4889
885.399	4820
885.524	4679
885.65	4710
885.775	4733
885.9	4714
886.025	4786
886.15	4736
886.275	4721
886.4	4683
886.525	4721
886.65	4668
886.775	4721
886.9	4881
887.025	5067
887.149	4797
887.274	4725
887.399	4592
887.523	4653
887.648	4577
887.773	4592
887.897	4774
888.021	4797
888.146	4615
888.27	4809
888.395	4919
888.519	4797
888.643	4812
888.767	4824
888.891	4714
889.015	4622
889.139	4672
889.263	4592
889.387	4694
889.511	4870
889.635	4801
889.759	4664
889.883	4660
890.006	4771
890.13	4847
890.254	4656
890.377	4698
890.501	4542
890.624	4512
890.748	4660
890.871	4500
890.995	4440
891.118	4375
891.241	4531
891.364	4512
891.488	4668
891.611	4497
891.734	4554
891.857	4592
891.98	4523
892.103	4607
892.226	4580
892.349	4546
892.471	4405
892.594	4516
892.717	4588
892.839	4565
892.962	4626
893.085	4626
893.207	4565
893.33	4466
893.452	4573
893.575	4656
893.697	4592
893.819	4805
893.941	4831
894.064	4816
894.186	4577
894.308	4584
894.43	4729
894.552	4850
894.674	4744
894.796	4558
894.918	4599
895.04	4550
895.161	4725
895.283	4634
895.405	4596
895.526	4626
895.648	4691
895.769	4698
895.891	4710
896.012	4748
896.134	4717
896.255	4679
896.376	4607
896.498	4641
896.619	4630
896.74	4649
896.861	4626
896.982	4946
897.103	5105
897.224	4870
897.345	4759
897.466	4683
897.587	4748
897.708	4850
897.828	4828
897.949	4660
898.07	4580
898.19	4702
898.311	4850
898.431	4694
898.552	4733
898.672	4782
898.792	4843
898.913	4801
899.033	4660
899.153	4512
899.273	4367
899.393	4561
899.513	4561
899.633	4504
899.753	4611
899.873	4558
899.993	4535
900.113	4470
900.232	4573
900.352	4550
900.472	4504
900.591	4390
900.711	4481
900.83	4455
900.95	4569
901.069	4694
901.189	4546
901.308	4352
901.427	4280
901.546	4367
901.665	4440
901.784	4512
901.904	4398
902.023	4363
902.141	4211
902.26	4196
902.379	4325
902.498	4253
902.617	4204
902.735	4432
902.854	4402
902.973	4394
903.091	4219
903.21	4223
903.328	4325
903.446	4242
903.565	4249
903.683	4318
903.801	4284
903.919	4341
904.038	4478
904.156	4341
904.274	4474
904.392	4375
904.51	4462
904.627	4497
904.745	4634
904.863	4622
904.981	4352
905.098	4295
905.216	4329
905.334	4417
905.451	4466
905.569	4459
905.686	4577
905.803	4577
905.921	4470
906.038	4538
906.155	4428
906.272	4421
906.389	4447
906.506	4363
906.623	4375
906.74	4352
906.857	4306
906.974	4379
907.091	4573
907.208	4664
907.324	4573
907.441	4489
907.557	4322
907.674	4360
907.79	4341
907.907	4402
908.023	4489
908.139	4523
908.256	4405
908.372	4497
908.488	4447
908.604	4383
908.72	4318
908.836	4402
908.952	4409
909.068	4409
909.184	4607
909.3	4466
909.415	4588
909.531	4538
909.647	4329
909.762	4341
909.878	4333
909.993	4440
910.108	4440
910.224	4402
910.339	4504
910.454	4398
910.57	4344
910.685	4295
910.8	4691
910.915	4558
911.03	4474
911.145	4356
911.259	4356
911.374	4367
911.489	4306
911.604	4318
911.718	4158
911.833	4207
911.947	4074
912.062	4017
912.176	4200
912.291	4238
912.405	4284
912.519	4466
912.633	4451
912.748	4306
912.862	4337
912.976	4253
913.09	4063
913.204	4181
913.318	4253
913.431	4379
913.545	4363
913.659	4474
913.772	4337
913.886	4192
914	4242
914.113	4405
914.226	4455
914.34	4386
914.453	4188
914.566	4489
914.68	4291
914.793	4318
914.906	4128
915.019	4109
915.132	4071
915.245	4173
915.358	4242
915.47	4257
915.583	4310
915.696	4318
915.809	4394
915.921	4421
916.034	4234
916.146	4249
916.259	4223
916.371	4337
916.483	4363
916.595	4280
916.708	4329
916.82	4265
916.932	4310
917.044	4356
917.156	4295
917.268	4234
917.38	4261
917.491	4295
917.603	4348
917.715	4409
917.826	4398
917.938	4337
918.049	4276
918.161	4390
918.272	4573
918.384	4565
918.495	4462
918.606	4268
918.717	4261
918.828	4325
918.939	4371
919.05	4238
919.161	4303
919.272	4128
919.383	4253
919.494	4421
919.604	4630
919.715	4436
919.826	4329
919.936	4360
920.047	4466
920.157	4485
920.267	4683
920.378	4554
920.488	4474
920.598	4721
920.708	4881
920.818	4759
920.928	4725
921.038	4919
921.148	4927
921.258	4603
921.368	4538
921.477	4481
921.587	4432
921.697	4367
921.806	4516
921.916	4405
922.025	4272
922.134	4268
922.244	4234
922.353	4341
922.462	4169
922.571	4112
922.68	3991
922.789	3979
922.898	4044
923.007	3994
923.116	4055
923.224	4040
923.333	4059
923.442	4002
923.55	3968
923.659	4006
923.767	4090
923.876	3945
923.984	4131
924.092	3945
924.201	4071
924.309	4093
924.417	4135
924.525	4074
924.633	4101
924.741	4854
924.849	3888
924.956	4177
925.064	3915
925.172	3934
925.279	3953
925.387	4040
925.494	4067
925.602	4147
925.709	4158
925.816	4006
925.924	4150
926.031	4204
926.138	4188
926.245	4211
926.352	4067
926.459	4227
926.566	4249
926.673	4154
926.779	4078
926.886	4082
926.993	4002
927.099	3975
927.206	3941
927.312	3960
927.419	4078
927.525	4055
927.631	4093
927.737	3979
927.843	3975
927.95	3838
928.056	3949
928.162	4032
928.267	4051
928.373	4580
928.479	4101
928.585	3857
928.69	4032
928.796	4097
928.901	3998
929.007	3857
929.112	4025
929.218	3953
929.323	3945
929.428	3896
929.533	4071
929.638	3934
929.743	3960
929.848	4059
929.953	3983
930.058	3945
930.163	3774
930.267	3846
930.372	3968
930.477	3785
930.581	4120
930.685	3994
930.79	3854
930.894	3873
930.998	3846
931.103	4013
931.207	3717
931.311	3698
931.415	3694
931.519	3534
931.623	3557
