Data from test_V78500241_668.txt Node
Date: Fri Mar 25 16:53:38 CST 2022
User: usil
Spectrometer: V785-0024
Trigger mode: 0
Integration Time (sec): 4.000000E-1
Scans to average: 1
Nonlinearity correction enabled: false
Boxcar width: 0
Storing dark spectrum: false
XAxis mode: Wavelengths
Number of Pixels in Spectrum: 1024
>>>>>Begin Spectral Data<<<<<
801.071	8107
801.214	7917
801.356	7902
801.499	7742
801.641	7811
801.783	7856
801.926	8031
802.068	7944
802.211	8054
802.353	7989
802.496	7868
802.638	7879
802.78	7925
802.923	7913
803.065	7814
803.208	7871
803.35	7925
803.492	8027
803.635	8161
803.777	8012
803.919	8058
804.061	8362
804.204	8168
804.346	8024
804.488	7997
804.63	8115
804.773	8058
804.915	8065
805.057	8252
805.199	8161
805.341	8119
805.483	8206
805.626	8191
805.768	8111
805.91	8126
806.052	8142
806.194	8092
806.336	8267
806.478	8062
806.62	8012
806.762	8164
806.904	8305
807.046	8484
807.188	8309
807.33	8259
807.472	8271
807.614	8168
807.756	8103
807.898	8069
808.04	7887
808.182	7890
808.324	7898
808.465	7879
808.607	8039
808.749	8153
808.891	8248
809.033	8263
809.174	8134
809.316	8027
809.458	8069
809.6	8008
809.741	7989
809.883	8054
810.025	8077
810.166	7986
810.308	8084
810.45	8039
810.591	7871
810.733	7738
810.875	7666
811.016	7453
811.158	7544
811.299	7556
811.441	7708
811.582	7723
811.724	7578
811.865	7457
812.007	7533
812.148	7552
812.29	7594
812.431	7674
812.573	7772
812.714	7978
812.855	8111
812.997	8248
813.138	8324
813.279	8191
813.421	8134
813.562	8027
813.703	7993
813.845	7761
813.986	7457
814.127	7255
814.268	7305
814.41	7190
814.551	7072
814.692	7126
814.833	7069
814.974	7065
815.115	7084
815.256	7080
815.397	6928
815.539	6943
815.68	6848
815.821	6760
815.962	6871
816.103	6856
816.244	6726
816.385	6623
816.526	6601
816.666	6467
816.807	6311
816.948	6380
817.089	6433
817.23	6422
817.371	6315
817.512	6388
817.653	6334
817.793	6353
817.934	6456
818.075	6498
818.216	6452
818.356	6380
818.497	6254
818.638	6095
818.778	6129
818.919	6083
819.06	6106
819.2	6346
819.341	6346
819.481	6365
819.622	6559
819.762	6749
819.903	6692
820.043	6574
820.184	6525
820.324	6536
820.465	6681
820.605	6597
820.746	6559
820.886	6433
821.026	6589
821.167	6722
821.307	6764
821.447	6719
821.588	6681
821.728	6506
821.868	6494
822.008	6334
822.149	6327
822.289	6323
822.429	6114
822.569	6045
822.709	6106
822.849	5870
822.99	5893
823.13	5885
823.27	5912
823.41	5764
823.55	5726
823.69	5764
823.83	5783
823.97	5672
824.11	5543
824.25	5535
824.389	5570
824.529	5543
824.669	5516
824.809	5642
824.949	5604
825.089	5589
825.228	5497
825.368	5414
825.508	5379
825.648	5357
825.787	5391
825.927	5349
826.067	5208
826.206	5292
826.346	5391
826.485	5334
826.625	5436
826.765	5551
826.904	5463
827.044	5227
827.183	5193
827.323	5109
827.462	5254
827.601	5147
827.741	5178
827.88	5178
828.02	5056
828.159	5216
828.298	5296
828.437	5368
828.577	5265
828.716	5471
828.855	5326
828.994	5162
829.134	5197
829.273	5174
829.412	5098
829.551	5109
829.69	5155
829.829	5204
829.968	5376
830.107	5242
830.246	5296
830.385	5136
830.524	5090
830.663	5075
830.802	4919
830.941	4877
831.08	4911
831.219	4965
831.357	4961
831.496	5147
831.635	4896
831.774	4839
831.913	4843
832.051	4714
832.19	4752
832.329	4816
832.467	4660
832.606	4672
832.744	4691
832.883	4714
833.022	4702
833.16	4767
833.299	4866
833.437	4767
833.576	4782
833.714	4843
833.852	4843
833.991	4896
834.129	4938
834.267	4972
834.406	4911
834.544	4953
834.682	4908
834.821	4984
834.959	5094
835.097	4987
835.235	5155
835.373	5079
835.511	5094
835.65	5052
835.788	4995
835.926	4900
836.064	4889
836.202	4927
836.34	5181
836.478	5193
836.615	5086
836.753	5235
836.891	5284
837.029	5239
837.167	5181
837.305	5109
837.443	5105
837.58	5041
837.718	5185
837.856	5174
837.993	5155
838.131	5189
838.269	5174
838.406	5201
838.544	5227
838.681	5003
838.819	4995
838.956	4904
839.094	4934
839.231	4972
839.369	5041
839.506	5425
839.643	5280
839.781	5090
839.918	5003
840.055	5121
840.193	5064
840.33	5079
840.467	5147
840.604	5178
840.742	5440
840.879	5064
841.016	5071
841.153	5140
841.29	5402
841.427	5383
841.564	5318
841.701	5315
841.838	5261
841.975	5204
842.112	5277
842.249	5132
842.385	5105
842.522	5357
842.659	5143
842.796	5102
842.933	5166
843.069	5147
843.206	5128
843.343	5303
843.479	5254
843.616	5296
843.752	4961
843.889	4995
844.025	5227
844.162	5033
844.298	5197
844.435	5064
844.571	4999
844.708	5201
844.844	5296
844.98	5307
845.117	5269
845.253	5132
845.389	5086
845.525	5147
845.661	5109
845.798	5025
845.934	5102
846.07	5060
846.206	5185
846.342	5258
846.478	5178
846.614	5025
846.75	4949
846.886	4961
847.022	5094
847.158	5003
847.294	5056
847.429	5090
847.565	5067
847.701	5280
847.837	4904
847.972	4782
848.108	4942
848.244	4942
848.379	4714
848.515	4736
848.65	4717
848.786	4702
848.921	4782
849.057	4915
849.192	4889
849.328	4790
849.463	4828
849.598	4782
849.734	4816
849.869	4687
850.004	4603
850.14	4645
850.275	4573
850.41	4512
850.545	4603
850.68	4592
850.815	4599
850.95	4599
851.085	4820
851.22	4729
851.355	4656
851.49	4615
851.625	4607
851.76	4607
851.895	4523
852.03	4470
852.165	4637
852.299	4721
852.434	4793
852.569	4714
852.703	4729
852.838	4892
852.973	4892
853.107	4892
853.242	4721
853.376	4656
853.511	4546
853.645	4607
853.78	4790
853.914	4687
854.048	4622
854.183	4615
854.317	4698
854.451	4824
854.585	4668
854.72	4717
854.854	4733
854.988	4618
855.122	4691
855.256	4478
855.39	4630
855.524	4759
855.658	4736
855.792	4694
855.926	4683
856.06	4725
856.194	4755
856.327	4656
856.461	4622
856.595	4618
856.729	4569
856.862	4694
856.996	4706
857.13	4710
857.263	4736
857.397	4790
857.53	4637
857.664	4729
857.797	4729
857.931	4748
858.064	4660
858.197	4736
858.331	4653
858.464	4607
858.597	4531
858.731	4615
858.864	4622
858.997	4527
859.13	4672
859.263	4653
859.396	4729
859.529	4577
859.662	4535
859.795	4516
859.928	4599
860.061	4740
860.194	4790
860.327	4622
860.46	4512
860.592	4702
860.725	4714
860.858	4721
860.99	4615
861.123	4481
861.256	4489
861.388	4637
861.521	5288
861.653	4489
861.786	4440
861.918	4424
862.05	4493
862.183	4523
862.315	4588
862.447	4656
862.58	4558
862.712	4413
862.844	4337
862.976	4481
863.108	4466
863.24	4850
863.372	4363
863.504	4379
863.636	4436
863.768	4451
863.9	4462
864.032	4398
864.164	4371
864.296	4462
864.428	4569
864.559	4523
864.691	4500
864.823	4512
864.954	4485
865.086	4497
865.217	4428
865.349	4421
865.48	4459
865.612	4504
865.743	4592
865.875	4470
866.006	4443
866.137	4462
866.269	4432
866.4	4440
866.531	4417
866.662	4432
866.793	4367
866.924	4466
867.055	4481
867.186	4466
867.317	4447
867.448	4363
867.579	4367
867.71	4417
867.841	4421
867.972	4436
868.103	4455
868.233	4455
868.364	4459
868.495	4436
868.625	4618
868.756	4755
868.886	4573
869.017	4607
869.147	4778
869.278	4733
869.408	4592
869.539	4637
869.669	4702
869.799	4668
869.929	4797
870.06	4736
870.19	4949
870.32	4885
870.45	4919
870.58	5029
870.71	5098
870.84	5071
870.97	4968
871.1	4904
871.23	5105
871.36	5098
871.489	5045
871.619	5109
871.749	5064
871.879	5159
872.008	5132
872.138	5056
872.267	4991
872.397	4835
872.526	4771
872.656	4793
872.785	4774
872.915	4953
873.044	5086
873.173	4946
873.303	4942
873.432	4938
873.561	5006
873.69	4877
873.819	4866
873.948	4854
874.077	4809
874.206	4740
874.335	4831
874.464	4927
874.593	5037
874.722	4965
874.851	5147
874.979	5067
875.108	4984
875.237	4957
875.365	4892
875.494	4908
875.623	4965
875.751	4767
875.88	4862
876.008	4942
876.136	4961
876.265	5223
876.393	5318
876.521	5189
876.65	5216
876.778	5170
876.906	5014
877.034	5037
877.162	5037
877.29	5037
877.418	5025
877.546	5022
877.674	5037
877.802	4984
877.93	5048
878.058	4904
878.185	4847
878.313	4938
878.441	4942
878.568	4809
878.696	4889
878.824	4946
878.951	4976
879.079	5105
879.206	5341
879.333	5079
879.461	4946
879.588	5025
879.715	5105
879.842	5204
879.97	4938
880.097	4793
880.224	4714
880.351	4782
880.478	4828
880.605	4774
880.732	4809
880.859	5094
880.986	4911
881.112	4896
881.239	4736
881.366	4679
881.493	4577
881.619	4592
881.746	4645
881.872	4599
881.999	4626
882.125	4675
882.252	4801
882.378	4782
882.505	4957
882.631	4786
882.757	4698
882.883	4744
883.01	4714
883.136	4641
883.262	4622
883.388	4611
883.514	4843
883.64	4904
883.766	4763
883.892	4679
884.018	4653
884.143	4870
884.269	5025
884.395	4668
884.52	4679
884.646	4641
884.772	4565
884.897	4584
885.023	4687
885.148	4771
885.274	4934
885.399	4816
885.524	4694
885.65	4683
885.775	4744
885.9	4675
886.025	4847
886.15	4755
886.275	4698
886.4	4630
886.525	4733
886.65	4668
886.775	4660
886.9	4904
887.025	5079
887.149	4858
887.274	4634
887.399	4561
887.523	4592
887.648	4550
887.773	4592
887.897	4755
888.021	4786
888.146	4664
888.27	4816
888.395	4866
888.519	4774
888.643	4797
888.767	4812
888.891	4618
889.015	4603
889.139	4637
889.263	4622
889.387	4774
889.511	4812
889.635	4801
889.759	4641
889.883	4683
890.006	4717
890.13	4816
890.254	4630
890.377	4664
890.501	4516
890.624	4508
890.748	4599
890.871	4500
890.995	4421
891.118	4417
891.241	4497
891.364	4527
891.488	4565
891.611	4462
891.734	4558
891.857	4634
891.98	4512
892.103	4645
892.226	4588
892.349	4504
892.471	4394
892.594	4493
892.717	4561
892.839	4554
892.962	4565
893.085	4672
893.207	4523
893.33	4481
893.452	4516
893.575	4672
893.697	4580
893.819	4759
893.941	4812
894.064	4759
894.186	4527
894.308	4535
894.43	4683
894.552	4771
894.674	4752
894.796	4554
894.918	4637
895.04	4538
895.161	4702
895.283	4660
895.405	4565
895.526	4630
895.648	4664
895.769	4691
895.891	4744
896.012	4744
896.134	4691
896.255	4649
896.376	4592
896.498	4584
896.619	4687
896.74	4672
896.861	4660
896.982	4904
897.103	5090
897.224	4839
897.345	4763
897.466	4694
897.587	4706
897.708	4824
897.828	4812
897.949	4668
898.07	4565
898.19	4626
898.311	4858
898.431	4683
898.552	4717
898.672	4786
898.792	4774
898.913	4733
899.033	4607
899.153	4497
899.273	4436
899.393	4466
899.513	4519
899.633	4500
899.753	4558
899.873	4538
899.993	4554
900.113	4512
900.232	4584
900.352	4577
900.472	4485
900.591	4386
900.711	4481
900.83	4436
900.95	4584
901.069	4672
901.189	4561
901.308	4375
901.427	4348
901.546	4402
901.665	4466
901.784	4516
901.904	4394
902.023	4310
902.141	4207
902.26	4154
902.379	4329
902.498	4192
902.617	4227
902.735	4394
902.854	4363
902.973	4375
903.091	4196
903.21	4257
903.328	4318
903.446	4234
903.565	4261
903.683	4348
903.801	4276
903.919	4432
904.038	4447
904.156	4341
904.274	4436
904.392	4383
904.51	4432
904.627	4478
904.745	4558
904.863	4538
904.981	4428
905.098	4291
905.216	4390
905.334	4405
905.451	4443
905.569	4417
905.686	4538
905.803	4588
905.921	4421
906.038	4531
906.155	4481
906.272	4413
906.389	4493
906.506	4314
906.623	4383
906.74	4436
906.857	4284
906.974	4322
907.091	4519
907.208	4664
907.324	4599
907.441	4470
907.557	4329
907.674	4394
907.79	4284
907.907	4390
908.023	4489
908.139	4459
908.256	4432
908.372	4508
908.488	4481
908.604	4398
908.72	4325
908.836	4348
908.952	4405
909.068	4421
909.184	4554
909.3	4481
909.415	4622
909.531	4538
909.647	4390
909.762	4432
909.878	4303
909.993	4421
910.108	4409
910.224	4398
910.339	4455
910.454	4394
910.57	4344
910.685	4314
910.8	4641
910.915	4607
911.03	4485
911.145	4303
911.259	4280
911.374	4337
911.489	4325
911.604	4257
911.718	4116
911.833	4200
911.947	4101
912.062	4044
912.176	4173
912.291	4227
912.405	4192
912.519	4462
912.633	4504
912.748	4344
912.862	4310
912.976	4181
913.09	4105
913.204	4211
913.318	4261
913.431	4371
913.545	4337
913.659	4459
913.772	4360
913.886	4238
914	4223
914.113	4337
914.226	4417
914.34	4386
914.453	4242
914.566	4421
914.68	4287
914.793	4352
914.906	4204
915.019	4124
915.132	4067
915.245	4207
915.358	4242
915.47	4230
915.583	4272
915.696	4280
915.809	4394
915.921	4413
916.034	4276
916.146	4227
916.259	4223
916.371	4398
916.483	4379
916.595	4306
916.708	4333
916.82	4322
916.932	4341
917.044	4344
917.156	4318
917.268	4253
917.38	4299
917.491	4303
917.603	4394
917.715	4443
917.826	4447
917.938	4363
918.049	4253
918.161	4405
918.272	4542
918.384	4561
918.495	4409
918.606	4280
918.717	4234
918.828	4303
918.939	4402
919.05	4272
919.161	4341
919.272	4139
919.383	4185
919.494	4421
919.604	4603
919.715	4424
919.826	4341
919.936	4398
920.047	4500
920.157	4516
920.267	4698
920.378	4599
920.488	4542
920.598	4687
920.708	4858
920.818	4759
920.928	4759
921.038	4934
921.148	4892
921.258	4626
921.368	4542
921.477	4474
921.587	4447
921.697	4360
921.806	4554
921.916	4432
922.025	4272
922.134	4291
922.244	4200
922.353	4322
922.462	4162
922.571	4116
922.68	4040
922.789	3975
922.898	4021
923.007	4017
923.116	4139
923.224	4051
923.333	4082
923.442	3994
923.55	3968
923.659	3983
923.767	4112
923.876	3994
923.984	4101
924.092	3964
924.201	4032
924.309	4109
924.417	4131
924.525	4029
924.633	4112
924.741	5041
924.849	3930
924.956	4051
925.064	3915
925.172	3903
925.279	3968
925.387	4078
925.494	4048
925.602	4204
925.709	4200
925.816	4032
925.924	4109
926.031	4219
926.138	4177
926.245	4169
926.352	4048
926.459	4238
926.566	4295
926.673	4173
926.779	4086
926.886	4097
926.993	3987
927.099	3979
927.206	3926
927.312	3960
927.419	4040
927.525	4029
927.631	4105
927.737	3960
927.843	3941
927.95	3804
928.056	3979
928.162	3937
928.267	4036
928.373	4656
928.479	4120
928.585	3880
928.69	4051
928.796	4044
928.901	3937
929.007	3888
929.112	4040
929.218	3964
929.323	3911
929.428	3918
929.533	4051
929.638	3915
929.743	3975
929.848	4032
929.953	3972
930.058	3892
930.163	3793
930.267	3827
930.372	3964
930.477	3854
930.581	4097
930.685	3972
930.79	3793
930.894	3884
930.998	3823
931.103	4006
931.207	3724
931.311	3747
931.415	3682
931.519	3519
931.623	3557
