Data from test_V78500241_1941.txt Node
Date: Fri Mar 25 17:02:29 CST 2022
User: usil
Spectrometer: V785-0024
Trigger mode: 0
Integration Time (sec): 4.000000E-1
Scans to average: 1
Nonlinearity correction enabled: false
Boxcar width: 0
Storing dark spectrum: false
XAxis mode: Wavelengths
Number of Pixels in Spectrum: 1024
>>>>>Begin Spectral Data<<<<<
801.071	7967
801.214	7963
801.356	7833
801.499	7909
801.641	7765
801.783	7860
801.926	7955
802.068	7913
802.211	7940
802.353	8005
802.496	7814
802.638	7769
802.78	7841
802.923	7875
803.065	7887
803.208	7795
803.35	7974
803.492	8005
803.635	8149
803.777	7963
803.919	8161
804.061	8412
804.204	8149
804.346	8054
804.488	7951
804.63	8050
804.773	8035
804.915	8081
805.057	8396
805.199	8142
805.341	8172
805.483	8282
805.626	8145
805.768	8123
805.91	8187
806.052	8210
806.194	8119
806.336	8313
806.478	8142
806.62	8016
806.762	8111
806.904	8263
807.046	8450
807.188	8366
807.33	8290
807.472	8240
807.614	8145
807.756	8183
807.898	7974
808.04	7890
808.182	7833
808.324	7856
808.465	7906
808.607	8111
808.749	8088
808.891	8191
809.033	8275
809.174	8164
809.316	8130
809.458	8062
809.6	8035
809.741	8058
809.883	8024
810.025	8115
810.166	8005
810.308	8035
810.45	8001
810.591	7845
810.733	7704
810.875	7643
811.016	7438
811.158	7438
811.299	7636
811.441	7772
811.582	7685
811.724	7480
811.865	7597
812.007	7563
812.148	7605
812.29	7567
812.431	7761
812.573	7944
812.714	7947
812.855	8126
812.997	8240
813.138	8320
813.279	8183
813.421	8100
813.562	7921
813.703	7826
813.845	7746
813.986	7460
814.127	7209
814.268	7206
814.41	7168
814.551	7194
814.692	7240
814.833	7057
814.974	7099
815.115	7080
815.256	6985
815.397	6966
815.539	6924
815.68	6760
815.821	6749
815.962	6856
816.103	6806
816.244	6654
816.385	6620
816.526	6597
816.666	6540
816.807	6262
816.948	6426
817.089	6483
817.23	6433
817.371	6403
817.512	6372
817.653	6353
817.793	6372
817.934	6372
818.075	6437
818.216	6429
818.356	6448
818.497	6281
818.638	6148
818.778	6167
818.919	6125
819.06	6152
819.2	6292
819.341	6380
819.481	6418
819.622	6517
819.762	6665
819.903	6620
820.043	6570
820.184	6536
820.324	6612
820.465	6749
820.605	6665
820.746	6681
820.886	6551
821.026	6669
821.167	6684
821.307	6760
821.447	6741
821.588	6707
821.728	6506
821.868	6494
822.008	6300
822.149	6380
822.289	6311
822.429	6148
822.569	6041
822.709	6076
822.849	5984
822.99	5904
823.13	5912
823.27	5866
823.41	5847
823.55	5786
823.69	5779
823.83	5771
823.97	5619
824.11	5482
824.25	5509
824.389	5532
824.529	5562
824.669	5501
824.809	5619
824.949	5672
825.089	5577
825.228	5528
825.368	5410
825.508	5345
825.648	5360
825.787	5345
825.927	5395
826.067	5307
826.206	5284
826.346	5383
826.485	5379
826.625	5414
826.765	5490
826.904	5474
827.044	5204
827.183	5212
827.323	5113
827.462	5231
827.601	5170
827.741	5170
827.88	5216
828.02	5067
828.159	5265
828.298	5330
828.437	5318
828.577	5258
828.716	5520
828.855	5357
828.994	5159
829.134	5136
829.273	5178
829.412	5151
829.551	5136
829.69	5151
829.829	5208
829.968	5353
830.107	5258
830.246	5265
830.385	5181
830.524	5124
830.663	5067
830.802	4904
830.941	4866
831.08	4835
831.219	4995
831.357	4927
831.496	5151
831.635	4873
831.774	4831
831.913	4835
832.051	4717
832.19	4740
832.329	4793
832.467	4653
832.606	4584
832.744	4736
832.883	4714
833.022	4702
833.16	4771
833.299	4843
833.437	4877
833.576	4858
833.714	4820
833.852	4839
833.991	4881
834.129	4957
834.267	4946
834.406	4908
834.544	4953
834.682	4972
834.821	4949
834.959	5159
835.097	5041
835.235	5136
835.373	5090
835.511	5037
835.65	4968
835.788	5033
835.926	4854
836.064	4843
836.202	4892
836.34	5212
836.478	5223
836.615	5136
836.753	5189
836.891	5273
837.029	5265
837.167	5204
837.305	5086
837.443	5128
837.58	5052
837.718	5269
837.856	5185
837.993	5102
838.131	5147
838.269	5178
838.406	5189
838.544	5136
838.681	5014
838.819	4946
838.956	4919
839.094	4915
839.231	5006
839.369	5048
839.506	5474
839.643	5318
839.781	5041
839.918	4999
840.055	5113
840.193	5117
840.33	5155
840.467	5128
840.604	5166
840.742	5414
840.879	5075
841.016	5105
841.153	5128
841.29	5387
841.427	5364
841.564	5296
841.701	5315
841.838	5246
841.975	5197
842.112	5277
842.249	5151
842.385	5098
842.522	5364
842.659	5193
842.796	5147
842.933	5162
843.069	5143
843.206	5166
843.343	5277
843.479	5197
843.616	5277
843.752	5006
843.889	5033
844.025	5166
844.162	5029
844.298	5212
844.435	5037
844.571	5018
844.708	5201
844.844	5273
844.98	5315
845.117	5284
845.253	5121
845.389	5071
845.525	5170
845.661	5086
845.798	5033
845.934	5124
846.07	5029
846.206	5143
846.342	5246
846.478	5170
846.614	5029
846.75	4972
846.886	4953
847.022	5105
847.158	4976
847.294	4995
847.429	5075
847.565	5014
847.701	5345
847.837	4870
847.972	4885
848.108	4946
848.244	4927
848.379	4740
848.515	4721
848.65	4660
848.786	4736
848.921	4767
849.057	4843
849.192	4862
849.328	4778
849.463	4847
849.598	4820
849.734	4706
849.869	4725
850.004	4649
850.14	4611
850.275	4588
850.41	4561
850.545	4558
850.68	4592
850.815	4634
850.95	4592
851.085	4820
851.22	4744
851.355	4626
851.49	4630
851.625	4565
851.76	4656
851.895	4561
852.03	4550
852.165	4656
852.299	4706
852.434	4759
852.569	4778
852.703	4774
852.838	4831
852.973	4881
853.107	4934
853.242	4740
853.376	4653
853.511	4554
853.645	4603
853.78	4782
853.914	4683
854.048	4626
854.183	4687
854.317	4736
854.451	4847
854.585	4641
854.72	4653
854.854	4748
854.988	4569
855.122	4679
855.256	4474
855.39	4615
855.524	4763
855.658	4706
855.792	4721
855.926	4679
856.06	4793
856.194	4771
856.327	4641
856.461	4599
856.595	4611
856.729	4618
856.862	4744
856.996	4649
857.13	4774
857.263	4752
857.397	4797
857.53	4668
857.664	4748
857.797	4767
857.931	4759
858.064	4634
858.197	4729
858.331	4618
858.464	4588
858.597	4474
858.731	4611
858.864	4653
858.997	4645
859.13	4561
859.263	4660
859.396	4668
859.529	4615
859.662	4565
859.795	4588
859.928	4615
860.061	4733
860.194	4786
860.327	4584
860.46	4531
860.592	4672
860.725	4706
860.858	4706
860.99	4546
861.123	4523
861.256	4519
861.388	4649
861.521	5292
861.653	4428
861.786	4462
861.918	4413
862.05	4489
862.183	4527
862.315	4596
862.447	4645
862.58	4519
862.712	4398
862.844	4280
862.976	4497
863.108	4466
863.24	4755
863.372	4325
863.504	4417
863.636	4379
863.768	4489
863.9	4409
864.032	4337
864.164	4409
864.296	4436
864.428	4512
864.559	4558
864.691	4508
864.823	4470
864.954	4512
865.086	4508
865.217	4474
865.349	4421
865.48	4447
865.612	4531
865.743	4653
865.875	4428
866.006	4428
866.137	4432
866.269	4447
866.4	4424
866.531	4379
866.662	4398
866.793	4436
866.924	4390
867.055	4470
867.186	4474
867.317	4459
867.448	4348
867.579	4383
867.71	4398
867.841	4402
867.972	4436
868.103	4443
868.233	4409
868.364	4470
868.495	4531
868.625	4675
868.756	4729
868.886	4611
869.017	4626
869.147	4767
869.278	4782
869.408	4672
869.539	4622
869.669	4759
869.799	4630
869.929	4733
870.06	4748
870.19	4953
870.32	4904
870.45	4934
870.58	4984
870.71	5083
870.84	5090
870.97	4938
871.1	4934
871.23	5109
871.36	5132
871.489	5041
871.619	5029
871.749	5102
871.879	5105
872.008	5220
872.138	4984
872.267	4942
872.397	4858
872.526	4801
872.656	4691
872.785	4782
872.915	4961
873.044	5067
873.173	4934
873.303	4968
873.432	5014
873.561	4915
873.69	4904
873.819	4881
873.948	4873
874.077	4828
874.206	4797
874.335	4767
874.464	4938
874.593	5022
874.722	4961
874.851	5086
874.979	5006
875.108	5064
875.237	4911
875.365	4873
875.494	4919
875.623	4927
875.751	4824
875.88	4889
876.008	4995
876.136	5064
876.265	5162
876.393	5353
876.521	5235
876.65	5288
876.778	5113
876.906	5064
877.034	5014
877.162	5018
877.29	4995
877.418	5056
877.546	5060
877.674	5010
877.802	4995
877.93	5018
878.058	4919
878.185	4877
878.313	4968
878.441	4946
878.568	4778
878.696	4885
878.824	4923
878.951	4938
879.079	5166
879.206	5311
879.333	5098
879.461	4972
879.588	4984
879.715	5124
879.842	5178
879.97	4991
880.097	4816
880.224	4691
880.351	4782
880.478	4862
880.605	4755
880.732	4786
880.859	5067
880.986	4877
881.112	4885
881.239	4850
881.366	4649
881.493	4618
881.619	4569
881.746	4618
881.872	4637
881.999	4660
882.125	4660
882.252	4786
882.378	4843
882.505	4957
882.631	4748
882.757	4664
882.883	4729
883.01	4714
883.136	4668
883.262	4596
883.388	4615
883.514	4767
883.64	4870
883.766	4771
883.892	4649
884.018	4710
884.143	4889
884.269	4946
884.395	4683
884.52	4615
884.646	4660
884.772	4561
884.897	4512
885.023	4672
885.148	4786
885.274	4900
885.399	4843
885.524	4694
885.65	4653
885.775	4721
885.9	4771
886.025	4858
886.15	4801
886.275	4725
886.4	4649
886.525	4744
886.65	4634
886.775	4679
886.9	4885
887.025	5010
887.149	4786
887.274	4637
887.399	4565
887.523	4580
887.648	4573
887.773	4622
887.897	4771
888.021	4740
888.146	4691
888.27	4812
888.395	4854
888.519	4816
888.643	4733
888.767	4828
888.891	4660
889.015	4618
889.139	4656
889.263	4611
889.387	4729
889.511	4843
889.635	4763
889.759	4630
889.883	4687
890.006	4793
890.13	4831
890.254	4622
890.377	4687
890.501	4599
890.624	4558
890.748	4668
890.871	4565
890.995	4455
891.118	4432
891.241	4481
891.364	4508
891.488	4634
891.611	4489
891.734	4546
891.857	4611
891.98	4535
892.103	4660
892.226	4599
892.349	4546
892.471	4405
892.594	4519
892.717	4649
892.839	4592
892.962	4618
893.085	4656
893.207	4577
893.33	4459
893.452	4485
893.575	4683
893.697	4577
893.819	4801
893.941	4801
894.064	4759
894.186	4611
894.308	4550
894.43	4691
894.552	4801
894.674	4717
894.796	4577
894.918	4615
895.04	4573
895.161	4710
895.283	4615
895.405	4542
895.526	4618
895.648	4664
895.769	4645
895.891	4721
896.012	4744
896.134	4710
896.255	4641
896.376	4675
896.498	4599
896.619	4630
896.74	4637
896.861	4626
896.982	4911
897.103	5071
897.224	4831
897.345	4706
897.466	4675
897.587	4740
897.708	4854
897.828	4755
897.949	4679
898.07	4546
898.19	4615
898.311	4828
898.431	4641
898.552	4717
898.672	4824
898.792	4824
898.913	4721
899.033	4634
899.153	4508
899.273	4432
899.393	4535
899.513	4516
899.633	4497
899.753	4569
899.873	4527
899.993	4592
900.113	4500
900.232	4565
900.352	4462
900.472	4508
900.591	4405
900.711	4493
900.83	4436
900.95	4611
901.069	4656
901.189	4516
901.308	4337
901.427	4318
901.546	4318
901.665	4485
901.784	4519
901.904	4409
902.023	4325
902.141	4177
902.26	4071
902.379	4322
902.498	4230
902.617	4211
902.735	4390
902.854	4390
902.973	4352
903.091	4242
903.21	4207
903.328	4299
903.446	4253
903.565	4242
903.683	4344
903.801	4306
903.919	4322
904.038	4371
904.156	4249
904.274	4398
904.392	4394
904.51	4432
904.627	4474
904.745	4558
904.863	4653
904.981	4375
905.098	4379
905.216	4344
905.334	4436
905.451	4436
905.569	4470
905.686	4538
905.803	4535
905.921	4402
906.038	4558
906.155	4481
906.272	4379
906.389	4432
906.506	4348
906.623	4348
906.74	4394
906.857	4337
906.974	4375
907.091	4508
907.208	4660
907.324	4588
907.441	4535
907.557	4371
907.674	4386
907.79	4329
907.907	4432
908.023	4493
908.139	4481
908.256	4436
908.372	4485
908.488	4462
908.604	4344
908.72	4329
908.836	4371
908.952	4344
909.068	4447
909.184	4531
909.3	4474
909.415	4649
909.531	4546
909.647	4352
909.762	4379
909.878	4356
909.993	4394
910.108	4413
910.224	4417
910.339	4516
910.454	4421
910.57	4363
910.685	4314
910.8	4649
910.915	4634
911.03	4485
911.145	4322
911.259	4367
911.374	4337
911.489	4303
911.604	4257
911.718	4181
911.833	4207
911.947	4021
912.062	4010
912.176	4238
912.291	4265
912.405	4268
912.519	4504
912.633	4493
912.748	4405
912.862	4246
912.976	4181
913.09	4059
913.204	4147
913.318	4246
913.431	4371
913.545	4344
913.659	4470
913.772	4337
913.886	4268
914	4181
914.113	4413
914.226	4413
914.34	4371
914.453	4223
914.566	4402
914.68	4265
914.793	4268
914.906	4124
915.019	4082
915.132	4109
915.245	4204
915.358	4215
915.47	4272
915.583	4253
915.696	4295
915.809	4386
915.921	4424
916.034	4287
916.146	4238
916.259	4200
916.371	4348
916.483	4356
916.595	4230
916.708	4341
916.82	4318
916.932	4348
917.044	4333
917.156	4352
917.268	4242
917.38	4284
917.491	4299
917.603	4375
917.715	4424
917.826	4402
917.938	4344
918.049	4287
918.161	4394
918.272	4527
918.384	4584
918.495	4462
918.606	4291
918.717	4230
918.828	4337
918.939	4287
919.05	4257
919.161	4276
919.272	4162
919.383	4227
919.494	4455
919.604	4683
919.715	4440
919.826	4341
919.936	4367
920.047	4504
920.157	4459
920.267	4679
920.378	4550
920.488	4504
920.598	4733
920.708	4847
920.818	4752
920.928	4748
921.038	4927
921.148	4911
921.258	4603
921.368	4561
921.477	4500
921.587	4421
921.697	4390
921.806	4523
921.916	4379
922.025	4272
922.134	4242
922.244	4257
922.353	4352
922.462	4139
922.571	4177
922.68	4017
922.789	3975
922.898	4029
923.007	3975
923.116	4116
923.224	4051
923.333	4055
923.442	3968
923.55	3964
923.659	4013
923.767	4093
923.876	3949
923.984	4101
924.092	3953
924.201	4063
924.309	4067
924.417	4082
924.525	4051
924.633	4112
924.741	5033
924.849	3884
924.956	4135
925.064	3998
925.172	3937
925.279	3964
925.387	4025
925.494	4055
925.602	4188
925.709	4185
925.816	4063
925.924	4154
926.031	4215
926.138	4147
926.245	4219
926.352	4036
926.459	4227
926.566	4303
926.673	4166
926.779	4078
926.886	4086
926.993	4051
927.099	3964
927.206	3915
927.312	3892
927.419	4051
927.525	3998
927.631	4097
927.737	3972
927.843	3934
927.95	3819
928.056	3968
928.162	3991
928.267	4044
928.373	4535
928.479	4135
928.585	3873
928.69	3979
928.796	4048
928.901	3953
929.007	3838
929.112	4006
929.218	3960
929.323	3911
929.428	3934
929.533	4078
929.638	3888
929.743	3945
929.848	4044
929.953	4006
930.058	3945
930.163	3781
930.267	3819
930.372	4021
930.477	3781
930.581	4063
930.685	3979
930.79	3835
930.894	3911
930.998	3838
931.103	4025
931.207	3717
931.311	3679
931.415	3690
931.519	3496
931.623	3504
