Data from test_V78500241_1754.txt Node
Date: Fri Mar 25 17:01:11 CST 2022
User: usil
Spectrometer: V785-0024
Trigger mode: 0
Integration Time (sec): 4.000000E-1
Scans to average: 1
Nonlinearity correction enabled: false
Boxcar width: 0
Storing dark spectrum: false
XAxis mode: Wavelengths
Number of Pixels in Spectrum: 1024
>>>>>Begin Spectral Data<<<<<
801.071	7944
801.214	8027
801.356	7925
801.499	7856
801.641	7814
801.783	7830
801.926	8020
802.068	7936
802.211	7913
802.353	8024
802.496	7879
802.638	7898
802.78	7875
802.923	7974
803.065	7906
803.208	7845
803.35	8065
803.492	8130
803.635	8138
803.777	8058
803.919	8202
804.061	8495
804.204	8180
804.346	8054
804.488	8065
804.63	8081
804.773	7955
804.915	8096
805.057	8290
805.199	8187
805.341	8199
805.483	8286
805.626	8256
805.768	8180
805.91	8229
806.052	8282
806.194	8157
806.336	8317
806.478	8069
806.62	8084
806.762	8134
806.904	8305
807.046	8503
807.188	8355
807.33	8320
807.472	8400
807.614	8286
807.756	8202
807.898	8073
808.04	7993
808.182	7860
808.324	7868
808.465	7997
808.607	8069
808.749	8191
808.891	8252
809.033	8374
809.174	8214
809.316	8168
809.458	8111
809.6	8031
809.741	8092
809.883	8092
810.025	8145
810.166	8126
810.308	8088
810.45	8024
810.591	7887
810.733	7704
810.875	7639
811.016	7529
811.158	7480
811.299	7677
811.441	7750
811.582	7658
811.724	7575
811.865	7670
812.007	7578
812.148	7624
812.29	7639
812.431	7822
812.573	7856
812.714	8027
812.855	8183
812.997	8256
813.138	8324
813.279	8263
813.421	8062
813.562	7997
813.703	7879
813.845	7746
813.986	7476
814.127	7301
814.268	7225
814.41	7263
814.551	7171
814.692	7247
814.833	7076
814.974	7133
815.115	7190
815.256	6985
815.397	6966
815.539	6951
815.68	6844
815.821	6806
815.962	6878
816.103	6852
816.244	6753
816.385	6601
816.526	6669
816.666	6506
816.807	6353
816.948	6441
817.089	6502
817.23	6517
817.371	6418
817.512	6410
817.653	6410
817.793	6448
817.934	6445
818.075	6502
818.216	6388
818.356	6414
818.497	6296
818.638	6140
818.778	6159
818.919	6167
819.06	6182
819.2	6384
819.341	6437
819.481	6353
819.622	6532
819.762	6768
819.903	6681
820.043	6635
820.184	6604
820.324	6627
820.465	6749
820.605	6745
820.746	6688
820.886	6479
821.026	6635
821.167	6802
821.307	6848
821.447	6810
821.588	6688
821.728	6582
821.868	6490
822.008	6311
822.149	6342
822.289	6331
822.429	6190
822.569	6117
822.709	6155
822.849	5931
822.99	5935
823.13	5927
823.27	5931
823.41	5813
823.55	5817
823.69	5760
823.83	5775
823.97	5703
824.11	5573
824.25	5512
824.389	5611
824.529	5627
824.669	5512
824.809	5722
824.949	5684
825.089	5638
825.228	5562
825.368	5414
825.508	5364
825.648	5368
825.787	5417
825.927	5387
826.067	5357
826.206	5330
826.346	5429
826.485	5474
826.625	5383
826.765	5585
826.904	5493
827.044	5269
827.183	5223
827.323	5162
827.462	5212
827.601	5223
827.741	5181
827.88	5277
828.02	5174
828.159	5258
828.298	5341
828.437	5372
828.577	5284
828.716	5501
828.855	5345
828.994	5208
829.134	5174
829.273	5242
829.412	5181
829.551	5162
829.69	5193
829.829	5326
829.968	5440
830.107	5296
830.246	5326
830.385	5193
830.524	5151
830.663	5083
830.802	4976
830.941	4946
831.08	4900
831.219	5018
831.357	5003
831.496	5189
831.635	4976
831.774	4850
831.913	4881
832.051	4763
832.19	4774
832.329	4866
832.467	4778
832.606	4664
832.744	4733
832.883	4801
833.022	4725
833.16	4786
833.299	4843
833.437	4877
833.576	4843
833.714	4850
833.852	4858
833.991	4923
834.129	4942
834.267	4991
834.406	4889
834.544	5014
834.682	5003
834.821	4953
834.959	5197
835.097	4980
835.235	5128
835.373	5121
835.511	5128
835.65	4999
835.788	5079
835.926	4900
836.064	4862
836.202	4934
836.34	5162
836.478	5277
836.615	5086
836.753	5242
836.891	5318
837.029	5235
837.167	5231
837.305	5193
837.443	5151
837.58	5113
837.718	5265
837.856	5250
837.993	5181
838.131	5212
838.269	5178
838.406	5208
838.544	5201
838.681	5025
838.819	5022
838.956	4904
839.094	4946
839.231	4999
839.369	5117
839.506	5402
839.643	5269
839.781	5102
839.918	5014
840.055	5083
840.193	5109
840.33	5132
840.467	5147
840.604	5239
840.742	5425
840.879	5102
841.016	5064
841.153	5143
841.29	5387
841.427	5364
841.564	5353
841.701	5364
841.838	5273
841.975	5269
842.112	5258
842.249	5155
842.385	5128
842.522	5357
842.659	5124
842.796	5170
842.933	5223
843.069	5143
843.206	5193
843.343	5357
843.479	5292
843.616	5269
843.752	5041
843.889	5048
844.025	5208
844.162	5037
844.298	5204
844.435	5071
844.571	5064
844.708	5155
844.844	5318
844.98	5330
845.117	5330
845.253	5151
845.389	5086
845.525	5223
845.661	5174
845.798	5056
845.934	5090
846.07	5075
846.206	5220
846.342	5288
846.478	5170
846.614	5022
846.75	5022
846.886	4980
847.022	5064
847.158	5060
847.294	5079
847.429	5075
847.565	5060
847.701	5368
847.837	4885
847.972	4820
848.108	5014
848.244	4972
848.379	4790
848.515	4729
848.65	4748
848.786	4752
848.921	4805
849.057	4908
849.192	4896
849.328	4812
849.463	4866
849.598	4778
849.734	4816
849.869	4729
850.004	4702
850.14	4683
850.275	4588
850.41	4596
850.545	4607
850.68	4580
850.815	4603
850.95	4637
851.085	4801
851.22	4744
851.355	4729
851.49	4656
851.625	4649
851.76	4626
851.895	4599
852.03	4554
852.165	4729
852.299	4748
852.434	4828
852.569	4698
852.703	4774
852.838	4847
852.973	4987
853.107	4911
853.242	4782
853.376	4679
853.511	4626
853.645	4611
853.78	4774
853.914	4702
854.048	4687
854.183	4672
854.317	4668
854.451	4862
854.585	4706
854.72	4588
854.854	4763
854.988	4611
855.122	4683
855.256	4580
855.39	4660
855.524	4797
855.658	4759
855.792	4721
855.926	4740
856.06	4755
856.194	4820
856.327	4653
856.461	4630
856.595	4618
856.729	4653
856.862	4744
856.996	4721
857.13	4725
857.263	4778
857.397	4866
857.53	4668
857.664	4706
857.797	4744
857.931	4755
858.064	4694
858.197	4752
858.331	4672
858.464	4641
858.597	4550
858.731	4634
858.864	4622
858.997	4637
859.13	4645
859.263	4694
859.396	4736
859.529	4630
859.662	4580
859.795	4478
859.928	4584
860.061	4763
860.194	4744
860.327	4615
860.46	4554
860.592	4694
860.725	4733
860.858	4805
860.99	4554
861.123	4519
861.256	4466
861.388	4599
861.521	5284
861.653	4508
861.786	4443
861.918	4489
862.05	4500
862.183	4542
862.315	4618
862.447	4656
862.58	4519
862.712	4394
862.844	4329
862.976	4462
863.108	4447
863.24	4862
863.372	4356
863.504	4470
863.636	4424
863.768	4500
863.9	4424
864.032	4348
864.164	4436
864.296	4516
864.428	4542
864.559	4493
864.691	4558
864.823	4508
864.954	4504
865.086	4550
865.217	4500
865.349	4443
865.48	4497
865.612	4489
865.743	4622
865.875	4432
866.006	4462
866.137	4478
866.269	4428
866.4	4481
866.531	4409
866.662	4402
866.793	4409
866.924	4436
867.055	4508
867.186	4466
867.317	4413
867.448	4386
867.579	4417
867.71	4421
867.841	4337
867.972	4451
868.103	4440
868.233	4455
868.364	4474
868.495	4485
868.625	4668
868.756	4790
868.886	4569
869.017	4675
869.147	4736
869.278	4805
869.408	4622
869.539	4649
869.669	4748
869.799	4660
869.929	4733
870.06	4752
870.19	4961
870.32	4919
870.45	4957
870.58	5067
870.71	5128
870.84	5105
870.97	4957
871.1	4919
871.23	5189
871.36	5102
871.489	5041
871.619	5079
871.749	5094
871.879	5083
872.008	5159
872.138	5079
872.267	4976
872.397	4862
872.526	4850
872.656	4717
872.785	4778
872.915	4911
873.044	5052
873.173	4976
873.303	4980
873.432	4984
873.561	4949
873.69	4889
873.819	4889
873.948	4889
874.077	4828
874.206	4790
874.335	4809
874.464	4896
874.593	5094
874.722	4927
874.851	5060
874.979	5094
875.108	5102
875.237	4968
875.365	4854
875.494	4866
875.623	5010
875.751	4870
875.88	4946
876.008	4972
876.136	5029
876.265	5201
876.393	5334
876.521	5280
876.65	5227
876.778	5162
876.906	5071
877.034	4995
877.162	5056
877.29	5018
877.418	5064
877.546	5056
877.674	5094
877.802	5067
877.93	5022
878.058	4957
878.185	4889
878.313	4927
878.441	4938
878.568	4805
878.696	4892
878.824	4980
878.951	5018
879.079	5117
879.206	5330
879.333	5056
879.461	4965
879.588	5029
879.715	5136
879.842	5189
879.97	4980
880.097	4771
880.224	4721
880.351	4786
880.478	4847
880.605	4790
880.732	4793
880.859	5052
880.986	4881
881.112	4900
881.239	4744
881.366	4694
881.493	4668
881.619	4584
881.746	4653
881.872	4653
881.999	4645
882.125	4664
882.252	4790
882.378	4816
882.505	4972
882.631	4786
882.757	4698
882.883	4755
883.01	4725
883.136	4736
883.262	4588
883.388	4645
883.514	4835
883.64	4816
883.766	4740
883.892	4672
884.018	4725
884.143	4858
884.269	5018
884.395	4675
884.52	4618
884.646	4637
884.772	4599
884.897	4573
885.023	4634
885.148	4736
885.274	4835
885.399	4786
885.524	4740
885.65	4736
885.775	4691
885.9	4736
886.025	4858
886.15	4805
886.275	4714
886.4	4702
886.525	4721
886.65	4675
886.775	4630
886.9	4927
887.025	5041
887.149	4801
887.274	4664
887.399	4584
887.523	4588
887.648	4607
887.773	4611
887.897	4793
888.021	4763
888.146	4679
888.27	4824
888.395	4889
888.519	4805
888.643	4858
888.767	4812
888.891	4691
889.015	4607
889.139	4630
889.263	4622
889.387	4759
889.511	4870
889.635	4805
889.759	4596
889.883	4622
890.006	4710
890.13	4847
890.254	4565
890.377	4710
890.501	4580
890.624	4500
890.748	4656
890.871	4565
890.995	4428
891.118	4451
891.241	4500
891.364	4493
891.488	4630
891.611	4519
891.734	4516
891.857	4649
891.98	4546
892.103	4660
892.226	4546
892.349	4531
892.471	4470
892.594	4542
892.717	4649
892.839	4596
892.962	4580
893.085	4622
893.207	4550
893.33	4462
893.452	4470
893.575	4645
893.697	4561
893.819	4816
893.941	4816
894.064	4736
894.186	4637
894.308	4565
894.43	4721
894.552	4820
894.674	4759
894.796	4538
894.918	4603
895.04	4554
895.161	4725
895.283	4660
895.405	4596
895.526	4611
895.648	4672
895.769	4702
895.891	4706
896.012	4782
896.134	4725
896.255	4656
896.376	4615
896.498	4618
896.619	4691
896.74	4592
896.861	4672
896.982	4949
897.103	5041
897.224	4828
897.345	4717
897.466	4649
897.587	4717
897.708	4847
897.828	4755
897.949	4683
898.07	4592
898.19	4607
898.311	4812
898.431	4653
898.552	4702
898.672	4828
898.792	4839
898.913	4755
899.033	4702
899.153	4478
899.273	4489
899.393	4489
899.513	4527
899.633	4500
899.753	4516
899.873	4519
899.993	4565
900.113	4538
900.232	4611
900.352	4573
900.472	4485
900.591	4333
900.711	4485
900.83	4432
900.95	4656
901.069	4694
901.189	4565
901.308	4329
901.427	4329
901.546	4371
901.665	4493
901.784	4519
901.904	4341
902.023	4303
902.141	4150
902.26	4120
902.379	4265
902.498	4223
902.617	4200
902.735	4363
902.854	4424
902.973	4363
903.091	4173
903.21	4253
903.328	4284
903.446	4268
903.565	4265
903.683	4344
903.801	4299
903.919	4462
904.038	4402
904.156	4272
904.274	4394
904.392	4413
904.51	4489
904.627	4447
904.745	4531
904.863	4618
904.981	4421
905.098	4306
905.216	4371
905.334	4421
905.451	4367
905.569	4428
905.686	4573
905.803	4577
905.921	4424
906.038	4565
906.155	4474
906.272	4409
906.389	4455
906.506	4367
906.623	4383
906.74	4348
906.857	4314
906.974	4363
907.091	4546
907.208	4675
907.324	4546
907.441	4512
907.557	4352
907.674	4310
907.79	4284
907.907	4398
908.023	4470
908.139	4440
908.256	4428
908.372	4440
908.488	4436
908.604	4314
908.72	4299
908.836	4325
908.952	4344
909.068	4443
909.184	4577
909.3	4447
909.415	4573
909.531	4588
909.647	4352
909.762	4383
909.878	4383
909.993	4447
910.108	4394
910.224	4413
910.339	4516
910.454	4386
910.57	4333
910.685	4291
910.8	4645
910.915	4569
911.03	4481
911.145	4333
911.259	4303
911.374	4352
911.489	4337
911.604	4299
911.718	4200
911.833	4227
911.947	4093
912.062	4040
912.176	4185
912.291	4223
912.405	4246
912.519	4489
912.633	4485
912.748	4405
912.862	4344
912.976	4185
913.09	4112
913.204	4162
913.318	4227
913.431	4405
913.545	4333
913.659	4405
913.772	4363
913.886	4246
914	4234
914.113	4405
914.226	4428
914.34	4394
914.453	4188
914.566	4432
914.68	4287
914.793	4272
914.906	4162
915.019	4105
915.132	4112
915.245	4128
915.358	4227
915.47	4261
915.583	4219
915.696	4242
915.809	4375
915.921	4421
916.034	4261
916.146	4280
916.259	4207
916.371	4375
916.483	4325
916.595	4238
916.708	4367
916.82	4329
916.932	4360
917.044	4303
917.156	4284
917.268	4219
917.38	4238
917.491	4299
917.603	4352
917.715	4443
917.826	4447
917.938	4352
918.049	4253
918.161	4413
918.272	4523
918.384	4573
918.495	4432
918.606	4341
918.717	4242
918.828	4314
918.939	4356
919.05	4234
919.161	4333
919.272	4120
919.383	4257
919.494	4443
919.604	4645
919.715	4436
919.826	4276
919.936	4390
920.047	4485
920.157	4485
920.267	4691
920.378	4527
920.488	4489
920.598	4664
920.708	4877
920.818	4778
920.928	4763
921.038	4965
921.148	4889
921.258	4637
921.368	4565
921.477	4489
921.587	4451
921.697	4402
921.806	4523
921.916	4493
922.025	4276
922.134	4261
922.244	4215
922.353	4291
922.462	4169
922.571	4150
922.68	4017
922.789	3968
922.898	4044
923.007	3991
923.116	4131
923.224	4078
923.333	4082
923.442	3998
923.55	3983
923.659	4036
923.767	4078
923.876	4021
923.984	4116
924.092	3994
924.201	4051
924.309	4105
924.417	4082
924.525	4048
924.633	4090
924.741	5060
924.849	3930
924.956	4124
925.064	3956
925.172	3873
925.279	3972
925.387	4120
925.494	4044
925.602	4211
925.709	4185
925.816	4048
925.924	4112
926.031	4253
926.138	4128
926.245	4181
926.352	4120
926.459	4230
926.566	4310
926.673	4185
926.779	4086
926.886	4067
926.993	3994
927.099	3941
927.206	3915
927.312	3941
927.419	4044
927.525	4013
927.631	4143
927.737	3907
927.843	3983
927.95	3884
928.056	3930
928.162	3998
928.267	4029
928.373	4679
928.479	4097
928.585	3861
928.69	3994
928.796	4086
928.901	3941
929.007	3793
929.112	4010
929.218	3994
929.323	3937
929.428	3930
929.533	4101
929.638	3941
929.743	3949
929.848	4021
929.953	3983
930.058	3911
930.163	3800
930.267	3778
930.372	3934
930.477	3804
930.581	4036
930.685	3903
930.79	3804
930.894	3880
930.998	3838
931.103	4059
931.207	3713
931.311	3686
931.415	3644
931.519	3454
931.623	3557
