Data from test_V78500241_1058.txt Node
Date: Fri Mar 25 16:56:21 CST 2022
User: usil
Spectrometer: V785-0024
Trigger mode: 0
Integration Time (sec): 4.000000E-1
Scans to average: 1
Nonlinearity correction enabled: false
Boxcar width: 0
Storing dark spectrum: false
XAxis mode: Wavelengths
Number of Pixels in Spectrum: 1024
>>>>>Begin Spectral Data<<<<<
801.071	8008
801.214	8031
801.356	7845
801.499	7803
801.641	7795
801.783	7723
801.926	7967
802.068	7917
802.211	7909
802.353	7860
802.496	7799
802.638	7811
802.78	7890
802.923	7947
803.065	7890
803.208	7879
803.35	8005
803.492	8100
803.635	8183
803.777	8062
803.919	8157
804.061	8434
804.204	8077
804.346	8027
804.488	7921
804.63	8111
804.773	7989
804.915	8046
805.057	8290
805.199	8202
805.341	8164
805.483	8233
805.626	8168
805.768	8126
805.91	8290
806.052	8187
806.194	8126
806.336	8294
806.478	8138
806.62	8062
806.762	8115
806.904	8248
807.046	8469
807.188	8351
807.33	8309
807.472	8385
807.614	8100
807.756	8119
807.898	8024
808.04	7868
808.182	7932
808.324	7837
808.465	7928
808.607	8058
808.749	8187
808.891	8168
809.033	8332
809.174	8210
809.316	8046
809.458	8081
809.6	7932
809.741	7982
809.883	8077
810.025	8012
810.166	8031
810.308	7967
810.45	7967
810.591	7875
810.733	7674
810.875	7647
811.016	7480
811.158	7468
811.299	7559
811.441	7693
811.582	7708
811.724	7590
811.865	7556
812.007	7567
812.148	7575
812.29	7624
812.431	7639
812.573	7826
812.714	7940
812.855	8100
812.997	8088
813.138	8275
813.279	8248
813.421	8050
813.562	7936
813.703	7887
813.845	7769
813.986	7445
814.127	7202
814.268	7263
814.41	7209
814.551	7080
814.692	7198
814.833	7027
814.974	7061
815.115	7099
815.256	6996
815.397	6913
815.539	6935
815.68	6829
815.821	6825
815.962	6806
816.103	6825
816.244	6753
816.385	6677
816.526	6631
816.666	6475
816.807	6285
816.948	6456
817.089	6456
817.23	6414
817.371	6311
817.512	6380
817.653	6452
817.793	6338
817.934	6433
818.075	6395
818.216	6391
818.356	6323
818.497	6220
818.638	6087
818.778	6083
818.919	6182
819.06	6159
819.2	6277
819.341	6342
819.481	6403
819.622	6525
819.762	6719
819.903	6635
820.043	6616
820.184	6574
820.324	6528
820.465	6749
820.605	6631
820.746	6604
820.886	6490
821.026	6563
821.167	6684
821.307	6783
821.447	6730
821.588	6703
821.728	6544
821.868	6460
822.008	6304
822.149	6376
822.289	6327
822.429	6117
822.569	6068
822.709	6083
822.849	5866
822.99	5893
823.13	5885
823.27	5863
823.41	5745
823.55	5737
823.69	5764
823.83	5809
823.97	5668
824.11	5501
824.25	5490
824.389	5509
824.529	5570
824.669	5528
824.809	5611
824.949	5661
825.089	5566
825.228	5547
825.368	5391
825.508	5330
825.648	5303
825.787	5341
825.927	5330
826.067	5258
826.206	5254
826.346	5414
826.485	5360
826.625	5478
826.765	5516
826.904	5448
827.044	5269
827.183	5162
827.323	5140
827.462	5258
827.601	5124
827.741	5155
827.88	5197
828.02	5083
828.159	5223
828.298	5220
828.437	5341
828.577	5193
828.716	5436
828.855	5269
828.994	5174
829.134	5117
829.273	5124
829.412	5102
829.551	5121
829.69	5132
829.829	5204
829.968	5345
830.107	5246
830.246	5242
830.385	5140
830.524	5071
830.663	5041
830.802	4946
830.941	4892
831.08	4877
831.219	5006
831.357	4919
831.496	5105
831.635	4881
831.774	4858
831.913	4797
832.051	4721
832.19	4725
832.329	4820
832.467	4656
832.606	4554
832.744	4714
832.883	4687
833.022	4729
833.16	4774
833.299	4809
833.437	4805
833.576	4816
833.714	4839
833.852	4812
833.991	4877
834.129	4972
834.267	4938
834.406	4881
834.544	4942
834.682	4961
834.821	4915
834.959	5132
835.097	5003
835.235	5132
835.373	5064
835.511	5094
835.65	4991
835.788	4984
835.926	4870
836.064	4862
836.202	4858
836.34	5147
836.478	5265
836.615	5109
836.753	5159
836.891	5235
837.029	5246
837.167	5242
837.305	5124
837.443	5151
837.58	5075
837.718	5208
837.856	5189
837.993	5071
838.131	5193
838.269	5159
838.406	5166
838.544	5147
838.681	5067
838.819	5022
838.956	4911
839.094	4873
839.231	4991
839.369	5079
839.506	5421
839.643	5227
839.781	5083
839.918	4953
840.055	5083
840.193	5102
840.33	5117
840.467	5098
840.604	5212
840.742	5417
840.879	5102
841.016	5056
841.153	5094
841.29	5357
841.427	5349
841.564	5265
841.701	5368
841.838	5250
841.975	5246
842.112	5258
842.249	5098
842.385	5052
842.522	5337
842.659	5140
842.796	5113
842.933	5147
843.069	5140
843.206	5109
843.343	5250
843.479	5147
843.616	5220
843.752	5010
843.889	5014
844.025	5216
844.162	5006
844.298	5223
844.435	5121
844.571	5025
844.708	5136
844.844	5299
844.98	5326
845.117	5265
845.253	5155
845.389	5052
845.525	5151
845.661	5098
845.798	5041
845.934	5075
846.07	5090
846.206	5193
846.342	5258
846.478	5220
846.614	4949
846.75	4953
846.886	4908
847.022	5140
847.158	5048
847.294	5083
847.429	5102
847.565	5022
847.701	5322
847.837	4774
847.972	4847
848.108	4919
848.244	4911
848.379	4786
848.515	4714
848.65	4729
848.786	4744
848.921	4729
849.057	4881
849.192	4881
849.328	4824
849.463	4820
849.598	4786
849.734	4778
849.869	4649
850.004	4641
850.14	4634
850.275	4584
850.41	4500
850.545	4565
850.68	4599
850.815	4634
850.95	4611
851.085	4793
851.22	4748
851.355	4675
851.49	4656
851.625	4596
851.76	4622
851.895	4474
852.03	4550
852.165	4637
852.299	4664
852.434	4771
852.569	4725
852.703	4740
852.838	4835
852.973	4942
853.107	4934
853.242	4698
853.376	4710
853.511	4542
853.645	4611
853.78	4759
853.914	4649
854.048	4641
854.183	4622
854.317	4675
854.451	4866
854.585	4637
854.72	4607
854.854	4752
854.988	4577
855.122	4584
855.256	4508
855.39	4611
855.524	4771
855.658	4702
855.792	4656
855.926	4740
856.06	4714
856.194	4816
856.327	4664
856.461	4580
856.595	4618
856.729	4622
856.862	4736
856.996	4645
857.13	4744
857.263	4774
857.397	4767
857.53	4630
857.664	4744
857.797	4706
857.931	4793
858.064	4725
858.197	4736
858.331	4664
858.464	4580
858.597	4535
858.731	4615
858.864	4618
858.997	4569
859.13	4622
859.263	4702
859.396	4683
859.529	4588
859.662	4546
859.795	4500
859.928	4588
860.061	4714
860.194	4744
860.327	4592
860.46	4516
860.592	4672
860.725	4748
860.858	4748
860.99	4550
861.123	4485
861.256	4550
861.388	4641
861.521	5280
861.653	4459
861.786	4440
861.918	4459
862.05	4497
862.183	4508
862.315	4611
862.447	4626
862.58	4523
862.712	4367
862.844	4314
862.976	4489
863.108	4462
863.24	4866
863.372	4303
863.504	4352
863.636	4428
863.768	4462
863.9	4432
864.032	4367
864.164	4383
864.296	4459
864.428	4550
864.559	4546
864.691	4481
864.823	4504
864.954	4470
865.086	4558
865.217	4436
865.349	4436
865.48	4462
865.612	4470
865.743	4599
865.875	4481
866.006	4436
866.137	4481
866.269	4421
866.4	4440
866.531	4421
866.662	4348
866.793	4394
866.924	4413
867.055	4516
867.186	4428
867.317	4440
867.448	4306
867.579	4424
867.71	4375
867.841	4348
867.972	4413
868.103	4443
868.233	4474
868.364	4470
868.495	4497
868.625	4649
868.756	4740
868.886	4588
869.017	4611
869.147	4835
869.278	4736
869.408	4580
869.539	4622
869.669	4752
869.799	4653
869.929	4725
870.06	4755
870.19	4900
870.32	4866
870.45	4938
870.58	4999
870.71	5094
870.84	5071
870.97	4953
871.1	4908
871.23	5086
871.36	5067
871.489	5041
871.619	5086
871.749	5094
871.879	5136
872.008	5155
872.138	5048
872.267	4949
872.397	4835
872.526	4790
872.656	4702
872.785	4816
872.915	4976
873.044	5041
873.173	4946
873.303	4900
873.432	4923
873.561	4896
873.69	4881
873.819	4820
873.948	4942
874.077	4809
874.206	4774
874.335	4828
874.464	4896
874.593	5048
874.722	4942
874.851	5052
874.979	5022
875.108	5022
875.237	4873
875.365	4892
875.494	4904
875.623	4949
875.751	4771
875.88	4862
876.008	4934
876.136	5033
876.265	5147
876.393	5288
876.521	5231
876.65	5208
876.778	5132
876.906	5033
877.034	5025
877.162	5079
877.29	4991
877.418	5064
877.546	4987
877.674	5067
877.802	4984
877.93	4995
878.058	4881
878.185	4816
878.313	4908
878.441	4942
878.568	4831
878.696	4877
878.824	4965
878.951	4987
879.079	5132
879.206	5265
879.333	5071
879.461	4965
879.588	4927
879.715	5128
879.842	5288
879.97	4919
880.097	4782
880.224	4675
880.351	4831
880.478	4797
880.605	4782
880.732	4752
880.859	5048
880.986	4873
881.112	4904
881.239	4778
881.366	4622
881.493	4584
881.619	4546
881.746	4649
881.872	4641
881.999	4626
882.125	4683
882.252	4740
882.378	4782
882.505	4953
882.631	4820
882.757	4664
882.883	4687
883.01	4691
883.136	4649
883.262	4588
883.388	4611
883.514	4771
883.64	4831
883.766	4812
883.892	4672
884.018	4752
884.143	4881
884.269	4999
884.395	4645
884.52	4592
884.646	4664
884.772	4588
884.897	4519
885.023	4656
885.148	4793
885.274	4843
885.399	4790
885.524	4729
885.65	4664
885.775	4759
885.9	4675
886.025	4828
886.15	4774
886.275	4740
886.4	4641
886.525	4702
886.65	4725
886.775	4683
886.9	4831
887.025	5052
887.149	4820
887.274	4634
887.399	4573
887.523	4626
887.648	4542
887.773	4565
887.897	4755
888.021	4816
888.146	4630
888.27	4809
888.395	4881
888.519	4710
888.643	4767
888.767	4801
888.891	4683
889.015	4554
889.139	4592
889.263	4634
889.387	4717
889.511	4801
889.635	4805
889.759	4622
889.883	4622
890.006	4733
890.13	4793
890.254	4603
890.377	4702
890.501	4493
890.624	4516
890.748	4607
890.871	4535
890.995	4402
891.118	4333
891.241	4485
891.364	4573
891.488	4607
891.611	4504
891.734	4462
891.857	4615
891.98	4538
892.103	4653
892.226	4573
892.349	4489
892.471	4363
892.594	4527
892.717	4558
892.839	4550
892.962	4611
893.085	4630
893.207	4573
893.33	4440
893.452	4478
893.575	4649
893.697	4561
893.819	4767
893.941	4793
894.064	4717
894.186	4542
894.308	4531
894.43	4710
894.552	4820
894.674	4729
894.796	4535
894.918	4546
895.04	4561
895.161	4668
895.283	4668
895.405	4546
895.526	4618
895.648	4660
895.769	4702
895.891	4691
896.012	4702
896.134	4702
896.255	4721
896.376	4626
896.498	4573
896.619	4660
896.74	4577
896.861	4645
896.982	4949
897.103	5045
897.224	4820
897.345	4752
897.466	4653
897.587	4649
897.708	4771
897.828	4755
897.949	4691
898.07	4569
898.19	4569
898.311	4809
898.431	4672
898.552	4706
898.672	4771
898.792	4771
898.913	4725
899.033	4611
899.153	4489
899.273	4424
899.393	4478
899.513	4538
899.633	4481
899.753	4531
899.873	4500
899.993	4607
900.113	4508
900.232	4596
900.352	4531
900.472	4493
900.591	4402
900.711	4504
900.83	4421
900.95	4535
901.069	4672
901.189	4554
901.308	4329
901.427	4306
901.546	4333
901.665	4459
901.784	4436
901.904	4348
902.023	4306
902.141	4173
902.26	4173
902.379	4325
902.498	4196
902.617	4215
902.735	4318
902.854	4405
902.973	4348
903.091	4211
903.21	4211
903.328	4325
903.446	4249
903.565	4238
903.683	4341
903.801	4310
903.919	4402
904.038	4432
904.156	4325
904.274	4383
904.392	4390
904.51	4405
904.627	4451
904.745	4596
904.863	4596
904.981	4413
905.098	4280
905.216	4413
905.334	4367
905.451	4428
905.569	4402
905.686	4538
905.803	4546
905.921	4352
906.038	4535
906.155	4462
906.272	4402
906.389	4443
906.506	4363
906.623	4390
906.74	4421
906.857	4322
906.974	4356
907.091	4573
907.208	4641
907.324	4531
907.441	4516
907.557	4310
907.674	4295
907.79	4303
907.907	4390
908.023	4436
908.139	4500
908.256	4447
908.372	4462
908.488	4447
908.604	4344
908.72	4329
908.836	4348
908.952	4348
909.068	4447
909.184	4580
909.3	4436
909.415	4573
909.531	4580
909.647	4375
909.762	4344
909.878	4333
909.993	4478
910.108	4402
910.224	4394
910.339	4451
910.454	4375
910.57	4341
910.685	4291
910.8	4603
910.915	4577
911.03	4466
911.145	4314
911.259	4341
911.374	4375
911.489	4314
911.604	4253
911.718	4154
911.833	4173
911.947	4051
912.062	4017
912.176	4200
912.291	4276
912.405	4196
912.519	4436
912.633	4470
912.748	4390
912.862	4276
912.976	4158
913.09	4063
913.204	4169
913.318	4265
913.431	4402
913.545	4360
913.659	4432
913.772	4363
913.886	4253
914	4234
914.113	4344
914.226	4409
914.34	4375
914.453	4246
914.566	4413
914.68	4291
914.793	4295
914.906	4112
915.019	4143
915.132	4093
915.245	4147
915.358	4188
915.47	4204
915.583	4249
915.696	4329
915.809	4424
915.921	4428
916.034	4227
916.146	4265
916.259	4219
916.371	4379
916.483	4398
916.595	4234
916.708	4299
916.82	4348
916.932	4318
917.044	4295
917.156	4295
917.268	4257
917.38	4291
917.491	4242
917.603	4344
917.715	4402
917.826	4428
917.938	4352
918.049	4177
918.161	4386
918.272	4538
918.384	4489
918.495	4447
918.606	4249
918.717	4227
918.828	4314
918.939	4344
919.05	4284
919.161	4314
919.272	4109
919.383	4192
919.494	4386
919.604	4592
919.715	4428
919.826	4325
919.936	4379
920.047	4500
920.157	4470
920.267	4710
920.378	4523
920.488	4512
920.598	4668
920.708	4870
920.818	4744
920.928	4736
921.038	4930
921.148	4889
921.258	4603
921.368	4546
921.477	4481
921.587	4443
921.697	4386
921.806	4493
921.916	4405
922.025	4265
922.134	4257
922.244	4223
922.353	4303
922.462	4158
922.571	4120
922.68	4002
922.789	3956
922.898	4025
923.007	3991
923.116	4093
923.224	4021
923.333	4063
923.442	4017
923.55	3918
923.659	4013
923.767	4067
923.876	4006
923.984	4139
924.092	3949
924.201	4044
924.309	4086
924.417	4093
924.525	4055
924.633	4112
924.741	4965
924.849	3911
924.956	4105
925.064	3972
925.172	3911
925.279	3987
925.387	4055
925.494	4032
925.602	4173
925.709	4219
925.816	4029
925.924	4143
926.031	4227
926.138	4147
926.245	4196
926.352	4093
926.459	4284
926.566	4280
926.673	4166
926.779	4071
926.886	4071
926.993	3972
927.099	3941
927.206	3907
927.312	3987
927.419	4051
927.525	4032
927.631	4078
927.737	3956
927.843	3907
927.95	3823
928.056	4002
928.162	3979
928.267	4097
928.373	4649
928.479	4071
928.585	3865
928.69	4036
928.796	4067
928.901	3953
929.007	3842
929.112	4006
929.218	3983
929.323	3953
929.428	3911
929.533	4082
929.638	3873
929.743	3968
929.848	4055
929.953	3956
930.058	3915
930.163	3766
930.267	3793
930.372	3941
930.477	3800
930.581	4067
930.685	3907
930.79	3854
930.894	3861
930.998	3899
931.103	3998
931.207	3675
931.311	3713
931.415	3618
931.519	3473
931.623	3526
