Data from test_V78500241_2212.txt Node
Date: Fri Mar 25 17:04:22 CST 2022
User: usil
Spectrometer: V785-0024
Trigger mode: 0
Integration Time (sec): 4.000000E-1
Scans to average: 1
Nonlinearity correction enabled: false
Boxcar width: 0
Storing dark spectrum: false
XAxis mode: Wavelengths
Number of Pixels in Spectrum: 1024
>>>>>Begin Spectral Data<<<<<
801.071	7947
801.214	7997
801.356	7841
801.499	7795
801.641	7734
801.783	7830
801.926	8054
802.068	7921
802.211	8027
802.353	8001
802.496	7909
802.638	7849
802.78	7856
802.923	7902
803.065	7837
803.208	7803
803.35	7917
803.492	8062
803.635	8107
803.777	8035
803.919	8123
804.061	8400
804.204	8199
804.346	8054
804.488	7967
804.63	8142
804.773	8058
804.915	8142
805.057	8305
805.199	8145
805.341	8233
805.483	8271
805.626	8206
805.768	8153
805.91	8221
806.052	8305
806.194	8054
806.336	8244
806.478	8043
806.62	8054
806.762	8157
806.904	8305
807.046	8419
807.188	8328
807.33	8256
807.472	8362
807.614	8199
807.756	8168
807.898	7959
808.04	7826
808.182	7906
808.324	7849
808.465	7826
808.607	8092
808.749	8111
808.891	8237
809.033	8347
809.174	8187
809.316	8069
809.458	8107
809.6	7989
809.741	7986
809.883	7936
810.025	8084
810.166	8096
810.308	7940
810.45	7909
810.591	7830
810.733	7719
810.875	7605
811.016	7499
811.158	7464
811.299	7537
811.441	7693
811.582	7662
811.724	7544
811.865	7533
812.007	7540
812.148	7575
812.29	7636
812.431	7807
812.573	7887
812.714	7944
812.855	8088
812.997	8187
813.138	8244
813.279	8115
813.421	8065
813.562	8001
813.703	7849
813.845	7639
813.986	7407
814.127	7274
814.268	7228
814.41	7145
814.551	7183
814.692	7228
814.833	7152
814.974	7107
815.115	7088
815.256	6943
815.397	6890
815.539	6947
815.68	6829
815.821	6722
815.962	6886
816.103	6821
816.244	6673
816.385	6620
816.526	6677
816.666	6456
816.807	6334
816.948	6445
817.089	6407
817.23	6395
817.371	6395
817.512	6395
817.653	6448
817.793	6262
817.934	6388
818.075	6429
818.216	6399
818.356	6410
818.497	6292
818.638	6163
818.778	6175
818.919	6152
819.06	6209
819.2	6311
819.341	6319
819.481	6391
819.622	6513
819.762	6703
819.903	6688
820.043	6616
820.184	6570
820.324	6608
820.465	6692
820.605	6593
820.746	6616
820.886	6551
821.026	6665
821.167	6658
821.307	6787
821.447	6749
821.588	6623
821.728	6486
821.868	6506
822.008	6361
822.149	6350
822.289	6365
822.429	6201
822.569	6091
822.709	6125
822.849	5885
822.99	5847
823.13	5977
823.27	5897
823.41	5794
823.55	5729
823.69	5794
823.83	5794
823.97	5657
824.11	5532
824.25	5524
824.389	5547
824.529	5611
824.669	5501
824.809	5573
824.949	5707
825.089	5657
825.228	5592
825.368	5376
825.508	5296
825.648	5322
825.787	5341
825.927	5364
826.067	5330
826.206	5284
826.346	5379
826.485	5425
826.625	5383
826.765	5551
826.904	5486
827.044	5261
827.183	5181
827.323	5162
827.462	5220
827.601	5151
827.741	5147
827.88	5223
828.02	5086
828.159	5231
828.298	5277
828.437	5379
828.577	5307
828.716	5482
828.855	5330
828.994	5227
829.134	5113
829.273	5166
829.412	5143
829.551	5143
829.69	5136
829.829	5227
829.968	5425
830.107	5280
830.246	5292
830.385	5162
830.524	5181
830.663	5052
830.802	4961
830.941	4877
831.08	4889
831.219	4980
831.357	4965
831.496	5121
831.635	4908
831.774	4850
831.913	4790
832.051	4786
832.19	4748
832.329	4831
832.467	4630
832.606	4649
832.744	4755
832.883	4694
833.022	4725
833.16	4801
833.299	4790
833.437	4870
833.576	4850
833.714	4892
833.852	4870
833.991	4892
834.129	4915
834.267	4942
834.406	4858
834.544	4961
834.682	4934
834.821	4923
834.959	5193
835.097	4987
835.235	5147
835.373	5098
835.511	5113
835.65	5075
835.788	4999
835.926	4896
836.064	4835
836.202	4870
836.34	5147
836.478	5204
836.615	5140
836.753	5227
836.891	5258
837.029	5311
837.167	5212
837.305	5136
837.443	5109
837.58	5083
837.718	5311
837.856	5204
837.993	5067
838.131	5197
838.269	5235
838.406	5178
838.544	5155
838.681	5025
838.819	5037
838.956	4938
839.094	4881
839.231	4976
839.369	5010
839.506	5444
839.643	5231
839.781	5094
839.918	5029
840.055	5083
840.193	5094
840.33	5132
840.467	5113
840.604	5181
840.742	5421
840.879	5056
841.016	5045
841.153	5109
841.29	5288
841.427	5315
841.564	5288
841.701	5368
841.838	5292
841.975	5223
842.112	5296
842.249	5121
842.385	5113
842.522	5318
842.659	5185
842.796	5147
842.933	5223
843.069	5109
843.206	5124
843.343	5273
843.479	5220
843.616	5269
843.752	5029
843.889	5045
844.025	5231
844.162	5041
844.298	5220
844.435	5048
844.571	5048
844.708	5185
844.844	5334
844.98	5364
845.117	5254
845.253	5117
845.389	5102
845.525	5178
845.661	5117
845.798	5033
845.934	5174
846.07	5014
846.206	5193
846.342	5284
846.478	5193
846.614	4999
846.75	4930
846.886	4885
847.022	5109
847.158	5052
847.294	5052
847.429	5105
847.565	5014
847.701	5353
847.837	4847
847.972	4752
848.108	4930
848.244	4972
848.379	4778
848.515	4691
848.65	4683
848.786	4736
848.921	4782
849.057	4847
849.192	4885
849.328	4752
849.463	4831
849.598	4767
849.734	4691
849.869	4729
850.004	4622
850.14	4687
850.275	4641
850.41	4500
850.545	4569
850.68	4588
850.815	4599
850.95	4615
851.085	4782
851.22	4744
851.355	4649
851.49	4558
851.625	4599
851.76	4645
851.895	4584
852.03	4493
852.165	4634
852.299	4710
852.434	4778
852.569	4763
852.703	4774
852.838	4862
852.973	4934
853.107	4870
853.242	4729
853.376	4672
853.511	4489
853.645	4607
853.78	4805
853.914	4725
854.048	4660
854.183	4645
854.317	4641
854.451	4812
854.585	4664
854.72	4672
854.854	4740
854.988	4577
855.122	4710
855.256	4508
855.39	4656
855.524	4778
855.658	4733
855.792	4710
855.926	4714
856.06	4748
856.194	4782
856.327	4679
856.461	4649
856.595	4637
856.729	4607
856.862	4748
856.996	4694
857.13	4733
857.263	4710
857.397	4801
857.53	4656
857.664	4725
857.797	4759
857.931	4843
858.064	4641
858.197	4729
858.331	4649
858.464	4596
858.597	4481
858.731	4641
858.864	4618
858.997	4580
859.13	4656
859.263	4622
859.396	4744
859.529	4580
859.662	4550
859.795	4554
859.928	4596
860.061	4653
860.194	4782
860.327	4596
860.46	4527
860.592	4725
860.725	4694
860.858	4771
860.99	4607
861.123	4462
861.256	4527
861.388	4656
861.521	5322
861.653	4489
861.786	4455
861.918	4462
862.05	4558
862.183	4580
862.315	4542
862.447	4637
862.58	4527
862.712	4386
862.844	4299
862.976	4489
863.108	4440
863.24	4767
863.372	4344
863.504	4405
863.636	4421
863.768	4474
863.9	4440
864.032	4394
864.164	4402
864.296	4516
864.428	4535
864.559	4538
864.691	4580
864.823	4459
864.954	4527
865.086	4519
865.217	4424
865.349	4440
865.48	4497
865.612	4462
865.743	4577
865.875	4417
866.006	4405
866.137	4504
866.269	4462
866.4	4417
866.531	4402
866.662	4363
866.793	4352
866.924	4413
867.055	4527
867.186	4451
867.317	4375
867.448	4367
867.579	4409
867.71	4379
867.841	4341
867.972	4504
868.103	4470
868.233	4474
868.364	4459
868.495	4470
868.625	4679
868.756	4725
868.886	4573
869.017	4668
869.147	4710
869.278	4820
869.408	4672
869.539	4592
869.669	4687
869.799	4626
869.929	4740
870.06	4755
870.19	4965
870.32	4927
870.45	4923
870.58	5006
870.71	5113
870.84	5067
870.97	4972
871.1	4946
871.23	5178
871.36	5132
871.489	5048
871.619	5064
871.749	5075
871.879	5151
872.008	5132
872.138	5041
872.267	4995
872.397	4839
872.526	4809
872.656	4691
872.785	4778
872.915	4957
873.044	5048
873.173	4972
873.303	4953
873.432	4957
873.561	4968
873.69	4904
873.819	4866
873.948	4930
874.077	4820
874.206	4759
874.335	4763
874.464	4885
874.593	4976
874.722	4980
874.851	5105
874.979	5075
875.108	5029
875.237	4927
875.365	4862
875.494	4854
875.623	4961
875.751	4862
875.88	4847
876.008	4987
876.136	5048
876.265	5227
876.393	5364
876.521	5292
876.65	5227
876.778	5193
876.906	5079
877.034	4972
877.162	5071
877.29	4980
877.418	5056
877.546	5060
877.674	5029
877.802	5010
877.93	5079
878.058	4919
878.185	4850
878.313	4946
878.441	4946
878.568	4805
878.696	4881
878.824	4942
878.951	5003
879.079	5143
879.206	5318
879.333	5147
879.461	4953
879.588	5006
879.715	5075
879.842	5231
879.97	4949
880.097	4816
880.224	4702
880.351	4820
880.478	4786
880.605	4824
880.732	4793
880.859	5045
880.986	4919
881.112	4881
881.239	4786
881.366	4714
881.493	4603
881.619	4637
881.746	4626
881.872	4649
881.999	4622
882.125	4679
882.252	4793
882.378	4843
882.505	4923
882.631	4763
882.757	4656
882.883	4736
883.01	4717
883.136	4729
883.262	4596
883.388	4615
883.514	4797
883.64	4881
883.766	4767
883.892	4675
884.018	4744
884.143	4911
884.269	4995
884.395	4660
884.52	4645
884.646	4630
884.772	4561
884.897	4546
885.023	4691
885.148	4809
885.274	4812
885.399	4786
885.524	4733
885.65	4656
885.775	4714
885.9	4675
886.025	4850
886.15	4763
886.275	4733
886.4	4641
886.525	4721
886.65	4637
886.775	4706
886.9	4885
887.025	5003
887.149	4824
887.274	4653
887.399	4668
887.523	4565
887.648	4603
887.773	4561
887.897	4759
888.021	4752
888.146	4630
888.27	4793
888.395	4904
888.519	4854
888.643	4850
888.767	4828
888.891	4691
889.015	4577
889.139	4634
889.263	4573
889.387	4759
889.511	4881
889.635	4801
889.759	4683
889.883	4634
890.006	4729
890.13	4809
890.254	4622
890.377	4634
890.501	4542
890.624	4550
890.748	4622
890.871	4535
890.995	4478
891.118	4398
891.241	4493
891.364	4546
891.488	4618
891.611	4481
891.734	4519
891.857	4592
891.98	4523
892.103	4645
892.226	4523
892.349	4516
892.471	4424
892.594	4535
892.717	4599
892.839	4580
892.962	4596
893.085	4675
893.207	4592
893.33	4440
893.452	4523
893.575	4630
893.697	4596
893.819	4793
893.941	4847
894.064	4744
894.186	4618
894.308	4565
894.43	4752
894.552	4847
894.674	4725
894.796	4527
894.918	4550
895.04	4584
895.161	4740
895.283	4641
895.405	4573
895.526	4615
895.648	4691
895.769	4626
895.891	4691
896.012	4736
896.134	4706
896.255	4630
896.376	4668
896.498	4641
896.619	4679
896.74	4588
896.861	4660
896.982	4911
897.103	5067
897.224	4816
897.345	4733
897.466	4649
897.587	4733
897.708	4858
897.828	4774
897.949	4694
898.07	4565
898.19	4649
898.311	4790
898.431	4683
898.552	4774
898.672	4774
898.792	4778
898.913	4782
899.033	4596
899.153	4504
899.273	4470
899.393	4470
899.513	4577
899.633	4535
899.753	4615
899.873	4538
899.993	4596
900.113	4546
900.232	4569
900.352	4523
900.472	4542
900.591	4424
900.711	4474
900.83	4394
900.95	4592
901.069	4679
901.189	4538
901.308	4386
901.427	4329
901.546	4394
901.665	4470
901.784	4504
901.904	4386
902.023	4306
902.141	4227
902.26	4147
902.379	4314
902.498	4253
902.617	4234
902.735	4363
902.854	4375
902.973	4344
903.091	4215
903.21	4188
903.328	4306
903.446	4272
903.565	4268
903.683	4344
903.801	4272
903.919	4386
904.038	4428
904.156	4299
904.274	4405
904.392	4409
904.51	4432
904.627	4394
904.745	4554
904.863	4615
904.981	4394
905.098	4291
905.216	4325
905.334	4462
905.451	4440
905.569	4428
905.686	4565
905.803	4584
905.921	4413
906.038	4584
906.155	4462
906.272	4386
906.389	4462
906.506	4352
906.623	4398
906.74	4386
906.857	4291
906.974	4390
907.091	4550
907.208	4683
907.324	4550
907.441	4474
907.557	4363
907.674	4341
907.79	4253
907.907	4371
908.023	4512
908.139	4451
908.256	4386
908.372	4481
908.488	4424
908.604	4352
908.72	4344
908.836	4348
908.952	4322
909.068	4443
909.184	4550
909.3	4470
909.415	4630
909.531	4504
909.647	4379
909.762	4405
909.878	4310
909.993	4462
910.108	4428
910.224	4379
910.339	4447
910.454	4466
910.57	4383
910.685	4284
910.8	4637
910.915	4592
911.03	4504
911.145	4333
911.259	4363
911.374	4322
911.489	4295
911.604	4261
911.718	4143
911.833	4227
911.947	4074
912.062	4051
912.176	4215
912.291	4185
912.405	4234
912.519	4493
912.633	4527
912.748	4303
912.862	4284
912.976	4192
913.09	4124
913.204	4192
913.318	4223
913.431	4356
913.545	4402
913.659	4421
913.772	4341
913.886	4246
914	4253
914.113	4405
914.226	4413
914.34	4462
914.453	4238
914.566	4428
914.68	4306
914.793	4356
914.906	4150
915.019	4135
915.132	4112
915.245	4200
915.358	4238
915.47	4207
915.583	4242
915.696	4318
915.809	4390
915.921	4398
916.034	4253
916.146	4261
916.259	4185
916.371	4371
916.483	4390
916.595	4223
916.708	4352
916.82	4284
916.932	4291
917.044	4261
917.156	4360
917.268	4223
917.38	4291
917.491	4246
917.603	4352
917.715	4470
917.826	4459
917.938	4383
918.049	4242
918.161	4390
918.272	4535
918.384	4500
918.495	4417
918.606	4280
918.717	4230
918.828	4318
918.939	4337
919.05	4291
919.161	4325
919.272	4158
919.383	4227
919.494	4466
919.604	4641
919.715	4428
919.826	4348
919.936	4398
920.047	4538
920.157	4508
920.267	4668
920.378	4519
920.488	4489
920.598	4706
920.708	4870
920.818	4759
920.928	4797
921.038	4984
921.148	4930
921.258	4603
921.368	4531
921.477	4470
921.587	4402
921.697	4417
921.806	4546
921.916	4356
922.025	4284
922.134	4272
922.244	4246
922.353	4329
922.462	4154
922.571	4097
922.68	4029
922.789	3960
922.898	4002
923.007	3991
923.116	4093
923.224	4071
923.333	4059
923.442	3987
923.55	3979
923.659	4063
923.767	4147
923.876	4029
923.984	4112
924.092	3964
924.201	4128
924.309	4097
924.417	4055
924.525	4048
924.633	4097
924.741	5029
924.849	3922
924.956	4135
925.064	3953
925.172	3903
925.279	3934
925.387	4032
925.494	4059
925.602	4227
925.709	4173
925.816	4021
925.924	4120
926.031	4177
926.138	4128
926.245	4207
926.352	4086
926.459	4242
926.566	4253
926.673	4143
926.779	4059
926.886	4071
926.993	3975
927.099	3949
927.206	3949
927.312	3960
927.419	4029
927.525	4082
927.631	4048
927.737	3930
927.843	3945
927.95	3827
928.056	3964
928.162	3915
928.267	4044
928.373	4645
928.479	4093
928.585	3842
928.69	4013
928.796	4086
928.901	3975
929.007	3774
929.112	3991
929.218	3953
929.323	3953
929.428	3907
929.533	4093
929.638	3903
929.743	3949
929.848	4021
929.953	3987
930.058	3880
930.163	3755
930.267	3804
930.372	3983
930.477	3789
930.581	4093
930.685	3945
930.79	3819
930.894	3899
930.998	3888
931.103	3991
931.207	3648
931.311	3698
931.415	3660
931.519	3530
931.623	3557
