Data from test_V78500241_394.txt Node
Date: Fri Mar 25 16:51:44 CST 2022
User: usil
Spectrometer: V785-0024
Trigger mode: 0
Integration Time (sec): 4.000000E-1
Scans to average: 1
Nonlinearity correction enabled: false
Boxcar width: 0
Storing dark spectrum: false
XAxis mode: Wavelengths
Number of Pixels in Spectrum: 1024
>>>>>Begin Spectral Data<<<<<
801.071	8092
801.214	8119
801.356	7936
801.499	7856
801.641	7879
801.783	7955
801.926	8001
802.068	8001
802.211	8027
802.353	8027
802.496	7963
802.638	7879
802.78	8024
802.923	7970
803.065	7925
803.208	7841
803.35	8065
803.492	8062
803.635	8096
803.777	8024
803.919	8164
804.061	8450
804.204	8134
804.346	8046
804.488	8012
804.63	8111
804.773	8001
804.915	8103
805.057	8396
805.199	8202
805.341	8248
805.483	8339
805.626	8191
805.768	8088
805.91	8111
806.052	8142
806.194	8123
806.336	8343
806.478	8187
806.62	8180
806.762	8210
806.904	8305
807.046	8469
807.188	8377
807.33	8347
807.472	8275
807.614	8187
807.756	8172
807.898	8138
808.04	7887
808.182	7970
808.324	7978
808.465	7917
808.607	8107
808.749	8172
808.891	8271
809.033	8286
809.174	8279
809.316	8062
809.458	8111
809.6	7974
809.741	8062
809.883	8073
810.025	8153
810.166	8054
810.308	8084
810.45	8081
810.591	7913
810.733	7750
810.875	7689
811.016	7639
811.158	7529
811.299	7609
811.441	7868
811.582	7765
811.724	7662
811.865	7655
812.007	7655
812.148	7655
812.29	7647
812.431	7780
812.573	7913
812.714	7986
812.855	8123
812.997	8298
813.138	8393
813.279	8248
813.421	8096
813.562	8111
813.703	7879
813.845	7837
813.986	7537
814.127	7377
814.268	7331
814.41	7285
814.551	7190
814.692	7228
814.833	7069
814.974	7160
815.115	7133
815.256	7000
815.397	6935
815.539	7008
815.68	6852
815.821	6825
815.962	6852
816.103	6924
816.244	6760
816.385	6650
816.526	6635
816.666	6506
816.807	6331
816.948	6448
817.089	6555
817.23	6494
817.371	6467
817.512	6410
817.653	6399
817.793	6441
817.934	6433
818.075	6445
818.216	6536
818.356	6467
818.497	6281
818.638	6095
818.778	6186
818.919	6254
819.06	6152
819.2	6350
819.341	6311
819.481	6327
819.622	6604
819.762	6802
819.903	6738
820.043	6555
820.184	6631
820.324	6566
820.465	6757
820.605	6772
820.746	6665
820.886	6593
821.026	6662
821.167	6776
821.307	6878
821.447	6783
821.588	6730
821.728	6635
821.868	6547
822.008	6372
822.149	6418
822.289	6357
822.429	6209
822.569	6125
822.709	6167
822.849	5980
822.99	5958
823.13	5916
823.27	5946
823.41	5813
823.55	5783
823.69	5832
823.83	5836
823.97	5710
824.11	5551
824.25	5520
824.389	5608
824.529	5604
824.669	5581
824.809	5638
824.949	5657
825.089	5680
825.228	5570
825.368	5421
825.508	5391
825.648	5368
825.787	5410
825.927	5414
826.067	5322
826.206	5357
826.346	5444
826.485	5440
826.625	5467
826.765	5600
826.904	5490
827.044	5292
827.183	5265
827.323	5159
827.462	5326
827.601	5178
827.741	5258
827.88	5242
828.02	5117
828.159	5250
828.298	5315
828.437	5353
828.577	5299
828.716	5532
828.855	5334
828.994	5185
829.134	5136
829.273	5273
829.412	5143
829.551	5151
829.69	5170
829.829	5201
829.968	5364
830.107	5254
830.246	5341
830.385	5197
830.524	5220
830.663	5075
830.802	5003
830.941	4870
831.08	4938
831.219	5037
831.357	5010
831.496	5197
831.635	4934
831.774	4847
831.913	4930
832.051	4729
832.19	4828
832.329	4870
832.467	4717
832.606	4599
832.744	4729
832.883	4820
833.022	4725
833.16	4790
833.299	4854
833.437	4850
833.576	4816
833.714	4873
833.852	4885
833.991	4946
834.129	4968
834.267	4930
834.406	4915
834.544	5003
834.682	5014
834.821	4957
834.959	5197
835.097	5029
835.235	5090
835.373	5094
835.511	5143
835.65	5090
835.788	5071
835.926	4934
836.064	4885
836.202	4949
836.34	5193
836.478	5235
836.615	5083
836.753	5189
836.891	5318
837.029	5269
837.167	5212
837.305	5193
837.443	5143
837.58	5113
837.718	5227
837.856	5201
837.993	5159
838.131	5265
838.269	5212
838.406	5242
838.544	5178
838.681	5056
838.819	5033
838.956	4942
839.094	4980
839.231	4976
839.369	5094
839.506	5402
839.643	5296
839.781	5102
839.918	5033
840.055	5098
840.193	5113
840.33	5155
840.467	5136
840.604	5212
840.742	5421
840.879	5090
841.016	5132
841.153	5155
841.29	5414
841.427	5326
841.564	5345
841.701	5410
841.838	5315
841.975	5280
842.112	5280
842.249	5216
842.385	5105
842.522	5345
842.659	5159
842.796	5223
842.933	5201
843.069	5223
843.206	5193
843.343	5280
843.479	5204
843.616	5277
843.752	5022
843.889	5010
844.025	5280
844.162	5033
844.298	5166
844.435	5121
844.571	5128
844.708	5212
844.844	5341
844.98	5349
845.117	5318
845.253	5159
845.389	5098
845.525	5140
845.661	5143
845.798	5064
845.934	5147
846.07	5094
846.206	5189
846.342	5315
846.478	5193
846.614	5071
846.75	5006
846.886	4984
847.022	5094
847.158	5060
847.294	5090
847.429	5121
847.565	5083
847.701	5398
847.837	4885
847.972	4850
848.108	4946
848.244	4949
848.379	4797
848.515	4759
848.65	4740
848.786	4752
848.921	4782
849.057	4904
849.192	4930
849.328	4866
849.463	4904
849.598	4816
849.734	4782
849.869	4691
850.004	4656
850.14	4668
850.275	4637
850.41	4607
850.545	4611
850.68	4679
850.815	4630
850.95	4649
851.085	4911
851.22	4790
851.355	4710
851.49	4618
851.625	4679
851.76	4664
851.895	4577
852.03	4516
852.165	4672
852.299	4721
852.434	4805
852.569	4797
852.703	4786
852.838	4820
852.973	4927
853.107	4930
853.242	4797
853.376	4668
853.511	4569
853.645	4660
853.78	4801
853.914	4702
854.048	4641
854.183	4630
854.317	4714
854.451	4862
854.585	4717
854.72	4660
854.854	4809
854.988	4603
855.122	4626
855.256	4462
855.39	4706
855.524	4797
855.658	4736
855.792	4714
855.926	4755
856.06	4763
856.194	4843
856.327	4687
856.461	4599
856.595	4596
856.729	4630
856.862	4771
856.996	4702
857.13	4763
857.263	4755
857.397	4835
857.53	4691
857.664	4717
857.797	4824
857.931	4759
858.064	4729
858.197	4782
858.331	4641
858.464	4626
858.597	4550
858.731	4599
858.864	4698
858.997	4596
859.13	4634
859.263	4740
859.396	4725
859.529	4637
859.662	4588
859.795	4516
859.928	4626
860.061	4767
860.194	4752
860.327	4660
860.46	4596
860.592	4706
860.725	4729
860.858	4698
860.99	4569
861.123	4512
861.256	4538
861.388	4634
861.521	5357
861.653	4493
861.786	4443
861.918	4455
862.05	4497
862.183	4554
862.315	4618
862.447	4641
862.58	4550
862.712	4394
862.844	4363
862.976	4459
863.108	4470
863.24	4793
863.372	4367
863.504	4413
863.636	4390
863.768	4497
863.9	4459
864.032	4383
864.164	4443
864.296	4508
864.428	4565
864.559	4580
864.691	4561
864.823	4550
864.954	4535
865.086	4550
865.217	4478
865.349	4455
865.48	4508
865.612	4535
865.743	4660
865.875	4462
866.006	4432
866.137	4481
866.269	4474
866.4	4428
866.531	4428
866.662	4417
866.793	4428
866.924	4481
867.055	4504
867.186	4478
867.317	4383
867.448	4394
867.579	4367
867.71	4375
867.841	4413
867.972	4447
868.103	4466
868.233	4451
868.364	4474
868.495	4459
868.625	4683
868.756	4767
868.886	4535
869.017	4656
869.147	4824
869.278	4725
869.408	4687
869.539	4641
869.669	4721
869.799	4733
869.929	4710
870.06	4771
870.19	4972
870.32	4938
870.45	4938
870.58	5018
870.71	5105
870.84	5048
870.97	4946
871.1	4934
871.23	5151
871.36	5170
871.489	4976
871.619	5105
871.749	5094
871.879	5105
872.008	5170
872.138	5067
872.267	4999
872.397	4923
872.526	4847
872.656	4729
872.785	4831
872.915	4968
873.044	5048
873.173	4953
873.303	4968
873.432	4938
873.561	4953
873.69	4862
873.819	4850
873.948	4885
874.077	4805
874.206	4801
874.335	4828
874.464	4927
874.593	5071
874.722	4976
874.851	5086
874.979	5109
875.108	5037
875.237	4919
875.365	4866
875.494	4885
875.623	4968
875.751	4835
875.88	4877
876.008	4984
876.136	5029
876.265	5220
876.393	5353
876.521	5261
876.65	5227
876.778	5147
876.906	5090
877.034	5060
877.162	5022
877.29	5033
877.418	5094
877.546	5105
877.674	5086
877.802	5029
877.93	5006
878.058	4965
878.185	4885
878.313	4968
878.441	4987
878.568	4835
878.696	4889
878.824	4942
878.951	5037
879.079	5162
879.206	5303
879.333	5105
879.461	5006
879.588	5010
879.715	5109
879.842	5239
879.97	4987
880.097	4809
880.224	4774
880.351	4824
880.478	4793
880.605	4801
880.732	4816
880.859	5079
880.986	4915
881.112	4908
881.239	4790
881.366	4698
881.493	4626
881.619	4577
881.746	4615
881.872	4679
881.999	4675
882.125	4702
882.252	4870
882.378	4801
882.505	4930
882.631	4786
882.757	4714
882.883	4755
883.01	4774
883.136	4664
883.262	4596
883.388	4630
883.514	4820
883.64	4862
883.766	4870
883.892	4672
884.018	4725
884.143	4938
884.269	4999
884.395	4698
884.52	4649
884.646	4656
884.772	4599
884.897	4550
885.023	4645
885.148	4778
885.274	4896
885.399	4793
885.524	4763
885.65	4721
885.775	4740
885.9	4717
886.025	4843
886.15	4752
886.275	4774
886.4	4683
886.525	4714
886.65	4698
886.775	4702
886.9	4904
887.025	5018
887.149	4790
887.274	4694
887.399	4577
887.523	4580
887.648	4603
887.773	4637
887.897	4748
888.021	4778
888.146	4637
888.27	4801
888.395	4915
888.519	4843
888.643	4805
888.767	4797
888.891	4683
889.015	4607
889.139	4649
889.263	4584
889.387	4767
889.511	4881
889.635	4828
889.759	4588
889.883	4717
890.006	4721
890.13	4793
890.254	4645
890.377	4691
890.501	4554
890.624	4478
890.748	4668
890.871	4500
890.995	4462
891.118	4356
891.241	4504
891.364	4558
891.488	4641
891.611	4489
891.734	4561
891.857	4573
891.98	4569
892.103	4660
892.226	4584
892.349	4577
892.471	4470
892.594	4538
892.717	4615
892.839	4561
892.962	4607
893.085	4653
893.207	4607
893.33	4443
893.452	4580
893.575	4656
893.697	4596
893.819	4820
893.941	4835
894.064	4778
894.186	4577
894.308	4622
894.43	4729
894.552	4870
894.674	4771
894.796	4577
894.918	4596
895.04	4607
895.161	4733
895.283	4687
895.405	4573
895.526	4687
895.648	4656
895.769	4672
895.891	4694
896.012	4744
896.134	4721
896.255	4653
896.376	4641
896.498	4607
896.619	4641
896.74	4611
896.861	4691
896.982	4968
897.103	5060
897.224	4847
897.345	4778
897.466	4649
897.587	4748
897.708	4889
897.828	4778
897.949	4694
898.07	4577
898.19	4649
898.311	4809
898.431	4714
898.552	4755
898.672	4824
898.792	4778
898.913	4733
899.033	4653
899.153	4500
899.273	4413
899.393	4481
899.513	4596
899.633	4592
899.753	4554
899.873	4527
899.993	4618
900.113	4542
900.232	4634
900.352	4558
900.472	4550
900.591	4413
900.711	4504
900.83	4432
900.95	4611
901.069	4683
901.189	4546
901.308	4367
901.427	4352
901.546	4405
901.665	4497
901.784	4497
901.904	4394
902.023	4333
902.141	4234
902.26	4154
902.379	4348
902.498	4280
902.617	4227
902.735	4360
902.854	4424
902.973	4352
903.091	4257
903.21	4265
903.328	4280
903.446	4223
903.565	4303
903.683	4352
903.801	4284
903.919	4402
904.038	4451
904.156	4322
904.274	4440
904.392	4409
904.51	4405
904.627	4451
904.745	4538
904.863	4637
904.981	4413
905.098	4333
905.216	4417
905.334	4390
905.451	4455
905.569	4459
905.686	4531
905.803	4573
905.921	4440
906.038	4596
906.155	4485
906.272	4379
906.389	4481
906.506	4405
906.623	4402
906.74	4424
906.857	4344
906.974	4383
907.091	4580
907.208	4729
907.324	4573
907.441	4527
907.557	4386
907.674	4360
907.79	4318
907.907	4379
908.023	4478
908.139	4470
908.256	4481
908.372	4455
908.488	4379
908.604	4348
908.72	4341
908.836	4409
908.952	4386
909.068	4451
909.184	4584
909.3	4504
909.415	4599
909.531	4573
909.647	4363
909.762	4333
909.878	4360
909.993	4421
910.108	4344
910.224	4440
910.339	4481
910.454	4428
910.57	4352
910.685	4337
910.8	4683
910.915	4618
911.03	4447
911.145	4363
911.259	4306
911.374	4379
911.489	4310
911.604	4333
911.718	4188
911.833	4196
911.947	4082
912.062	4051
912.176	4177
912.291	4238
912.405	4261
912.519	4489
912.633	4470
912.748	4402
912.862	4284
912.976	4223
913.09	4124
913.204	4177
913.318	4227
913.431	4371
913.545	4390
913.659	4440
913.772	4356
913.886	4238
914	4173
914.113	4333
914.226	4447
914.34	4390
914.453	4234
914.566	4386
914.68	4325
914.793	4375
914.906	4131
915.019	4128
915.132	4074
915.245	4166
915.358	4173
915.47	4230
915.583	4284
915.696	4322
915.809	4398
915.921	4470
916.034	4284
916.146	4265
916.259	4253
916.371	4455
916.483	4363
916.595	4261
916.708	4371
916.82	4356
916.932	4341
917.044	4333
917.156	4299
917.268	4238
917.38	4295
917.491	4261
917.603	4371
917.715	4459
917.826	4424
917.938	4363
918.049	4238
918.161	4436
918.272	4569
918.384	4531
918.495	4489
918.606	4333
918.717	4246
918.828	4337
918.939	4367
919.05	4253
919.161	4329
919.272	4147
919.383	4207
919.494	4466
919.604	4634
919.715	4481
919.826	4421
919.936	4459
920.047	4512
920.157	4489
920.267	4683
920.378	4512
920.488	4542
920.598	4736
920.708	4938
920.818	4778
920.928	4755
921.038	5006
921.148	4976
921.258	4645
921.368	4550
921.477	4508
921.587	4478
921.697	4375
921.806	4535
921.916	4428
922.025	4265
922.134	4284
922.244	4242
922.353	4306
922.462	4188
922.571	4116
922.68	4010
922.789	3991
922.898	4048
923.007	4006
923.116	4090
923.224	4105
923.333	4078
923.442	3991
923.55	3975
923.659	4051
923.767	4109
923.876	4002
923.984	4097
924.092	3968
924.201	4071
924.309	4074
924.417	4143
924.525	4040
924.633	4150
924.741	5060
924.849	3915
924.956	4124
925.064	3941
925.172	3899
925.279	3975
925.387	4036
925.494	4097
925.602	4219
925.709	4234
925.816	4036
925.924	4139
926.031	4257
926.138	4204
926.245	4188
926.352	4063
926.459	4253
926.566	4352
926.673	4188
926.779	4116
926.886	4101
926.993	3956
927.099	3960
927.206	3956
927.312	3949
927.419	4055
927.525	4021
927.631	4124
927.737	3998
927.843	3945
927.95	3861
928.056	3945
928.162	3968
928.267	4078
928.373	4675
928.479	4154
928.585	3873
928.69	4006
928.796	4055
928.901	3956
929.007	3831
929.112	3983
929.218	3949
929.323	3903
929.428	3945
929.533	4101
929.638	3937
929.743	3991
929.848	4055
929.953	3979
930.058	3930
930.163	3770
930.267	3816
930.372	4002
930.477	3812
930.581	4116
930.685	3964
930.79	3831
930.894	3896
930.998	3857
931.103	4036
931.207	3747
931.311	3701
931.415	3660
931.519	3504
931.623	3553
