Data from test_V78500241_1220.txt Node
Date: Fri Mar 25 16:57:29 CST 2022
User: usil
Spectrometer: V785-0024
Trigger mode: 0
Integration Time (sec): 4.000000E-1
Scans to average: 1
Nonlinearity correction enabled: false
Boxcar width: 0
Storing dark spectrum: false
XAxis mode: Wavelengths
Number of Pixels in Spectrum: 1024
>>>>>Begin Spectral Data<<<<<
801.071	8073
801.214	7951
801.356	7894
801.499	7795
801.641	7689
801.783	7750
801.926	8035
802.068	7898
802.211	7951
802.353	7963
802.496	7841
802.638	7894
802.78	7837
802.923	7967
803.065	7898
803.208	7849
803.35	7936
803.492	8050
803.635	8134
803.777	8073
803.919	8142
804.061	8385
804.204	8111
804.346	8035
804.488	8024
804.63	8107
804.773	7963
804.915	8088
805.057	8256
805.199	8164
805.341	8176
805.483	8256
805.626	8199
805.768	8142
805.91	8195
806.052	8229
806.194	8107
806.336	8248
806.478	8039
806.62	8115
806.762	8092
806.904	8263
807.046	8450
807.188	8286
807.33	8259
807.472	8309
807.614	8081
807.756	8062
807.898	8039
808.04	7898
808.182	7944
808.324	7837
808.465	7921
808.607	8100
808.749	8077
808.891	8183
809.033	8263
809.174	8142
809.316	8077
809.458	8054
809.6	8016
809.741	8001
809.883	8008
810.025	8088
810.166	7986
810.308	7993
810.45	7989
810.591	7883
810.733	7708
810.875	7639
811.016	7506
811.158	7460
811.299	7544
811.441	7746
811.582	7681
811.724	7594
811.865	7525
812.007	7525
812.148	7571
812.29	7609
812.431	7742
812.573	7898
812.714	8005
812.855	8092
812.997	8157
813.138	8286
813.279	8153
813.421	8107
813.562	7989
813.703	7814
813.845	7753
813.986	7392
814.127	7289
814.268	7209
814.41	7213
814.551	7099
814.692	7129
814.833	7042
814.974	7076
815.115	7114
815.256	6970
815.397	6920
815.539	6913
815.68	6818
815.821	6753
815.962	6890
816.103	6787
816.244	6791
816.385	6597
816.526	6544
816.666	6544
816.807	6296
816.948	6395
817.089	6509
817.23	6433
817.371	6365
817.512	6410
817.653	6422
817.793	6365
817.934	6361
818.075	6540
818.216	6403
818.356	6464
818.497	6224
818.638	6182
818.778	6178
818.919	6133
819.06	6133
819.2	6353
819.341	6331
819.481	6338
819.622	6471
819.762	6715
819.903	6703
820.043	6631
820.184	6574
820.324	6528
820.465	6688
820.605	6703
820.746	6597
820.886	6471
821.026	6654
821.167	6700
821.307	6745
821.447	6700
821.588	6665
821.728	6551
821.868	6506
822.008	6281
822.149	6353
822.289	6365
822.429	6171
822.569	6076
822.709	6125
822.849	5855
822.99	5847
823.13	5916
823.27	5904
823.41	5756
823.55	5737
823.69	5729
823.83	5752
823.97	5642
824.11	5535
824.25	5463
824.389	5554
824.529	5562
824.669	5528
824.809	5665
824.949	5638
825.089	5611
825.228	5493
825.368	5417
825.508	5311
825.648	5337
825.787	5395
825.927	5311
826.067	5318
826.206	5239
826.346	5414
826.485	5433
826.625	5341
826.765	5539
826.904	5425
827.044	5178
827.183	5166
827.323	5113
827.462	5239
827.601	5121
827.741	5212
827.88	5181
828.02	5086
828.159	5204
828.298	5349
828.437	5318
828.577	5280
828.716	5505
828.855	5273
828.994	5124
829.134	5170
829.273	5159
829.412	5121
829.551	5132
829.69	5170
829.829	5273
829.968	5357
830.107	5250
830.246	5284
830.385	5170
830.524	5117
830.663	5060
830.802	4972
830.941	4900
831.08	4904
831.219	4995
831.357	4942
831.496	5121
831.635	4930
831.774	4858
831.913	4877
832.051	4725
832.19	4767
832.329	4843
832.467	4698
832.606	4618
832.744	4763
832.883	4721
833.022	4687
833.16	4733
833.299	4820
833.437	4816
833.576	4805
833.714	4831
833.852	4843
833.991	4885
834.129	4972
834.267	4919
834.406	4850
834.544	4953
834.682	4976
834.821	4965
834.959	5155
835.097	5014
835.235	5143
835.373	5056
835.511	5143
835.65	5041
835.788	5094
835.926	4915
836.064	4885
836.202	4873
836.34	5147
836.478	5201
836.615	5155
836.753	5223
836.891	5273
837.029	5216
837.167	5193
837.305	5159
837.443	5098
837.58	5102
837.718	5258
837.856	5159
837.993	5132
838.131	5227
838.269	5204
838.406	5166
838.544	5140
838.681	5010
838.819	5003
838.956	4828
839.094	4904
839.231	4984
839.369	5090
839.506	5448
839.643	5242
839.781	5064
839.918	4976
840.055	5090
840.193	5124
840.33	5102
840.467	5109
840.604	5155
840.742	5417
840.879	5094
841.016	5109
841.153	5162
841.29	5330
841.427	5326
841.564	5337
841.701	5334
841.838	5277
841.975	5235
842.112	5284
842.249	5140
842.385	5102
842.522	5318
842.659	5159
842.796	5117
842.933	5235
843.069	5178
843.206	5140
843.343	5318
843.479	5197
843.616	5239
843.752	4968
843.889	5067
844.025	5201
844.162	4972
844.298	5197
844.435	5083
844.571	5018
844.708	5136
844.844	5273
844.98	5212
845.117	5277
845.253	5105
845.389	5014
845.525	5170
845.661	5117
845.798	5003
845.934	5136
846.07	4984
846.206	5178
846.342	5299
846.478	5174
846.614	5029
846.75	4999
846.886	4904
847.022	5113
847.158	4995
847.294	5033
847.429	5098
847.565	5033
847.701	5360
847.837	4858
847.972	4790
848.108	4923
848.244	4934
848.379	4812
848.515	4717
848.65	4668
848.786	4759
848.921	4744
849.057	4854
849.192	4892
849.328	4786
849.463	4828
849.598	4801
849.734	4721
849.869	4698
850.004	4637
850.14	4660
850.275	4618
850.41	4470
850.545	4550
850.68	4535
850.815	4622
850.95	4618
851.085	4847
851.22	4694
851.355	4691
851.49	4611
851.625	4615
851.76	4626
851.895	4558
852.03	4516
852.165	4702
852.299	4698
852.434	4820
852.569	4729
852.703	4736
852.838	4797
852.973	4889
853.107	4866
853.242	4698
853.376	4637
853.511	4516
853.645	4584
853.78	4790
853.914	4618
854.048	4679
854.183	4691
854.317	4729
854.451	4824
854.585	4641
854.72	4596
854.854	4767
854.988	4626
855.122	4618
855.256	4554
855.39	4596
855.524	4767
855.658	4736
855.792	4683
855.926	4744
856.06	4733
856.194	4812
856.327	4694
856.461	4596
856.595	4622
856.729	4584
856.862	4759
856.996	4721
857.13	4755
857.263	4733
857.397	4771
857.53	4580
857.664	4717
857.797	4736
857.931	4774
858.064	4736
858.197	4721
858.331	4615
858.464	4584
858.597	4523
858.731	4599
858.864	4584
858.997	4542
859.13	4615
859.263	4668
859.396	4702
859.529	4580
859.662	4538
859.795	4535
859.928	4649
860.061	4740
860.194	4805
860.327	4607
860.46	4546
860.592	4752
860.725	4683
860.858	4725
860.99	4580
861.123	4512
861.256	4500
861.388	4599
861.521	5273
861.653	4466
861.786	4428
861.918	4466
862.05	4512
862.183	4580
862.315	4645
862.447	4660
862.58	4523
862.712	4379
862.844	4291
862.976	4440
863.108	4455
863.24	4843
863.372	4325
863.504	4428
863.636	4360
863.768	4470
863.9	4421
864.032	4367
864.164	4390
864.296	4478
864.428	4558
864.559	4546
864.691	4523
864.823	4523
864.954	4474
865.086	4497
865.217	4481
865.349	4390
865.48	4455
865.612	4516
865.743	4592
865.875	4493
866.006	4417
866.137	4432
866.269	4440
866.4	4405
866.531	4402
866.662	4398
866.793	4383
866.924	4428
867.055	4470
867.186	4474
867.317	4428
867.448	4375
867.579	4405
867.71	4394
867.841	4367
867.972	4451
868.103	4390
868.233	4432
868.364	4417
868.495	4443
868.625	4615
868.756	4721
868.886	4535
869.017	4641
869.147	4759
869.278	4744
869.408	4634
869.539	4611
869.669	4748
869.799	4660
869.929	4710
870.06	4710
870.19	4927
870.32	4927
870.45	4908
870.58	4938
870.71	5098
870.84	5086
870.97	4923
871.1	4900
871.23	5079
871.36	5102
871.489	5029
871.619	5045
871.749	5056
871.879	5105
872.008	5140
872.138	4972
872.267	4930
872.397	4816
872.526	4790
872.656	4710
872.785	4790
872.915	4904
873.044	5018
873.173	4919
873.303	4965
873.432	4942
873.561	4930
873.69	4809
873.819	4831
873.948	4911
874.077	4835
874.206	4740
874.335	4759
874.464	4927
874.593	5037
874.722	4984
874.851	5071
874.979	5067
875.108	5003
875.237	4873
875.365	4892
875.494	4896
875.623	4980
875.751	4843
875.88	4873
876.008	4957
876.136	4999
876.265	5181
876.393	5296
876.521	5277
876.65	5174
876.778	5128
876.906	5056
877.034	5041
877.162	5029
877.29	4938
877.418	5025
877.546	5022
877.674	5071
877.802	5025
877.93	5010
878.058	4965
878.185	4873
878.313	4919
878.441	4930
878.568	4774
878.696	4850
878.824	4942
878.951	4946
879.079	5102
879.206	5242
879.333	5052
879.461	4972
879.588	5033
879.715	5113
879.842	5201
879.97	4927
880.097	4752
880.224	4774
880.351	4778
880.478	4755
880.605	4752
880.732	4790
880.859	5090
880.986	4904
881.112	4881
881.239	4748
881.366	4637
881.493	4577
881.619	4573
881.746	4630
881.872	4626
881.999	4607
882.125	4672
882.252	4763
882.378	4790
882.505	4972
882.631	4801
882.757	4694
882.883	4721
883.01	4755
883.136	4653
883.262	4603
883.388	4626
883.514	4816
883.64	4870
883.766	4755
883.892	4618
884.018	4679
884.143	4919
884.269	5025
884.395	4649
884.52	4618
884.646	4626
884.772	4615
884.897	4558
885.023	4668
885.148	4786
885.274	4854
885.399	4748
885.524	4733
885.65	4675
885.775	4759
885.9	4683
886.025	4835
886.15	4812
886.275	4672
886.4	4634
886.525	4744
886.65	4630
886.775	4706
886.9	4919
887.025	5025
887.149	4790
887.274	4618
887.399	4573
887.523	4584
887.648	4542
887.773	4561
887.897	4759
888.021	4752
888.146	4656
888.27	4774
888.395	4892
888.519	4782
888.643	4809
888.767	4835
888.891	4656
889.015	4592
889.139	4626
889.263	4588
889.387	4782
889.511	4881
889.635	4771
889.759	4637
889.883	4675
890.006	4702
890.13	4892
890.254	4656
890.377	4683
890.501	4546
890.624	4558
890.748	4622
890.871	4470
890.995	4436
891.118	4375
891.241	4527
891.364	4554
891.488	4592
891.611	4451
891.734	4485
891.857	4668
891.98	4535
892.103	4683
892.226	4611
892.349	4531
892.471	4398
892.594	4550
892.717	4615
892.839	4584
892.962	4561
893.085	4668
893.207	4561
893.33	4459
893.452	4455
893.575	4672
893.697	4561
893.819	4824
893.941	4847
894.064	4694
894.186	4542
894.308	4592
894.43	4721
894.552	4809
894.674	4755
894.796	4516
894.918	4622
895.04	4550
895.161	4744
895.283	4611
895.405	4527
895.526	4653
895.648	4653
895.769	4698
895.891	4672
896.012	4721
896.134	4710
896.255	4660
896.376	4660
896.498	4622
896.619	4668
896.74	4618
896.861	4637
896.982	4889
897.103	5022
897.224	4839
897.345	4774
897.466	4675
897.587	4710
897.708	4831
897.828	4733
897.949	4687
898.07	4550
898.19	4626
898.311	4763
898.431	4622
898.552	4744
898.672	4793
898.792	4801
898.913	4759
899.033	4645
899.153	4504
899.273	4432
899.393	4500
899.513	4516
899.633	4565
899.753	4516
899.873	4512
899.993	4546
900.113	4512
900.232	4577
900.352	4523
900.472	4443
900.591	4348
900.711	4466
900.83	4478
900.95	4645
901.069	4653
901.189	4558
901.308	4344
901.427	4268
901.546	4360
901.665	4470
901.784	4550
901.904	4363
902.023	4325
902.141	4181
902.26	4143
902.379	4280
902.498	4268
902.617	4227
902.735	4386
902.854	4371
902.973	4390
903.091	4196
903.21	4192
903.328	4242
903.446	4249
903.565	4238
903.683	4348
903.801	4272
903.919	4443
904.038	4424
904.156	4284
904.274	4447
904.392	4421
904.51	4413
904.627	4481
904.745	4546
904.863	4584
904.981	4333
905.098	4314
905.216	4367
905.334	4455
905.451	4402
905.569	4443
905.686	4504
905.803	4577
905.921	4413
906.038	4527
906.155	4409
906.272	4379
906.389	4478
906.506	4337
906.623	4409
906.74	4379
906.857	4291
906.974	4379
907.091	4546
907.208	4672
907.324	4558
907.441	4508
907.557	4344
907.674	4383
907.79	4337
907.907	4379
908.023	4443
908.139	4481
908.256	4440
908.372	4432
908.488	4421
908.604	4325
908.72	4284
908.836	4371
908.952	4352
909.068	4428
909.184	4561
909.3	4462
909.415	4569
909.531	4527
909.647	4360
909.762	4360
909.878	4356
909.993	4428
910.108	4394
910.224	4443
910.339	4504
910.454	4409
910.57	4360
910.685	4234
910.8	4641
910.915	4637
911.03	4504
911.145	4325
911.259	4299
911.374	4341
911.489	4287
911.604	4272
911.718	4169
911.833	4196
911.947	4071
912.062	4063
912.176	4169
912.291	4234
912.405	4204
912.519	4474
912.633	4500
912.748	4386
912.862	4310
912.976	4227
913.09	4101
913.204	4185
913.318	4249
913.431	4344
913.545	4306
913.659	4413
913.772	4356
913.886	4249
914	4257
914.113	4417
914.226	4402
914.34	4386
914.453	4227
914.566	4451
914.68	4295
914.793	4310
914.906	4185
915.019	4101
915.132	4131
915.245	4158
915.358	4204
915.47	4223
915.583	4291
915.696	4268
915.809	4383
915.921	4451
916.034	4246
916.146	4234
916.259	4200
916.371	4367
916.483	4341
916.595	4268
916.708	4356
916.82	4333
916.932	4375
917.044	4325
917.156	4318
917.268	4219
917.38	4280
917.491	4242
917.603	4363
917.715	4428
917.826	4383
917.938	4333
918.049	4162
918.161	4375
918.272	4497
918.384	4508
918.495	4398
918.606	4246
918.717	4234
918.828	4337
918.939	4356
919.05	4215
919.161	4272
919.272	4154
919.383	4230
919.494	4413
919.604	4607
919.715	4443
919.826	4318
919.936	4356
920.047	4512
920.157	4451
920.267	4649
920.378	4531
920.488	4512
920.598	4687
920.708	4873
920.818	4767
920.928	4763
921.038	4946
921.148	4911
921.258	4626
921.368	4599
921.477	4455
921.587	4447
921.697	4318
921.806	4569
921.916	4443
922.025	4284
922.134	4211
922.244	4261
922.353	4322
922.462	4196
922.571	4120
922.68	3960
922.789	3945
922.898	4059
923.007	3968
923.116	4082
923.224	4067
923.333	4097
923.442	3998
923.55	3956
923.659	4010
923.767	4036
923.876	3994
923.984	4093
924.092	3987
924.201	4082
924.309	4063
924.417	4101
924.525	4036
924.633	4124
924.741	5029
924.849	3880
924.956	4124
925.064	3994
925.172	3918
925.279	3975
925.387	4067
925.494	4051
925.602	4196
925.709	4166
925.816	4029
925.924	4101
926.031	4215
926.138	4101
926.245	4192
926.352	4093
926.459	4238
926.566	4261
926.673	4112
926.779	4116
926.886	4063
926.993	3937
927.099	4006
927.206	3956
927.312	3937
927.419	4040
927.525	4017
927.631	4078
927.737	3960
927.843	3934
927.95	3831
928.056	3937
928.162	3934
928.267	4044
928.373	4694
928.479	4082
928.585	3835
928.69	3972
928.796	3998
928.901	3949
929.007	3827
929.112	4044
929.218	3998
929.323	3918
929.428	3956
929.533	4078
929.638	3915
929.743	3960
929.848	4040
929.953	3975
930.058	3888
930.163	3778
930.267	3812
930.372	3960
930.477	3793
930.581	4063
930.685	3922
930.79	3827
930.894	3937
930.998	3789
931.103	4040
931.207	3682
931.311	3644
931.415	3663
931.519	3511
931.623	3561
