Data from test_V78500241_913.txt Node
Date: Fri Mar 25 16:55:21 CST 2022
User: usil
Spectrometer: V785-0024
Trigger mode: 0
Integration Time (sec): 4.000000E-1
Scans to average: 1
Nonlinearity correction enabled: false
Boxcar width: 0
Storing dark spectrum: false
XAxis mode: Wavelengths
Number of Pixels in Spectrum: 1024
>>>>>Begin Spectral Data<<<<<
801.071	8031
801.214	7997
801.356	7951
801.499	7963
801.641	7799
801.783	7776
801.926	7986
802.068	7909
802.211	8001
802.353	7940
802.496	7814
802.638	7868
802.78	7868
802.923	7906
803.065	7871
803.208	7951
803.35	8073
803.492	8100
803.635	8172
803.777	8054
803.919	8130
804.061	8457
804.204	8161
804.346	8012
804.488	7986
804.63	8092
804.773	8050
804.915	8092
805.057	8240
805.199	8221
805.341	8229
805.483	8294
805.626	8202
805.768	8081
805.91	8202
806.052	8248
806.194	8046
806.336	8271
806.478	8092
806.62	7940
806.762	8119
806.904	8229
807.046	8503
807.188	8339
807.33	8343
807.472	8256
807.614	8164
807.756	8073
807.898	7993
808.04	7955
808.182	7883
808.324	7830
808.465	7917
808.607	8008
808.749	8092
808.891	8183
809.033	8301
809.174	8210
809.316	8142
809.458	8043
809.6	7940
809.741	7982
809.883	8069
810.025	8142
810.166	8073
810.308	7993
810.45	7982
810.591	7845
810.733	7731
810.875	7658
811.016	7514
811.158	7453
811.299	7632
811.441	7719
811.582	7704
811.724	7594
811.865	7525
812.007	7548
812.148	7647
812.29	7613
812.431	7727
812.573	7902
812.714	7879
812.855	8081
812.997	8149
813.138	8317
813.279	8176
813.421	8138
813.562	7925
813.703	7887
813.845	7708
813.986	7445
814.127	7274
814.268	7228
814.41	7225
814.551	7145
814.692	7137
814.833	7084
814.974	7050
815.115	7103
815.256	7023
815.397	6890
815.539	7038
815.68	6795
815.821	6798
815.962	6852
816.103	6806
816.244	6669
816.385	6608
816.526	6662
816.666	6490
816.807	6289
816.948	6460
817.089	6448
817.23	6475
817.371	6380
817.512	6410
817.653	6407
817.793	6391
817.934	6391
818.075	6384
818.216	6410
818.356	6346
818.497	6175
818.638	6121
818.778	6163
818.919	6201
819.06	6133
819.2	6292
819.341	6281
819.481	6350
819.622	6498
819.762	6700
819.903	6662
820.043	6612
820.184	6574
820.324	6528
820.465	6719
820.605	6646
820.746	6642
820.886	6547
821.026	6662
821.167	6734
821.307	6760
821.447	6779
821.588	6635
821.728	6532
821.868	6441
822.008	6281
822.149	6315
822.289	6369
822.429	6155
822.569	6053
822.709	6079
822.849	5901
822.99	5897
823.13	5977
823.27	5950
823.41	5786
823.55	5779
823.69	5802
823.83	5813
823.97	5722
824.11	5497
824.25	5459
824.389	5509
824.529	5558
824.669	5505
824.809	5600
824.949	5653
825.089	5577
825.228	5535
825.368	5429
825.508	5345
825.648	5379
825.787	5357
825.927	5383
826.067	5326
826.206	5254
826.346	5425
826.485	5372
826.625	5368
826.765	5532
826.904	5467
827.044	5254
827.183	5170
827.323	5109
827.462	5212
827.601	5181
827.741	5208
827.88	5193
828.02	5132
828.159	5208
828.298	5269
828.437	5288
828.577	5246
828.716	5478
828.855	5261
828.994	5128
829.134	5201
829.273	5201
829.412	5109
829.551	5109
829.69	5151
829.829	5227
829.968	5337
830.107	5220
830.246	5288
830.385	5109
830.524	5147
830.663	5067
830.802	4927
830.941	4904
831.08	4843
831.219	5014
831.357	4976
831.496	5132
831.635	4934
831.774	4828
831.913	4843
832.051	4717
832.19	4740
832.329	4812
832.467	4725
832.606	4615
832.744	4721
832.883	4725
833.022	4729
833.16	4748
833.299	4801
833.437	4831
833.576	4824
833.714	4835
833.852	4831
833.991	4870
834.129	4980
834.267	4957
834.406	4889
834.544	4911
834.682	4984
834.821	4942
834.959	5193
835.097	5041
835.235	5128
835.373	5079
835.511	5109
835.65	5037
835.788	5003
835.926	4911
836.064	4862
836.202	4892
836.34	5155
836.478	5239
836.615	5140
836.753	5239
836.891	5265
837.029	5261
837.167	5189
837.305	5166
837.443	5174
837.58	5071
837.718	5239
837.856	5181
837.993	5174
838.131	5239
838.269	5235
838.406	5159
838.544	5151
838.681	5025
838.819	5014
838.956	4870
839.094	4900
839.231	4999
839.369	5060
839.506	5452
839.643	5216
839.781	5056
839.918	5071
840.055	5052
840.193	5060
840.33	5094
840.467	5132
840.604	5132
840.742	5414
840.879	5025
841.016	5048
841.153	5174
841.29	5364
841.427	5337
841.564	5318
841.701	5364
841.838	5254
841.975	5155
842.112	5201
842.249	5109
842.385	5052
842.522	5307
842.659	5155
842.796	5162
842.933	5193
843.069	5151
843.206	5166
843.343	5299
843.479	5204
843.616	5223
843.752	4991
843.889	5014
844.025	5223
844.162	5022
844.298	5189
844.435	5064
844.571	5064
844.708	5201
844.844	5273
844.98	5311
845.117	5273
845.253	5079
845.389	5025
845.525	5143
845.661	5064
845.798	4987
845.934	5075
846.07	5048
846.206	5159
846.342	5299
846.478	5159
846.614	4995
846.75	4911
846.886	4968
847.022	5147
847.158	5018
847.294	5022
847.429	5014
847.565	5071
847.701	5311
847.837	4847
847.972	4809
848.108	4980
848.244	4938
848.379	4740
848.515	4714
848.65	4714
848.786	4687
848.921	4809
849.057	4881
849.192	4839
849.328	4790
849.463	4854
849.598	4797
849.734	4721
849.869	4664
850.004	4573
850.14	4679
850.275	4550
850.41	4527
850.545	4565
850.68	4558
850.815	4634
850.95	4558
851.085	4881
851.22	4752
851.355	4675
851.49	4554
851.625	4615
851.76	4637
851.895	4531
852.03	4493
852.165	4626
852.299	4721
852.434	4778
852.569	4694
852.703	4816
852.838	4805
852.973	4961
853.107	4904
853.242	4721
853.376	4702
853.511	4558
853.645	4615
853.78	4786
853.914	4691
854.048	4691
854.183	4645
854.317	4694
854.451	4873
854.585	4656
854.72	4668
854.854	4733
854.988	4596
855.122	4577
855.256	4558
855.39	4634
855.524	4801
855.658	4717
855.792	4675
855.926	4702
856.06	4740
856.194	4809
856.327	4687
856.461	4542
856.595	4592
856.729	4611
856.862	4736
856.996	4653
857.13	4717
857.263	4691
857.397	4805
857.53	4630
857.664	4710
857.797	4714
857.931	4755
858.064	4672
858.197	4687
858.331	4675
858.464	4618
858.597	4535
858.731	4584
858.864	4615
858.997	4580
859.13	4641
859.263	4611
859.396	4691
859.529	4569
859.662	4512
859.795	4554
859.928	4626
860.061	4748
860.194	4691
860.327	4577
860.46	4527
860.592	4668
860.725	4683
860.858	4698
860.99	4523
861.123	4538
861.256	4512
861.388	4622
861.521	5162
861.653	4462
861.786	4428
861.918	4428
862.05	4504
862.183	4554
862.315	4542
862.447	4649
862.58	4531
862.712	4386
862.844	4352
862.976	4440
863.108	4451
863.24	4767
863.372	4303
863.504	4436
863.636	4428
863.768	4466
863.9	4428
864.032	4371
864.164	4363
864.296	4424
864.428	4546
864.559	4542
864.691	4554
864.823	4493
864.954	4462
865.086	4512
865.217	4459
865.349	4409
865.48	4451
865.612	4493
865.743	4592
865.875	4447
866.006	4421
866.137	4424
866.269	4443
866.4	4424
866.531	4424
866.662	4379
866.793	4379
866.924	4360
867.055	4466
867.186	4432
867.317	4424
867.448	4363
867.579	4383
867.71	4371
867.841	4402
867.972	4447
868.103	4421
868.233	4504
868.364	4398
868.495	4523
868.625	4645
868.756	4744
868.886	4558
869.017	4649
869.147	4752
869.278	4752
869.408	4634
869.539	4611
869.669	4668
869.799	4653
869.929	4755
870.06	4729
870.19	4870
870.32	4919
870.45	4892
870.58	4987
870.71	5090
870.84	5102
870.97	4923
871.1	4915
871.23	5121
871.36	5086
871.489	5067
871.619	5022
871.749	5045
871.879	5128
872.008	5181
872.138	5048
872.267	4984
872.397	4847
872.526	4801
872.656	4653
872.785	4835
872.915	4946
873.044	5048
873.173	4919
873.303	4930
873.432	4885
873.561	4949
873.69	4812
873.819	4870
873.948	4911
874.077	4805
874.206	4759
874.335	4778
874.464	4866
874.593	5029
874.722	4934
874.851	5064
874.979	5010
875.108	4965
875.237	4923
875.365	4835
875.494	4828
875.623	4923
875.751	4843
875.88	4812
876.008	4976
876.136	5025
876.265	5178
876.393	5284
876.521	5178
876.65	5212
876.778	5128
876.906	5064
877.034	4968
877.162	5033
877.29	4965
877.418	5022
877.546	5094
877.674	4999
877.802	4991
877.93	4961
878.058	4927
878.185	4847
878.313	4942
878.441	4934
878.568	4801
878.696	4858
878.824	4942
878.951	4968
879.079	5086
879.206	5277
879.333	5086
879.461	4946
879.588	4995
879.715	5151
879.842	5197
879.97	4987
880.097	4790
880.224	4710
880.351	4771
880.478	4824
880.605	4782
880.732	4752
880.859	5071
880.986	4828
881.112	4885
881.239	4759
881.366	4679
881.493	4626
881.619	4573
881.746	4641
881.872	4618
881.999	4618
882.125	4675
882.252	4767
882.378	4767
882.505	4972
882.631	4793
882.757	4691
882.883	4702
883.01	4755
883.136	4656
883.262	4561
883.388	4645
883.514	4755
883.64	4847
883.766	4786
883.892	4603
884.018	4687
884.143	4850
884.269	5029
884.395	4649
884.52	4626
884.646	4645
884.772	4596
884.897	4569
885.023	4675
885.148	4801
885.274	4892
885.399	4782
885.524	4710
885.65	4721
885.775	4714
885.9	4687
886.025	4862
886.15	4774
886.275	4694
886.4	4679
886.525	4683
886.65	4664
886.775	4736
886.9	4854
887.025	5064
887.149	4759
887.274	4714
887.399	4546
887.523	4573
887.648	4546
887.773	4542
887.897	4778
888.021	4733
888.146	4637
888.27	4816
888.395	4873
888.519	4812
888.643	4763
888.767	4831
888.891	4694
889.015	4607
889.139	4664
889.263	4618
889.387	4809
889.511	4858
889.635	4793
889.759	4615
889.883	4683
890.006	4717
890.13	4816
890.254	4596
890.377	4702
890.501	4519
890.624	4542
890.748	4645
890.871	4478
890.995	4455
891.118	4417
891.241	4474
891.364	4535
891.488	4603
891.611	4519
891.734	4500
891.857	4592
891.98	4504
892.103	4588
892.226	4573
892.349	4462
892.471	4352
892.594	4527
892.717	4618
892.839	4554
892.962	4558
893.085	4672
893.207	4542
893.33	4421
893.452	4497
893.575	4683
893.697	4554
893.819	4752
893.941	4763
894.064	4759
894.186	4523
894.308	4561
894.43	4687
894.552	4767
894.674	4763
894.796	4592
894.918	4561
895.04	4573
895.161	4706
895.283	4694
895.405	4561
895.526	4615
895.648	4694
895.769	4683
895.891	4687
896.012	4740
896.134	4687
896.255	4634
896.376	4649
896.498	4577
896.619	4641
896.74	4569
896.861	4630
896.982	4919
897.103	5048
897.224	4831
897.345	4660
897.466	4622
897.587	4706
897.708	4854
897.828	4805
897.949	4656
898.07	4546
898.19	4615
898.311	4790
898.431	4702
898.552	4717
898.672	4805
898.792	4801
898.913	4733
899.033	4660
899.153	4508
899.273	4417
899.393	4478
899.513	4512
899.633	4516
899.753	4542
899.873	4493
899.993	4573
900.113	4542
900.232	4550
900.352	4577
900.472	4474
900.591	4402
900.711	4447
900.83	4413
900.95	4588
901.069	4683
901.189	4550
901.308	4405
901.427	4341
901.546	4360
901.665	4466
901.784	4500
901.904	4386
902.023	4280
902.141	4181
902.26	4131
902.379	4291
902.498	4230
902.617	4219
902.735	4386
902.854	4394
902.973	4367
903.091	4234
903.21	4223
903.328	4280
903.446	4261
903.565	4249
903.683	4390
903.801	4261
903.919	4341
904.038	4386
904.156	4268
904.274	4436
904.392	4398
904.51	4432
904.627	4466
904.745	4588
904.863	4679
904.981	4394
905.098	4291
905.216	4325
905.334	4466
905.451	4405
905.569	4409
905.686	4523
905.803	4599
905.921	4440
906.038	4546
906.155	4485
906.272	4402
906.389	4478
906.506	4341
906.623	4371
906.74	4386
906.857	4299
906.974	4329
907.091	4592
907.208	4679
907.324	4535
907.441	4481
907.557	4341
907.674	4348
907.79	4314
907.907	4371
908.023	4481
908.139	4508
908.256	4447
908.372	4443
908.488	4424
908.604	4322
908.72	4356
908.836	4341
908.952	4383
909.068	4436
909.184	4550
909.3	4470
909.415	4580
909.531	4565
909.647	4322
909.762	4318
909.878	4356
909.993	4402
910.108	4375
910.224	4386
910.339	4428
910.454	4394
910.57	4390
910.685	4242
910.8	4592
910.915	4592
911.03	4481
911.145	4306
911.259	4314
911.374	4329
911.489	4238
911.604	4257
911.718	4181
911.833	4200
911.947	4090
912.062	4048
912.176	4227
912.291	4223
912.405	4192
912.519	4462
912.633	4462
912.748	4333
912.862	4314
912.976	4192
913.09	4078
913.204	4166
913.318	4249
913.431	4371
913.545	4432
913.659	4459
913.772	4390
913.886	4284
914	4227
914.113	4341
914.226	4424
914.34	4390
914.453	4207
914.566	4428
914.68	4325
914.793	4333
914.906	4166
915.019	4086
915.132	4074
915.245	4185
915.358	4188
915.47	4249
915.583	4253
915.696	4303
915.809	4398
915.921	4383
916.034	4238
916.146	4219
916.259	4192
916.371	4379
916.483	4398
916.595	4257
916.708	4363
916.82	4295
916.932	4333
917.044	4337
917.156	4348
917.268	4204
917.38	4299
917.491	4253
917.603	4341
917.715	4470
917.826	4432
917.938	4360
918.049	4238
918.161	4390
918.272	4489
918.384	4516
918.495	4421
918.606	4352
918.717	4246
918.828	4333
918.939	4344
919.05	4223
919.161	4287
919.272	4116
919.383	4249
919.494	4447
919.604	4599
919.715	4421
919.826	4383
919.936	4394
920.047	4550
920.157	4493
920.267	4694
920.378	4527
920.488	4489
920.598	4687
920.708	4885
920.818	4748
920.928	4782
921.038	4934
921.148	4911
921.258	4668
921.368	4565
921.477	4440
921.587	4421
921.697	4390
921.806	4481
921.916	4413
922.025	4280
922.134	4299
922.244	4173
922.353	4352
922.462	4162
922.571	4147
922.68	4032
922.789	3926
922.898	4078
923.007	3956
923.116	4105
923.224	4040
923.333	4105
923.442	3983
923.55	3937
923.659	3994
923.767	4128
923.876	3998
923.984	4101
924.092	3964
924.201	4071
924.309	4116
924.417	4147
924.525	4051
924.633	4154
924.741	4896
924.849	3892
924.956	4109
925.064	3964
925.172	3861
925.279	3972
925.387	4090
925.494	4025
925.602	4234
925.709	4150
925.816	4021
925.924	4116
926.031	4234
926.138	4181
926.245	4215
926.352	4071
926.459	4265
926.566	4287
926.673	4147
926.779	4090
926.886	4059
926.993	3934
927.099	3964
927.206	3918
927.312	3903
927.419	4036
927.525	4025
927.631	4055
927.737	3934
927.843	3964
927.95	3857
928.056	3930
928.162	3953
928.267	4025
928.373	4588
928.479	4150
928.585	3854
928.69	3987
928.796	4093
928.901	3983
929.007	3804
929.112	4048
929.218	4006
929.323	3918
929.428	3956
929.533	4105
929.638	3873
929.743	3918
929.848	4044
929.953	4010
930.058	3888
930.163	3743
930.267	3797
930.372	4002
930.477	3789
930.581	4063
930.685	3915
930.79	3819
930.894	3899
930.998	3846
931.103	4044
931.207	3679
931.311	3679
931.415	3663
931.519	3492
931.623	3549
