Data from test_V78500241_363.txt Node
Date: Fri Mar 25 16:51:31 CST 2022
User: usil
Spectrometer: V785-0024
Trigger mode: 0
Integration Time (sec): 4.000000E-1
Scans to average: 1
Nonlinearity correction enabled: false
Boxcar width: 0
Storing dark spectrum: false
XAxis mode: Wavelengths
Number of Pixels in Spectrum: 1024
>>>>>Begin Spectral Data<<<<<
801.071	8069
801.214	8058
801.356	7917
801.499	7940
801.641	7826
801.783	7818
801.926	7894
802.068	7944
802.211	7986
802.353	8039
802.496	7913
802.638	7970
802.78	7989
802.923	7986
803.065	7898
803.208	7894
803.35	7989
803.492	8073
803.635	8084
803.777	8005
803.919	8126
804.061	8423
804.204	8145
804.346	8077
804.488	7986
804.63	8134
804.773	8043
804.915	8149
805.057	8328
805.199	8168
805.341	8259
805.483	8332
805.626	8195
805.768	8077
805.91	8134
806.052	8233
806.194	8126
806.336	8275
806.478	8180
806.62	8123
806.762	8126
806.904	8244
807.046	8492
807.188	8396
807.33	8347
807.472	8339
807.614	8134
807.756	8199
807.898	8043
808.04	7890
808.182	7970
808.324	7974
808.465	7902
808.607	8096
808.749	8153
808.891	8187
809.033	8248
809.174	8180
809.316	8100
809.458	8096
809.6	7989
809.741	8016
809.883	8020
810.025	8107
810.166	8176
810.308	8096
810.45	8062
810.591	7951
810.733	7757
810.875	7662
811.016	7514
811.158	7548
811.299	7651
811.441	7883
811.582	7761
811.724	7594
811.865	7537
812.007	7715
812.148	7605
812.29	7590
812.431	7734
812.573	7909
812.714	8031
812.855	8176
812.997	8134
813.138	8294
813.279	8244
813.421	8115
813.562	8035
813.703	7963
813.845	7807
813.986	7510
814.127	7327
814.268	7285
814.41	7240
814.551	7221
814.692	7179
814.833	7133
814.974	7175
815.115	7145
815.256	6985
815.397	6932
815.539	6954
815.68	6825
815.821	6833
815.962	6920
816.103	6886
816.244	6757
816.385	6654
816.526	6688
816.666	6536
816.807	6361
816.948	6490
817.089	6498
817.23	6445
817.371	6346
817.512	6372
817.653	6391
817.793	6399
817.934	6467
818.075	6506
818.216	6452
818.356	6380
818.497	6285
818.638	6163
818.778	6167
818.919	6171
819.06	6171
819.2	6338
819.341	6346
819.481	6353
819.622	6540
819.762	6700
819.903	6753
820.043	6623
820.184	6570
820.324	6589
820.465	6646
820.605	6650
820.746	6597
820.886	6506
821.026	6627
821.167	6707
821.307	6779
821.447	6848
821.588	6620
821.728	6589
821.868	6521
822.008	6338
822.149	6357
822.289	6380
822.429	6201
822.569	6110
822.709	6136
822.849	5961
822.99	5912
823.13	5923
823.27	5923
823.41	5786
823.55	5752
823.69	5817
823.83	5844
823.97	5737
824.11	5535
824.25	5509
824.389	5596
824.529	5562
824.669	5539
824.809	5653
824.949	5722
825.089	5596
825.228	5596
825.368	5436
825.508	5360
825.648	5372
825.787	5360
825.927	5368
826.067	5299
826.206	5277
826.346	5379
826.485	5421
826.625	5425
826.765	5562
826.904	5547
827.044	5296
827.183	5170
827.323	5124
827.462	5235
827.601	5227
827.741	5178
827.88	5208
828.02	5166
828.159	5227
828.298	5326
828.437	5326
828.577	5288
828.716	5474
828.855	5379
828.994	5178
829.134	5166
829.273	5239
829.412	5143
829.551	5174
829.69	5208
829.829	5231
829.968	5429
830.107	5246
830.246	5261
830.385	5258
830.524	5143
830.663	5105
830.802	5006
830.941	4881
831.08	4881
831.219	4976
831.357	5014
831.496	5128
831.635	4915
831.774	4892
831.913	4847
832.051	4752
832.19	4744
832.329	4870
832.467	4679
832.606	4641
832.744	4733
832.883	4679
833.022	4763
833.16	4778
833.299	4771
833.437	4782
833.576	4870
833.714	4870
833.852	4862
833.991	4911
834.129	4976
834.267	4976
834.406	4889
834.544	4995
834.682	4957
834.821	4919
834.959	5151
835.097	4957
835.235	5128
835.373	5117
835.511	5098
835.65	5052
835.788	5060
835.926	4896
836.064	4877
836.202	4911
836.34	5128
836.478	5227
836.615	5162
836.753	5212
836.891	5273
837.029	5318
837.167	5254
837.305	5166
837.443	5197
837.58	5056
837.718	5227
837.856	5204
837.993	5143
838.131	5246
838.269	5273
838.406	5261
838.544	5216
838.681	5022
838.819	5029
838.956	4904
839.094	4934
839.231	4972
839.369	5105
839.506	5452
839.643	5288
839.781	5064
839.918	5014
840.055	5090
840.193	5121
840.33	5109
840.467	5121
840.604	5204
840.742	5459
840.879	5113
841.016	5052
841.153	5155
841.29	5410
841.427	5337
841.564	5318
841.701	5364
841.838	5269
841.975	5231
842.112	5277
842.249	5140
842.385	5113
842.522	5318
842.659	5193
842.796	5121
842.933	5212
843.069	5185
843.206	5208
843.343	5284
843.479	5231
843.616	5315
843.752	5048
843.889	5022
844.025	5216
844.162	5048
844.298	5250
844.435	5086
844.571	5041
844.708	5197
844.844	5322
844.98	5364
845.117	5296
845.253	5147
845.389	5052
845.525	5174
845.661	5128
845.798	5052
845.934	5147
846.07	5041
846.206	5189
846.342	5330
846.478	5212
846.614	5045
846.75	4957
846.886	4904
847.022	5181
847.158	5056
847.294	5067
847.429	5067
847.565	5052
847.701	5349
847.837	4854
847.972	4809
848.108	4972
848.244	4934
848.379	4786
848.515	4748
848.65	4729
848.786	4725
848.921	4809
849.057	4850
849.192	4923
849.328	4828
849.463	4820
849.598	4793
849.734	4717
849.869	4710
850.004	4603
850.14	4645
850.275	4573
850.41	4584
850.545	4588
850.68	4615
850.815	4664
850.95	4580
851.085	4866
851.22	4729
851.355	4714
851.49	4641
851.625	4664
851.76	4660
851.895	4538
852.03	4554
852.165	4630
852.299	4691
852.434	4774
852.569	4752
852.703	4835
852.838	4847
852.973	4904
853.107	4892
853.242	4740
853.376	4714
853.511	4565
853.645	4596
853.78	4816
853.914	4672
854.048	4641
854.183	4634
854.317	4717
854.451	4877
854.585	4710
854.72	4637
854.854	4710
854.988	4607
855.122	4599
855.256	4561
855.39	4694
855.524	4759
855.658	4755
855.792	4668
855.926	4725
856.06	4717
856.194	4828
856.327	4717
856.461	4634
856.595	4577
856.729	4656
856.862	4717
856.996	4683
857.13	4748
857.263	4744
857.397	4801
857.53	4679
857.664	4740
857.797	4771
857.931	4763
858.064	4729
858.197	4774
858.331	4626
858.464	4588
858.597	4531
858.731	4675
858.864	4672
858.997	4611
859.13	4714
859.263	4717
859.396	4702
859.529	4607
859.662	4592
859.795	4546
859.928	4626
860.061	4759
860.194	4763
860.327	4630
860.46	4588
860.592	4706
860.725	4717
860.858	4733
860.99	4596
861.123	4527
861.256	4535
861.388	4630
861.521	5330
861.653	4550
861.786	4462
861.918	4398
862.05	4470
862.183	4558
862.315	4565
862.447	4645
862.58	4546
862.712	4383
862.844	4363
862.976	4474
863.108	4462
863.24	4797
863.372	4310
863.504	4394
863.636	4417
863.768	4474
863.9	4405
864.032	4295
864.164	4394
864.296	4451
864.428	4573
864.559	4603
864.691	4580
864.823	4588
864.954	4493
865.086	4531
865.217	4489
865.349	4428
865.48	4485
865.612	4497
865.743	4641
865.875	4466
866.006	4459
866.137	4474
866.269	4440
866.4	4424
866.531	4455
866.662	4367
866.793	4455
866.924	4443
867.055	4561
867.186	4497
867.317	4428
867.448	4360
867.579	4421
867.71	4383
867.841	4356
867.972	4447
868.103	4413
868.233	4459
868.364	4508
868.495	4478
868.625	4664
868.756	4759
868.886	4584
869.017	4599
869.147	4790
869.278	4793
869.408	4656
869.539	4592
869.669	4736
869.799	4672
869.929	4714
870.06	4744
870.19	4938
870.32	4908
870.45	4915
870.58	5029
870.71	5102
870.84	5102
870.97	4908
871.1	4847
871.23	5159
871.36	5105
871.489	5071
871.619	5109
871.749	5086
871.879	5136
872.008	5208
872.138	5048
872.267	4946
872.397	4824
872.526	4797
872.656	4759
872.785	4828
872.915	4942
873.044	5029
873.173	4942
873.303	4957
873.432	5014
873.561	4991
873.69	4896
873.819	4870
873.948	4919
874.077	4839
874.206	4736
874.335	4790
874.464	4919
874.593	5075
874.722	4953
874.851	5109
874.979	5048
875.108	5052
875.237	4862
875.365	4881
875.494	4885
875.623	4991
875.751	4877
875.88	4930
876.008	5033
876.136	5037
876.265	5155
876.393	5368
876.521	5242
876.65	5193
876.778	5151
876.906	5029
877.034	5041
877.162	5056
877.29	4968
877.418	5052
877.546	5048
877.674	5060
877.802	5014
877.93	4995
878.058	4942
878.185	4889
878.313	4976
878.441	4949
878.568	4793
878.696	4858
878.824	5010
878.951	4991
879.079	5140
879.206	5261
879.333	5098
879.461	5018
879.588	4961
879.715	5143
879.842	5288
879.97	5022
880.097	4797
880.224	4740
880.351	4774
880.478	4870
880.605	4793
880.732	4763
880.859	5094
880.986	4889
881.112	4930
881.239	4801
881.366	4672
881.493	4649
881.619	4588
881.746	4656
881.872	4691
881.999	4634
882.125	4630
882.252	4786
882.378	4839
882.505	4934
882.631	4831
882.757	4641
882.883	4714
883.01	4694
883.136	4653
883.262	4630
883.388	4588
883.514	4843
883.64	4873
883.766	4835
883.892	4664
884.018	4721
884.143	4930
884.269	5029
884.395	4668
884.52	4615
884.646	4691
884.772	4584
884.897	4573
885.023	4672
885.148	4790
885.274	4835
885.399	4778
885.524	4698
885.65	4767
885.775	4717
885.9	4736
886.025	4843
886.15	4812
886.275	4706
886.4	4679
886.525	4725
886.65	4691
886.775	4714
886.9	4896
887.025	5025
887.149	4801
887.274	4637
887.399	4577
887.523	4611
887.648	4584
887.773	4569
887.897	4797
888.021	4793
888.146	4702
888.27	4828
888.395	4900
888.519	4767
888.643	4805
888.767	4793
888.891	4641
889.015	4626
889.139	4622
889.263	4577
889.387	4774
889.511	4858
889.635	4831
889.759	4645
889.883	4592
890.006	4759
890.13	4866
890.254	4611
890.377	4683
890.501	4565
890.624	4516
890.748	4664
890.871	4466
890.995	4421
891.118	4409
891.241	4531
891.364	4535
891.488	4599
891.611	4470
891.734	4531
891.857	4565
891.98	4565
892.103	4660
892.226	4573
892.349	4519
892.471	4424
892.594	4546
892.717	4584
892.839	4603
892.962	4577
893.085	4641
893.207	4615
893.33	4470
893.452	4584
893.575	4710
893.697	4588
893.819	4797
893.941	4854
894.064	4778
894.186	4573
894.308	4561
894.43	4767
894.552	4828
894.674	4778
894.796	4565
894.918	4611
895.04	4596
895.161	4733
895.283	4683
895.405	4611
895.526	4679
895.648	4729
895.769	4717
895.891	4778
896.012	4759
896.134	4820
896.255	4672
896.376	4668
896.498	4656
896.619	4733
896.74	4694
896.861	4675
896.982	4984
897.103	5166
897.224	4835
897.345	4763
897.466	4729
897.587	4786
897.708	4927
897.828	4824
897.949	4706
898.07	4645
898.19	4710
898.311	4839
898.431	4668
898.552	4793
898.672	4828
898.792	4828
898.913	4786
899.033	4710
899.153	4588
899.273	4459
899.393	4580
899.513	4573
899.633	4573
899.753	4580
899.873	4573
899.993	4607
900.113	4634
900.232	4611
900.352	4656
900.472	4573
900.591	4398
900.711	4519
900.83	4512
900.95	4634
901.069	4725
901.189	4630
901.308	4424
901.427	4333
901.546	4493
901.665	4538
901.784	4596
901.904	4398
902.023	4367
902.141	4192
902.26	4242
902.379	4379
902.498	4261
902.617	4325
902.735	4383
902.854	4470
902.973	4367
903.091	4280
903.21	4265
903.328	4360
903.446	4341
903.565	4257
903.683	4424
903.801	4322
903.919	4383
904.038	4504
904.156	4398
904.274	4497
904.392	4459
904.51	4523
904.627	4573
904.745	4611
904.863	4664
904.981	4440
905.098	4299
905.216	4432
905.334	4500
905.451	4462
905.569	4485
905.686	4580
905.803	4641
905.921	4455
906.038	4504
906.155	4523
906.272	4485
906.389	4489
906.506	4371
906.623	4455
906.74	4428
906.857	4303
906.974	4451
907.091	4580
907.208	4717
907.324	4618
907.441	4538
907.557	4383
907.674	4398
907.79	4356
907.907	4432
908.023	4546
908.139	4504
908.256	4538
908.372	4497
908.488	4459
908.604	4390
908.72	4333
908.836	4421
908.952	4451
909.068	4447
909.184	4622
909.3	4535
909.415	4626
909.531	4577
909.647	4348
909.762	4417
909.878	4402
909.993	4481
910.108	4497
910.224	4474
910.339	4554
910.454	4428
910.57	4413
910.685	4344
910.8	4687
910.915	4645
911.03	4508
911.145	4371
911.259	4371
911.374	4398
911.489	4371
911.604	4379
911.718	4242
911.833	4219
911.947	4116
912.062	4063
912.176	4246
912.291	4272
912.405	4299
912.519	4489
912.633	4546
912.748	4390
912.862	4341
912.976	4257
913.09	4112
913.204	4188
913.318	4280
913.431	4394
913.545	4440
913.659	4455
913.772	4390
913.886	4314
914	4253
914.113	4413
914.226	4527
914.34	4421
914.453	4303
914.566	4504
914.68	4325
914.793	4386
914.906	4185
915.019	4181
915.132	4139
915.245	4192
915.358	4230
915.47	4253
915.583	4333
915.696	4344
915.809	4447
915.921	4432
916.034	4253
916.146	4249
916.259	4257
916.371	4440
916.483	4390
916.595	4291
916.708	4371
916.82	4367
916.932	4356
917.044	4383
917.156	4348
917.268	4287
917.38	4333
917.491	4303
917.603	4371
917.715	4470
917.826	4462
917.938	4333
918.049	4310
918.161	4451
918.272	4561
918.384	4550
918.495	4481
918.606	4318
918.717	4272
918.828	4390
918.939	4348
919.05	4303
919.161	4344
919.272	4204
919.383	4268
919.494	4497
919.604	4668
919.715	4485
919.826	4409
919.936	4466
920.047	4634
920.157	4516
920.267	4744
920.378	4554
920.488	4561
920.598	4767
920.708	4911
920.818	4782
920.928	4847
921.038	5003
921.148	4930
921.258	4740
921.368	4584
921.477	4569
921.587	4493
921.697	4394
921.806	4569
921.916	4459
922.025	4333
922.134	4287
922.244	4265
922.353	4386
922.462	4215
922.571	4181
922.68	4010
922.789	4002
922.898	4048
923.007	4036
923.116	4086
923.224	4124
923.333	4143
923.442	4025
923.55	4010
923.659	4067
923.767	4166
923.876	4017
923.984	4162
924.092	4040
924.201	4120
924.309	4116
924.417	4135
924.525	4093
924.633	4124
924.741	4934
924.849	3949
924.956	4150
925.064	4040
925.172	3956
925.279	4017
925.387	4074
925.494	4131
925.602	4219
925.709	4204
925.816	4071
925.924	4120
926.031	4265
926.138	4246
926.245	4181
926.352	4131
926.459	4284
926.566	4333
926.673	4204
926.779	4101
926.886	4166
926.993	3998
927.099	3998
927.206	3983
927.312	3960
927.419	4112
927.525	4048
927.631	4109
927.737	3972
927.843	4010
927.95	3926
928.056	4013
928.162	4040
928.267	4093
928.373	4725
928.479	4139
928.585	3911
928.69	4078
928.796	4097
928.901	3994
929.007	3880
929.112	4017
929.218	4021
929.323	3949
929.428	3994
929.533	4147
929.638	3956
929.743	4002
929.848	4017
929.953	4006
930.058	3972
930.163	3804
930.267	3876
930.372	4040
930.477	3842
930.581	4143
930.685	3964
930.79	3884
930.894	3884
930.998	3865
931.103	4048
931.207	3724
931.311	3724
931.415	3701
931.519	3538
931.623	3584
