Data from test_V78500241_2790.txt Node
Date: Fri Mar 25 17:08:24 CST 2022
User: usil
Spectrometer: V785-0024
Trigger mode: 0
Integration Time (sec): 4.000000E-1
Scans to average: 1
Nonlinearity correction enabled: false
Boxcar width: 0
Storing dark spectrum: false
XAxis mode: Wavelengths
Number of Pixels in Spectrum: 1024
>>>>>Begin Spectral Data<<<<<
801.071	7993
801.214	8046
801.356	7913
801.499	7940
801.641	7822
801.783	7864
801.926	7951
802.068	7940
802.211	7986
802.353	8096
802.496	7875
802.638	7940
802.78	7967
802.923	7974
803.065	7837
803.208	7894
803.35	8005
803.492	8142
803.635	8168
803.777	8111
803.919	8115
804.061	8469
804.204	8199
804.346	8081
804.488	7982
804.63	8157
804.773	8024
804.915	8134
805.057	8320
805.199	8195
805.341	8168
805.483	8355
805.626	8183
805.768	8191
805.91	8214
806.052	8305
806.194	8180
806.336	8298
806.478	8073
806.62	8043
806.762	8164
806.904	8237
807.046	8431
807.188	8396
807.33	8294
807.472	8404
807.614	8164
807.756	8267
807.898	8058
808.04	7902
808.182	7986
808.324	7887
808.465	7959
808.607	8077
808.749	8119
808.891	8286
809.033	8332
809.174	8240
809.316	8157
809.458	8065
809.6	8005
809.741	7993
809.883	8012
810.025	8069
810.166	8073
810.308	8031
810.45	8054
810.591	7940
810.733	7723
810.875	7651
811.016	7563
811.158	7510
811.299	7609
811.441	7677
811.582	7715
811.724	7594
811.865	7643
812.007	7639
812.148	7651
812.29	7746
812.431	7708
812.573	7917
812.714	7978
812.855	8214
812.997	8259
813.138	8358
813.279	8210
813.421	8130
813.562	8046
813.703	7864
813.845	7833
813.986	7464
814.127	7263
814.268	7247
814.41	7187
814.551	7141
814.692	7126
814.833	7095
814.974	7091
815.115	7122
815.256	6989
815.397	6954
815.539	7042
815.68	6848
815.821	6760
815.962	6848
816.103	6894
816.244	6776
816.385	6642
816.526	6700
816.666	6498
816.807	6327
816.948	6532
817.089	6513
817.23	6486
817.371	6372
817.512	6437
817.653	6384
817.793	6350
817.934	6452
818.075	6445
818.216	6414
818.356	6361
818.497	6224
818.638	6175
818.778	6121
818.919	6159
819.06	6182
819.2	6327
819.341	6300
819.481	6338
819.622	6547
819.762	6711
819.903	6719
820.043	6612
820.184	6585
820.324	6662
820.465	6745
820.605	6654
820.746	6669
820.886	6589
821.026	6684
821.167	6726
821.307	6856
821.447	6760
821.588	6650
821.728	6608
821.868	6517
822.008	6395
822.149	6426
822.289	6365
822.429	6194
822.569	6095
822.709	6148
822.849	5977
822.99	5931
823.13	5923
823.27	5961
823.41	5779
823.55	5882
823.69	5783
823.83	5813
823.97	5668
824.11	5551
824.25	5543
824.389	5577
824.529	5539
824.669	5558
824.809	5634
824.949	5608
825.089	5630
825.228	5589
825.368	5467
825.508	5364
825.648	5292
825.787	5444
825.927	5341
826.067	5337
826.206	5269
826.346	5410
826.485	5429
826.625	5410
826.765	5547
826.904	5516
827.044	5269
827.183	5216
827.323	5197
827.462	5284
827.601	5185
827.741	5231
827.88	5197
828.02	5136
828.159	5201
828.298	5280
828.437	5357
828.577	5288
828.716	5478
828.855	5337
828.994	5174
829.134	5166
829.273	5242
829.412	5143
829.551	5197
829.69	5235
829.829	5242
829.968	5364
830.107	5326
830.246	5296
830.385	5204
830.524	5159
830.663	5098
830.802	5006
830.941	4911
831.08	4870
831.219	5060
831.357	4938
831.496	5174
831.635	4919
831.774	4843
831.913	4797
832.051	4721
832.19	4774
832.329	4850
832.467	4706
832.606	4679
832.744	4698
832.883	4755
833.022	4698
833.16	4778
833.299	4763
833.437	4820
833.576	4820
833.714	4828
833.852	4862
833.991	4923
834.129	4999
834.267	4980
834.406	4923
834.544	5010
834.682	4987
834.821	4972
834.959	5155
835.097	4995
835.235	5185
835.373	5109
835.511	5060
835.65	5048
835.788	5064
835.926	4980
836.064	4896
836.202	4896
836.34	5151
836.478	5223
836.615	5147
836.753	5246
836.891	5315
837.029	5227
837.167	5208
837.305	5143
837.443	5170
837.58	5071
837.718	5189
837.856	5220
837.993	5178
838.131	5269
838.269	5201
838.406	5178
838.544	5208
838.681	4972
838.819	5014
838.956	4908
839.094	4889
839.231	4987
839.369	5083
839.506	5387
839.643	5265
839.781	5052
839.918	4995
840.055	5079
840.193	5102
840.33	5136
840.467	5121
840.604	5159
840.742	5417
840.879	5105
841.016	5090
841.153	5117
841.29	5357
841.427	5326
841.564	5326
841.701	5296
841.838	5296
841.975	5239
842.112	5280
842.249	5159
842.385	5128
842.522	5436
842.659	5162
842.796	5174
842.933	5174
843.069	5185
843.206	5193
843.343	5360
843.479	5273
843.616	5315
843.752	5048
843.889	5003
844.025	5231
844.162	5022
844.298	5250
844.435	5090
844.571	5079
844.708	5201
844.844	5265
844.98	5326
845.117	5280
845.253	5128
845.389	5090
845.525	5162
845.661	5185
845.798	5052
845.934	5140
846.07	5060
846.206	5242
846.342	5269
846.478	5124
846.614	5048
846.75	4991
846.886	4968
847.022	5121
847.158	5060
847.294	5075
847.429	5094
847.565	5067
847.701	5284
847.837	4885
847.972	4816
848.108	4957
848.244	4984
848.379	4797
848.515	4763
848.65	4790
848.786	4748
848.921	4797
849.057	4862
849.192	4877
849.328	4771
849.463	4839
849.598	4790
849.734	4786
849.869	4702
850.004	4626
850.14	4626
850.275	4615
850.41	4538
850.545	4527
850.68	4622
850.815	4615
850.95	4607
851.085	4824
851.22	4797
851.355	4694
851.49	4577
851.625	4637
851.76	4683
851.895	4569
852.03	4558
852.165	4634
852.299	4736
852.434	4748
852.569	4755
852.703	4736
852.838	4850
852.973	4919
853.107	4934
853.242	4740
853.376	4645
853.511	4584
853.645	4622
853.78	4816
853.914	4683
854.048	4641
854.183	4675
854.317	4691
854.451	4809
854.585	4675
854.72	4649
854.854	4771
854.988	4577
855.122	4599
855.256	4485
855.39	4660
855.524	4786
855.658	4744
855.792	4710
855.926	4733
856.06	4755
856.194	4835
856.327	4717
856.461	4634
856.595	4618
856.729	4653
856.862	4714
856.996	4683
857.13	4736
857.263	4752
857.397	4786
857.53	4649
857.664	4664
857.797	4733
857.931	4763
858.064	4717
858.197	4702
858.331	4577
858.464	4592
858.597	4516
858.731	4672
858.864	4664
858.997	4592
859.13	4649
859.263	4660
859.396	4645
859.529	4607
859.662	4626
859.795	4569
859.928	4630
860.061	4752
860.194	4816
860.327	4599
860.46	4565
860.592	4706
860.725	4683
860.858	4675
860.99	4546
861.123	4554
861.256	4516
861.388	4672
861.521	5288
861.653	4489
861.786	4462
861.918	4470
862.05	4531
862.183	4535
862.315	4653
862.447	4611
862.58	4500
862.712	4371
862.844	4325
862.976	4485
863.108	4466
863.24	4733
863.372	4333
863.504	4436
863.636	4398
863.768	4451
863.9	4447
864.032	4306
864.164	4394
864.296	4489
864.428	4508
864.559	4546
864.691	4565
864.823	4512
864.954	4504
865.086	4538
865.217	4470
865.349	4405
865.48	4424
865.612	4459
865.743	4634
865.875	4504
866.006	4455
866.137	4436
866.269	4470
866.4	4428
866.531	4436
866.662	4390
866.793	4424
866.924	4405
867.055	4493
867.186	4440
867.317	4436
867.448	4424
867.579	4398
867.71	4375
867.841	4356
867.972	4470
868.103	4462
868.233	4447
868.364	4447
868.495	4508
868.625	4634
868.756	4729
868.886	4573
869.017	4584
869.147	4729
869.278	4793
869.408	4622
869.539	4641
869.669	4653
869.799	4656
869.929	4736
870.06	4736
870.19	4919
870.32	4919
870.45	4930
870.58	5037
870.71	5136
870.84	5121
870.97	4881
871.1	4949
871.23	5197
871.36	5083
871.489	5041
871.619	5094
871.749	5037
871.879	5181
872.008	5136
872.138	5102
872.267	5033
872.397	4824
872.526	4812
872.656	4729
872.785	4812
872.915	4984
873.044	5041
873.173	4919
873.303	4942
873.432	4972
873.561	4957
873.69	4904
873.819	4915
873.948	4934
874.077	4782
874.206	4721
874.335	4831
874.464	4847
874.593	5067
874.722	4946
874.851	5136
874.979	5071
875.108	5052
875.237	4892
875.365	4900
875.494	4854
875.623	4915
875.751	4839
875.88	4847
876.008	5048
876.136	5010
876.265	5143
876.393	5376
876.521	5269
876.65	5265
876.778	5193
876.906	5056
877.034	5006
877.162	5052
877.29	4980
877.418	5048
877.546	5052
877.674	5083
877.802	5064
877.93	4972
878.058	4957
878.185	4862
878.313	5006
878.441	4965
878.568	4793
878.696	4877
878.824	4923
878.951	5029
879.079	5071
879.206	5246
879.333	5121
879.461	4987
879.588	4984
879.715	5124
879.842	5223
879.97	5060
880.097	4831
880.224	4714
880.351	4831
880.478	4858
880.605	4824
880.732	4828
880.859	5128
880.986	4889
881.112	4911
881.239	4786
881.366	4683
881.493	4630
881.619	4588
881.746	4580
881.872	4683
881.999	4675
882.125	4672
882.252	4805
882.378	4835
882.505	4987
882.631	4831
882.757	4660
882.883	4733
883.01	4725
883.136	4626
883.262	4615
883.388	4634
883.514	4809
883.64	4847
883.766	4790
883.892	4675
884.018	4729
884.143	4889
884.269	5033
884.395	4645
884.52	4649
884.646	4641
884.772	4588
884.897	4558
885.023	4679
885.148	4782
885.274	4831
885.399	4831
885.524	4752
885.65	4672
885.775	4767
885.9	4664
886.025	4850
886.15	4710
886.275	4748
886.4	4641
886.525	4740
886.65	4683
886.775	4717
886.9	4942
887.025	5060
887.149	4839
887.274	4664
887.399	4561
887.523	4611
887.648	4565
887.773	4615
887.897	4717
888.021	4793
888.146	4717
888.27	4809
888.395	4870
888.519	4828
888.643	4797
888.767	4809
888.891	4691
889.015	4599
889.139	4596
889.263	4584
889.387	4714
889.511	4873
889.635	4801
889.759	4634
889.883	4649
890.006	4706
890.13	4816
890.254	4626
890.377	4717
890.501	4542
890.624	4527
890.748	4630
890.871	4500
890.995	4451
891.118	4417
891.241	4519
891.364	4512
891.488	4626
891.611	4455
891.734	4542
891.857	4565
891.98	4573
892.103	4660
892.226	4550
892.349	4558
892.471	4440
892.594	4584
892.717	4569
892.839	4546
892.962	4580
893.085	4630
893.207	4618
893.33	4443
893.452	4527
893.575	4675
893.697	4592
893.819	4797
893.941	4839
894.064	4744
894.186	4569
894.308	4592
894.43	4740
894.552	4801
894.674	4759
894.796	4546
894.918	4599
895.04	4580
895.161	4668
895.283	4683
895.405	4577
895.526	4615
895.648	4702
895.769	4683
895.891	4679
896.012	4733
896.134	4721
896.255	4637
896.376	4634
896.498	4622
896.619	4691
896.74	4611
896.861	4626
896.982	4927
897.103	5041
897.224	4774
897.345	4725
897.466	4656
897.587	4710
897.708	4854
897.828	4774
897.949	4664
898.07	4580
898.19	4664
898.311	4828
898.431	4607
898.552	4752
898.672	4843
898.792	4790
898.913	4752
899.033	4622
899.153	4500
899.273	4451
899.393	4474
899.513	4508
899.633	4519
899.753	4573
899.873	4497
899.993	4584
900.113	4523
900.232	4561
900.352	4508
900.472	4504
900.591	4405
900.711	4497
900.83	4440
900.95	4626
901.069	4691
901.189	4504
901.308	4375
901.427	4318
901.546	4398
901.665	4451
901.784	4565
901.904	4383
902.023	4363
902.141	4234
902.26	4211
902.379	4287
902.498	4257
902.617	4242
902.735	4356
902.854	4409
902.973	4390
903.091	4192
903.21	4188
903.328	4333
903.446	4253
903.565	4242
903.683	4325
903.801	4306
903.919	4402
904.038	4394
904.156	4299
904.274	4413
904.392	4352
904.51	4462
904.627	4440
904.745	4577
904.863	4656
904.981	4405
905.098	4295
905.216	4367
905.334	4447
905.451	4394
905.569	4436
905.686	4565
905.803	4599
905.921	4375
906.038	4569
906.155	4443
906.272	4413
906.389	4447
906.506	4356
906.623	4375
906.74	4432
906.857	4322
906.974	4363
907.091	4577
907.208	4698
907.324	4550
907.441	4508
907.557	4402
907.674	4337
907.79	4291
907.907	4390
908.023	4531
908.139	4500
908.256	4436
908.372	4428
908.488	4489
908.604	4352
908.72	4341
908.836	4344
908.952	4341
909.068	4394
909.184	4596
909.3	4462
909.415	4626
909.531	4565
909.647	4356
909.762	4333
909.878	4356
909.993	4436
910.108	4421
910.224	4424
910.339	4512
910.454	4394
910.57	4333
910.685	4348
910.8	4664
910.915	4630
911.03	4497
911.145	4356
911.259	4329
911.374	4390
911.489	4306
911.604	4291
911.718	4169
911.833	4185
911.947	4036
912.062	4010
912.176	4230
912.291	4207
912.405	4265
912.519	4451
912.633	4481
912.748	4405
912.862	4322
912.976	4196
913.09	4135
913.204	4215
913.318	4242
913.431	4409
913.545	4363
913.659	4447
913.772	4333
913.886	4253
914	4230
914.113	4325
914.226	4390
914.34	4386
914.453	4257
914.566	4455
914.68	4318
914.793	4333
914.906	4120
915.019	4135
915.132	4090
915.245	4230
915.358	4230
915.47	4268
915.583	4246
915.696	4295
915.809	4371
915.921	4424
916.034	4257
916.146	4196
916.259	4207
916.371	4348
916.483	4348
916.595	4287
916.708	4322
916.82	4310
916.932	4341
917.044	4348
917.156	4322
917.268	4223
917.38	4322
917.491	4249
917.603	4333
917.715	4428
917.826	4432
917.938	4348
918.049	4207
918.161	4356
918.272	4565
918.384	4561
918.495	4443
918.606	4306
918.717	4280
918.828	4375
918.939	4363
919.05	4238
919.161	4318
919.272	4128
919.383	4272
919.494	4440
919.604	4618
919.715	4470
919.826	4356
919.936	4394
920.047	4512
920.157	4451
920.267	4687
920.378	4538
920.488	4485
920.598	4706
920.708	4870
920.818	4729
920.928	4729
921.038	4968
921.148	4908
921.258	4622
921.368	4546
921.477	4493
921.587	4455
921.697	4360
921.806	4542
921.916	4432
922.025	4249
922.134	4249
922.244	4223
922.353	4386
922.462	4192
922.571	4166
922.68	4048
922.789	3964
922.898	4082
923.007	3968
923.116	4101
923.224	4059
923.333	4078
923.442	3987
923.55	3945
923.659	4074
923.767	4097
923.876	4021
923.984	4097
924.092	4017
924.201	4048
924.309	4150
924.417	4101
924.525	4059
924.633	4090
924.741	4911
924.849	3945
924.956	4131
925.064	3975
925.172	3892
925.279	3949
925.387	4040
925.494	4071
925.602	4238
925.709	4185
925.816	4059
925.924	4143
926.031	4223
926.138	4188
926.245	4223
926.352	4112
926.459	4268
926.566	4291
926.673	4223
926.779	4082
926.886	4086
926.993	3975
927.099	3983
927.206	3991
927.312	3972
927.419	4074
927.525	4048
927.631	4071
927.737	3964
927.843	3956
927.95	3873
928.056	3915
928.162	4017
928.267	4082
928.373	4687
928.479	4112
928.585	3911
928.69	4017
928.796	4101
928.901	3991
929.007	3838
929.112	3994
929.218	3956
929.323	3926
929.428	3937
929.533	4124
929.638	3896
929.743	3941
929.848	4055
929.953	4002
930.058	3911
930.163	3778
930.267	3850
930.372	4010
930.477	3831
930.581	4112
930.685	3922
930.79	3846
930.894	3899
930.998	3857
931.103	4017
931.207	3724
931.311	3690
931.415	3675
931.519	3534
931.623	3515
