Data from test_V78500241_240.txt Node
Date: Fri Mar 25 16:50:40 CST 2022
User: usil
Spectrometer: V785-0024
Trigger mode: 0
Integration Time (sec): 4.000000E-1
Scans to average: 1
Nonlinearity correction enabled: false
Boxcar width: 0
Storing dark spectrum: false
XAxis mode: Wavelengths
Number of Pixels in Spectrum: 1024
>>>>>Begin Spectral Data<<<<<
801.071	8027
801.214	7986
801.356	7879
801.499	7925
801.641	7788
801.783	7849
801.926	7978
802.068	8031
802.211	8008
802.353	8043
802.496	7845
802.638	7871
802.78	7917
802.923	7925
803.065	7852
803.208	7894
803.35	7944
803.492	8065
803.635	8111
803.777	8100
803.919	8058
804.061	8400
804.204	8176
804.346	7993
804.488	7970
804.63	8081
804.773	8069
804.915	8050
805.057	8210
805.199	8180
805.341	8191
805.483	8271
805.626	8126
805.768	8142
805.91	8191
806.052	8149
806.194	8088
806.336	8305
806.478	8138
806.62	8077
806.762	8195
806.904	8233
807.046	8366
807.188	8389
807.33	8279
807.472	8317
807.614	8096
807.756	8130
807.898	7913
808.04	7845
808.182	7925
808.324	7845
808.465	7906
808.607	7997
808.749	8199
808.891	8157
809.033	8279
809.174	8142
809.316	8024
809.458	8111
809.6	8020
809.741	8065
809.883	8024
810.025	8084
810.166	8084
810.308	8012
810.45	7982
810.591	7830
810.733	7784
810.875	7655
811.016	7487
811.158	7502
811.299	7651
811.441	7731
811.582	7689
811.724	7506
811.865	7514
812.007	7578
812.148	7552
812.29	7715
812.431	7795
812.573	7868
812.714	8046
812.855	8176
812.997	8168
813.138	8305
813.279	8199
813.421	8073
813.562	7963
813.703	7898
813.845	7704
813.986	7384
814.127	7194
814.268	7187
814.41	7164
814.551	7190
814.692	7213
814.833	7168
814.974	7118
815.115	7080
815.256	6878
815.397	6939
815.539	6928
815.68	6802
815.821	6814
815.962	6878
816.103	6776
816.244	6707
816.385	6715
816.526	6601
816.666	6532
816.807	6331
816.948	6437
817.089	6452
817.23	6399
817.371	6388
817.512	6369
817.653	6350
817.793	6357
817.934	6391
818.075	6498
818.216	6433
818.356	6365
818.497	6232
818.638	6102
818.778	6117
818.919	6117
819.06	6102
819.2	6247
819.341	6300
819.481	6296
819.622	6494
819.762	6707
819.903	6681
820.043	6555
820.184	6559
820.324	6597
820.465	6631
820.605	6646
820.746	6612
820.886	6429
821.026	6677
821.167	6654
821.307	6757
821.447	6798
821.588	6635
821.728	6631
821.868	6498
822.008	6350
822.149	6346
822.289	6334
822.429	6171
822.569	6049
822.709	6098
822.849	5950
822.99	5939
823.13	5855
823.27	5954
823.41	5798
823.55	5783
823.69	5802
823.83	5745
823.97	5668
824.11	5535
824.25	5486
824.389	5589
824.529	5562
824.669	5554
824.809	5589
824.949	5691
825.089	5570
825.228	5573
825.368	5414
825.508	5315
825.648	5330
825.787	5387
825.927	5376
826.067	5299
826.206	5277
826.346	5337
826.485	5440
826.625	5391
826.765	5512
826.904	5509
827.044	5212
827.183	5277
827.323	5140
827.462	5284
827.601	5197
827.741	5166
827.88	5265
828.02	5128
828.159	5212
828.298	5330
828.437	5391
828.577	5261
828.716	5452
828.855	5326
828.994	5197
829.134	5204
829.273	5174
829.412	5094
829.551	5166
829.69	5197
829.829	5288
829.968	5398
830.107	5277
830.246	5220
830.385	5170
830.524	5102
830.663	5086
830.802	4957
830.941	4889
831.08	4877
831.219	4972
831.357	4991
831.496	5136
831.635	4866
831.774	4866
831.913	4862
832.051	4729
832.19	4782
832.329	4805
832.467	4679
832.606	4664
832.744	4733
832.883	4725
833.022	4698
833.16	4835
833.299	4782
833.437	4828
833.576	4843
833.714	4850
833.852	4889
833.991	4900
834.129	4991
834.267	4961
834.406	4877
834.544	4976
834.682	4999
834.821	4968
834.959	5128
835.097	4980
835.235	5174
835.373	5064
835.511	5098
835.65	5014
835.788	5025
835.926	4934
836.064	4885
836.202	4957
836.34	5223
836.478	5216
836.615	5132
836.753	5208
836.891	5265
837.029	5239
837.167	5258
837.305	5124
837.443	5140
837.58	5075
837.718	5239
837.856	5212
837.993	5208
838.131	5193
838.269	5216
838.406	5231
838.544	5223
838.681	5045
838.819	5003
838.956	4927
839.094	4919
839.231	4976
839.369	5083
839.506	5433
839.643	5242
839.781	5052
839.918	5003
840.055	5105
840.193	5102
840.33	5124
840.467	5109
840.604	5178
840.742	5417
840.879	5086
841.016	5102
841.153	5151
841.29	5436
841.427	5337
841.564	5273
841.701	5341
841.838	5296
841.975	5235
842.112	5277
842.249	5155
842.385	5124
842.522	5318
842.659	5204
842.796	5162
842.933	5258
843.069	5159
843.206	5121
843.343	5288
843.479	5239
843.616	5227
843.752	5029
843.889	5010
844.025	5174
844.162	5010
844.298	5185
844.435	5079
844.571	5056
844.708	5204
844.844	5265
844.98	5417
845.117	5265
845.253	5159
845.389	5113
845.525	5189
845.661	5102
845.798	5029
845.934	5132
846.07	5041
846.206	5197
846.342	5284
846.478	5204
846.614	5003
846.75	4995
846.886	4984
847.022	5159
847.158	5025
847.294	5067
847.429	5132
847.565	5090
847.701	5296
847.837	4816
847.972	4793
848.108	4968
848.244	4927
848.379	4767
848.515	4694
848.65	4752
848.786	4714
848.921	4725
849.057	4850
849.192	4900
849.328	4790
849.463	4949
849.598	4805
849.734	4778
849.869	4664
850.004	4649
850.14	4653
850.275	4618
850.41	4550
850.545	4577
850.68	4577
850.815	4664
850.95	4596
851.085	4862
851.22	4767
851.355	4664
851.49	4626
851.625	4645
851.76	4607
851.895	4542
852.03	4531
852.165	4672
852.299	4710
852.434	4816
852.569	4793
852.703	4748
852.838	4873
852.973	4953
853.107	4934
853.242	4714
853.376	4618
853.511	4584
853.645	4592
853.78	4778
853.914	4675
854.048	4656
854.183	4683
854.317	4774
854.451	4862
854.585	4649
854.72	4660
854.854	4812
854.988	4626
855.122	4683
855.256	4519
855.39	4672
855.524	4801
855.658	4736
855.792	4656
855.926	4748
856.06	4752
856.194	4820
856.327	4691
856.461	4618
856.595	4626
856.729	4653
856.862	4740
856.996	4698
857.13	4691
857.263	4763
857.397	4805
857.53	4656
857.664	4721
857.797	4759
857.931	4748
858.064	4668
858.197	4733
858.331	4641
858.464	4573
858.597	4523
858.731	4622
858.864	4630
858.997	4573
859.13	4717
859.263	4660
859.396	4702
859.529	4561
859.662	4550
859.795	4577
859.928	4687
860.061	4736
860.194	4763
860.327	4622
860.46	4603
860.592	4675
860.725	4694
860.858	4679
860.99	4599
861.123	4508
861.256	4531
861.388	4607
861.521	5455
861.653	4542
861.786	4421
861.918	4493
862.05	4546
862.183	4592
862.315	4622
862.447	4675
862.58	4569
862.712	4424
862.844	4310
862.976	4493
863.108	4459
863.24	4839
863.372	4303
863.504	4424
863.636	4398
863.768	4489
863.9	4440
864.032	4363
864.164	4436
864.296	4485
864.428	4611
864.559	4554
864.691	4504
864.823	4512
864.954	4535
865.086	4512
865.217	4493
865.349	4470
865.48	4436
865.612	4523
865.743	4592
865.875	4523
866.006	4424
866.137	4436
866.269	4413
866.4	4379
866.531	4489
866.662	4409
866.793	4421
866.924	4432
867.055	4504
867.186	4424
867.317	4371
867.448	4383
867.579	4409
867.71	4398
867.841	4383
867.972	4474
868.103	4455
868.233	4440
868.364	4462
868.495	4512
868.625	4649
868.756	4793
868.886	4584
869.017	4622
869.147	4725
869.278	4820
869.408	4668
869.539	4653
869.669	4725
869.799	4672
869.929	4744
870.06	4702
870.19	4980
870.32	4968
870.45	4953
870.58	5056
870.71	5075
870.84	5086
870.97	4976
871.1	4881
871.23	5170
871.36	5216
871.489	5029
871.619	5075
871.749	5098
871.879	5147
872.008	5181
872.138	5041
872.267	4984
872.397	4831
872.526	4763
872.656	4736
872.785	4771
872.915	4961
873.044	5045
873.173	4957
873.303	4957
873.432	4930
873.561	4965
873.69	4889
873.819	4831
873.948	4976
874.077	4824
874.206	4809
874.335	4831
874.464	4930
874.593	5045
874.722	5003
874.851	5132
874.979	5098
875.108	4987
875.237	4896
875.365	4892
875.494	4835
875.623	4980
875.751	4824
875.88	4938
876.008	4991
876.136	5045
876.265	5170
876.393	5326
876.521	5208
876.65	5227
876.778	5132
876.906	5079
877.034	4976
877.162	4987
877.29	4984
877.418	5041
877.546	5060
877.674	5018
877.802	5037
877.93	5022
878.058	4938
878.185	4873
878.313	4919
878.441	4972
878.568	4771
878.696	4889
878.824	4976
878.951	4980
879.079	5128
879.206	5269
879.333	5090
879.461	5006
879.588	5048
879.715	5090
879.842	5220
879.97	5018
880.097	4816
880.224	4771
880.351	4752
880.478	4816
880.605	4828
880.732	4740
880.859	5113
880.986	4911
881.112	4927
881.239	4801
881.366	4698
881.493	4577
881.619	4599
881.746	4611
881.872	4634
881.999	4668
882.125	4626
882.252	4786
882.378	4763
882.505	4908
882.631	4790
882.757	4706
882.883	4752
883.01	4767
883.136	4656
883.262	4588
883.388	4615
883.514	4835
883.64	4831
883.766	4790
883.892	4698
884.018	4694
884.143	4927
884.269	5022
884.395	4717
884.52	4637
884.646	4653
884.772	4634
884.897	4637
885.023	4702
885.148	4805
885.274	4877
885.399	4801
885.524	4744
885.65	4675
885.775	4774
885.9	4702
886.025	4805
886.15	4759
886.275	4706
886.4	4675
886.525	4744
886.65	4687
886.775	4691
886.9	4900
887.025	5048
887.149	4809
887.274	4656
887.399	4584
887.523	4630
887.648	4561
887.773	4603
887.897	4793
888.021	4771
888.146	4683
888.27	4816
888.395	4881
888.519	4835
888.643	4854
888.767	4854
888.891	4660
889.015	4611
889.139	4672
889.263	4599
889.387	4755
889.511	4858
889.635	4820
889.759	4679
889.883	4611
890.006	4725
890.13	4801
890.254	4607
890.377	4733
890.501	4558
890.624	4561
890.748	4645
890.871	4542
890.995	4447
891.118	4356
891.241	4485
891.364	4580
891.488	4637
891.611	4500
891.734	4546
891.857	4634
891.98	4584
892.103	4653
892.226	4607
892.349	4554
892.471	4432
892.594	4558
892.717	4607
892.839	4569
892.962	4592
893.085	4649
893.207	4611
893.33	4474
893.452	4535
893.575	4710
893.697	4596
893.819	4850
893.941	4850
894.064	4771
894.186	4573
894.308	4603
894.43	4736
894.552	4847
894.674	4755
894.796	4554
894.918	4592
895.04	4577
895.161	4752
895.283	4622
895.405	4569
895.526	4611
895.648	4672
895.769	4694
895.891	4736
896.012	4733
896.134	4721
896.255	4668
896.376	4675
896.498	4641
896.619	4691
896.74	4584
896.861	4653
896.982	4946
897.103	5086
897.224	4828
897.345	4729
897.466	4706
897.587	4755
897.708	4831
897.828	4710
897.949	4683
898.07	4508
898.19	4687
898.311	4771
898.431	4641
898.552	4725
898.672	4805
898.792	4847
898.913	4755
899.033	4660
899.153	4512
899.273	4443
899.393	4527
899.513	4554
899.633	4523
899.753	4504
899.873	4516
899.993	4599
900.113	4542
900.232	4573
900.352	4554
900.472	4497
900.591	4424
900.711	4508
900.83	4516
900.95	4592
901.069	4645
901.189	4577
901.308	4363
901.427	4375
901.546	4352
901.665	4474
901.784	4558
901.904	4386
902.023	4333
902.141	4192
902.26	4207
902.379	4337
902.498	4234
902.617	4188
902.735	4337
902.854	4360
902.973	4363
903.091	4242
903.21	4257
903.328	4291
903.446	4253
903.565	4257
903.683	4386
903.801	4287
903.919	4432
904.038	4413
904.156	4337
904.274	4466
904.392	4398
904.51	4470
904.627	4519
904.745	4599
904.863	4611
904.981	4428
905.098	4322
905.216	4367
905.334	4417
905.451	4489
905.569	4443
905.686	4565
905.803	4558
905.921	4413
906.038	4569
906.155	4527
906.272	4379
906.389	4409
906.506	4379
906.623	4344
906.74	4421
906.857	4276
906.974	4386
907.091	4599
907.208	4714
907.324	4588
907.441	4535
907.557	4299
907.674	4367
907.79	4329
907.907	4390
908.023	4523
908.139	4508
908.256	4421
908.372	4493
908.488	4436
908.604	4299
908.72	4306
908.836	4363
908.952	4383
909.068	4436
909.184	4599
909.3	4489
909.415	4569
909.531	4565
909.647	4348
909.762	4405
909.878	4360
909.993	4428
910.108	4451
910.224	4394
910.339	4432
910.454	4428
910.57	4371
910.685	4314
910.8	4664
910.915	4603
911.03	4519
911.145	4325
911.259	4341
911.374	4390
911.489	4299
911.604	4325
911.718	4207
911.833	4227
911.947	4074
912.062	4013
912.176	4261
912.291	4238
912.405	4268
912.519	4470
912.633	4554
912.748	4344
912.862	4329
912.976	4215
913.09	4082
913.204	4181
913.318	4268
913.431	4386
913.545	4383
913.659	4443
913.772	4390
913.886	4272
914	4200
914.113	4405
914.226	4432
914.34	4360
914.453	4265
914.566	4447
914.68	4325
914.793	4333
914.906	4181
915.019	4082
915.132	4109
915.245	4154
915.358	4215
915.47	4188
915.583	4265
915.696	4306
915.809	4443
915.921	4455
916.034	4284
916.146	4272
916.259	4261
916.371	4379
916.483	4398
916.595	4303
916.708	4329
916.82	4322
916.932	4333
917.044	4409
917.156	4348
917.268	4253
917.38	4280
917.491	4287
917.603	4360
917.715	4417
917.826	4451
917.938	4371
918.049	4249
918.161	4447
918.272	4573
918.384	4531
918.495	4421
918.606	4352
918.717	4215
918.828	4291
918.939	4402
919.05	4272
919.161	4272
919.272	4135
919.383	4242
919.494	4478
919.604	4649
919.715	4478
919.826	4371
919.936	4402
920.047	4565
920.157	4432
920.267	4675
920.378	4550
920.488	4508
920.598	4687
920.708	4896
920.818	4752
920.928	4793
921.038	4942
921.148	4938
921.258	4569
921.368	4588
921.477	4512
921.587	4432
921.697	4375
921.806	4535
921.916	4432
922.025	4261
922.134	4325
922.244	4238
922.353	4417
922.462	4173
922.571	4112
922.68	4063
922.789	3987
922.898	4059
923.007	3991
923.116	4116
923.224	4082
923.333	4059
923.442	3983
923.55	3987
923.659	4059
923.767	4074
923.876	4006
923.984	4150
924.092	3975
924.201	4112
924.309	4063
924.417	4158
924.525	4032
924.633	4150
924.741	5033
924.849	3926
924.956	4120
925.064	3998
925.172	3903
925.279	3964
925.387	4063
925.494	4109
925.602	4223
925.709	4196
925.816	4044
925.924	4173
926.031	4238
926.138	4150
926.245	4196
926.352	4090
926.459	4265
926.566	4348
926.673	4223
926.779	4154
926.886	4105
926.993	3991
927.099	3968
927.206	3934
927.312	3937
927.419	4063
927.525	4071
927.631	4116
927.737	3949
927.843	3991
927.95	3888
928.056	4013
928.162	3998
928.267	4093
928.373	4599
928.479	4093
928.585	3880
928.69	4063
928.796	4048
928.901	3975
929.007	3835
929.112	4006
929.218	3975
929.323	4010
929.428	3918
929.533	4067
929.638	3964
929.743	3949
929.848	4048
929.953	3994
930.058	3934
930.163	3819
930.267	3819
930.372	3979
930.477	3850
930.581	4071
930.685	3953
930.79	3804
930.894	3861
930.998	3850
931.103	4063
931.207	3720
931.311	3740
931.415	3698
931.519	3519
931.623	3568
