Data from test_V78500241_1244.txt Node
Date: Fri Mar 25 16:57:39 CST 2022
User: usil
Spectrometer: V785-0024
Trigger mode: 0
Integration Time (sec): 4.000000E-1
Scans to average: 1
Nonlinearity correction enabled: false
Boxcar width: 0
Storing dark spectrum: false
XAxis mode: Wavelengths
Number of Pixels in Spectrum: 1024
>>>>>Begin Spectral Data<<<<<
801.071	8031
801.214	7978
801.356	7837
801.499	7871
801.641	7742
801.783	7826
801.926	7936
802.068	7925
802.211	8001
802.353	7887
802.496	7780
802.638	7772
802.78	7913
802.923	7921
803.065	7902
803.208	7902
803.35	7940
803.492	8050
803.635	8183
803.777	7970
803.919	8111
804.061	8423
804.204	8221
804.346	8058
804.488	7921
804.63	8069
804.773	8039
804.915	8107
805.057	8286
805.199	8183
805.341	8164
805.483	8294
805.626	8115
805.768	8157
805.91	8214
806.052	8214
806.194	8138
806.336	8168
806.478	8115
806.62	8046
806.762	8138
806.904	8271
807.046	8454
807.188	8343
807.33	8294
807.472	8389
807.614	8161
807.756	8092
807.898	7963
808.04	7898
808.182	7849
808.324	7890
808.465	7925
808.607	8039
808.749	8138
808.891	8183
809.033	8256
809.174	8183
809.316	8020
809.458	8126
809.6	7997
809.741	7978
809.883	8031
810.025	8138
810.166	8065
810.308	8001
810.45	8062
810.591	7883
810.733	7746
810.875	7658
811.016	7491
811.158	7487
811.299	7609
811.441	7746
811.582	7727
811.724	7567
811.865	7464
812.007	7559
812.148	7548
812.29	7624
812.431	7693
812.573	7849
812.714	8001
812.855	8130
812.997	8161
813.138	8324
813.279	8210
813.421	8065
813.562	8054
813.703	7875
813.845	7620
813.986	7426
814.127	7221
814.268	7244
814.41	7160
814.551	7118
814.692	7179
814.833	7065
814.974	7118
815.115	7095
815.256	7015
815.397	6943
815.539	6928
815.68	6867
815.821	6818
815.962	6901
816.103	6844
816.244	6738
816.385	6566
816.526	6616
816.666	6445
816.807	6334
816.948	6365
817.089	6513
817.23	6422
817.371	6315
817.512	6315
817.653	6429
817.793	6372
817.934	6418
818.075	6429
818.216	6437
818.356	6384
818.497	6243
818.638	6136
818.778	6148
818.919	6117
819.06	6144
819.2	6258
819.341	6239
819.481	6372
819.622	6509
819.762	6711
819.903	6673
820.043	6582
820.184	6635
820.324	6585
820.465	6681
820.605	6673
820.746	6642
820.886	6490
821.026	6662
821.167	6707
821.307	6772
821.447	6719
821.588	6665
821.728	6536
821.868	6475
822.008	6270
822.149	6365
822.289	6334
822.429	6121
822.569	6125
822.709	6091
822.849	5912
822.99	5885
823.13	5885
823.27	5912
823.41	5790
823.55	5805
823.69	5779
823.83	5779
823.97	5699
824.11	5501
824.25	5478
824.389	5512
824.529	5581
824.669	5490
824.809	5615
824.949	5676
825.089	5630
825.228	5490
825.368	5436
825.508	5318
825.648	5322
825.787	5379
825.927	5376
826.067	5242
826.206	5246
826.346	5353
826.485	5395
826.625	5360
826.765	5516
826.904	5444
827.044	5216
827.183	5147
827.323	5117
827.462	5258
827.601	5216
827.741	5231
827.88	5193
828.02	5159
828.159	5246
828.298	5315
828.437	5318
828.577	5277
828.716	5459
828.855	5299
828.994	5162
829.134	5075
829.273	5178
829.412	5086
829.551	5083
829.69	5113
829.829	5204
829.968	5337
830.107	5250
830.246	5337
830.385	5220
830.524	5117
830.663	5060
830.802	4949
830.941	4831
831.08	4847
831.219	4927
831.357	4949
831.496	5124
831.635	4911
831.774	4839
831.913	4831
832.051	4725
832.19	4717
832.329	4854
832.467	4736
832.606	4611
832.744	4714
832.883	4679
833.022	4736
833.16	4748
833.299	4797
833.437	4767
833.576	4847
833.714	4843
833.852	4812
833.991	4915
834.129	4957
834.267	4919
834.406	4904
834.544	4965
834.682	4957
834.821	4953
834.959	5121
835.097	4957
835.235	5113
835.373	5045
835.511	5090
835.65	5003
835.788	4965
835.926	4885
836.064	4866
836.202	4904
836.34	5166
836.478	5242
836.615	5181
836.753	5204
836.891	5235
837.029	5254
837.167	5185
837.305	5121
837.443	5121
837.58	5090
837.718	5269
837.856	5170
837.993	5136
838.131	5235
838.269	5201
838.406	5162
838.544	5147
838.681	5048
838.819	5037
838.956	4930
839.094	4854
839.231	4934
839.369	5060
839.506	5414
839.643	5208
839.781	5041
839.918	5060
840.055	5113
840.193	5098
840.33	5113
840.467	5079
840.604	5197
840.742	5402
840.879	5029
841.016	5048
841.153	5136
841.29	5326
841.427	5337
841.564	5322
841.701	5395
841.838	5216
841.975	5212
842.112	5265
842.249	5109
842.385	5067
842.522	5318
842.659	5174
842.796	5140
842.933	5235
843.069	5094
843.206	5159
843.343	5261
843.479	5220
843.616	5250
843.752	4999
843.889	5006
844.025	5223
844.162	5029
844.298	5208
844.435	5075
844.571	5003
844.708	5197
844.844	5273
844.98	5299
845.117	5288
845.253	5140
845.389	5048
845.525	5162
845.661	5140
845.798	5033
845.934	5121
846.07	4995
846.206	5185
846.342	5254
846.478	5162
846.614	5018
846.75	4938
846.886	4919
847.022	5128
847.158	5006
847.294	5079
847.429	5086
847.565	5025
847.701	5334
847.837	4915
847.972	4801
848.108	4953
848.244	4957
848.379	4767
848.515	4702
848.65	4733
848.786	4660
848.921	4755
849.057	4858
849.192	4892
849.328	4786
849.463	4831
849.598	4816
849.734	4752
849.869	4694
850.004	4569
850.14	4615
850.275	4596
850.41	4565
850.545	4558
850.68	4565
850.815	4584
850.95	4641
851.085	4801
851.22	4710
851.355	4675
851.49	4584
851.625	4634
851.76	4618
851.895	4516
852.03	4531
852.165	4630
852.299	4702
852.434	4767
852.569	4755
852.703	4733
852.838	4839
852.973	4923
853.107	4915
853.242	4736
853.376	4660
853.511	4512
853.645	4618
853.78	4793
853.914	4710
854.048	4630
854.183	4683
854.317	4683
854.451	4850
854.585	4660
854.72	4615
854.854	4710
854.988	4584
855.122	4626
855.256	4527
855.39	4645
855.524	4744
855.658	4683
855.792	4645
855.926	4744
856.06	4729
856.194	4755
856.327	4694
856.461	4580
856.595	4618
856.729	4660
856.862	4736
856.996	4717
857.13	4694
857.263	4763
857.397	4805
857.53	4596
857.664	4698
857.797	4748
857.931	4793
858.064	4672
858.197	4694
858.331	4672
858.464	4592
858.597	4489
858.731	4641
858.864	4569
858.997	4618
859.13	4660
859.263	4672
859.396	4675
859.529	4561
859.662	4596
859.795	4565
859.928	4668
860.061	4740
860.194	4706
860.327	4607
860.46	4538
860.592	4698
860.725	4714
860.858	4721
860.99	4592
861.123	4474
861.256	4523
861.388	4542
861.521	5246
861.653	4489
861.786	4394
861.918	4409
862.05	4485
862.183	4535
862.315	4592
862.447	4672
862.58	4607
862.712	4371
862.844	4265
862.976	4417
863.108	4478
863.24	4850
863.372	4318
863.504	4409
863.636	4424
863.768	4421
863.9	4459
864.032	4348
864.164	4379
864.296	4455
864.428	4550
864.559	4573
864.691	4485
864.823	4523
864.954	4443
865.086	4500
865.217	4436
865.349	4428
865.48	4474
865.612	4470
865.743	4538
865.875	4451
866.006	4462
866.137	4485
866.269	4459
866.4	4424
866.531	4390
866.662	4363
866.793	4424
866.924	4375
867.055	4485
867.186	4462
867.317	4436
867.448	4348
867.579	4356
867.71	4409
867.841	4390
867.972	4428
868.103	4421
868.233	4432
868.364	4432
868.495	4462
868.625	4687
868.756	4714
868.886	4577
869.017	4622
869.147	4744
869.278	4736
869.408	4653
869.539	4599
869.669	4694
869.799	4653
869.929	4812
870.06	4721
870.19	4892
870.32	4908
870.45	4919
870.58	4999
870.71	5083
870.84	5064
870.97	4942
871.1	4866
871.23	5105
871.36	5098
871.489	5003
871.619	5071
871.749	5098
871.879	5098
872.008	5143
872.138	5029
872.267	4938
872.397	4866
872.526	4782
872.656	4714
872.785	4782
872.915	4923
873.044	4961
873.173	4949
873.303	4949
873.432	4965
873.561	4980
873.69	4862
873.819	4850
873.948	4900
874.077	4809
874.206	4702
874.335	4771
874.464	4904
874.593	5094
874.722	4965
874.851	5121
874.979	5075
875.108	5086
875.237	4885
875.365	4919
875.494	4839
875.623	4953
875.751	4797
875.88	4866
876.008	4980
876.136	4991
876.265	5212
876.393	5368
876.521	5307
876.65	5246
876.778	5117
876.906	5075
877.034	4991
877.162	5060
877.29	4999
877.418	5064
877.546	5025
877.674	5052
877.802	5003
877.93	5010
878.058	4930
878.185	4885
878.313	4938
878.441	4896
878.568	4774
878.696	4816
878.824	4949
878.951	5003
879.079	5136
879.206	5273
879.333	5071
879.461	4980
879.588	4987
879.715	5105
879.842	5231
879.97	4980
880.097	4786
880.224	4733
880.351	4805
880.478	4831
880.605	4778
880.732	4767
880.859	5052
880.986	4915
881.112	4927
881.239	4752
881.366	4683
881.493	4611
881.619	4546
881.746	4649
881.872	4630
881.999	4630
882.125	4664
882.252	4755
882.378	4809
882.505	4976
882.631	4801
882.757	4630
882.883	4740
883.01	4740
883.136	4683
883.262	4577
883.388	4580
883.514	4793
883.64	4858
883.766	4763
883.892	4653
884.018	4702
884.143	4919
884.269	5018
884.395	4725
884.52	4634
884.646	4630
884.772	4584
884.897	4592
885.023	4660
885.148	4782
885.274	4831
885.399	4824
885.524	4679
885.65	4683
885.775	4717
885.9	4694
886.025	4797
886.15	4771
886.275	4744
886.4	4649
886.525	4706
886.65	4694
886.775	4721
886.9	4896
887.025	5014
887.149	4786
887.274	4641
887.399	4569
887.523	4592
887.648	4641
887.773	4577
887.897	4710
888.021	4744
888.146	4675
888.27	4797
888.395	4900
888.519	4748
888.643	4847
888.767	4805
888.891	4656
889.015	4599
889.139	4649
889.263	4554
889.387	4778
889.511	4858
889.635	4797
889.759	4622
889.883	4607
890.006	4717
890.13	4767
890.254	4573
890.377	4729
890.501	4550
890.624	4535
890.748	4596
890.871	4508
890.995	4470
891.118	4394
891.241	4504
891.364	4538
891.488	4641
891.611	4459
891.734	4500
891.857	4592
891.98	4538
892.103	4622
892.226	4588
892.349	4523
892.471	4424
892.594	4542
892.717	4592
892.839	4535
892.962	4622
893.085	4622
893.207	4603
893.33	4451
893.452	4508
893.575	4630
893.697	4531
893.819	4771
893.941	4786
894.064	4759
894.186	4565
894.308	4607
894.43	4736
894.552	4774
894.674	4790
894.796	4565
894.918	4588
895.04	4497
895.161	4668
895.283	4641
895.405	4569
895.526	4580
895.648	4660
895.769	4675
895.891	4736
896.012	4706
896.134	4729
896.255	4656
896.376	4630
896.498	4618
896.619	4664
896.74	4630
896.861	4634
896.982	4923
897.103	5029
897.224	4820
897.345	4702
897.466	4637
897.587	4717
897.708	4854
897.828	4786
897.949	4702
898.07	4565
898.19	4599
898.311	4839
898.431	4641
898.552	4744
898.672	4782
898.792	4812
898.913	4740
899.033	4618
899.153	4459
899.273	4432
899.393	4519
899.513	4493
899.633	4546
899.753	4519
899.873	4516
899.993	4542
900.113	4512
900.232	4565
900.352	4500
900.472	4516
900.591	4417
900.711	4459
900.83	4443
900.95	4611
901.069	4672
901.189	4523
901.308	4344
901.427	4276
901.546	4417
901.665	4443
901.784	4519
901.904	4352
902.023	4303
902.141	4154
902.26	4101
902.379	4318
902.498	4257
902.617	4234
902.735	4367
902.854	4356
902.973	4306
903.091	4162
903.21	4215
903.328	4299
903.446	4253
903.565	4238
903.683	4367
903.801	4246
903.919	4398
904.038	4421
904.156	4318
904.274	4417
904.392	4424
904.51	4451
904.627	4497
904.745	4550
904.863	4637
904.981	4363
905.098	4310
905.216	4348
905.334	4375
905.451	4428
905.569	4440
905.686	4558
905.803	4565
905.921	4352
906.038	4561
906.155	4489
906.272	4413
906.389	4455
906.506	4386
906.623	4333
906.74	4379
906.857	4284
906.974	4310
907.091	4512
907.208	4660
907.324	4603
907.441	4455
907.557	4333
907.674	4329
907.79	4318
907.907	4371
908.023	4459
908.139	4466
908.256	4398
908.372	4447
908.488	4402
908.604	4360
908.72	4284
908.836	4329
908.952	4363
909.068	4394
909.184	4599
909.3	4519
909.415	4542
909.531	4497
909.647	4337
909.762	4371
909.878	4352
909.993	4424
910.108	4356
910.224	4360
910.339	4497
910.454	4398
910.57	4379
910.685	4341
910.8	4672
910.915	4588
911.03	4485
911.145	4352
911.259	4314
911.374	4352
911.489	4303
911.604	4265
911.718	4181
911.833	4192
911.947	4124
912.062	3998
912.176	4227
912.291	4272
912.405	4253
912.519	4474
912.633	4500
912.748	4341
912.862	4238
912.976	4200
913.09	4090
913.204	4192
913.318	4268
913.431	4367
913.545	4356
913.659	4409
913.772	4360
913.886	4227
914	4173
914.113	4379
914.226	4413
914.34	4386
914.453	4230
914.566	4443
914.68	4257
914.793	4299
914.906	4166
915.019	4135
915.132	4055
915.245	4234
915.358	4223
915.47	4192
915.583	4234
915.696	4306
915.809	4424
915.921	4428
916.034	4227
916.146	4306
916.259	4223
916.371	4314
916.483	4348
916.595	4246
916.708	4303
916.82	4360
916.932	4344
917.044	4314
917.156	4325
917.268	4211
917.38	4242
917.491	4223
917.603	4348
917.715	4394
917.826	4356
917.938	4303
918.049	4223
918.161	4379
918.272	4523
918.384	4550
918.495	4428
918.606	4284
918.717	4253
918.828	4344
918.939	4329
919.05	4238
919.161	4333
919.272	4128
919.383	4246
919.494	4375
919.604	4603
919.715	4394
919.826	4371
919.936	4413
920.047	4546
920.157	4508
920.267	4706
920.378	4531
920.488	4474
920.598	4782
920.708	4915
920.818	4733
920.928	4755
921.038	4873
921.148	4873
921.258	4634
921.368	4573
921.477	4516
921.587	4436
921.697	4329
921.806	4512
921.916	4424
922.025	4196
922.134	4310
922.244	4246
922.353	4333
922.462	4173
922.571	4158
922.68	4002
922.789	3979
922.898	4002
923.007	4017
923.116	4082
923.224	4025
923.333	4090
923.442	3991
923.55	3972
923.659	4029
923.767	4105
923.876	4006
923.984	4109
924.092	3968
924.201	4097
924.309	4109
924.417	4082
924.525	4036
924.633	4082
924.741	5048
924.849	3941
924.956	4105
925.064	3964
925.172	3842
925.279	3922
925.387	4071
925.494	4150
925.602	4169
925.709	4192
925.816	4021
925.924	4128
926.031	4211
926.138	4173
926.245	4166
926.352	4116
926.459	4249
926.566	4314
926.673	4128
926.779	4048
926.886	4044
926.993	3983
927.099	3972
927.206	3930
927.312	3896
927.419	4067
927.525	4017
927.631	4109
927.737	3926
927.843	3918
927.95	3797
928.056	3945
928.162	3991
928.267	4063
928.373	4656
928.479	4097
928.585	3865
928.69	4029
928.796	4101
928.901	3979
929.007	3846
929.112	4006
929.218	3960
929.323	3934
929.428	3953
929.533	4116
929.638	3907
929.743	3922
929.848	4029
929.953	4025
930.058	3903
930.163	3804
930.267	3854
930.372	3972
930.477	3812
930.581	4074
930.685	3937
930.79	3812
930.894	3903
930.998	3918
931.103	4021
931.207	3705
931.311	3736
931.415	3644
931.519	3507
931.623	3549
