Data from test_V78500241_762.txt Node
Date: Fri Mar 25 16:54:18 CST 2022
User: usil
Spectrometer: V785-0024
Trigger mode: 0
Integration Time (sec): 4.000000E-1
Scans to average: 1
Nonlinearity correction enabled: false
Boxcar width: 0
Storing dark spectrum: false
XAxis mode: Wavelengths
Number of Pixels in Spectrum: 1024
>>>>>Begin Spectral Data<<<<<
801.071	8001
801.214	8031
801.356	7849
801.499	7856
801.641	7795
801.783	7814
801.926	7963
802.068	7951
802.211	7982
802.353	7902
802.496	7890
802.638	7967
802.78	7944
802.923	7921
803.065	7792
803.208	7894
803.35	8008
803.492	8111
803.635	8119
803.777	7978
803.919	8115
804.061	8374
804.204	8145
804.346	8020
804.488	7970
804.63	8069
804.773	7993
804.915	8096
805.057	8256
805.199	8161
805.341	8214
805.483	8248
805.626	8210
805.768	8069
805.91	8210
806.052	8164
806.194	8050
806.336	8317
806.478	8103
806.62	8103
806.762	8107
806.904	8214
807.046	8450
807.188	8351
807.33	8252
807.472	8400
807.614	8130
807.756	8073
807.898	7951
808.04	7868
808.182	7822
808.324	7913
808.465	7868
808.607	8031
808.749	8092
808.891	8168
809.033	8305
809.174	8202
809.316	8096
809.458	8043
809.6	7967
809.741	8054
809.883	8092
810.025	8126
810.166	8100
810.308	8001
810.45	7997
810.591	7894
810.733	7750
810.875	7658
811.016	7521
811.158	7495
811.299	7616
811.441	7639
811.582	7658
811.724	7525
811.865	7476
812.007	7578
812.148	7559
812.29	7540
812.431	7674
812.573	7887
812.714	7986
812.855	8050
812.997	8233
813.138	8294
813.279	8153
813.421	8054
813.562	8096
813.703	7841
813.845	7776
813.986	7411
814.127	7282
814.268	7251
814.41	7171
814.551	7103
814.692	7149
814.833	7034
814.974	7076
815.115	7122
815.256	6932
815.397	6932
815.539	6966
815.68	6753
815.821	6722
815.962	6810
816.103	6818
816.244	6696
816.385	6612
816.526	6616
816.666	6403
816.807	6262
816.948	6429
817.089	6414
817.23	6437
817.371	6308
817.512	6357
817.653	6361
817.793	6361
817.934	6429
818.075	6471
818.216	6414
818.356	6372
818.497	6247
818.638	6057
818.778	6114
818.919	6163
819.06	6095
819.2	6281
819.341	6270
819.481	6296
819.622	6502
819.762	6700
819.903	6650
820.043	6578
820.184	6540
820.324	6544
820.465	6623
820.605	6650
820.746	6658
820.886	6517
821.026	6658
821.167	6692
821.307	6818
821.447	6760
821.588	6677
821.728	6536
821.868	6475
822.008	6315
822.149	6380
822.289	6388
822.429	6159
822.569	6049
822.709	6091
822.849	5889
822.99	5851
823.13	5889
823.27	5885
823.41	5767
823.55	5752
823.69	5710
823.83	5767
823.97	5676
824.11	5501
824.25	5539
824.389	5562
824.529	5611
824.669	5558
824.809	5649
824.949	5653
825.089	5547
825.228	5573
825.368	5364
825.508	5341
825.648	5231
825.787	5391
825.927	5357
826.067	5250
826.206	5261
826.346	5364
826.485	5402
826.625	5360
826.765	5528
826.904	5482
827.044	5258
827.183	5201
827.323	5083
827.462	5261
827.601	5143
827.741	5151
827.88	5201
828.02	5121
828.159	5235
828.298	5334
828.437	5326
828.577	5280
828.716	5497
828.855	5334
828.994	5181
829.134	5136
829.273	5132
829.412	5124
829.551	5140
829.69	5132
829.829	5235
829.968	5345
830.107	5261
830.246	5288
830.385	5155
830.524	5140
830.663	5067
830.802	4946
830.941	4900
831.08	4843
831.219	4965
831.357	4953
831.496	5128
831.635	4892
831.774	4858
831.913	4885
832.051	4714
832.19	4733
832.329	4816
832.467	4694
832.606	4618
832.744	4672
832.883	4694
833.022	4702
833.16	4778
833.299	4801
833.437	4786
833.576	4816
833.714	4831
833.852	4824
833.991	4889
834.129	4919
834.267	4953
834.406	4873
834.544	4930
834.682	4957
834.821	4915
834.959	5155
835.097	4995
835.235	5162
835.373	5045
835.511	5113
835.65	5064
835.788	5022
835.926	4873
836.064	4881
836.202	4839
836.34	5170
836.478	5216
836.615	5128
836.753	5155
836.891	5265
837.029	5250
837.167	5197
837.305	5124
837.443	5136
837.58	5094
837.718	5269
837.856	5227
837.993	5124
838.131	5212
838.269	5208
838.406	5143
838.544	5132
838.681	5056
838.819	5006
838.956	4946
839.094	4946
839.231	4972
839.369	5071
839.506	5410
839.643	5254
839.781	5105
839.918	5056
840.055	5064
840.193	5064
840.33	5094
840.467	5151
840.604	5166
840.742	5448
840.879	5132
841.016	5105
841.153	5105
841.29	5337
841.427	5341
841.564	5307
841.701	5318
841.838	5246
841.975	5204
842.112	5273
842.249	5181
842.385	5090
842.522	5288
842.659	5201
842.796	5128
842.933	5258
843.069	5128
843.206	5105
843.343	5311
843.479	5212
843.616	5292
843.752	5075
843.889	5003
844.025	5227
844.162	5018
844.298	5162
844.435	5071
844.571	5079
844.708	5201
844.844	5296
844.98	5341
845.117	5292
845.253	5128
845.389	5071
845.525	5181
845.661	5159
845.798	5045
845.934	5094
846.07	5064
846.206	5212
846.342	5261
846.478	5132
846.614	5060
846.75	4980
846.886	4919
847.022	5143
847.158	5018
847.294	5048
847.429	5143
847.565	5060
847.701	5288
847.837	4831
847.972	4782
848.108	4889
848.244	4892
848.379	4790
848.515	4710
848.65	4725
848.786	4721
848.921	4717
849.057	4828
849.192	4908
849.328	4797
849.463	4843
849.598	4748
849.734	4778
849.869	4660
850.004	4656
850.14	4668
850.275	4580
850.41	4535
850.545	4565
850.68	4618
850.815	4603
850.95	4615
851.085	4752
851.22	4748
851.355	4687
851.49	4577
851.625	4660
851.76	4679
851.895	4538
852.03	4535
852.165	4691
852.299	4698
852.434	4744
852.569	4778
852.703	4782
852.838	4831
852.973	4949
853.107	4908
853.242	4729
853.376	4721
853.511	4554
853.645	4622
853.78	4816
853.914	4649
854.048	4637
854.183	4668
854.317	4691
854.451	4854
854.585	4683
854.72	4653
854.854	4706
854.988	4584
855.122	4607
855.256	4546
855.39	4672
855.524	4774
855.658	4687
855.792	4717
855.926	4771
856.06	4736
856.194	4816
856.327	4634
856.461	4599
856.595	4603
856.729	4634
856.862	4774
856.996	4694
857.13	4725
857.263	4759
857.397	4759
857.53	4656
857.664	4736
857.797	4736
857.931	4721
858.064	4717
858.197	4729
858.331	4649
858.464	4592
858.597	4516
858.731	4592
858.864	4611
858.997	4596
859.13	4694
859.263	4706
859.396	4698
859.529	4535
859.662	4535
859.795	4519
859.928	4603
860.061	4786
860.194	4774
860.327	4546
860.46	4561
860.592	4664
860.725	4721
860.858	4710
860.99	4546
861.123	4527
861.256	4531
861.388	4607
861.521	5353
861.653	4493
861.786	4421
861.918	4462
862.05	4512
862.183	4516
862.315	4603
862.447	4599
862.58	4508
862.712	4417
862.844	4386
862.976	4462
863.108	4424
863.24	4793
863.372	4295
863.504	4390
863.636	4440
863.768	4451
863.9	4440
864.032	4295
864.164	4371
864.296	4462
864.428	4546
864.559	4550
864.691	4500
864.823	4538
864.954	4485
865.086	4508
865.217	4413
865.349	4394
865.48	4447
865.612	4474
865.743	4611
865.875	4474
866.006	4440
866.137	4493
866.269	4421
866.4	4436
866.531	4436
866.662	4379
866.793	4413
866.924	4459
867.055	4474
867.186	4375
867.317	4432
867.448	4318
867.579	4417
867.71	4371
867.841	4363
867.972	4500
868.103	4417
868.233	4413
868.364	4432
868.495	4516
868.625	4649
868.756	4759
868.886	4569
869.017	4634
869.147	4740
869.278	4759
869.408	4634
869.539	4622
869.669	4717
869.799	4607
869.929	4729
870.06	4706
870.19	4961
870.32	4866
870.45	4889
870.58	5010
870.71	5079
870.84	5067
870.97	4942
871.1	4892
871.23	5094
871.36	5105
871.489	5022
871.619	5083
871.749	5102
871.879	5201
872.008	5159
872.138	5010
872.267	4946
872.397	4820
872.526	4778
872.656	4755
872.785	4774
872.915	4968
873.044	4965
873.173	4911
873.303	5003
873.432	4946
873.561	4957
873.69	4862
873.819	4824
873.948	4938
874.077	4786
874.206	4755
874.335	4797
874.464	4961
874.593	5052
874.722	4915
874.851	5162
874.979	5071
875.108	5041
875.237	4915
875.365	4885
875.494	4862
875.623	4968
875.751	4824
875.88	4881
876.008	4942
876.136	5052
876.265	5166
876.393	5353
876.521	5227
876.65	5223
876.778	5162
876.906	5052
877.034	5064
877.162	5098
877.29	4972
877.418	5025
877.546	5029
877.674	5022
877.802	5022
877.93	5037
878.058	4934
878.185	4877
878.313	4923
878.441	4930
878.568	4809
878.696	4873
878.824	4942
878.951	4965
879.079	5155
879.206	5326
879.333	5124
879.461	4968
879.588	4980
879.715	5124
879.842	5220
879.97	5056
880.097	4835
880.224	4752
880.351	4854
880.478	4831
880.605	4797
880.732	4767
880.859	5098
880.986	4908
881.112	4911
881.239	4706
881.366	4691
881.493	4558
881.619	4611
881.746	4656
881.872	4615
881.999	4656
882.125	4694
882.252	4748
882.378	4831
882.505	4946
882.631	4786
882.757	4599
882.883	4691
883.01	4698
883.136	4656
883.262	4584
883.388	4618
883.514	4790
883.64	4816
883.766	4793
883.892	4687
884.018	4782
884.143	4877
884.269	5022
884.395	4664
884.52	4630
884.646	4592
884.772	4580
884.897	4554
885.023	4656
885.148	4786
885.274	4835
885.399	4782
885.524	4664
885.65	4679
885.775	4717
885.9	4714
886.025	4828
886.15	4767
886.275	4698
886.4	4641
886.525	4672
886.65	4694
886.775	4668
886.9	4889
887.025	4968
887.149	4790
887.274	4634
887.399	4561
887.523	4618
887.648	4554
887.773	4550
887.897	4774
888.021	4805
888.146	4725
888.27	4771
888.395	4900
888.519	4790
888.643	4820
888.767	4854
888.891	4653
889.015	4592
889.139	4683
889.263	4565
889.387	4771
889.511	4866
889.635	4786
889.759	4580
889.883	4672
890.006	4698
890.13	4824
890.254	4649
890.377	4668
890.501	4504
890.624	4519
890.748	4630
890.871	4474
890.995	4413
891.118	4371
891.241	4466
891.364	4546
891.488	4592
891.611	4558
891.734	4561
891.857	4569
891.98	4580
892.103	4641
892.226	4573
892.349	4527
892.471	4459
892.594	4546
892.717	4687
892.839	4561
892.962	4637
893.085	4691
893.207	4584
893.33	4478
893.452	4497
893.575	4698
893.697	4618
893.819	4801
893.941	4850
894.064	4721
894.186	4569
894.308	4531
894.43	4752
894.552	4843
894.674	4683
894.796	4573
894.918	4630
895.04	4554
895.161	4687
895.283	4653
895.405	4634
895.526	4615
895.648	4714
895.769	4622
895.891	4782
896.012	4721
896.134	4740
896.255	4660
896.376	4622
896.498	4569
896.619	4683
896.74	4603
896.861	4664
896.982	4889
897.103	5109
897.224	4858
897.345	4725
897.466	4694
897.587	4763
897.708	4862
897.828	4759
897.949	4653
898.07	4550
898.19	4599
898.311	4752
898.431	4660
898.552	4694
898.672	4820
898.792	4793
898.913	4721
899.033	4645
899.153	4493
899.273	4390
899.393	4451
899.513	4523
899.633	4527
899.753	4531
899.873	4493
899.993	4592
900.113	4512
900.232	4554
900.352	4561
900.472	4447
900.591	4405
900.711	4519
900.83	4447
900.95	4611
901.069	4656
901.189	4577
901.308	4417
901.427	4303
901.546	4424
901.665	4440
901.784	4523
901.904	4409
902.023	4299
902.141	4166
902.26	4124
902.379	4287
902.498	4238
902.617	4227
902.735	4379
902.854	4375
902.973	4329
903.091	4173
903.21	4192
903.328	4314
903.446	4291
903.565	4272
903.683	4333
903.801	4261
903.919	4421
904.038	4383
904.156	4310
904.274	4443
904.392	4386
904.51	4432
904.627	4478
904.745	4538
904.863	4615
904.981	4352
905.098	4295
905.216	4344
905.334	4428
905.451	4436
905.569	4451
905.686	4573
905.803	4550
905.921	4390
906.038	4550
906.155	4512
906.272	4363
906.389	4455
906.506	4348
906.623	4367
906.74	4341
906.857	4287
906.974	4367
907.091	4577
907.208	4733
907.324	4550
907.441	4459
907.557	4329
907.674	4329
907.79	4272
907.907	4386
908.023	4504
908.139	4485
908.256	4455
908.372	4500
908.488	4481
908.604	4367
908.72	4322
908.836	4421
908.952	4367
909.068	4367
909.184	4615
909.3	4481
909.415	4599
909.531	4611
909.647	4371
909.762	4341
909.878	4333
909.993	4443
910.108	4398
910.224	4428
910.339	4398
910.454	4375
910.57	4375
910.685	4310
910.8	4672
910.915	4592
911.03	4485
911.145	4287
911.259	4318
911.374	4398
911.489	4280
911.604	4265
911.718	4143
911.833	4162
911.947	4105
912.062	4017
912.176	4143
912.291	4257
912.405	4261
912.519	4432
912.633	4512
912.748	4344
912.862	4306
912.976	4249
913.09	4101
913.204	4196
913.318	4276
913.431	4363
913.545	4341
913.659	4386
913.772	4348
913.886	4207
914	4242
914.113	4398
914.226	4413
914.34	4367
914.453	4211
914.566	4443
914.68	4303
914.793	4322
914.906	4135
915.019	4097
915.132	4090
915.245	4188
915.358	4162
915.47	4238
915.583	4230
915.696	4291
915.809	4371
915.921	4413
916.034	4249
916.146	4261
916.259	4215
916.371	4325
916.483	4398
916.595	4272
916.708	4291
916.82	4322
916.932	4348
917.044	4341
917.156	4314
917.268	4242
917.38	4318
917.491	4257
917.603	4337
917.715	4466
917.826	4402
917.938	4333
918.049	4223
918.161	4371
918.272	4516
918.384	4542
918.495	4485
918.606	4303
918.717	4219
918.828	4306
918.939	4386
919.05	4257
919.161	4329
919.272	4150
919.383	4234
919.494	4436
919.604	4611
919.715	4451
919.826	4398
919.936	4402
920.047	4569
920.157	4489
920.267	4649
920.378	4550
920.488	4481
920.598	4660
920.708	4881
920.818	4691
920.928	4729
921.038	5003
921.148	4904
921.258	4592
921.368	4535
921.477	4455
921.587	4428
921.697	4360
921.806	4523
921.916	4424
922.025	4238
922.134	4291
922.244	4219
922.353	4310
922.462	4158
922.571	4109
922.68	4002
922.789	3945
922.898	4021
923.007	3945
923.116	4112
923.224	4021
923.333	4055
923.442	3983
923.55	3930
923.659	3987
923.767	4044
923.876	4002
923.984	4074
924.092	3941
924.201	4131
924.309	4071
924.417	4116
924.525	4044
924.633	4109
924.741	4847
924.849	3941
924.956	4116
925.064	3937
925.172	3907
925.279	3968
925.387	4055
925.494	4059
925.602	4215
925.709	4173
925.816	4051
925.924	4086
926.031	4204
926.138	4185
926.245	4227
926.352	4112
926.459	4265
926.566	4306
926.673	4131
926.779	4055
926.886	4048
926.993	4002
927.099	3956
927.206	3896
927.312	3953
927.419	4029
927.525	4032
927.631	4059
927.737	3922
927.843	3953
927.95	3823
928.056	3953
928.162	3975
928.267	4063
928.373	4615
928.479	4101
928.585	3850
928.69	3998
928.796	4036
928.901	3926
929.007	3808
929.112	4029
929.218	3926
929.323	3918
929.428	3941
929.533	4082
929.638	3899
929.743	3983
929.848	4048
929.953	3964
930.058	3896
930.163	3743
930.267	3827
930.372	3968
930.477	3774
930.581	4093
930.685	3949
930.79	3778
930.894	3888
930.998	3869
931.103	4013
931.207	3694
931.311	3694
931.415	3629
931.519	3492
931.623	3523
