Data from test_V78500241_1227.txt Node
Date: Fri Mar 25 16:57:31 CST 2022
User: usil
Spectrometer: V785-0024
Trigger mode: 0
Integration Time (sec): 4.000000E-1
Scans to average: 1
Nonlinearity correction enabled: false
Boxcar width: 0
Storing dark spectrum: false
XAxis mode: Wavelengths
Number of Pixels in Spectrum: 1024
>>>>>Begin Spectral Data<<<<<
801.071	8069
801.214	8069
801.356	7947
801.499	7795
801.641	7822
801.783	7795
801.926	7970
802.068	7989
802.211	8005
802.353	7963
802.496	7849
802.638	7959
802.78	7894
802.923	7967
803.065	7906
803.208	7902
803.35	8031
803.492	8073
803.635	8191
803.777	8050
803.919	8134
804.061	8560
804.204	8199
804.346	8103
804.488	8024
804.63	8092
804.773	8035
804.915	8100
805.057	8317
805.199	8202
805.341	8176
805.483	8271
805.626	8183
805.768	8176
805.91	8221
806.052	8256
806.194	8138
806.336	8218
806.478	8115
806.62	8031
806.762	8168
806.904	8339
807.046	8461
807.188	8362
807.33	8290
807.472	8271
807.614	8138
807.756	8100
807.898	8001
808.04	7852
808.182	7928
808.324	8024
808.465	7970
808.607	8096
808.749	8145
808.891	8248
809.033	8320
809.174	8244
809.316	8050
809.458	8035
809.6	7959
809.741	7989
809.883	8073
810.025	8130
810.166	8020
810.308	8024
810.45	7963
810.591	7841
810.733	7799
810.875	7605
811.016	7514
811.158	7464
811.299	7601
811.441	7731
811.582	7712
811.724	7609
811.865	7544
812.007	7571
812.148	7597
812.29	7681
812.431	7772
812.573	7856
812.714	7947
812.855	8103
812.997	8191
813.138	8366
813.279	8172
813.421	8161
813.562	7974
813.703	7822
813.845	7761
813.986	7392
814.127	7305
814.268	7266
814.41	7247
814.551	7168
814.692	7228
814.833	7080
814.974	7129
815.115	7065
815.256	7031
815.397	7000
815.539	6943
815.68	6859
815.821	6821
815.962	6863
816.103	6818
816.244	6707
816.385	6627
816.526	6654
816.666	6517
816.807	6346
816.948	6384
817.089	6426
817.23	6441
817.371	6399
817.512	6403
817.653	6369
817.793	6369
817.934	6422
818.075	6528
818.216	6384
818.356	6414
818.497	6285
818.638	6194
818.778	6140
818.919	6152
819.06	6152
819.2	6338
819.341	6311
819.481	6357
819.622	6494
819.762	6753
819.903	6715
820.043	6578
820.184	6563
820.324	6570
820.465	6760
820.605	6715
820.746	6692
820.886	6521
821.026	6642
821.167	6673
821.307	6760
821.447	6745
821.588	6711
821.728	6551
821.868	6464
822.008	6296
822.149	6380
822.289	6334
822.429	6159
822.569	6114
822.709	6106
822.849	5920
822.99	5946
823.13	5927
823.27	5878
823.41	5794
823.55	5805
823.69	5741
823.83	5809
823.97	5703
824.11	5551
824.25	5539
824.389	5570
824.529	5539
824.669	5497
824.809	5642
824.949	5619
825.089	5627
825.228	5562
825.368	5440
825.508	5414
825.648	5341
825.787	5402
825.927	5364
826.067	5284
826.206	5318
826.346	5364
826.485	5402
826.625	5440
826.765	5528
826.904	5516
827.044	5242
827.183	5181
827.323	5181
827.462	5250
827.601	5189
827.741	5208
827.88	5227
828.02	5113
828.159	5250
828.298	5318
828.437	5357
828.577	5250
828.716	5455
828.855	5284
828.994	5105
829.134	5109
829.273	5155
829.412	5147
829.551	5185
829.69	5185
829.829	5261
829.968	5357
830.107	5318
830.246	5265
830.385	5170
830.524	5113
830.663	5064
830.802	4984
830.941	4900
831.08	4885
831.219	4965
831.357	4946
831.496	5166
831.635	4915
831.774	4881
831.913	4839
832.051	4736
832.19	4733
832.329	4824
832.467	4668
832.606	4668
832.744	4710
832.883	4702
833.022	4725
833.16	4778
833.299	4828
833.437	4870
833.576	4820
833.714	4820
833.852	4843
833.991	4816
834.129	4938
834.267	4934
834.406	4873
834.544	4961
834.682	4995
834.821	4957
834.959	5128
835.097	4965
835.235	5117
835.373	5090
835.511	5121
835.65	5045
835.788	5022
835.926	4850
836.064	4949
836.202	4930
836.34	5185
836.478	5220
836.615	5121
836.753	5201
836.891	5311
837.029	5280
837.167	5201
837.305	5170
837.443	5185
837.58	5041
837.718	5235
837.856	5181
837.993	5181
838.131	5197
838.269	5181
838.406	5216
838.544	5201
838.681	5037
838.819	5025
838.956	4847
839.094	4965
839.231	5018
839.369	5056
839.506	5391
839.643	5254
839.781	5067
839.918	5014
840.055	5079
840.193	5117
840.33	5075
840.467	5140
840.604	5159
840.742	5398
840.879	5033
841.016	5086
841.153	5136
841.29	5364
841.427	5376
841.564	5273
841.701	5311
841.838	5273
841.975	5250
842.112	5254
842.249	5162
842.385	5143
842.522	5357
842.659	5185
842.796	5181
842.933	5201
843.069	5170
843.206	5121
843.343	5242
843.479	5227
843.616	5265
843.752	5022
843.889	4976
844.025	5235
844.162	5003
844.298	5201
844.435	5052
844.571	5052
844.708	5231
844.844	5296
844.98	5307
845.117	5322
845.253	5143
845.389	5067
845.525	5132
845.661	5113
845.798	5033
845.934	5140
846.07	5075
846.206	5193
846.342	5261
846.478	5189
846.614	5052
846.75	4934
846.886	4961
847.022	5124
847.158	5033
847.294	5060
847.429	5113
847.565	5018
847.701	5265
847.837	4835
847.972	4816
848.108	4968
848.244	4889
848.379	4774
848.515	4691
848.65	4725
848.786	4763
848.921	4782
849.057	4816
849.192	4858
849.328	4793
849.463	4889
849.598	4771
849.734	4809
849.869	4698
850.004	4611
850.14	4630
850.275	4603
850.41	4565
850.545	4504
850.68	4546
850.815	4634
850.95	4672
851.085	4820
851.22	4729
851.355	4634
851.49	4596
851.625	4596
851.76	4679
851.895	4580
852.03	4558
852.165	4618
852.299	4702
852.434	4786
852.569	4714
852.703	4694
852.838	4850
852.973	4923
853.107	4896
853.242	4733
853.376	4683
853.511	4558
853.645	4615
853.78	4790
853.914	4698
854.048	4660
854.183	4626
854.317	4672
854.451	4858
854.585	4607
854.72	4618
854.854	4714
854.988	4615
855.122	4637
855.256	4497
855.39	4687
855.524	4759
855.658	4706
855.792	4702
855.926	4729
856.06	4767
856.194	4816
856.327	4683
856.461	4596
856.595	4603
856.729	4584
856.862	4786
856.996	4721
857.13	4725
857.263	4752
857.397	4824
857.53	4649
857.664	4736
857.797	4755
857.931	4767
858.064	4721
858.197	4706
858.331	4618
858.464	4618
858.597	4519
858.731	4649
858.864	4641
858.997	4584
859.13	4653
859.263	4691
859.396	4687
859.529	4565
859.662	4573
859.795	4535
859.928	4649
860.061	4790
860.194	4774
860.327	4641
860.46	4596
860.592	4725
860.725	4706
860.858	4706
860.99	4554
861.123	4485
861.256	4523
861.388	4599
861.521	5345
861.653	4462
861.786	4386
861.918	4459
862.05	4497
862.183	4523
862.315	4603
862.447	4649
862.58	4523
862.712	4405
862.844	4360
862.976	4500
863.108	4451
863.24	4885
863.372	4306
863.504	4386
863.636	4383
863.768	4493
863.9	4417
864.032	4356
864.164	4421
864.296	4459
864.428	4500
864.559	4573
864.691	4569
864.823	4554
864.954	4546
865.086	4523
865.217	4455
865.349	4421
865.48	4432
865.612	4500
865.743	4649
865.875	4455
866.006	4474
866.137	4428
866.269	4466
866.4	4455
866.531	4417
866.662	4413
866.793	4383
866.924	4421
867.055	4535
867.186	4470
867.317	4394
867.448	4344
867.579	4394
867.71	4363
867.841	4371
867.972	4443
868.103	4485
868.233	4436
868.364	4443
868.495	4462
868.625	4649
868.756	4774
868.886	4554
869.017	4630
869.147	4733
869.278	4755
869.408	4637
869.539	4660
869.669	4698
869.799	4603
869.929	4759
870.06	4763
870.19	4919
870.32	4873
870.45	4904
870.58	5010
870.71	5143
870.84	5094
870.97	4957
871.1	4881
871.23	5132
871.36	5094
871.489	5003
871.619	5029
871.749	5094
871.879	5067
872.008	5166
872.138	5033
872.267	4972
872.397	4782
872.526	4755
872.656	4698
872.785	4835
872.915	4915
873.044	5022
873.173	4923
873.303	4984
873.432	4930
873.561	4965
873.69	4915
873.819	4828
873.948	4885
874.077	4809
874.206	4752
874.335	4778
874.464	4904
874.593	5045
874.722	4984
874.851	5075
874.979	5025
875.108	5045
875.237	4896
875.365	4881
875.494	4847
875.623	4980
875.751	4862
875.88	4927
876.008	4938
876.136	5033
876.265	5151
876.393	5357
876.521	5254
876.65	5193
876.778	5159
876.906	5052
877.034	4976
877.162	5048
877.29	4976
877.418	5045
877.546	5006
877.674	5060
877.802	5029
877.93	4995
878.058	4908
878.185	4820
878.313	4953
878.441	4923
878.568	4839
878.696	4866
878.824	4987
878.951	4976
879.079	5121
879.206	5269
879.333	5117
879.461	4995
879.588	4961
879.715	5075
879.842	5235
879.97	5010
880.097	4790
880.224	4702
880.351	4828
880.478	4801
880.605	4759
880.732	4782
880.859	5098
880.986	4847
881.112	4854
881.239	4774
881.366	4618
881.493	4588
881.619	4622
881.746	4611
881.872	4656
881.999	4687
882.125	4656
882.252	4797
882.378	4839
882.505	4885
882.631	4790
882.757	4637
882.883	4706
883.01	4740
883.136	4668
883.262	4584
883.388	4596
883.514	4816
883.64	4843
883.766	4771
883.892	4656
884.018	4706
884.143	4911
884.269	5010
884.395	4660
884.52	4618
884.646	4615
884.772	4542
884.897	4611
885.023	4672
885.148	4759
885.274	4908
885.399	4797
885.524	4656
885.65	4679
885.775	4736
885.9	4691
886.025	4812
886.15	4782
886.275	4691
886.4	4607
886.525	4702
886.65	4717
886.775	4596
886.9	4900
887.025	4999
887.149	4850
887.274	4618
887.399	4622
887.523	4637
887.648	4565
887.773	4531
887.897	4767
888.021	4771
888.146	4694
888.27	4828
888.395	4889
888.519	4801
888.643	4778
888.767	4831
888.891	4641
889.015	4622
889.139	4649
889.263	4596
889.387	4740
889.511	4843
889.635	4790
889.759	4645
889.883	4649
890.006	4706
890.13	4812
890.254	4630
890.377	4637
890.501	4558
890.624	4527
890.748	4637
890.871	4489
890.995	4405
891.118	4341
891.241	4523
891.364	4523
891.488	4645
891.611	4508
891.734	4508
891.857	4531
891.98	4542
892.103	4603
892.226	4607
892.349	4558
892.471	4459
892.594	4577
892.717	4626
892.839	4546
892.962	4607
893.085	4634
893.207	4561
893.33	4432
893.452	4535
893.575	4634
893.697	4611
893.819	4790
893.941	4854
894.064	4771
894.186	4554
894.308	4561
894.43	4710
894.552	4839
894.674	4752
894.796	4584
894.918	4542
895.04	4573
895.161	4698
895.283	4630
895.405	4554
895.526	4626
895.648	4675
895.769	4656
895.891	4672
896.012	4702
896.134	4714
896.255	4653
896.376	4664
896.498	4599
896.619	4752
896.74	4592
896.861	4618
896.982	4934
897.103	5071
897.224	4812
897.345	4740
897.466	4679
897.587	4698
897.708	4839
897.828	4755
897.949	4615
898.07	4538
898.19	4603
898.311	4828
898.431	4664
898.552	4710
898.672	4786
898.792	4790
898.913	4759
899.033	4634
899.153	4459
899.273	4402
899.393	4523
899.513	4504
899.633	4466
899.753	4512
899.873	4504
899.993	4607
900.113	4538
900.232	4584
900.352	4542
900.472	4455
900.591	4409
900.711	4489
900.83	4436
900.95	4622
901.069	4733
901.189	4519
901.308	4360
901.427	4291
901.546	4337
901.665	4481
901.784	4508
901.904	4390
902.023	4272
902.141	4204
902.26	4150
902.379	4314
902.498	4204
902.617	4200
902.735	4375
902.854	4341
902.973	4360
903.091	4249
903.21	4215
903.328	4325
903.446	4276
903.565	4284
903.683	4322
903.801	4253
903.919	4375
904.038	4443
904.156	4310
904.274	4447
904.392	4375
904.51	4451
904.627	4478
904.745	4546
904.863	4641
904.981	4386
905.098	4310
905.216	4333
905.334	4402
905.451	4402
905.569	4424
905.686	4481
905.803	4546
905.921	4386
906.038	4592
906.155	4478
906.272	4333
906.389	4443
906.506	4383
906.623	4363
906.74	4379
906.857	4257
906.974	4383
907.091	4603
907.208	4637
907.324	4584
907.441	4481
907.557	4306
907.674	4348
907.79	4325
907.907	4383
908.023	4478
908.139	4470
908.256	4443
908.372	4485
908.488	4455
908.604	4314
908.72	4333
908.836	4371
908.952	4344
909.068	4375
909.184	4561
909.3	4451
909.415	4588
909.531	4558
909.647	4333
909.762	4348
909.878	4344
909.993	4424
910.108	4421
910.224	4375
910.339	4447
910.454	4402
910.57	4348
910.685	4295
910.8	4634
910.915	4588
911.03	4523
911.145	4322
911.259	4352
911.374	4360
911.489	4280
911.604	4295
911.718	4162
911.833	4147
911.947	4067
912.062	4002
912.176	4200
912.291	4242
912.405	4249
912.519	4500
912.633	4508
912.748	4344
912.862	4287
912.976	4181
913.09	4074
913.204	4169
913.318	4185
913.431	4379
913.545	4386
913.659	4459
913.772	4344
913.886	4265
914	4249
914.113	4371
914.226	4455
914.34	4348
914.453	4230
914.566	4421
914.68	4314
914.793	4314
914.906	4215
915.019	4124
915.132	4067
915.245	4147
915.358	4200
915.47	4249
915.583	4303
915.696	4337
915.809	4390
915.921	4417
916.034	4230
916.146	4215
916.259	4204
916.371	4398
916.483	4333
916.595	4242
916.708	4303
916.82	4306
916.932	4325
917.044	4379
917.156	4295
917.268	4207
917.38	4234
917.491	4306
917.603	4303
917.715	4405
917.826	4421
917.938	4375
918.049	4272
918.161	4436
918.272	4584
918.384	4558
918.495	4432
918.606	4295
918.717	4219
918.828	4367
918.939	4371
919.05	4246
919.161	4314
919.272	4139
919.383	4257
919.494	4466
919.604	4618
919.715	4417
919.826	4375
919.936	4402
920.047	4470
920.157	4462
920.267	4710
920.378	4523
920.488	4519
920.598	4725
920.708	4866
920.818	4714
920.928	4786
921.038	4976
921.148	4889
921.258	4626
921.368	4580
921.477	4462
921.587	4443
921.697	4417
921.806	4508
921.916	4390
922.025	4299
922.134	4299
922.244	4219
922.353	4303
922.462	4158
922.571	4120
922.68	3994
922.789	3972
922.898	4017
923.007	3968
923.116	4097
923.224	4074
923.333	4067
923.442	3968
923.55	3975
923.659	4074
923.767	4090
923.876	3979
923.984	4086
924.092	3991
924.201	4097
924.309	4090
924.417	4090
924.525	3998
924.633	4120
924.741	5056
924.849	3907
924.956	4169
925.064	3975
925.172	3896
925.279	3964
925.387	4036
925.494	3987
925.602	4238
925.709	4185
925.816	3991
925.924	4124
926.031	4207
926.138	4150
926.245	4188
926.352	4101
926.459	4261
926.566	4253
926.673	4154
926.779	4082
926.886	4093
926.993	3953
927.099	3922
927.206	3907
927.312	3953
927.419	4010
927.525	4048
927.631	4097
927.737	3934
927.843	3911
927.95	3857
928.056	3975
928.162	3991
928.267	4044
928.373	4672
928.479	4063
928.585	3835
928.69	4029
928.796	4082
928.901	3972
929.007	3800
929.112	3987
929.218	3979
929.323	3956
929.428	3884
929.533	4135
929.638	3907
929.743	3930
929.848	4040
929.953	3998
930.058	3888
930.163	3755
930.267	3827
930.372	3960
930.477	3785
930.581	4044
930.685	3941
930.79	3812
930.894	3842
930.998	3880
931.103	4048
931.207	3705
931.311	3690
931.415	3660
931.519	3500
931.623	3542
