Data from test_V78500241_626.txt Node
Date: Fri Mar 25 16:53:21 CST 2022
User: usil
Spectrometer: V785-0024
Trigger mode: 0
Integration Time (sec): 4.000000E-1
Scans to average: 1
Nonlinearity correction enabled: false
Boxcar width: 0
Storing dark spectrum: false
XAxis mode: Wavelengths
Number of Pixels in Spectrum: 1024
>>>>>Begin Spectral Data<<<<<
801.071	8020
801.214	8123
801.356	7871
801.499	7890
801.641	7887
801.783	7788
801.926	8035
802.068	7967
802.211	8012
802.353	8039
802.496	7925
802.638	7890
802.78	7967
802.923	7947
803.065	7898
803.208	7833
803.35	8008
803.492	8039
803.635	8153
803.777	8035
803.919	8134
804.061	8476
804.204	8134
804.346	8016
804.488	7970
804.63	8096
804.773	7967
804.915	8168
805.057	8248
805.199	8199
805.341	8199
805.483	8290
805.626	8233
805.768	8123
805.91	8214
806.052	8161
806.194	8073
806.336	8305
806.478	8073
806.62	8058
806.762	8130
806.904	8229
807.046	8526
807.188	8279
807.33	8275
807.472	8362
807.614	8145
807.756	8176
807.898	7993
808.04	7833
808.182	7890
808.324	7928
808.465	7883
808.607	7967
808.749	8107
808.891	8218
809.033	8263
809.174	8157
809.316	8046
809.458	8092
809.6	7959
809.741	8035
809.883	8001
810.025	8073
810.166	8065
810.308	8005
810.45	8069
810.591	7856
810.733	7700
810.875	7719
811.016	7548
811.158	7499
811.299	7666
811.441	7769
811.582	7647
811.724	7639
811.865	7476
812.007	7548
812.148	7590
812.29	7616
812.431	7696
812.573	7852
812.714	7974
812.855	8126
812.997	8214
813.138	8317
813.279	8244
813.421	8195
813.562	8062
813.703	7883
813.845	7772
813.986	7495
814.127	7316
814.268	7221
814.41	7221
814.551	7209
814.692	7118
814.833	7053
814.974	7065
815.115	7080
815.256	7031
815.397	6875
815.539	6993
815.68	6821
815.821	6840
815.962	6840
816.103	6825
816.244	6753
816.385	6585
816.526	6578
816.666	6506
816.807	6350
816.948	6471
817.089	6452
817.23	6448
817.371	6391
817.512	6426
817.653	6399
817.793	6399
817.934	6437
818.075	6490
818.216	6460
818.356	6388
818.497	6235
818.638	6117
818.778	6155
818.919	6144
819.06	6178
819.2	6338
819.341	6311
819.481	6315
819.622	6479
819.762	6738
819.903	6738
820.043	6544
820.184	6517
820.324	6612
820.465	6696
820.605	6639
820.746	6551
820.886	6532
821.026	6688
821.167	6707
821.307	6802
821.447	6757
821.588	6654
821.728	6506
821.868	6509
822.008	6308
822.149	6414
822.289	6353
822.429	6148
822.569	6098
822.709	6095
822.849	5870
822.99	5920
823.13	5946
823.27	5889
823.41	5779
823.55	5790
823.69	5775
823.83	5809
823.97	5707
824.11	5585
824.25	5493
824.389	5570
824.529	5627
824.669	5532
824.809	5680
824.949	5638
825.089	5627
825.228	5547
825.368	5360
825.508	5357
825.648	5379
825.787	5425
825.927	5372
826.067	5330
826.206	5326
826.346	5372
826.485	5395
826.625	5455
826.765	5554
826.904	5433
827.044	5220
827.183	5239
827.323	5105
827.462	5235
827.601	5166
827.741	5162
827.88	5204
828.02	5098
828.159	5235
828.298	5345
828.437	5326
828.577	5254
828.716	5493
828.855	5299
828.994	5170
829.134	5170
829.273	5193
829.412	5162
829.551	5113
829.69	5193
829.829	5239
829.968	5383
830.107	5235
830.246	5311
830.385	5151
830.524	5136
830.663	5117
830.802	5014
830.941	4847
831.08	4858
831.219	4995
831.357	5037
831.496	5143
831.635	4908
831.774	4885
831.913	4854
832.051	4763
832.19	4744
832.329	4801
832.467	4714
832.606	4611
832.744	4721
832.883	4694
833.022	4721
833.16	4805
833.299	4816
833.437	4809
833.576	4782
833.714	4862
833.852	4858
833.991	4843
834.129	4896
834.267	4934
834.406	4987
834.544	4961
834.682	4949
834.821	4946
834.959	5204
835.097	4999
835.235	5155
835.373	5067
835.511	5140
835.65	5006
835.788	5041
835.926	4858
836.064	4812
836.202	4930
836.34	5201
836.478	5231
836.615	5071
836.753	5193
836.891	5288
837.029	5208
837.167	5201
837.305	5166
837.443	5121
837.58	5083
837.718	5273
837.856	5220
837.993	5136
838.131	5254
838.269	5227
838.406	5162
838.544	5189
838.681	5052
838.819	4984
838.956	4904
839.094	4927
839.231	5029
839.369	5098
839.506	5448
839.643	5273
839.781	5064
839.918	5003
840.055	5166
840.193	5060
840.33	5090
840.467	5143
840.604	5166
840.742	5406
840.879	5143
841.016	5052
841.153	5121
841.29	5383
841.427	5330
841.564	5299
841.701	5372
841.838	5201
841.975	5216
842.112	5284
842.249	5140
842.385	5083
842.522	5372
842.659	5185
842.796	5132
842.933	5197
843.069	5151
843.206	5162
843.343	5250
843.479	5227
843.616	5269
843.752	5018
843.889	5022
844.025	5178
844.162	5006
844.298	5208
844.435	5064
844.571	5056
844.708	5181
844.844	5239
844.98	5318
845.117	5265
845.253	5124
845.389	5083
845.525	5159
845.661	5162
845.798	5033
845.934	5079
846.07	5014
846.206	5246
846.342	5303
846.478	5170
846.614	5022
846.75	4976
846.886	4930
847.022	5140
847.158	5071
847.294	5041
847.429	5109
847.565	5067
847.701	5318
847.837	4866
847.972	4797
848.108	4953
848.244	4927
848.379	4744
848.515	4698
848.65	4740
848.786	4755
848.921	4755
849.057	4835
849.192	4930
849.328	4763
849.463	4866
849.598	4771
849.734	4740
849.869	4694
850.004	4580
850.14	4679
850.275	4565
850.41	4535
850.545	4569
850.68	4599
850.815	4580
850.95	4687
851.085	4816
851.22	4759
851.355	4656
851.49	4641
851.625	4596
851.76	4714
851.895	4554
852.03	4527
852.165	4687
852.299	4740
852.434	4809
852.569	4717
852.703	4774
852.838	4854
852.973	4942
853.107	4885
853.242	4782
853.376	4675
853.511	4573
853.645	4660
853.78	4858
853.914	4733
854.048	4725
854.183	4634
854.317	4725
854.451	4889
854.585	4694
854.72	4664
854.854	4801
854.988	4645
855.122	4702
855.256	4535
855.39	4698
855.524	4809
855.658	4774
855.792	4778
855.926	4786
856.06	4790
856.194	4828
856.327	4729
856.461	4645
856.595	4675
856.729	4653
856.862	4771
856.996	4729
857.13	4771
857.263	4786
857.397	4847
857.53	4725
857.664	4717
857.797	4797
857.931	4759
858.064	4752
858.197	4790
858.331	4710
858.464	4618
858.597	4577
858.731	4679
858.864	4675
858.997	4630
859.13	4717
859.263	4752
859.396	4725
859.529	4615
859.662	4592
859.795	4592
859.928	4675
860.061	4820
860.194	4809
860.327	4656
860.46	4588
860.592	4790
860.725	4733
860.858	4767
860.99	4622
861.123	4519
861.256	4516
861.388	4675
861.521	5345
861.653	4550
861.786	4538
861.918	4527
862.05	4561
862.183	4584
862.315	4588
862.447	4675
862.58	4538
862.712	4436
862.844	4379
862.976	4535
863.108	4538
863.24	4923
863.372	4405
863.504	4443
863.636	4489
863.768	4489
863.9	4474
864.032	4432
864.164	4443
864.296	4500
864.428	4588
864.559	4565
864.691	4607
864.823	4516
864.954	4577
865.086	4508
865.217	4478
865.349	4485
865.48	4478
865.612	4561
865.743	4641
865.875	4485
866.006	4428
866.137	4481
866.269	4512
866.4	4440
866.531	4462
866.662	4440
866.793	4443
866.924	4421
867.055	4542
867.186	4451
867.317	4440
867.448	4352
867.579	4440
867.71	4424
867.841	4405
867.972	4500
868.103	4478
868.233	4493
868.364	4440
868.495	4516
868.625	4691
868.756	4801
868.886	4607
869.017	4641
869.147	4801
869.278	4820
869.408	4653
869.539	4634
869.669	4778
869.799	4675
869.929	4797
870.06	4714
870.19	4968
870.32	4961
870.45	4953
870.58	5060
870.71	5128
870.84	5094
870.97	4976
871.1	4949
871.23	5155
871.36	5204
871.489	5094
871.619	5098
871.749	5105
871.879	5208
872.008	5216
872.138	5090
872.267	4995
872.397	4870
872.526	4816
872.656	4759
872.785	4854
872.915	5003
873.044	5056
873.173	4927
873.303	4999
873.432	5014
873.561	4965
873.69	4896
873.819	4877
873.948	4930
874.077	4850
874.206	4717
874.335	4850
874.464	4946
874.593	5083
874.722	4927
874.851	5086
874.979	5064
875.108	5056
875.237	4949
875.365	4870
875.494	4915
875.623	5025
875.751	4850
875.88	4900
876.008	5025
876.136	5132
876.265	5296
876.393	5376
876.521	5258
876.65	5239
876.778	5227
876.906	5121
877.034	5018
877.162	5064
877.29	4953
877.418	5071
877.546	5056
877.674	5037
877.802	5037
877.93	5071
878.058	4942
878.185	4862
878.313	4957
878.441	4927
878.568	4850
878.696	4900
878.824	4984
878.951	4995
879.079	5128
879.206	5280
879.333	5098
879.461	5003
879.588	5029
879.715	5143
879.842	5254
879.97	4999
880.097	4816
880.224	4812
880.351	4805
880.478	4847
880.605	4790
880.732	4828
880.859	5102
880.986	4942
881.112	4923
881.239	4774
881.366	4694
881.493	4626
881.619	4622
881.746	4660
881.872	4664
881.999	4721
882.125	4733
882.252	4824
882.378	4858
882.505	4946
882.631	4824
882.757	4706
882.883	4782
883.01	4793
883.136	4729
883.262	4641
883.388	4702
883.514	4870
883.64	4877
883.766	4774
883.892	4725
884.018	4778
884.143	4900
884.269	5064
884.395	4717
884.52	4675
884.646	4660
884.772	4596
884.897	4630
885.023	4668
885.148	4805
885.274	4896
885.399	4835
885.524	4694
885.65	4733
885.775	4755
885.9	4759
886.025	4927
886.15	4797
886.275	4740
886.4	4721
886.525	4721
886.65	4733
886.775	4675
886.9	4930
887.025	5083
887.149	4801
887.274	4706
887.399	4618
887.523	4626
887.648	4580
887.773	4592
887.897	4782
888.021	4790
888.146	4702
888.27	4889
888.395	4942
888.519	4809
888.643	4873
888.767	4839
888.891	4729
889.015	4653
889.139	4679
889.263	4573
889.387	4824
889.511	4900
889.635	4831
889.759	4626
889.883	4672
890.006	4778
890.13	4809
890.254	4683
890.377	4706
890.501	4626
890.624	4493
890.748	4653
890.871	4554
890.995	4432
891.118	4405
891.241	4523
891.364	4588
891.488	4660
891.611	4531
891.734	4565
891.857	4641
891.98	4603
892.103	4679
892.226	4542
892.349	4531
892.471	4485
892.594	4569
892.717	4622
892.839	4588
892.962	4626
893.085	4622
893.207	4603
893.33	4497
893.452	4546
893.575	4698
893.697	4603
893.819	4805
893.941	4831
894.064	4763
894.186	4596
894.308	4611
894.43	4767
894.552	4820
894.674	4759
894.796	4592
894.918	4592
895.04	4577
895.161	4752
895.283	4694
895.405	4569
895.526	4653
895.648	4694
895.769	4729
895.891	4672
896.012	4668
896.134	4717
896.255	4649
896.376	4691
896.498	4656
896.619	4668
896.74	4637
896.861	4691
896.982	4930
897.103	5052
897.224	4843
897.345	4797
897.466	4714
897.587	4729
897.708	4870
897.828	4793
897.949	4740
898.07	4573
898.19	4691
898.311	4854
898.431	4694
898.552	4782
898.672	4866
898.792	4862
898.913	4828
899.033	4634
899.153	4554
899.273	4436
899.393	4489
899.513	4542
899.633	4603
899.753	4580
899.873	4565
899.993	4573
900.113	4538
900.232	4577
900.352	4565
900.472	4474
900.591	4462
900.711	4542
900.83	4516
900.95	4611
901.069	4668
901.189	4565
901.308	4379
901.427	4356
901.546	4371
901.665	4535
901.784	4531
901.904	4379
902.023	4325
902.141	4207
902.26	4177
902.379	4352
902.498	4276
902.617	4230
902.735	4432
902.854	4417
902.973	4413
903.091	4249
903.21	4276
903.328	4360
903.446	4314
903.565	4257
903.683	4398
903.801	4333
903.919	4417
904.038	4497
904.156	4329
904.274	4474
904.392	4375
904.51	4443
904.627	4504
904.745	4622
904.863	4599
904.981	4371
905.098	4322
905.216	4398
905.334	4493
905.451	4451
905.569	4417
905.686	4573
905.803	4573
905.921	4462
906.038	4573
906.155	4500
906.272	4428
906.389	4497
906.506	4413
906.623	4409
906.74	4398
906.857	4314
906.974	4386
907.091	4577
907.208	4679
907.324	4607
907.441	4489
907.557	4383
907.674	4344
907.79	4322
907.907	4443
908.023	4470
908.139	4451
908.256	4459
908.372	4405
908.488	4478
908.604	4363
908.72	4306
908.836	4383
908.952	4405
909.068	4432
909.184	4603
909.3	4485
909.415	4630
909.531	4599
909.647	4386
909.762	4379
909.878	4333
909.993	4440
910.108	4451
910.224	4413
910.339	4500
910.454	4432
910.57	4413
910.685	4299
910.8	4702
910.915	4584
911.03	4527
911.145	4375
911.259	4310
911.374	4383
911.489	4333
911.604	4299
911.718	4192
911.833	4276
911.947	4112
912.062	4029
912.176	4196
912.291	4227
912.405	4272
912.519	4493
912.633	4538
912.748	4390
912.862	4341
912.976	4215
913.09	4097
913.204	4227
913.318	4265
913.431	4390
913.545	4367
913.659	4455
913.772	4413
913.886	4249
914	4219
914.113	4356
914.226	4485
914.34	4390
914.453	4249
914.566	4390
914.68	4310
914.793	4314
914.906	4196
915.019	4116
915.132	4147
915.245	4192
915.358	4257
915.47	4230
915.583	4280
915.696	4291
915.809	4436
915.921	4386
916.034	4299
916.146	4246
916.259	4253
916.371	4398
916.483	4363
916.595	4257
916.708	4325
916.82	4322
916.932	4322
917.044	4310
917.156	4303
917.268	4253
917.38	4295
917.491	4284
917.603	4322
917.715	4512
917.826	4424
917.938	4371
918.049	4303
918.161	4413
918.272	4516
918.384	4565
918.495	4478
918.606	4325
918.717	4238
918.828	4325
918.939	4383
919.05	4284
919.161	4352
919.272	4120
919.383	4261
919.494	4493
919.604	4653
919.715	4478
919.826	4356
919.936	4405
920.047	4489
920.157	4485
920.267	4763
920.378	4554
920.488	4485
920.598	4736
920.708	4889
920.818	4774
920.928	4809
921.038	4927
921.148	4911
921.258	4630
921.368	4523
921.477	4474
921.587	4455
921.697	4360
921.806	4535
921.916	4497
922.025	4318
922.134	4246
922.244	4185
922.353	4310
922.462	4185
922.571	4173
922.68	4032
922.789	3975
922.898	4006
923.007	4025
923.116	4112
923.224	4105
923.333	4101
923.442	4002
923.55	4040
923.659	4059
923.767	4150
923.876	4013
923.984	4112
924.092	4051
924.201	4093
924.309	4090
924.417	4093
924.525	4086
924.633	4131
924.741	5048
924.849	3941
924.956	4128
925.064	3960
925.172	3945
925.279	3975
925.387	4112
925.494	4063
925.602	4219
925.709	4234
925.816	4013
925.924	4109
926.031	4227
926.138	4223
926.245	4223
926.352	4067
926.459	4219
926.566	4284
926.673	4158
926.779	4101
926.886	4078
926.993	3991
927.099	3987
927.206	3915
927.312	3953
927.419	4010
927.525	4040
927.631	4112
927.737	3972
927.843	3953
927.95	3888
928.056	3915
928.162	3998
928.267	4078
928.373	4664
928.479	4154
928.585	3850
928.69	4017
928.796	4029
928.901	4002
929.007	3880
929.112	4010
929.218	3960
929.323	3937
929.428	3911
929.533	4120
929.638	3907
929.743	3941
929.848	4025
929.953	4017
930.058	3941
930.163	3835
930.267	3838
930.372	3987
930.477	3831
930.581	4109
930.685	3926
930.79	3778
930.894	3888
930.998	3816
931.103	4017
931.207	3724
931.311	3686
931.415	3720
931.519	3523
931.623	3587
