Data from test_V78500241_1961.txt Node
Date: Fri Mar 25 17:02:38 CST 2022
User: usil
Spectrometer: V785-0024
Trigger mode: 0
Integration Time (sec): 4.000000E-1
Scans to average: 1
Nonlinearity correction enabled: false
Boxcar width: 0
Storing dark spectrum: false
XAxis mode: Wavelengths
Number of Pixels in Spectrum: 1024
>>>>>Begin Spectral Data<<<<<
801.071	7959
801.214	7917
801.356	7852
801.499	7803
801.641	7826
801.783	7795
801.926	7970
802.068	7871
802.211	7986
802.353	7967
802.496	7852
802.638	7788
802.78	7868
802.923	7849
803.065	7868
803.208	7898
803.35	7906
803.492	8084
803.635	8096
803.777	7989
803.919	8123
804.061	8400
804.204	8202
804.346	8062
804.488	7970
804.63	8107
804.773	7997
804.915	8130
805.057	8240
805.199	8149
805.341	8153
805.483	8259
805.626	8233
805.768	8039
805.91	8092
806.052	8218
806.194	8092
806.336	8248
806.478	8069
806.62	8027
806.762	8202
806.904	8298
807.046	8526
807.188	8362
807.33	8313
807.472	8385
807.614	8100
807.756	8138
807.898	8065
808.04	7902
808.182	7826
808.324	7860
808.465	7917
808.607	8046
808.749	8058
808.891	8191
809.033	8267
809.174	8183
809.316	8092
809.458	8065
809.6	8020
809.741	7928
809.883	8016
810.025	8065
810.166	8035
810.308	7947
810.45	8024
810.591	7822
810.733	7761
810.875	7624
811.016	7468
811.158	7521
811.299	7495
811.441	7674
811.582	7693
811.724	7537
811.865	7521
812.007	7559
812.148	7571
812.29	7666
812.431	7723
812.573	7811
812.714	8016
812.855	8142
812.997	8218
813.138	8279
813.279	8103
813.421	8161
813.562	7963
813.703	7830
813.845	7761
813.986	7468
814.127	7259
814.268	7285
814.41	7190
814.551	7175
814.692	7209
814.833	7114
814.974	7149
815.115	7129
815.256	7023
815.397	6920
815.539	6932
815.68	6715
815.821	6745
815.962	6821
816.103	6749
816.244	6730
816.385	6627
816.526	6620
816.666	6498
816.807	6350
816.948	6475
817.089	6517
817.23	6483
817.371	6361
817.512	6357
817.653	6395
817.793	6384
817.934	6414
818.075	6441
818.216	6467
818.356	6369
818.497	6239
818.638	6064
818.778	6167
818.919	6194
819.06	6167
819.2	6285
819.341	6285
819.481	6395
819.622	6502
819.762	6787
819.903	6696
820.043	6620
820.184	6555
820.324	6555
820.465	6738
820.605	6677
820.746	6612
820.886	6544
821.026	6555
821.167	6726
821.307	6768
821.447	6779
821.588	6669
821.728	6612
821.868	6445
822.008	6300
822.149	6388
822.289	6315
822.429	6083
822.569	6121
822.709	6182
822.849	5901
822.99	5927
823.13	5961
823.27	5901
823.41	5786
823.55	5752
823.69	5726
823.83	5756
823.97	5672
824.11	5543
824.25	5505
824.389	5551
824.529	5539
824.669	5509
824.809	5646
824.949	5684
825.089	5615
825.228	5535
825.368	5406
825.508	5345
825.648	5296
825.787	5318
825.927	5353
826.067	5288
826.206	5322
826.346	5398
826.485	5353
826.625	5357
826.765	5558
826.904	5486
827.044	5265
827.183	5242
827.323	5140
827.462	5223
827.601	5162
827.741	5159
827.88	5216
828.02	5109
828.159	5212
828.298	5269
828.437	5368
828.577	5273
828.716	5524
828.855	5288
828.994	5159
829.134	5166
829.273	5166
829.412	5113
829.551	5132
829.69	5143
829.829	5258
829.968	5349
830.107	5273
830.246	5258
830.385	5151
830.524	5143
830.663	5064
830.802	4987
830.941	4896
831.08	4828
831.219	4915
831.357	4953
831.496	5159
831.635	4946
831.774	4790
831.913	4862
832.051	4702
832.19	4771
832.329	4809
832.467	4733
832.606	4698
832.744	4702
832.883	4664
833.022	4759
833.16	4767
833.299	4839
833.437	4866
833.576	4797
833.714	4831
833.852	4877
833.991	4881
834.129	4938
834.267	4930
834.406	4915
834.544	4957
834.682	4953
834.821	4984
834.959	5159
835.097	4980
835.235	5170
835.373	5056
835.511	5052
835.65	5048
835.788	5033
835.926	4923
836.064	4911
836.202	4942
836.34	5151
836.478	5208
836.615	5067
836.753	5174
836.891	5330
837.029	5258
837.167	5227
837.305	5140
837.443	5155
837.58	5105
837.718	5223
837.856	5159
837.993	5113
838.131	5216
838.269	5201
838.406	5170
838.544	5155
838.681	5022
838.819	4957
838.956	4885
839.094	4904
839.231	5003
839.369	5037
839.506	5455
839.643	5280
839.781	5037
839.918	4976
840.055	5075
840.193	5136
840.33	5071
840.467	5121
840.604	5220
840.742	5444
840.879	5109
841.016	5086
841.153	5151
841.29	5417
841.427	5296
841.564	5345
841.701	5345
841.838	5239
841.975	5216
842.112	5227
842.249	5117
842.385	5064
842.522	5261
842.659	5155
842.796	5132
842.933	5197
843.069	5121
843.206	5170
843.343	5303
843.479	5204
843.616	5258
843.752	5048
843.889	4976
844.025	5239
844.162	4999
844.298	5185
844.435	5098
844.571	4980
844.708	5227
844.844	5288
844.98	5334
845.117	5292
845.253	5124
845.389	5052
845.525	5155
845.661	5132
845.798	5067
845.934	5128
846.07	5018
846.206	5181
846.342	5223
846.478	5143
846.614	5041
846.75	4976
846.886	4885
847.022	5166
847.158	4995
847.294	5060
847.429	5064
847.565	5041
847.701	5315
847.837	4847
847.972	4809
848.108	4965
848.244	4911
848.379	4748
848.515	4706
848.65	4687
848.786	4714
848.921	4782
849.057	4843
849.192	4896
849.328	4793
849.463	4812
849.598	4767
849.734	4771
849.869	4675
850.004	4622
850.14	4664
850.275	4637
850.41	4478
850.545	4554
850.68	4558
850.815	4577
850.95	4683
851.085	4831
851.22	4740
851.355	4706
851.49	4607
851.625	4611
851.76	4672
851.895	4561
852.03	4508
852.165	4660
852.299	4702
852.434	4820
852.569	4725
852.703	4771
852.838	4793
852.973	4915
853.107	4961
853.242	4752
853.376	4672
853.511	4531
853.645	4611
853.78	4763
853.914	4691
854.048	4668
854.183	4649
854.317	4725
854.451	4824
854.585	4679
854.72	4630
854.854	4759
854.988	4569
855.122	4607
855.256	4489
855.39	4645
855.524	4831
855.658	4767
855.792	4706
855.926	4714
856.06	4740
856.194	4805
856.327	4653
856.461	4569
856.595	4668
856.729	4584
856.862	4767
856.996	4702
857.13	4714
857.263	4733
857.397	4805
857.53	4675
857.664	4763
857.797	4698
857.931	4759
858.064	4698
858.197	4748
858.331	4615
858.464	4664
858.597	4531
858.731	4637
858.864	4641
858.997	4637
859.13	4653
859.263	4607
859.396	4664
859.529	4554
859.662	4554
859.795	4512
859.928	4622
860.061	4767
860.194	4733
860.327	4584
860.46	4508
860.592	4687
860.725	4755
860.858	4748
860.99	4561
861.123	4542
861.256	4519
861.388	4641
861.521	5254
861.653	4527
861.786	4443
861.918	4470
862.05	4523
862.183	4550
862.315	4592
862.447	4630
862.58	4538
862.712	4390
862.844	4329
862.976	4447
863.108	4440
863.24	4744
863.372	4291
863.504	4402
863.636	4447
863.768	4489
863.9	4459
864.032	4371
864.164	4409
864.296	4500
864.428	4535
864.559	4538
864.691	4542
864.823	4493
864.954	4508
865.086	4466
865.217	4466
865.349	4352
865.48	4436
865.612	4481
865.743	4649
865.875	4459
866.006	4424
866.137	4462
866.269	4440
866.4	4432
866.531	4447
866.662	4390
866.793	4443
866.924	4402
867.055	4447
867.186	4443
867.317	4424
867.448	4367
867.579	4386
867.71	4402
867.841	4371
867.972	4394
868.103	4493
868.233	4428
868.364	4409
868.495	4455
868.625	4656
868.756	4717
868.886	4550
869.017	4615
869.147	4710
869.278	4771
869.408	4675
869.539	4660
869.669	4778
869.799	4611
869.929	4778
870.06	4710
870.19	4953
870.32	4908
870.45	4904
870.58	5018
870.71	5083
870.84	5117
870.97	4915
871.1	4908
871.23	5166
871.36	5132
871.489	5060
871.619	5090
871.749	5037
871.879	5105
872.008	5174
872.138	5048
872.267	4987
872.397	4866
872.526	4847
872.656	4706
872.785	4790
872.915	4965
873.044	5064
873.173	4923
873.303	4953
873.432	4999
873.561	4976
873.69	4881
873.819	4858
873.948	4870
874.077	4835
874.206	4763
874.335	4793
874.464	4900
874.593	5105
874.722	4957
874.851	5132
874.979	5048
875.108	5056
875.237	4946
875.365	4911
875.494	4854
875.623	4987
875.751	4801
875.88	4858
876.008	5022
876.136	5052
876.265	5212
876.393	5330
876.521	5280
876.65	5246
876.778	5189
876.906	5098
877.034	4991
877.162	5033
877.29	5003
877.418	5029
877.546	5010
877.674	5018
877.802	5029
877.93	4991
878.058	4900
878.185	4850
878.313	4927
878.441	4923
878.568	4782
878.696	4820
878.824	4999
878.951	4968
879.079	5121
879.206	5280
879.333	5060
879.461	4972
879.588	5018
879.715	5128
879.842	5231
879.97	4976
880.097	4793
880.224	4725
880.351	4835
880.478	4782
880.605	4809
880.732	4774
880.859	5075
880.986	4900
881.112	4904
881.239	4767
881.366	4675
881.493	4588
881.619	4519
881.746	4592
881.872	4637
881.999	4634
882.125	4660
882.252	4786
882.378	4828
882.505	4965
882.631	4767
882.757	4645
882.883	4752
883.01	4748
883.136	4679
883.262	4622
883.388	4634
883.514	4790
883.64	4828
883.766	4843
883.892	4710
884.018	4698
884.143	4923
884.269	4980
884.395	4725
884.52	4641
884.646	4637
884.772	4599
884.897	4603
885.023	4664
885.148	4767
885.274	4866
885.399	4820
885.524	4729
885.65	4710
885.775	4748
885.9	4691
886.025	4816
886.15	4797
886.275	4702
886.4	4679
886.525	4759
886.65	4675
886.775	4702
886.9	4892
887.025	5029
887.149	4847
887.274	4683
887.399	4615
887.523	4558
887.648	4588
887.773	4561
887.897	4698
888.021	4774
888.146	4645
888.27	4835
888.395	4889
888.519	4854
888.643	4831
888.767	4839
888.891	4653
889.015	4573
889.139	4683
889.263	4607
889.387	4740
889.511	4927
889.635	4752
889.759	4645
889.883	4641
890.006	4721
890.13	4854
890.254	4607
890.377	4710
890.501	4550
890.624	4535
890.748	4622
890.871	4481
890.995	4424
891.118	4390
891.241	4542
891.364	4527
891.488	4653
891.611	4489
891.734	4550
891.857	4561
891.98	4569
892.103	4641
892.226	4607
892.349	4550
892.471	4428
892.594	4584
892.717	4580
892.839	4573
892.962	4618
893.085	4664
893.207	4603
893.33	4489
893.452	4523
893.575	4660
893.697	4573
893.819	4805
893.941	4809
894.064	4790
894.186	4577
894.308	4565
894.43	4729
894.552	4843
894.674	4744
894.796	4535
894.918	4592
895.04	4588
895.161	4702
895.283	4641
895.405	4577
895.526	4618
895.648	4672
895.769	4653
895.891	4675
896.012	4717
896.134	4702
896.255	4668
896.376	4592
896.498	4653
896.619	4664
896.74	4634
896.861	4664
896.982	4938
897.103	5041
897.224	4831
897.345	4687
897.466	4664
897.587	4691
897.708	4885
897.828	4805
897.949	4630
898.07	4535
898.19	4622
898.311	4812
898.431	4664
898.552	4710
898.672	4793
898.792	4843
898.913	4702
899.033	4691
899.153	4519
899.273	4443
899.393	4500
899.513	4508
899.633	4519
899.753	4519
899.873	4474
899.993	4584
900.113	4527
900.232	4592
900.352	4546
900.472	4478
900.591	4402
900.711	4474
900.83	4443
900.95	4584
901.069	4698
901.189	4561
901.308	4379
901.427	4276
901.546	4341
901.665	4440
901.784	4474
901.904	4383
902.023	4322
902.141	4192
902.26	4177
902.379	4348
902.498	4215
902.617	4234
902.735	4375
902.854	4421
902.973	4287
903.091	4204
903.21	4230
903.328	4314
903.446	4253
903.565	4291
903.683	4344
903.801	4303
903.919	4398
904.038	4470
904.156	4295
904.274	4413
904.392	4379
904.51	4432
904.627	4512
904.745	4542
904.863	4675
904.981	4440
905.098	4287
905.216	4333
905.334	4432
905.451	4394
905.569	4455
905.686	4546
905.803	4516
905.921	4413
906.038	4497
906.155	4474
906.272	4390
906.389	4417
906.506	4375
906.623	4356
906.74	4424
906.857	4280
906.974	4352
907.091	4527
907.208	4630
907.324	4573
907.441	4459
907.557	4383
907.674	4383
907.79	4314
907.907	4375
908.023	4500
908.139	4428
908.256	4390
908.372	4436
908.488	4485
908.604	4344
908.72	4333
908.836	4386
908.952	4386
909.068	4428
909.184	4538
909.3	4470
909.415	4569
909.531	4550
909.647	4314
909.762	4341
909.878	4318
909.993	4447
910.108	4436
910.224	4409
910.339	4447
910.454	4325
910.57	4402
910.685	4356
910.8	4626
910.915	4592
911.03	4523
911.145	4299
911.259	4291
911.374	4371
911.489	4314
911.604	4257
911.718	4150
911.833	4200
911.947	4086
912.062	4002
912.176	4207
912.291	4253
912.405	4249
912.519	4436
912.633	4474
912.748	4413
912.862	4306
912.976	4227
913.09	4101
913.204	4177
913.318	4242
913.431	4390
913.545	4383
913.659	4432
913.772	4383
913.886	4238
914	4230
914.113	4352
914.226	4409
914.34	4398
914.453	4192
914.566	4447
914.68	4268
914.793	4299
914.906	4185
915.019	4097
915.132	4109
915.245	4192
915.358	4204
915.47	4219
915.583	4280
915.696	4322
915.809	4421
915.921	4383
916.034	4223
916.146	4253
916.259	4215
916.371	4379
916.483	4375
916.595	4295
916.708	4299
916.82	4383
916.932	4303
917.044	4325
917.156	4329
917.268	4200
917.38	4265
917.491	4253
917.603	4310
917.715	4424
917.826	4436
917.938	4360
918.049	4242
918.161	4341
918.272	4527
918.384	4493
918.495	4443
918.606	4276
918.717	4268
918.828	4352
918.939	4383
919.05	4234
919.161	4310
919.272	4147
919.383	4249
919.494	4443
919.604	4607
919.715	4440
919.826	4322
919.936	4390
920.047	4531
920.157	4459
920.267	4694
920.378	4497
920.488	4481
920.598	4710
920.708	4839
920.818	4736
920.928	4786
921.038	5006
921.148	4942
921.258	4630
921.368	4546
921.477	4535
921.587	4462
921.697	4409
921.806	4535
921.916	4405
922.025	4230
922.134	4257
922.244	4181
922.353	4280
922.462	4181
922.571	4105
922.68	4002
922.789	3987
922.898	4063
923.007	3991
923.116	4124
923.224	4071
923.333	4055
923.442	3983
923.55	3991
923.659	4025
923.767	4105
923.876	3979
923.984	4082
924.092	3998
924.201	4097
924.309	4135
924.417	4154
924.525	4055
924.633	4071
924.741	5022
924.849	3937
924.956	4158
925.064	3922
925.172	3861
925.279	3899
925.387	4090
925.494	4048
925.602	4196
925.709	4192
925.816	4029
925.924	4147
926.031	4242
926.138	4139
926.245	4169
926.352	4112
926.459	4211
926.566	4276
926.673	4177
926.779	4097
926.886	4036
926.993	3968
927.099	3945
927.206	3922
927.312	3975
927.419	3991
927.525	4044
927.631	4078
927.737	3975
927.843	3945
927.95	3869
928.056	3899
928.162	3975
928.267	4101
928.373	4542
928.479	4082
928.585	3907
928.69	4032
928.796	4078
928.901	3983
929.007	3854
929.112	4017
929.218	3945
929.323	3888
929.428	3945
929.533	4059
929.638	3907
929.743	4006
929.848	4044
929.953	4002
930.058	3930
930.163	3793
930.267	3774
930.372	3968
930.477	3819
930.581	4101
930.685	3922
930.79	3797
930.894	3827
930.998	3857
931.103	4002
931.207	3663
931.311	3660
931.415	3663
931.519	3534
931.623	3549
