Data from test_V78500241_1328.txt Node
Date: Fri Mar 25 16:58:14 CST 2022
User: usil
Spectrometer: V785-0024
Trigger mode: 0
Integration Time (sec): 4.000000E-1
Scans to average: 1
Nonlinearity correction enabled: false
Boxcar width: 0
Storing dark spectrum: false
XAxis mode: Wavelengths
Number of Pixels in Spectrum: 1024
>>>>>Begin Spectral Data<<<<<
801.071	8016
801.214	7959
801.356	7944
801.499	7856
801.641	7788
801.783	7826
801.926	7928
802.068	7970
802.211	7967
802.353	8039
802.496	7890
802.638	7917
802.78	7940
802.923	7989
803.065	7940
803.208	7879
803.35	7967
803.492	8111
803.635	8183
803.777	7932
803.919	8119
804.061	8442
804.204	8233
804.346	8123
804.488	7978
804.63	8153
804.773	8039
804.915	8153
805.057	8301
805.199	8168
805.341	8221
805.483	8328
805.626	8153
805.768	8123
805.91	8210
806.052	8214
806.194	8096
806.336	8298
806.478	8050
806.62	8020
806.762	8123
806.904	8271
807.046	8442
807.188	8389
807.33	8286
807.472	8336
807.614	8214
807.756	8084
807.898	7955
808.04	7917
808.182	7875
808.324	7856
808.465	7944
808.607	8100
808.749	8115
808.891	8195
809.033	8294
809.174	8191
809.316	8054
809.458	8043
809.6	7947
809.741	7967
809.883	8005
810.025	8123
810.166	8107
810.308	8027
810.45	8027
810.591	7913
810.733	7731
810.875	7685
811.016	7514
811.158	7521
811.299	7594
811.441	7681
811.582	7708
811.724	7567
811.865	7495
812.007	7400
812.148	7567
812.29	7632
812.431	7742
812.573	7811
812.714	7970
812.855	8119
812.997	8206
813.138	8206
813.279	8233
813.421	8001
813.562	7959
813.703	7845
813.845	7784
813.986	7426
814.127	7217
814.268	7244
814.41	7076
814.551	7206
814.692	7137
814.833	7031
814.974	7023
815.115	7118
815.256	6966
815.397	6932
815.539	6973
815.68	6802
815.821	6719
815.962	6916
816.103	6810
816.244	6745
816.385	6593
816.526	6585
816.666	6445
816.807	6277
816.948	6395
817.089	6429
817.23	6418
817.371	6281
817.512	6395
817.653	6391
817.793	6361
817.934	6369
818.075	6429
818.216	6437
818.356	6361
818.497	6194
818.638	6011
818.778	6140
818.919	6159
819.06	6178
819.2	6270
819.341	6254
819.481	6357
819.622	6540
819.762	6703
819.903	6673
820.043	6544
820.184	6547
820.324	6555
820.465	6738
820.605	6700
820.746	6665
820.886	6475
821.026	6589
821.167	6722
821.307	6776
821.447	6749
821.588	6662
821.728	6547
821.868	6513
822.008	6346
822.149	6372
822.289	6327
822.429	6117
822.569	6087
822.709	6140
822.849	5916
822.99	5912
823.13	5942
823.27	5931
823.41	5802
823.55	5748
823.69	5748
823.83	5790
823.97	5649
824.11	5532
824.25	5551
824.389	5570
824.529	5661
824.669	5554
824.809	5638
824.949	5661
825.089	5646
825.228	5592
825.368	5379
825.508	5417
825.648	5345
825.787	5372
825.927	5444
826.067	5326
826.206	5322
826.346	5433
826.485	5425
826.625	5368
826.765	5600
826.904	5524
827.044	5292
827.183	5201
827.323	5155
827.462	5265
827.601	5216
827.741	5197
827.88	5242
828.02	5117
828.159	5269
828.298	5334
828.437	5372
828.577	5280
828.716	5455
828.855	5398
828.994	5204
829.134	5193
829.273	5239
829.412	5151
829.551	5151
829.69	5208
829.829	5330
829.968	5429
830.107	5288
830.246	5315
830.385	5208
830.524	5185
830.663	5079
830.802	4984
830.941	4923
831.08	4877
831.219	4976
831.357	5010
831.496	5162
831.635	4900
831.774	4858
831.913	4839
832.051	4748
832.19	4786
832.329	4873
832.467	4733
832.606	4618
832.744	4752
832.883	4744
833.022	4752
833.16	4812
833.299	4877
833.437	4854
833.576	4870
833.714	4854
833.852	4911
833.991	4892
834.129	4949
834.267	4980
834.406	4930
834.544	5018
834.682	4968
834.821	5029
834.959	5159
835.097	5025
835.235	5181
835.373	5136
835.511	5102
835.65	5003
835.788	5060
835.926	4976
836.064	4908
836.202	4953
836.34	5162
836.478	5162
836.615	5151
836.753	5216
836.891	5337
837.029	5246
837.167	5193
837.305	5185
837.443	5159
837.58	5094
837.718	5280
837.856	5242
837.993	5155
838.131	5250
838.269	5174
838.406	5193
838.544	5204
838.681	5022
838.819	5048
838.956	4930
839.094	4927
839.231	4999
839.369	5052
839.506	5421
839.643	5334
839.781	5033
839.918	5048
840.055	5147
840.193	5094
840.33	5094
840.467	5170
840.604	5208
840.742	5455
840.879	5113
841.016	5147
841.153	5155
841.29	5417
841.427	5349
841.564	5326
841.701	5395
841.838	5277
841.975	5258
842.112	5227
842.249	5140
842.385	5113
842.522	5326
842.659	5227
842.796	5159
842.933	5239
843.069	5185
843.206	5212
843.343	5337
843.479	5239
843.616	5265
843.752	5071
843.889	5033
844.025	5223
844.162	5014
844.298	5250
844.435	5132
844.571	5033
844.708	5201
844.844	5349
844.98	5376
845.117	5337
845.253	5140
845.389	5117
845.525	5204
845.661	5170
845.798	5071
845.934	5159
846.07	5048
846.206	5193
846.342	5311
846.478	5216
846.614	5010
846.75	4987
846.886	4987
847.022	5170
847.158	5056
847.294	5048
847.429	5113
847.565	5064
847.701	5341
847.837	4870
847.972	4847
848.108	4980
848.244	4919
848.379	4793
848.515	4809
848.65	4717
848.786	4793
848.921	4778
849.057	4900
849.192	4900
849.328	4809
849.463	4862
849.598	4816
849.734	4774
849.869	4694
850.004	4634
850.14	4672
850.275	4618
850.41	4596
850.545	4592
850.68	4637
850.815	4672
850.95	4675
851.085	4877
851.22	4752
851.355	4725
851.49	4645
851.625	4649
851.76	4683
851.895	4550
852.03	4519
852.165	4675
852.299	4740
852.434	4820
852.569	4801
852.703	4835
852.838	4881
852.973	4934
853.107	4953
853.242	4767
853.376	4710
853.511	4588
853.645	4656
853.78	4843
853.914	4755
854.048	4675
854.183	4645
854.317	4733
854.451	4866
854.585	4694
854.72	4672
854.854	4786
854.988	4615
855.122	4649
855.256	4542
855.39	4683
855.524	4763
855.658	4717
855.792	4679
855.926	4755
856.06	4801
856.194	4824
856.327	4694
856.461	4641
856.595	4626
856.729	4675
856.862	4793
856.996	4706
857.13	4786
857.263	4816
857.397	4835
857.53	4618
857.664	4725
857.797	4839
857.931	4793
858.064	4740
858.197	4748
858.331	4691
858.464	4607
858.597	4550
858.731	4645
858.864	4710
858.997	4634
859.13	4763
859.263	4706
859.396	4687
859.529	4641
859.662	4588
859.795	4615
859.928	4664
860.061	4744
860.194	4797
860.327	4603
860.46	4577
860.592	4702
860.725	4782
860.858	4748
860.99	4596
861.123	4554
861.256	4542
861.388	4626
861.521	5197
861.653	4500
861.786	4443
861.918	4470
862.05	4546
862.183	4546
862.315	4588
862.447	4668
862.58	4527
862.712	4459
862.844	4375
862.976	4493
863.108	4535
863.24	4896
863.372	4356
863.504	4447
863.636	4500
863.768	4489
863.9	4424
864.032	4383
864.164	4436
864.296	4512
864.428	4577
864.559	4588
864.691	4554
864.823	4538
864.954	4580
865.086	4504
865.217	4508
865.349	4436
865.48	4504
865.612	4554
865.743	4615
865.875	4478
866.006	4447
866.137	4489
866.269	4436
866.4	4466
866.531	4443
866.662	4371
866.793	4447
866.924	4474
867.055	4516
867.186	4440
867.317	4424
867.448	4386
867.579	4447
867.71	4383
867.841	4390
867.972	4443
868.103	4489
868.233	4470
868.364	4443
868.495	4466
868.625	4634
868.756	4752
868.886	4538
869.017	4634
869.147	4755
869.278	4755
869.408	4668
869.539	4679
869.669	4755
869.799	4691
869.929	4771
870.06	4752
870.19	4968
870.32	4877
870.45	4934
870.58	5071
870.71	5136
870.84	5162
870.97	4949
871.1	4927
871.23	5109
871.36	5147
871.489	5014
871.619	5075
871.749	5136
871.879	5128
872.008	5151
872.138	5067
872.267	4987
872.397	4839
872.526	4828
872.656	4702
872.785	4866
872.915	4927
873.044	5014
873.173	4946
873.303	4984
873.432	4976
873.561	5003
873.69	4900
873.819	4877
873.948	4946
874.077	4862
874.206	4782
874.335	4790
874.464	4953
874.593	5048
874.722	4968
874.851	5079
874.979	5117
875.108	5014
875.237	4942
875.365	4896
875.494	4892
875.623	4938
875.751	4816
875.88	4896
876.008	4976
876.136	5071
876.265	5220
876.393	5337
876.521	5296
876.65	5261
876.778	5178
876.906	5098
877.034	5018
877.162	5022
877.29	5056
877.418	5033
877.546	5029
877.674	5060
877.802	5014
877.93	5056
878.058	4927
878.185	4885
878.313	5014
878.441	4965
878.568	4816
878.696	4896
878.824	4927
878.951	5022
879.079	5151
879.206	5326
879.333	5109
879.461	4957
879.588	5018
879.715	5143
879.842	5246
879.97	4999
880.097	4847
880.224	4771
880.351	4824
880.478	4843
880.605	4812
880.732	4786
880.859	5098
880.986	4850
881.112	4908
881.239	4816
881.366	4687
881.493	4630
881.619	4588
881.746	4641
881.872	4664
881.999	4679
882.125	4744
882.252	4805
882.378	4873
882.505	4949
882.631	4809
882.757	4649
882.883	4790
883.01	4733
883.136	4698
883.262	4569
883.388	4634
883.514	4782
883.64	4904
883.766	4790
883.892	4664
884.018	4759
884.143	4889
884.269	5025
884.395	4698
884.52	4649
884.646	4649
884.772	4558
884.897	4531
885.023	4675
885.148	4774
885.274	4877
885.399	4828
885.524	4702
885.65	4725
885.775	4759
885.9	4710
886.025	4866
886.15	4774
886.275	4714
886.4	4672
886.525	4698
886.65	4649
886.775	4679
886.9	4919
887.025	5029
887.149	4828
887.274	4641
887.399	4634
887.523	4630
887.648	4577
887.773	4622
887.897	4755
888.021	4778
888.146	4740
888.27	4858
888.395	4877
888.519	4816
888.643	4835
888.767	4805
888.891	4702
889.015	4584
889.139	4645
889.263	4607
889.387	4740
889.511	4858
889.635	4782
889.759	4634
889.883	4668
890.006	4717
890.13	4805
890.254	4641
890.377	4694
890.501	4573
890.624	4523
890.748	4584
890.871	4558
890.995	4459
891.118	4413
891.241	4569
891.364	4550
891.488	4599
891.611	4485
891.734	4546
891.857	4599
891.98	4561
892.103	4687
892.226	4630
892.349	4546
892.471	4474
892.594	4516
892.717	4550
892.839	4611
892.962	4607
893.085	4672
893.207	4561
893.33	4462
893.452	4516
893.575	4675
893.697	4603
893.819	4801
893.941	4759
894.064	4782
894.186	4588
894.308	4599
894.43	4752
894.552	4847
894.674	4763
894.796	4542
894.918	4645
895.04	4542
895.161	4725
895.283	4683
895.405	4569
895.526	4637
895.648	4706
895.769	4679
895.891	4725
896.012	4778
896.134	4774
896.255	4653
896.376	4656
896.498	4592
896.619	4698
896.74	4630
896.861	4626
896.982	4938
897.103	5109
897.224	4816
897.345	4805
897.466	4687
897.587	4717
897.708	4790
897.828	4786
897.949	4630
898.07	4592
898.19	4626
898.311	4820
898.431	4691
898.552	4687
898.672	4816
898.792	4790
898.913	4763
899.033	4607
899.153	4512
899.273	4413
899.393	4512
899.513	4512
899.633	4527
899.753	4584
899.873	4481
899.993	4626
900.113	4512
900.232	4569
900.352	4558
900.472	4485
900.591	4413
900.711	4470
900.83	4440
900.95	4573
901.069	4656
901.189	4550
901.308	4390
901.427	4310
901.546	4383
901.665	4455
901.784	4493
901.904	4360
902.023	4280
902.141	4177
902.26	4196
902.379	4303
902.498	4223
902.617	4265
902.735	4348
902.854	4348
902.973	4299
903.091	4173
903.21	4204
903.328	4261
903.446	4246
903.565	4219
903.683	4329
903.801	4253
903.919	4417
904.038	4455
904.156	4318
904.274	4413
904.392	4390
904.51	4409
904.627	4489
904.745	4573
904.863	4653
904.981	4405
905.098	4314
905.216	4360
905.334	4436
905.451	4455
905.569	4413
905.686	4538
905.803	4550
905.921	4432
906.038	4519
906.155	4493
906.272	4375
906.389	4436
906.506	4363
906.623	4371
906.74	4402
906.857	4306
906.974	4356
907.091	4546
907.208	4622
907.324	4565
907.441	4493
907.557	4352
907.674	4325
907.79	4375
907.907	4344
908.023	4451
908.139	4459
908.256	4409
908.372	4481
908.488	4447
908.604	4344
908.72	4341
908.836	4394
908.952	4367
909.068	4443
909.184	4596
909.3	4466
909.415	4569
909.531	4584
909.647	4310
909.762	4367
909.878	4322
909.993	4363
910.108	4398
910.224	4375
910.339	4474
910.454	4405
910.57	4394
910.685	4344
910.8	4672
910.915	4596
911.03	4485
911.145	4341
911.259	4352
911.374	4363
911.489	4303
911.604	4261
911.718	4154
911.833	4215
911.947	4082
912.062	4044
912.176	4246
912.291	4253
912.405	4246
912.519	4478
912.633	4508
912.748	4402
912.862	4276
912.976	4150
913.09	4124
913.204	4181
913.318	4268
913.431	4394
913.545	4394
913.659	4417
913.772	4303
913.886	4295
914	4173
914.113	4371
914.226	4440
914.34	4402
914.453	4257
914.566	4497
914.68	4329
914.793	4371
914.906	4150
915.019	4128
915.132	4063
915.245	4181
915.358	4223
915.47	4238
915.583	4246
915.696	4276
915.809	4394
915.921	4459
916.034	4280
916.146	4227
916.259	4196
916.371	4398
916.483	4284
916.595	4219
916.708	4352
916.82	4322
916.932	4314
917.044	4291
917.156	4306
917.268	4234
917.38	4322
917.491	4272
917.603	4333
917.715	4386
917.826	4405
917.938	4379
918.049	4284
918.161	4379
918.272	4558
918.384	4573
918.495	4417
918.606	4344
918.717	4253
918.828	4356
918.939	4375
919.05	4253
919.161	4322
919.272	4162
919.383	4204
919.494	4466
919.604	4611
919.715	4405
919.826	4314
919.936	4352
920.047	4527
920.157	4500
920.267	4687
920.378	4531
920.488	4512
920.598	4729
920.708	4873
920.818	4752
920.928	4767
921.038	4896
921.148	4908
921.258	4611
921.368	4577
921.477	4481
921.587	4447
921.697	4390
921.806	4516
921.916	4409
922.025	4238
922.134	4306
922.244	4234
922.353	4348
922.462	4147
922.571	4116
922.68	3998
922.789	3983
922.898	4067
923.007	3991
923.116	4040
923.224	4078
923.333	4063
923.442	3979
923.55	3979
923.659	4006
923.767	4135
923.876	3983
923.984	4120
924.092	4002
924.201	4067
924.309	4097
924.417	4120
924.525	4086
924.633	4112
924.741	4999
924.849	3956
924.956	4086
925.064	3937
925.172	3911
925.279	3983
925.387	4074
925.494	4040
925.602	4173
925.709	4131
925.816	4013
925.924	4097
926.031	4211
926.138	4185
926.245	4204
926.352	4090
926.459	4215
926.566	4341
926.673	4131
926.779	4029
926.886	4063
926.993	3953
927.099	3953
927.206	4006
927.312	3941
927.419	4032
927.525	4013
927.631	4109
927.737	4002
927.843	3911
927.95	3812
928.056	3941
928.162	3949
928.267	4036
928.373	4698
928.479	4120
928.585	3876
928.69	4029
928.796	4048
928.901	3964
929.007	3819
929.112	3983
929.218	3949
929.323	3934
929.428	3937
929.533	4112
929.638	3915
929.743	3926
929.848	4032
929.953	4006
930.058	3945
930.163	3778
930.267	3838
930.372	3972
930.477	3793
930.581	4090
930.685	3983
930.79	3850
930.894	3846
930.998	3842
931.103	4010
931.207	3698
931.311	3686
931.415	3675
931.519	3523
931.623	3549
