Data from test_V78500241_19.txt Node
Date: Fri Mar 25 16:49:08 CST 2022
User: usil
Spectrometer: V785-0024
Trigger mode: 0
Integration Time (sec): 4.000000E-1
Scans to average: 1
Nonlinearity correction enabled: false
Boxcar width: 0
Storing dark spectrum: false
XAxis mode: Wavelengths
Number of Pixels in Spectrum: 1024
>>>>>Begin Spectral Data<<<<<
801.071	8134
801.214	8039
801.356	8001
801.499	7921
801.641	7879
801.783	7883
801.926	8046
802.068	7997
802.211	8069
802.353	8043
802.496	8008
802.638	7974
802.78	7955
802.923	7989
803.065	7917
803.208	7921
803.35	8050
803.492	8123
803.635	8157
803.777	8008
803.919	8111
804.061	8469
804.204	8145
804.346	8088
804.488	7921
804.63	8062
804.773	7974
804.915	8153
805.057	8248
805.199	8180
805.341	8233
805.483	8309
805.626	8309
805.768	8183
805.91	8248
806.052	8259
806.194	8081
806.336	8275
806.478	8123
806.62	8103
806.762	8157
806.904	8259
807.046	8454
807.188	8389
807.33	8370
807.472	8290
807.614	8187
807.756	8195
807.898	8016
808.04	7940
808.182	7967
808.324	7955
808.465	7902
808.607	8020
808.749	8065
808.891	8240
809.033	8259
809.174	8126
809.316	8027
809.458	8088
809.6	7970
809.741	8016
809.883	7982
810.025	8145
810.166	8123
810.308	8035
810.45	8062
810.591	7940
810.733	7750
810.875	7738
811.016	7586
811.158	7582
811.299	7719
811.441	7799
811.582	7719
811.724	7632
811.865	7632
812.007	7643
812.148	7628
812.29	7624
812.431	7814
812.573	7921
812.714	8008
812.855	8126
812.997	8202
813.138	8324
813.279	8214
813.421	8157
813.562	8134
813.703	7963
813.845	7803
813.986	7491
814.127	7274
814.268	7285
814.41	7247
814.551	7198
814.692	7297
814.833	7149
814.974	7103
815.115	7126
815.256	6924
815.397	6920
815.539	7000
815.68	6810
815.821	6806
815.962	6935
816.103	6890
816.244	6753
816.385	6722
816.526	6650
816.666	6513
816.807	6327
816.948	6517
817.089	6513
817.23	6441
817.371	6380
817.512	6372
817.653	6445
817.793	6441
817.934	6407
818.075	6441
818.216	6471
818.356	6483
818.497	6308
818.638	6190
818.778	6209
818.919	6190
819.06	6186
819.2	6376
819.341	6346
819.481	6403
819.622	6566
819.762	6787
819.903	6749
820.043	6620
820.184	6612
820.324	6631
820.465	6753
820.605	6703
820.746	6669
820.886	6521
821.026	6707
821.167	6749
821.307	6844
821.447	6818
821.588	6730
821.728	6608
821.868	6498
822.008	6403
822.149	6426
822.289	6403
822.429	6224
822.569	6106
822.709	6152
822.849	5984
822.99	5961
823.13	6030
823.27	6015
823.41	5874
823.55	5847
823.69	5836
823.83	5863
823.97	5786
824.11	5581
824.25	5554
824.389	5608
824.529	5710
824.669	5619
824.809	5771
824.949	5779
825.089	5695
825.228	5646
825.368	5505
825.508	5448
825.648	5417
825.787	5448
825.927	5463
826.067	5379
826.206	5353
826.346	5482
826.485	5471
826.625	5455
826.765	5638
826.904	5524
827.044	5360
827.183	5258
827.323	5280
827.462	5311
827.601	5280
827.741	5299
827.88	5315
828.02	5216
828.159	5315
828.298	5364
828.437	5459
828.577	5398
828.716	5600
828.855	5395
828.994	5307
829.134	5254
829.273	5292
829.412	5216
829.551	5197
829.69	5277
829.829	5299
829.968	5478
830.107	5406
830.246	5357
830.385	5258
830.524	5170
830.663	5155
830.802	5037
830.941	4999
831.08	4953
831.219	5105
831.357	5086
831.496	5277
831.635	4976
831.774	4953
831.913	4934
832.051	4801
832.19	4843
832.329	4900
832.467	4740
832.606	4771
832.744	4797
832.883	4847
833.022	4790
833.16	4847
833.299	4873
833.437	4885
833.576	4900
833.714	4953
833.852	4942
833.991	4961
834.129	5048
834.267	5018
834.406	4968
834.544	5121
834.682	5102
834.821	5006
834.959	5254
835.097	5075
835.235	5242
835.373	5178
835.511	5201
835.65	5113
835.788	5151
835.926	4934
836.064	4961
836.202	5029
836.34	5208
836.478	5280
836.615	5235
836.753	5315
836.891	5429
837.029	5334
837.167	5292
837.305	5246
837.443	5178
837.58	5181
837.718	5330
837.856	5296
837.993	5258
838.131	5258
838.269	5277
838.406	5250
838.544	5250
838.681	5079
838.819	5056
838.956	4980
839.094	4999
839.231	5067
839.369	5136
839.506	5547
839.643	5330
839.781	5185
839.918	5109
840.055	5193
840.193	5162
840.33	5174
840.467	5223
840.604	5292
840.742	5497
840.879	5155
841.016	5174
841.153	5250
841.29	5444
841.427	5379
841.564	5410
841.701	5414
841.838	5322
841.975	5315
842.112	5341
842.249	5212
842.385	5223
842.522	5376
842.659	5250
842.796	5197
842.933	5273
843.069	5220
843.206	5220
843.343	5410
843.479	5315
843.616	5315
843.752	5109
843.889	5079
844.025	5307
844.162	5056
844.298	5307
844.435	5227
844.571	5162
844.708	5235
844.844	5406
844.98	5410
845.117	5368
845.253	5197
845.389	5132
845.525	5223
845.661	5318
845.798	5124
845.934	5197
846.07	5181
846.206	5277
846.342	5360
846.478	5303
846.614	5124
846.75	5075
846.886	4976
847.022	5204
847.158	5079
847.294	5166
847.429	5178
847.565	5113
847.701	5376
847.837	4938
847.972	4854
848.108	5090
848.244	5045
848.379	4892
848.515	4759
848.65	4759
848.786	4767
848.921	4850
849.057	4934
849.192	4949
849.328	4866
849.463	4892
849.598	4870
849.734	4847
849.869	4786
850.004	4698
850.14	4736
850.275	4687
850.41	4611
850.545	4588
850.68	4668
850.815	4664
850.95	4717
851.085	4942
851.22	4801
851.355	4721
851.49	4653
851.625	4694
851.76	4664
851.895	4653
852.03	4626
852.165	4668
852.299	4820
852.434	4824
852.569	4801
852.703	4873
852.838	4923
852.973	5041
853.107	5006
853.242	4793
853.376	4740
853.511	4660
853.645	4702
853.78	4862
853.914	4744
854.048	4736
854.183	4698
854.317	4801
854.451	4908
854.585	4809
854.72	4710
854.854	4824
854.988	4668
855.122	4698
855.256	4626
855.39	4717
855.524	4850
855.658	4866
855.792	4782
855.926	4820
856.06	4866
856.194	4858
856.327	4782
856.461	4729
856.595	4672
856.729	4683
856.862	4862
856.996	4748
857.13	4812
857.263	4809
857.397	4850
857.53	4714
857.664	4809
857.797	4862
857.931	4862
858.064	4763
858.197	4816
858.331	4740
858.464	4683
858.597	4577
858.731	4714
858.864	4691
858.997	4725
859.13	4736
859.263	4698
859.396	4744
859.529	4694
859.662	4649
859.795	4607
859.928	4740
860.061	4805
860.194	4839
860.327	4691
860.46	4664
860.592	4831
860.725	4816
860.858	4786
860.99	4653
861.123	4622
861.256	4580
861.388	4714
861.521	5482
861.653	4573
861.786	4504
861.918	4527
862.05	4592
862.183	4683
862.315	4653
862.447	4687
862.58	4660
862.712	4455
862.844	4421
862.976	4519
863.108	4512
863.24	4995
863.372	4371
863.504	4481
863.636	4493
863.768	4584
863.9	4546
864.032	4432
864.164	4455
864.296	4512
864.428	4603
864.559	4660
864.691	4626
864.823	4565
864.954	4611
865.086	4531
865.217	4512
865.349	4504
865.48	4512
865.612	4599
865.743	4668
865.875	4535
866.006	4523
866.137	4542
866.269	4489
866.4	4523
866.531	4466
866.662	4493
866.793	4531
866.924	4470
867.055	4519
867.186	4561
867.317	4485
867.448	4424
867.579	4481
867.71	4504
867.841	4440
867.972	4565
868.103	4485
868.233	4580
868.364	4516
868.495	4622
868.625	4748
868.756	4797
868.886	4653
869.017	4717
869.147	4812
869.278	4820
869.408	4752
869.539	4694
869.669	4790
869.799	4759
869.929	4816
870.06	4824
870.19	5086
870.32	5003
870.45	5060
870.58	5083
870.71	5098
870.84	5201
870.97	4991
871.1	5003
871.23	5181
871.36	5216
871.489	5136
871.619	5162
871.749	5166
871.879	5162
872.008	5231
872.138	5098
872.267	5067
872.397	4896
872.526	4805
872.656	4820
872.785	4873
872.915	5086
873.044	5094
873.173	5010
873.303	5098
873.432	5060
873.561	5033
873.69	4942
873.819	4961
873.948	4976
874.077	4900
874.206	4850
874.335	4854
874.464	5045
874.593	5143
874.722	5006
874.851	5174
874.979	5178
875.108	5132
875.237	4984
875.365	4995
875.494	4991
875.623	5109
875.751	4889
875.88	4957
876.008	5037
876.136	5102
876.265	5246
876.393	5387
876.521	5318
876.65	5201
876.778	5231
876.906	5162
877.034	5121
877.162	5121
877.29	5067
877.418	5105
877.546	5117
877.674	5128
877.802	5113
877.93	5052
878.058	5003
878.185	4991
878.313	5025
878.441	4987
878.568	4873
878.696	4919
878.824	5018
878.951	5052
879.079	5181
879.206	5395
879.333	5155
879.461	5033
879.588	5117
879.715	5181
879.842	5254
879.97	5052
880.097	4816
880.224	4835
880.351	4911
880.478	4927
880.605	4866
880.732	4843
880.859	5185
880.986	4984
881.112	4957
881.239	4850
881.366	4740
881.493	4679
881.619	4664
881.746	4698
881.872	4710
881.999	4721
882.125	4733
882.252	4835
882.378	4900
882.505	4991
882.631	4850
882.757	4733
882.883	4824
883.01	4820
883.136	4744
883.262	4656
883.388	4706
883.514	4850
883.64	4949
883.766	4782
883.892	4744
884.018	4835
884.143	4987
884.269	5071
884.395	4748
884.52	4706
884.646	4774
884.772	4664
884.897	4607
885.023	4679
885.148	4858
885.274	4942
885.399	4850
885.524	4759
885.65	4717
885.775	4797
885.9	4740
886.025	4923
886.15	4870
886.275	4755
886.4	4710
886.525	4767
886.65	4710
886.775	4797
886.9	4919
887.025	5041
887.149	4801
887.274	4744
887.399	4656
887.523	4622
887.648	4626
887.773	4672
887.897	4831
888.021	4889
888.146	4725
888.27	4885
888.395	4965
888.519	4831
888.643	4873
888.767	4911
888.891	4755
889.015	4706
889.139	4710
889.263	4672
889.387	4793
889.511	4949
889.635	4866
889.759	4668
889.883	4725
890.006	4755
890.13	4866
890.254	4702
890.377	4729
890.501	4615
890.624	4546
890.748	4717
890.871	4561
890.995	4538
891.118	4417
891.241	4569
891.364	4622
891.488	4672
891.611	4554
891.734	4596
891.857	4664
891.98	4645
892.103	4691
892.226	4622
892.349	4584
892.471	4523
892.594	4630
892.717	4672
892.839	4618
892.962	4679
893.085	4729
893.207	4675
893.33	4527
893.452	4558
893.575	4736
893.697	4615
893.819	4896
893.941	4942
894.064	4858
894.186	4637
894.308	4618
894.43	4847
894.552	4892
894.674	4847
894.796	4618
894.918	4660
895.04	4622
895.161	4759
895.283	4748
895.405	4607
895.526	4622
895.648	4759
895.769	4687
895.891	4744
896.012	4786
896.134	4748
896.255	4767
896.376	4672
896.498	4710
896.619	4759
896.74	4660
896.861	4672
896.982	5010
897.103	5140
897.224	4847
897.345	4797
897.466	4748
897.587	4790
897.708	4900
897.828	4843
897.949	4698
898.07	4622
898.19	4664
898.311	4862
898.431	4721
898.552	4759
898.672	4839
898.792	4870
898.913	4831
899.033	4694
899.153	4592
899.273	4447
899.393	4584
899.513	4569
899.633	4531
899.753	4573
899.873	4584
899.993	4664
900.113	4573
900.232	4630
900.352	4615
900.472	4504
900.591	4478
900.711	4599
900.83	4516
900.95	4641
901.069	4744
901.189	4626
901.308	4398
901.427	4390
901.546	4428
901.665	4546
901.784	4558
901.904	4462
902.023	4375
902.141	4230
902.26	4204
902.379	4322
902.498	4276
902.617	4280
902.735	4421
902.854	4470
902.973	4402
903.091	4268
903.21	4284
903.328	4344
903.446	4303
903.565	4325
903.683	4417
903.801	4310
903.919	4462
904.038	4466
904.156	4371
904.274	4489
904.392	4474
904.51	4485
904.627	4550
904.745	4622
904.863	4656
904.981	4466
905.098	4417
905.216	4363
905.334	4443
905.451	4489
905.569	4504
905.686	4584
905.803	4664
905.921	4478
906.038	4569
906.155	4531
906.272	4443
906.389	4523
906.506	4405
906.623	4432
906.74	4478
906.857	4379
906.974	4405
907.091	4634
907.208	4778
907.324	4615
907.441	4546
907.557	4383
907.674	4424
907.79	4375
907.907	4432
908.023	4554
908.139	4527
908.256	4508
908.372	4481
908.488	4538
908.604	4363
908.72	4375
908.836	4432
908.952	4398
909.068	4424
909.184	4664
909.3	4561
909.415	4698
909.531	4637
909.647	4379
909.762	4379
909.878	4405
909.993	4474
910.108	4485
910.224	4493
910.339	4550
910.454	4459
910.57	4440
910.685	4371
910.8	4672
910.915	4672
911.03	4550
911.145	4402
911.259	4436
911.374	4421
911.489	4325
911.604	4299
911.718	4238
911.833	4272
911.947	4124
912.062	4055
912.176	4246
912.291	4291
912.405	4272
912.519	4508
912.633	4535
912.748	4428
912.862	4363
912.976	4253
913.09	4181
913.204	4192
913.318	4306
913.431	4417
913.545	4447
913.659	4531
913.772	4390
913.886	4303
914	4227
914.113	4409
914.226	4497
914.34	4474
914.453	4306
914.566	4451
914.68	4363
914.793	4394
914.906	4227
915.019	4196
915.132	4131
915.245	4234
915.358	4242
915.47	4306
915.583	4310
915.696	4386
915.809	4443
915.921	4462
916.034	4299
916.146	4284
916.259	4249
916.371	4402
916.483	4405
916.595	4314
916.708	4402
916.82	4375
916.932	4363
917.044	4371
917.156	4356
917.268	4303
917.38	4348
917.491	4306
917.603	4428
917.715	4489
917.826	4474
917.938	4405
918.049	4287
918.161	4485
918.272	4573
918.384	4634
918.495	4493
918.606	4360
918.717	4295
918.828	4402
918.939	4459
919.05	4272
919.161	4360
919.272	4188
919.383	4310
919.494	4504
919.604	4660
919.715	4436
919.826	4386
919.936	4451
920.047	4584
920.157	4512
920.267	4729
920.378	4573
920.488	4592
920.598	4809
920.708	4972
920.818	4835
920.928	4820
921.038	4961
921.148	4949
921.258	4649
921.368	4626
921.477	4588
921.587	4481
921.697	4440
921.806	4584
921.916	4478
922.025	4337
922.134	4386
922.244	4291
922.353	4432
922.462	4188
922.571	4200
922.68	4051
922.789	4044
922.898	4074
923.007	4029
923.116	4139
923.224	4147
923.333	4139
923.442	4048
923.55	4017
923.659	4067
923.767	4166
923.876	4055
923.984	4177
924.092	4010
924.201	4120
924.309	4128
924.417	4181
924.525	4097
924.633	4185
924.741	5075
924.849	3972
924.956	4173
925.064	4025
925.172	3956
925.279	3991
925.387	4093
925.494	4116
925.602	4299
925.709	4227
925.816	4109
925.924	4124
926.031	4291
926.138	4227
926.245	4238
926.352	4135
926.459	4333
926.566	4352
926.673	4188
926.779	4150
926.886	4147
926.993	4002
927.099	4025
927.206	3960
927.312	3979
927.419	4090
927.525	4078
927.631	4162
927.737	4025
927.843	4002
927.95	3892
928.056	3998
928.162	4082
928.267	4090
928.373	4771
928.479	4158
928.585	3907
928.69	4074
928.796	4109
928.901	4010
929.007	3884
929.112	4101
929.218	4074
929.323	4032
929.428	3994
929.533	4143
929.638	3930
929.743	4006
929.848	4154
929.953	4036
930.058	3983
930.163	3827
930.267	3842
930.372	4040
930.477	3869
930.581	4120
930.685	3983
930.79	3857
930.894	3907
930.998	3918
931.103	4093
931.207	3778
931.311	3740
931.415	3747
931.519	3542
931.623	3622
