Data from test_V78500241_2350.txt Node
Date: Fri Mar 25 17:05:20 CST 2022
User: usil
Spectrometer: V785-0024
Trigger mode: 0
Integration Time (sec): 4.000000E-1
Scans to average: 1
Nonlinearity correction enabled: false
Boxcar width: 0
Storing dark spectrum: false
XAxis mode: Wavelengths
Number of Pixels in Spectrum: 1024
>>>>>Begin Spectral Data<<<<<
801.071	7951
801.214	7978
801.356	7909
801.499	7784
801.641	7784
801.783	7742
801.926	7967
802.068	7890
802.211	7974
802.353	7921
802.496	7826
802.638	7814
802.78	7799
802.923	7879
803.065	7890
803.208	7837
803.35	7982
803.492	8126
803.635	8103
803.777	8020
803.919	8115
804.061	8423
804.204	8134
804.346	8062
804.488	7936
804.63	8046
804.773	7955
804.915	8164
805.057	8324
805.199	8107
805.341	8202
805.483	8275
805.626	8233
805.768	8107
805.91	8153
806.052	8115
806.194	8142
806.336	8214
806.478	8069
806.62	8069
806.762	8069
806.904	8286
807.046	8393
807.188	8396
807.33	8358
807.472	8347
807.614	8100
807.756	8058
807.898	7993
808.04	7951
808.182	7868
808.324	7887
808.465	7887
808.607	7997
808.749	8142
808.891	8248
809.033	8218
809.174	8149
809.316	7997
809.458	8046
809.6	7963
809.741	8046
809.883	8035
810.025	8058
810.166	8073
810.308	8012
810.45	7963
810.591	7852
810.733	7700
810.875	7655
811.016	7525
811.158	7468
811.299	7597
811.441	7719
811.582	7681
811.724	7556
811.865	7544
812.007	7594
812.148	7567
812.29	7605
812.431	7761
812.573	7898
812.714	7944
812.855	8069
812.997	8168
813.138	8275
813.279	8088
813.421	8069
813.562	7970
813.703	7807
813.845	7746
813.986	7388
814.127	7263
814.268	7198
814.41	7133
814.551	7175
814.692	7168
814.833	7118
814.974	7095
815.115	7160
815.256	7034
815.397	6924
815.539	6943
815.68	6791
815.821	6711
815.962	6897
816.103	6867
816.244	6738
816.385	6627
816.526	6642
816.666	6433
816.807	6327
816.948	6407
817.089	6403
817.23	6426
817.371	6422
817.512	6426
817.653	6342
817.793	6323
817.934	6403
818.075	6441
818.216	6464
818.356	6433
818.497	6266
818.638	6068
818.778	6140
818.919	6155
819.06	6140
819.2	6334
819.341	6350
819.481	6357
819.622	6490
819.762	6757
819.903	6673
820.043	6585
820.184	6582
820.324	6589
820.465	6715
820.605	6677
820.746	6612
820.886	6502
821.026	6642
821.167	6726
821.307	6829
821.447	6734
821.588	6662
821.728	6574
821.868	6490
822.008	6327
822.149	6353
822.289	6353
822.429	6167
822.569	6140
822.709	6114
822.849	5916
822.99	5908
823.13	5935
823.27	5920
823.41	5745
823.55	5767
823.69	5775
823.83	5767
823.97	5695
824.11	5558
824.25	5448
824.389	5512
824.529	5524
824.669	5474
824.809	5558
824.949	5627
825.089	5615
825.228	5543
825.368	5379
825.508	5372
825.648	5353
825.787	5341
825.927	5349
826.067	5330
826.206	5246
826.346	5395
826.485	5429
826.625	5406
826.765	5566
826.904	5474
827.044	5254
827.183	5170
827.323	5117
827.462	5216
827.601	5143
827.741	5216
827.88	5181
828.02	5124
828.159	5227
828.298	5277
828.437	5330
828.577	5299
828.716	5455
828.855	5315
828.994	5193
829.134	5162
829.273	5201
829.412	5124
829.551	5193
829.69	5136
829.829	5258
829.968	5421
830.107	5299
830.246	5288
830.385	5212
830.524	5189
830.663	5075
830.802	5037
830.941	4908
831.08	4854
831.219	5048
831.357	4995
831.496	5178
831.635	4957
831.774	4892
831.913	4862
832.051	4786
832.19	4828
832.329	4930
832.467	4752
832.606	4679
832.744	4763
832.883	4763
833.022	4706
833.16	4812
833.299	4877
833.437	4786
833.576	4900
833.714	4915
833.852	4896
833.991	4934
834.129	5022
834.267	4995
834.406	4934
834.544	5033
834.682	5037
834.821	5060
834.959	5227
835.097	5090
835.235	5212
835.373	5185
835.511	5109
835.65	5056
835.788	5033
835.926	4968
836.064	4885
836.202	4995
836.34	5277
836.478	5273
836.615	5132
836.753	5265
836.891	5364
837.029	5242
837.167	5204
837.305	5216
837.443	5170
837.58	5105
837.718	5273
837.856	5235
837.993	5181
838.131	5265
838.269	5242
838.406	5170
838.544	5216
838.681	5102
838.819	5094
838.956	4987
839.094	4976
839.231	5022
839.369	5147
839.506	5448
839.643	5326
839.781	5075
839.918	5064
840.055	5128
840.193	5132
840.33	5189
840.467	5189
840.604	5185
840.742	5490
840.879	5064
841.016	5109
841.153	5174
841.29	5429
841.427	5398
841.564	5337
841.701	5364
841.838	5307
841.975	5246
842.112	5303
842.249	5170
842.385	5113
842.522	5360
842.659	5212
842.796	5178
842.933	5201
843.069	5174
843.206	5178
843.343	5330
843.479	5303
843.616	5288
843.752	5079
843.889	5048
844.025	5239
844.162	5083
844.298	5212
844.435	5128
844.571	5079
844.708	5181
844.844	5318
844.98	5349
845.117	5273
845.253	5136
845.389	5140
845.525	5208
845.661	5185
845.798	5094
845.934	5155
846.07	5109
846.206	5242
846.342	5341
846.478	5178
846.614	5064
846.75	5033
846.886	4976
847.022	5143
847.158	5018
847.294	5098
847.429	5109
847.565	5045
847.701	5341
847.837	4862
847.972	4839
848.108	4987
848.244	5010
848.379	4835
848.515	4755
848.65	4786
848.786	4816
848.921	4771
849.057	4873
849.192	4949
849.328	4858
849.463	4835
849.598	4843
849.734	4828
849.869	4759
850.004	4618
850.14	4656
850.275	4691
850.41	4535
850.545	4653
850.68	4618
850.815	4675
850.95	4649
851.085	4828
851.22	4820
851.355	4748
851.49	4683
851.625	4672
851.76	4691
851.895	4588
852.03	4569
852.165	4721
852.299	4733
852.434	4797
852.569	4748
852.703	4793
852.838	4900
852.973	4927
853.107	4934
853.242	4771
853.376	4733
853.511	4577
853.645	4622
853.78	4839
853.914	4675
854.048	4710
854.183	4664
854.317	4725
854.451	4908
854.585	4656
854.72	4679
854.854	4767
854.988	4634
855.122	4706
855.256	4546
855.39	4679
855.524	4782
855.658	4767
855.792	4771
855.926	4786
856.06	4805
856.194	4839
856.327	4702
856.461	4656
856.595	4618
856.729	4637
856.862	4797
856.996	4725
857.13	4767
857.263	4774
857.397	4805
857.53	4645
857.664	4740
857.797	4801
857.931	4774
858.064	4714
858.197	4744
858.331	4729
858.464	4626
858.597	4561
858.731	4622
858.864	4634
858.997	4592
859.13	4721
859.263	4679
859.396	4755
859.529	4603
859.662	4599
859.795	4580
859.928	4626
860.061	4771
860.194	4805
860.327	4668
860.46	4592
860.592	4740
860.725	4748
860.858	4752
860.99	4611
861.123	4538
861.256	4573
861.388	4660
861.521	5299
861.653	4558
861.786	4443
861.918	4466
862.05	4599
862.183	4599
862.315	4603
862.447	4649
862.58	4618
862.712	4436
862.844	4356
862.976	4523
863.108	4455
863.24	4889
863.372	4360
863.504	4447
863.636	4462
863.768	4504
863.9	4443
864.032	4394
864.164	4447
864.296	4497
864.428	4580
864.559	4645
864.691	4531
864.823	4588
864.954	4474
865.086	4554
865.217	4474
865.349	4500
865.48	4512
865.612	4516
865.743	4664
865.875	4459
866.006	4474
866.137	4497
866.269	4466
866.4	4466
866.531	4440
866.662	4443
866.793	4451
866.924	4424
867.055	4523
867.186	4481
867.317	4405
867.448	4424
867.579	4363
867.71	4417
867.841	4417
867.972	4474
868.103	4466
868.233	4470
868.364	4470
868.495	4519
868.625	4687
868.756	4771
868.886	4588
869.017	4626
869.147	4790
869.278	4824
869.408	4710
869.539	4653
869.669	4706
869.799	4694
869.929	4714
870.06	4763
870.19	4987
870.32	4965
870.45	4965
870.58	5037
870.71	5143
870.84	5105
870.97	4987
871.1	4919
871.23	5189
871.36	5181
871.489	5064
871.619	5132
871.749	5159
871.879	5143
872.008	5174
872.138	5056
872.267	4999
872.397	4858
872.526	4877
872.656	4805
872.785	4828
872.915	4991
873.044	5045
873.173	4949
873.303	5022
873.432	4957
873.561	4980
873.69	4946
873.819	4877
873.948	4938
874.077	4828
874.206	4729
874.335	4839
874.464	4957
874.593	5033
874.722	5006
874.851	5109
874.979	5083
875.108	5029
875.237	4953
875.365	4938
875.494	4896
875.623	5048
875.751	4858
875.88	4904
876.008	4972
876.136	5067
876.265	5227
876.393	5349
876.521	5292
876.65	5246
876.778	5239
876.906	5064
877.034	5098
877.162	5132
877.29	5010
877.418	5052
877.546	5037
877.674	5086
877.802	5022
877.93	5025
878.058	4968
878.185	4900
878.313	4995
878.441	4896
878.568	4862
878.696	4927
878.824	4976
878.951	4980
879.079	5109
879.206	5265
879.333	5083
879.461	4984
879.588	5037
879.715	5151
879.842	5250
879.97	5025
880.097	4812
880.224	4717
880.351	4812
880.478	4862
880.605	4835
880.732	4831
880.859	5098
880.986	4923
881.112	4930
881.239	4771
881.366	4721
881.493	4607
881.619	4588
881.746	4683
881.872	4664
881.999	4645
882.125	4725
882.252	4793
882.378	4824
882.505	4953
882.631	4812
882.757	4721
882.883	4755
883.01	4698
883.136	4653
883.262	4611
883.388	4637
883.514	4801
883.64	4889
883.766	4778
883.892	4706
884.018	4710
884.143	4934
884.269	4999
884.395	4683
884.52	4664
884.646	4660
884.772	4611
884.897	4565
885.023	4694
885.148	4801
885.274	4877
885.399	4786
885.524	4744
885.65	4744
885.775	4774
885.9	4717
886.025	4839
886.15	4847
886.275	4725
886.4	4668
886.525	4744
886.65	4645
886.775	4725
886.9	4915
887.025	5048
887.149	4820
887.274	4672
887.399	4580
887.523	4668
887.648	4527
887.773	4592
887.897	4771
888.021	4774
888.146	4687
888.27	4843
888.395	4919
888.519	4801
888.643	4847
888.767	4816
888.891	4668
889.015	4592
889.139	4668
889.263	4592
889.387	4771
889.511	4870
889.635	4805
889.759	4603
889.883	4645
890.006	4710
890.13	4858
890.254	4645
890.377	4717
890.501	4596
890.624	4527
890.748	4683
890.871	4542
890.995	4451
891.118	4424
891.241	4554
891.364	4569
891.488	4634
891.611	4474
891.734	4531
891.857	4561
891.98	4615
892.103	4618
892.226	4592
892.349	4565
892.471	4432
892.594	4550
892.717	4618
892.839	4592
892.962	4596
893.085	4645
893.207	4603
893.33	4481
893.452	4588
893.575	4675
893.697	4573
893.819	4824
893.941	4877
894.064	4755
894.186	4634
894.308	4607
894.43	4748
894.552	4820
894.674	4752
894.796	4542
894.918	4542
895.04	4596
895.161	4725
895.283	4691
895.405	4592
895.526	4618
895.648	4679
895.769	4714
895.891	4691
896.012	4759
896.134	4702
896.255	4755
896.376	4653
896.498	4599
896.619	4675
896.74	4599
896.861	4748
896.982	4965
897.103	5105
897.224	4820
897.345	4733
897.466	4702
897.587	4752
897.708	4877
897.828	4774
897.949	4691
898.07	4577
898.19	4634
898.311	4866
898.431	4683
898.552	4725
898.672	4820
898.792	4816
898.913	4725
899.033	4611
899.153	4493
899.273	4451
899.393	4497
899.513	4546
899.633	4565
899.753	4542
899.873	4546
899.993	4607
900.113	4523
900.232	4611
900.352	4531
900.472	4512
900.591	4443
900.711	4436
900.83	4428
900.95	4599
901.069	4672
901.189	4531
901.308	4409
901.427	4333
901.546	4394
901.665	4481
901.784	4485
901.904	4409
902.023	4341
902.141	4185
902.26	4124
902.379	4314
902.498	4272
902.617	4242
902.735	4386
902.854	4379
902.973	4348
903.091	4219
903.21	4257
903.328	4306
903.446	4261
903.565	4287
903.683	4371
903.801	4280
903.919	4413
904.038	4455
904.156	4329
904.274	4474
904.392	4386
904.51	4504
904.627	4504
904.745	4596
904.863	4660
904.981	4390
905.098	4375
905.216	4421
905.334	4443
905.451	4443
905.569	4421
905.686	4588
905.803	4596
905.921	4409
906.038	4603
906.155	4527
906.272	4466
906.389	4542
906.506	4356
906.623	4402
906.74	4371
906.857	4371
906.974	4436
907.091	4626
907.208	4752
907.324	4668
907.441	4519
907.557	4379
907.674	4348
907.79	4333
907.907	4440
908.023	4519
908.139	4519
908.256	4493
908.372	4558
908.488	4504
908.604	4421
908.72	4352
908.836	4447
908.952	4455
909.068	4478
909.184	4626
909.3	4554
909.415	4618
909.531	4603
909.647	4360
909.762	4421
909.878	4360
909.993	4470
910.108	4466
910.224	4493
910.339	4474
910.454	4417
910.57	4398
910.685	4348
910.8	4744
910.915	4702
911.03	4550
911.145	4417
911.259	4375
911.374	4455
911.489	4394
911.604	4306
911.718	4181
911.833	4211
911.947	4097
912.062	4097
912.176	4246
912.291	4280
912.405	4306
912.519	4523
912.633	4558
912.748	4455
912.862	4375
912.976	4242
913.09	4139
913.204	4196
913.318	4333
913.431	4432
913.545	4421
913.659	4516
913.772	4394
913.886	4299
914	4253
914.113	4379
914.226	4512
914.34	4428
914.453	4257
914.566	4459
914.68	4344
914.793	4348
914.906	4207
915.019	4188
915.132	4158
915.245	4211
915.358	4257
915.47	4284
915.583	4287
915.696	4344
915.809	4462
915.921	4489
916.034	4265
916.146	4284
916.259	4227
916.371	4436
916.483	4432
916.595	4272
916.708	4371
916.82	4314
916.932	4371
917.044	4322
917.156	4375
917.268	4234
917.38	4333
917.491	4322
917.603	4371
917.715	4462
917.826	4459
917.938	4386
918.049	4333
918.161	4409
918.272	4592
918.384	4558
918.495	4497
918.606	4344
918.717	4284
918.828	4386
918.939	4428
919.05	4287
919.161	4386
919.272	4185
919.383	4284
919.494	4436
919.604	4615
919.715	4489
919.826	4409
919.936	4428
920.047	4558
920.157	4542
920.267	4755
920.378	4542
920.488	4516
920.598	4740
920.708	4919
920.818	4755
920.928	4790
921.038	4995
921.148	4991
921.258	4675
921.368	4615
921.477	4500
921.587	4478
921.697	4402
921.806	4565
921.916	4493
922.025	4306
922.134	4299
922.244	4242
922.353	4341
922.462	4211
922.571	4185
922.68	4048
922.789	3975
922.898	4074
923.007	4017
923.116	4169
923.224	4116
923.333	4120
923.442	4036
923.55	3987
923.659	4067
923.767	4116
923.876	4036
923.984	4112
924.092	4025
924.201	4124
924.309	4154
924.417	4135
924.525	4067
924.633	4131
924.741	5102
924.849	3964
924.956	4158
925.064	3972
925.172	3922
925.279	3968
925.387	4105
925.494	4112
925.602	4219
925.709	4207
925.816	4086
925.924	4135
926.031	4261
926.138	4242
926.245	4234
926.352	4093
926.459	4287
926.566	4329
926.673	4169
926.779	4109
926.886	4105
926.993	4029
927.099	3991
927.206	3956
927.312	3983
927.419	4093
927.525	4071
927.631	4154
927.737	3975
927.843	3979
927.95	3800
928.056	3968
928.162	4032
928.267	4048
928.373	4622
928.479	4158
928.585	3918
928.69	4078
928.796	4063
928.901	4029
929.007	3835
929.112	4010
929.218	4025
929.323	3972
929.428	4029
929.533	4166
929.638	3968
929.743	4013
929.848	4120
929.953	4040
930.058	3994
930.163	3762
930.267	3854
930.372	4032
930.477	3819
930.581	4169
930.685	3975
930.79	3892
930.894	3926
930.998	3865
931.103	4059
931.207	3724
931.311	3713
931.415	3705
931.519	3584
931.623	3568
