Data from test_V78500241_816.txt Node
Date: Fri Mar 25 16:54:40 CST 2022
User: usil
Spectrometer: V785-0024
Trigger mode: 0
Integration Time (sec): 4.000000E-1
Scans to average: 1
Nonlinearity correction enabled: false
Boxcar width: 0
Storing dark spectrum: false
XAxis mode: Wavelengths
Number of Pixels in Spectrum: 1024
>>>>>Begin Spectral Data<<<<<
801.071	7974
801.214	8012
801.356	7856
801.499	7784
801.641	7776
801.783	7803
801.926	8001
802.068	7932
802.211	7864
802.353	7936
802.496	7871
802.638	7887
802.78	7909
802.923	7909
803.065	7830
803.208	7818
803.35	8001
803.492	8115
803.635	8043
803.777	7989
803.919	8062
804.061	8457
804.204	8119
804.346	8008
804.488	7955
804.63	8153
804.773	7970
804.915	8084
805.057	8286
805.199	8069
805.341	8218
805.483	8195
805.626	8206
805.768	8062
805.91	8176
806.052	8275
806.194	8073
806.336	8286
806.478	8096
806.62	7974
806.762	8107
806.904	8206
807.046	8484
807.188	8374
807.33	8263
807.472	8317
807.614	8164
807.756	8084
807.898	7997
808.04	7879
808.182	7879
808.324	7856
808.465	7947
808.607	8016
808.749	8103
808.891	8176
809.033	8339
809.174	8286
809.316	8039
809.458	8035
809.6	7982
809.741	8088
809.883	8035
810.025	8062
810.166	8046
810.308	8084
810.45	8039
810.591	7940
810.733	7814
810.875	7719
811.016	7548
811.158	7556
811.299	7594
811.441	7738
811.582	7708
811.724	7556
811.865	7544
812.007	7651
812.148	7582
812.29	7662
812.431	7746
812.573	7883
812.714	7963
812.855	8123
812.997	8248
813.138	8347
813.279	8145
813.421	8115
813.562	8043
813.703	7890
813.845	7753
813.986	7449
814.127	7225
814.268	7305
814.41	7198
814.551	7114
814.692	7156
814.833	7114
814.974	7080
815.115	7057
815.256	6954
815.397	6924
815.539	7069
815.68	6878
815.821	6852
815.962	6875
816.103	6840
816.244	6730
816.385	6601
816.526	6688
816.666	6486
816.807	6292
816.948	6483
817.089	6513
817.23	6456
817.371	6369
817.512	6422
817.653	6391
817.793	6437
817.934	6422
818.075	6418
818.216	6395
818.356	6410
818.497	6235
818.638	6098
818.778	6175
818.919	6167
819.06	6117
819.2	6304
819.341	6315
819.481	6376
819.622	6566
819.762	6722
819.903	6745
820.043	6589
820.184	6654
820.324	6589
820.465	6662
820.605	6703
820.746	6650
820.886	6547
821.026	6715
821.167	6684
821.307	6798
821.447	6810
821.588	6722
821.728	6555
821.868	6513
822.008	6334
822.149	6372
822.289	6361
822.429	6186
822.569	6095
822.709	6117
822.849	5885
822.99	5908
823.13	5931
823.27	5882
823.41	5817
823.55	5805
823.69	5726
823.83	5805
823.97	5668
824.11	5524
824.25	5471
824.389	5589
824.529	5649
824.669	5573
824.809	5653
824.949	5714
825.089	5653
825.228	5577
825.368	5417
825.508	5376
825.648	5376
825.787	5444
825.927	5368
826.067	5303
826.206	5284
826.346	5406
826.485	5433
826.625	5414
826.765	5558
826.904	5482
827.044	5326
827.183	5204
827.323	5143
827.462	5261
827.601	5143
827.741	5193
827.88	5231
828.02	5117
828.159	5235
828.298	5254
828.437	5387
828.577	5258
828.716	5512
828.855	5345
828.994	5201
829.134	5147
829.273	5159
829.412	5162
829.551	5105
829.69	5124
829.829	5231
829.968	5391
830.107	5288
830.246	5265
830.385	5151
830.524	5128
830.663	5064
830.802	4965
830.941	4900
831.08	4839
831.219	5022
831.357	4923
831.496	5208
831.635	4972
831.774	4858
831.913	4850
832.051	4752
832.19	4748
832.329	4896
832.467	4698
832.606	4675
832.744	4752
832.883	4752
833.022	4702
833.16	4793
833.299	4809
833.437	4801
833.576	4870
833.714	4866
833.852	4850
833.991	4885
834.129	4919
834.267	4934
834.406	4919
834.544	5003
834.682	4976
834.821	4976
834.959	5124
835.097	5003
835.235	5170
835.373	5121
835.511	5117
835.65	5060
835.788	5022
835.926	4862
836.064	4870
836.202	4877
836.34	5128
836.478	5273
836.615	5117
836.753	5269
836.891	5341
837.029	5273
837.167	5178
837.305	5204
837.443	5189
837.58	5079
837.718	5242
837.856	5109
837.993	5162
838.131	5246
838.269	5197
838.406	5193
838.544	5208
838.681	5064
838.819	4991
838.956	4870
839.094	4873
839.231	4999
839.369	5067
839.506	5455
839.643	5288
839.781	5094
839.918	5048
840.055	5064
840.193	5083
840.33	5105
840.467	5102
840.604	5181
840.742	5455
840.879	5056
841.016	5086
841.153	5151
841.29	5376
841.427	5288
841.564	5337
841.701	5360
841.838	5277
841.975	5235
842.112	5265
842.249	5155
842.385	5121
842.522	5360
842.659	5147
842.796	5117
842.933	5223
843.069	5147
843.206	5147
843.343	5341
843.479	5212
843.616	5292
843.752	5056
843.889	5056
844.025	5250
844.162	5064
844.298	5189
844.435	5071
844.571	5025
844.708	5212
844.844	5280
844.98	5391
845.117	5322
845.253	5128
845.389	5090
845.525	5162
845.661	5140
845.798	5014
845.934	5117
846.07	5025
846.206	5220
846.342	5265
846.478	5227
846.614	5014
846.75	4987
846.886	4919
847.022	5121
847.158	5022
847.294	5048
847.429	5117
847.565	5075
847.701	5277
847.837	4873
847.972	4793
848.108	4927
848.244	4961
848.379	4801
848.515	4763
848.65	4714
848.786	4725
848.921	4790
849.057	4866
849.192	4900
849.328	4850
849.463	4835
849.598	4790
849.734	4801
849.869	4740
850.004	4649
850.14	4672
850.275	4580
850.41	4561
850.545	4531
850.68	4596
850.815	4626
850.95	4634
851.085	4835
851.22	4748
851.355	4706
851.49	4637
851.625	4626
851.76	4656
851.895	4599
852.03	4535
852.165	4691
852.299	4694
852.434	4786
852.569	4702
852.703	4801
852.838	4793
852.973	4953
853.107	4911
853.242	4714
853.376	4694
853.511	4573
853.645	4569
853.78	4835
853.914	4717
854.048	4687
854.183	4691
854.317	4664
854.451	4839
854.585	4725
854.72	4626
854.854	4763
854.988	4634
855.122	4603
855.256	4542
855.39	4641
855.524	4759
855.658	4698
855.792	4649
855.926	4729
856.06	4752
856.194	4809
856.327	4672
856.461	4653
856.595	4550
856.729	4596
856.862	4752
856.996	4687
857.13	4759
857.263	4729
857.397	4763
857.53	4656
857.664	4653
857.797	4752
857.931	4774
858.064	4702
858.197	4702
858.331	4656
858.464	4599
858.597	4508
858.731	4607
858.864	4603
858.997	4641
859.13	4664
859.263	4653
859.396	4675
859.529	4588
859.662	4592
859.795	4531
859.928	4653
860.061	4740
860.194	4774
860.327	4630
860.46	4561
860.592	4725
860.725	4702
860.858	4687
860.99	4565
861.123	4519
861.256	4538
861.388	4599
861.521	5277
861.653	4436
861.786	4432
861.918	4478
862.05	4493
862.183	4531
862.315	4615
862.447	4656
862.58	4584
862.712	4394
862.844	4363
862.976	4455
863.108	4417
863.24	4831
863.372	4295
863.504	4428
863.636	4440
863.768	4542
863.9	4455
864.032	4356
864.164	4371
864.296	4474
864.428	4573
864.559	4531
864.691	4542
864.823	4527
864.954	4470
865.086	4508
865.217	4440
865.349	4417
865.48	4428
865.612	4497
865.743	4615
865.875	4478
866.006	4424
866.137	4493
866.269	4443
866.4	4459
866.531	4367
866.662	4310
866.793	4447
866.924	4421
867.055	4512
867.186	4462
867.317	4402
867.448	4356
867.579	4386
867.71	4390
867.841	4371
867.972	4485
868.103	4432
868.233	4409
868.364	4497
868.495	4485
868.625	4656
868.756	4733
868.886	4565
869.017	4634
869.147	4725
869.278	4782
869.408	4637
869.539	4653
869.669	4733
869.799	4653
869.929	4778
870.06	4733
870.19	4949
870.32	4873
870.45	4919
870.58	5056
870.71	5045
870.84	5105
870.97	4938
871.1	4953
871.23	5136
871.36	5151
871.489	5113
871.619	5071
871.749	5083
871.879	5102
872.008	5143
872.138	5071
872.267	4923
872.397	4850
872.526	4786
872.656	4759
872.785	4797
872.915	4949
873.044	4991
873.173	4980
873.303	4999
873.432	4900
873.561	4949
873.69	4835
873.819	4873
873.948	4892
874.077	4812
874.206	4755
874.335	4805
874.464	4900
874.593	5029
874.722	4968
874.851	5143
874.979	5045
875.108	4984
875.237	4949
875.365	4858
875.494	4927
875.623	5045
875.751	4850
875.88	4850
876.008	4953
876.136	5014
876.265	5162
876.393	5322
876.521	5189
876.65	5223
876.778	5208
876.906	5071
877.034	5018
877.162	5067
877.29	4923
877.418	5014
877.546	4995
877.674	4999
877.802	5022
877.93	4961
878.058	4881
878.185	4862
878.313	4961
878.441	4942
878.568	4824
878.696	4885
878.824	4942
878.951	5025
879.079	5147
879.206	5292
879.333	5113
879.461	4995
879.588	4965
879.715	5151
879.842	5250
879.97	4991
880.097	4736
880.224	4733
880.351	4809
880.478	4820
880.605	4885
880.732	4793
880.859	5102
880.986	4892
881.112	4915
881.239	4759
881.366	4698
881.493	4615
881.619	4584
881.746	4634
881.872	4645
881.999	4622
882.125	4679
882.252	4771
882.378	4809
882.505	4957
882.631	4786
882.757	4611
882.883	4740
883.01	4656
883.136	4664
883.262	4573
883.388	4649
883.514	4786
883.64	4843
883.766	4812
883.892	4672
884.018	4672
884.143	4881
884.269	4980
884.395	4702
884.52	4645
884.646	4656
884.772	4592
884.897	4554
885.023	4687
885.148	4755
885.274	4782
885.399	4828
885.524	4714
885.65	4679
885.775	4744
885.9	4683
886.025	4889
886.15	4820
886.275	4675
886.4	4618
886.525	4740
886.65	4694
886.775	4702
886.9	4908
887.025	5025
887.149	4816
887.274	4675
887.399	4584
887.523	4580
887.648	4554
887.773	4577
887.897	4755
888.021	4782
888.146	4729
888.27	4835
888.395	4911
888.519	4809
888.643	4793
888.767	4797
888.891	4668
889.015	4599
889.139	4618
889.263	4607
889.387	4733
889.511	4866
889.635	4759
889.759	4615
889.883	4683
890.006	4736
890.13	4831
890.254	4645
890.377	4702
890.501	4523
890.624	4512
890.748	4603
890.871	4489
890.995	4421
891.118	4383
891.241	4493
891.364	4508
891.488	4634
891.611	4455
891.734	4512
891.857	4596
891.98	4569
892.103	4645
892.226	4565
892.349	4546
892.471	4394
892.594	4542
892.717	4618
892.839	4531
892.962	4588
893.085	4660
893.207	4599
893.33	4455
893.452	4481
893.575	4603
893.697	4550
893.819	4816
893.941	4850
894.064	4740
894.186	4554
894.308	4565
894.43	4698
894.552	4831
894.674	4740
894.796	4550
894.918	4615
895.04	4618
895.161	4733
895.283	4668
895.405	4592
895.526	4653
895.648	4656
895.769	4679
895.891	4706
896.012	4793
896.134	4630
896.255	4622
896.376	4558
896.498	4580
896.619	4637
896.74	4626
896.861	4630
896.982	4908
897.103	5064
897.224	4812
897.345	4729
897.466	4668
897.587	4733
897.708	4896
897.828	4759
897.949	4698
898.07	4558
898.19	4622
898.311	4797
898.431	4611
898.552	4694
898.672	4843
898.792	4812
898.913	4763
899.033	4656
899.153	4516
899.273	4417
899.393	4478
899.513	4527
899.633	4485
899.753	4531
899.873	4542
899.993	4588
900.113	4542
900.232	4527
900.352	4569
900.472	4497
900.591	4413
900.711	4504
900.83	4455
900.95	4588
901.069	4656
901.189	4489
901.308	4333
901.427	4303
901.546	4352
901.665	4417
901.784	4462
901.904	4352
902.023	4318
902.141	4192
902.26	4147
902.379	4265
902.498	4318
902.617	4242
902.735	4383
902.854	4367
902.973	4333
903.091	4242
903.21	4181
903.328	4299
903.446	4276
903.565	4253
903.683	4325
903.801	4234
903.919	4386
904.038	4428
904.156	4306
904.274	4417
904.392	4383
904.51	4443
904.627	4424
904.745	4607
904.863	4599
904.981	4360
905.098	4306
905.216	4337
905.334	4413
905.451	4451
905.569	4455
905.686	4592
905.803	4523
905.921	4455
906.038	4504
906.155	4500
906.272	4417
906.389	4478
906.506	4337
906.623	4424
906.74	4413
906.857	4284
906.974	4363
907.091	4596
907.208	4679
907.324	4573
907.441	4497
907.557	4322
907.674	4318
907.79	4303
907.907	4383
908.023	4474
908.139	4466
908.256	4394
908.372	4440
908.488	4440
908.604	4341
908.72	4306
908.836	4383
908.952	4371
909.068	4413
909.184	4558
909.3	4474
909.415	4569
909.531	4523
909.647	4383
909.762	4363
909.878	4333
909.993	4436
910.108	4398
910.224	4356
910.339	4443
910.454	4394
910.57	4322
910.685	4284
910.8	4687
910.915	4641
911.03	4485
911.145	4329
911.259	4322
911.374	4344
911.489	4234
911.604	4299
911.718	4150
911.833	4196
911.947	4082
912.062	4002
912.176	4227
912.291	4196
912.405	4265
912.519	4451
912.633	4470
912.748	4356
912.862	4295
912.976	4227
913.09	4112
913.204	4139
913.318	4238
913.431	4329
913.545	4318
913.659	4417
913.772	4360
913.886	4230
914	4238
914.113	4337
914.226	4455
914.34	4379
914.453	4249
914.566	4383
914.68	4257
914.793	4341
914.906	4162
915.019	4162
915.132	4059
915.245	4211
915.358	4215
915.47	4257
915.583	4230
915.696	4280
915.809	4371
915.921	4428
916.034	4219
916.146	4223
916.259	4230
916.371	4371
916.483	4352
916.595	4303
916.708	4284
916.82	4295
916.932	4333
917.044	4352
917.156	4337
917.268	4192
917.38	4268
917.491	4261
917.603	4337
917.715	4367
917.826	4451
917.938	4348
918.049	4249
918.161	4337
918.272	4527
918.384	4497
918.495	4451
918.606	4238
918.717	4234
918.828	4314
918.939	4367
919.05	4265
919.161	4303
919.272	4162
919.383	4242
919.494	4428
919.604	4630
919.715	4432
919.826	4341
919.936	4386
920.047	4531
920.157	4512
920.267	4679
920.378	4546
920.488	4512
920.598	4706
920.708	4900
920.818	4748
920.928	4755
921.038	4923
921.148	4904
921.258	4611
921.368	4546
921.477	4519
921.587	4440
921.697	4379
921.806	4542
921.916	4462
922.025	4242
922.134	4261
922.244	4246
922.353	4322
922.462	4131
922.571	4097
922.68	4010
922.789	3956
922.898	4013
923.007	3968
923.116	4128
923.224	4078
923.333	4093
923.442	4021
923.55	3987
923.659	4010
923.767	4116
923.876	3983
923.984	4109
924.092	4002
924.201	4128
924.309	4093
924.417	4101
924.525	4059
924.633	4086
924.741	4801
924.849	3960
924.956	4097
925.064	3983
925.172	3911
925.279	3998
925.387	4090
925.494	4059
925.602	4196
925.709	4196
925.816	4025
925.924	4120
926.031	4219
926.138	4166
926.245	4162
926.352	4093
926.459	4230
926.566	4299
926.673	4128
926.779	4090
926.886	4093
926.993	4013
927.099	3941
927.206	3956
927.312	3960
927.419	4082
927.525	4010
927.631	4044
927.737	3941
927.843	3949
927.95	3857
928.056	3915
928.162	4032
928.267	4048
928.373	4698
928.479	4055
928.585	3857
928.69	4051
928.796	4040
928.901	3956
929.007	3838
929.112	3983
929.218	3960
929.323	3892
929.428	3907
929.533	4086
929.638	3926
929.743	3915
929.848	4010
929.953	3953
930.058	3937
930.163	3778
930.267	3819
930.372	3983
930.477	3781
930.581	4055
930.685	3937
930.79	3857
930.894	3869
930.998	3835
931.103	4067
931.207	3728
931.311	3705
931.415	3652
931.519	3515
931.623	3561
