Data from test_V78500241_1352.txt Node
Date: Fri Mar 25 16:58:24 CST 2022
User: usil
Spectrometer: V785-0024
Trigger mode: 0
Integration Time (sec): 4.000000E-1
Scans to average: 1
Nonlinearity correction enabled: false
Boxcar width: 0
Storing dark spectrum: false
XAxis mode: Wavelengths
Number of Pixels in Spectrum: 1024
>>>>>Begin Spectral Data<<<<<
801.071	8001
801.214	8073
801.356	7917
801.499	7849
801.641	7795
801.783	7792
801.926	7932
802.068	7928
802.211	7913
802.353	7970
802.496	7852
802.638	7868
802.78	7967
802.923	7925
803.065	7852
803.208	7868
803.35	8020
803.492	8069
803.635	8176
803.777	7982
803.919	8123
804.061	8461
804.204	8180
804.346	8008
804.488	7967
804.63	8107
804.773	7986
804.915	8096
805.057	8267
805.199	8191
805.341	8195
805.483	8290
805.626	8202
805.768	8123
805.91	8191
806.052	8183
806.194	8130
806.336	8206
806.478	8077
806.62	8005
806.762	8081
806.904	8290
807.046	8480
807.188	8381
807.33	8168
807.472	8362
807.614	8123
807.756	8172
807.898	8039
808.04	7890
808.182	7890
808.324	7830
808.465	7936
808.607	8130
808.749	8107
808.891	8187
809.033	8240
809.174	8263
809.316	8088
809.458	8027
809.6	7940
809.741	8024
809.883	8008
810.025	8054
810.166	8054
810.308	8027
810.45	8024
810.591	7852
810.733	7677
810.875	7658
811.016	7544
811.158	7426
811.299	7563
811.441	7685
811.582	7685
811.724	7605
811.865	7540
812.007	7601
812.148	7616
812.29	7563
812.431	7734
812.573	7879
812.714	7974
812.855	8183
812.997	8164
813.138	8377
813.279	8176
813.421	8043
813.562	7944
813.703	7746
813.845	7734
813.986	7445
814.127	7190
814.268	7179
814.41	7164
814.551	7149
814.692	7194
814.833	7091
814.974	7110
815.115	7103
815.256	7004
815.397	6947
815.539	6954
815.68	6859
815.821	6787
815.962	6863
816.103	6798
816.244	6722
816.385	6646
816.526	6623
816.666	6471
816.807	6308
816.948	6452
817.089	6437
817.23	6452
817.371	6369
817.512	6357
817.653	6384
817.793	6365
817.934	6407
818.075	6418
818.216	6486
818.356	6395
818.497	6266
818.638	6148
818.778	6095
818.919	6117
819.06	6163
819.2	6331
819.341	6308
819.481	6388
819.622	6502
819.762	6673
819.903	6711
820.043	6650
820.184	6616
820.324	6589
820.465	6688
820.605	6726
820.746	6627
820.886	6494
821.026	6627
821.167	6700
821.307	6722
821.447	6730
821.588	6623
821.728	6612
821.868	6483
822.008	6319
822.149	6350
822.289	6292
822.429	6110
822.569	6076
822.709	6079
822.849	5912
822.99	5931
823.13	5908
823.27	5942
823.41	5722
823.55	5775
823.69	5764
823.83	5710
823.97	5688
824.11	5566
824.25	5436
824.389	5528
824.529	5585
824.669	5509
824.809	5623
824.949	5627
825.089	5589
825.228	5509
825.368	5391
825.508	5368
825.648	5326
825.787	5357
825.927	5379
826.067	5364
826.206	5258
826.346	5417
826.485	5383
826.625	5421
826.765	5516
826.904	5474
827.044	5216
827.183	5155
827.323	5083
827.462	5189
827.601	5140
827.741	5189
827.88	5185
828.02	5117
828.159	5261
828.298	5227
828.437	5337
828.577	5284
828.716	5440
828.855	5280
828.994	5136
829.134	5128
829.273	5189
829.412	5121
829.551	5181
829.69	5143
829.829	5235
829.968	5311
830.107	5277
830.246	5261
830.385	5132
830.524	5109
830.663	5010
830.802	4972
830.941	4919
831.08	4862
831.219	4976
831.357	4972
831.496	5140
831.635	4862
831.774	4793
831.913	4820
832.051	4691
832.19	4736
832.329	4835
832.467	4694
832.606	4656
832.744	4710
832.883	4717
833.022	4683
833.16	4752
833.299	4828
833.437	4809
833.576	4850
833.714	4843
833.852	4847
833.991	4870
834.129	4930
834.267	4915
834.406	4911
834.544	4961
834.682	4961
834.821	4911
834.959	5140
835.097	4976
835.235	5159
835.373	5071
835.511	5128
835.65	5064
835.788	4995
835.926	4873
836.064	4870
836.202	4900
836.34	5178
836.478	5189
836.615	5124
836.753	5208
836.891	5330
837.029	5254
837.167	5216
837.305	5121
837.443	5094
837.58	5098
837.718	5223
837.856	5193
837.993	5094
838.131	5197
838.269	5223
838.406	5223
838.544	5178
838.681	5010
838.819	4972
838.956	4828
839.094	4896
839.231	4934
839.369	5140
839.506	5395
839.643	5227
839.781	5056
839.918	5003
840.055	5041
840.193	5052
840.33	5041
840.467	5193
840.604	5159
840.742	5387
840.879	5029
841.016	5090
841.153	5124
841.29	5337
841.427	5311
841.564	5292
841.701	5326
841.838	5197
841.975	5201
842.112	5246
842.249	5174
842.385	5090
842.522	5299
842.659	5128
842.796	5178
842.933	5121
843.069	5155
843.206	5109
843.343	5280
843.479	5201
843.616	5280
843.752	5010
843.889	4980
844.025	5197
844.162	5022
844.298	5235
844.435	5067
844.571	5037
844.708	5189
844.844	5273
844.98	5349
845.117	5258
845.253	5197
845.389	5086
845.525	5155
845.661	5143
845.798	5064
845.934	5064
846.07	5048
846.206	5185
846.342	5250
846.478	5185
846.614	5003
846.75	4987
846.886	4957
847.022	5086
847.158	4980
847.294	5102
847.429	5117
847.565	5033
847.701	5299
847.837	4847
847.972	4809
848.108	4942
848.244	4934
848.379	4797
848.515	4736
848.65	4714
848.786	4778
848.921	4698
849.057	4870
849.192	4904
849.328	4831
849.463	4839
849.598	4748
849.734	4721
849.869	4706
850.004	4653
850.14	4664
850.275	4588
850.41	4489
850.545	4519
850.68	4577
850.815	4538
850.95	4641
851.085	4839
851.22	4702
851.355	4649
851.49	4607
851.625	4607
851.76	4626
851.895	4523
852.03	4550
852.165	4641
852.299	4733
852.434	4759
852.569	4748
852.703	4755
852.838	4782
852.973	4908
853.107	4889
853.242	4706
853.376	4637
853.511	4512
853.645	4599
853.78	4778
853.914	4691
854.048	4653
854.183	4660
854.317	4668
854.451	4809
854.585	4618
854.72	4573
854.854	4736
854.988	4592
855.122	4592
855.256	4478
855.39	4649
855.524	4752
855.658	4717
855.792	4702
855.926	4702
856.06	4736
856.194	4797
856.327	4634
856.461	4607
856.595	4596
856.729	4611
856.862	4729
856.996	4668
857.13	4744
857.263	4725
857.397	4782
857.53	4580
857.664	4702
857.797	4748
857.931	4767
858.064	4717
858.197	4691
858.331	4653
858.464	4618
858.597	4516
858.731	4592
858.864	4649
858.997	4561
859.13	4649
859.263	4645
859.396	4710
859.529	4561
859.662	4519
859.795	4508
859.928	4653
860.061	4797
860.194	4744
860.327	4615
860.46	4558
860.592	4714
860.725	4733
860.858	4683
860.99	4618
861.123	4512
861.256	4504
861.388	4615
861.521	5303
861.653	4466
861.786	4405
861.918	4447
862.05	4512
862.183	4569
862.315	4615
862.447	4641
862.58	4573
862.712	4386
862.844	4299
862.976	4424
863.108	4424
863.24	4889
863.372	4295
863.504	4394
863.636	4409
863.768	4470
863.9	4405
864.032	4375
864.164	4398
864.296	4421
864.428	4565
864.559	4542
864.691	4504
864.823	4478
864.954	4481
865.086	4493
865.217	4459
865.349	4417
865.48	4481
865.612	4481
865.743	4596
865.875	4447
866.006	4383
866.137	4417
866.269	4440
866.4	4409
866.531	4402
866.662	4367
866.793	4379
866.924	4402
867.055	4474
867.186	4421
867.317	4440
867.448	4337
867.579	4344
867.71	4383
867.841	4352
867.972	4455
868.103	4428
868.233	4428
868.364	4360
868.495	4447
868.625	4599
868.756	4714
868.886	4554
869.017	4584
869.147	4771
869.278	4710
869.408	4630
869.539	4592
869.669	4664
869.799	4630
869.929	4744
870.06	4683
870.19	4915
870.32	4889
870.45	4946
870.58	4999
870.71	5079
870.84	5060
870.97	4873
871.1	4889
871.23	5147
871.36	5117
871.489	4965
871.619	5060
871.749	5056
871.879	5094
872.008	5155
872.138	5014
872.267	4965
872.397	4763
872.526	4790
872.656	4683
872.785	4767
872.915	4896
873.044	4965
873.173	4904
873.303	4892
873.432	4938
873.561	4949
873.69	4877
873.819	4843
873.948	4889
874.077	4809
874.206	4763
874.335	4778
874.464	4938
874.593	5098
874.722	4999
874.851	5056
874.979	5067
875.108	5083
875.237	4927
875.365	4881
875.494	4949
875.623	4953
875.751	4797
875.88	4870
876.008	5003
876.136	5037
876.265	5166
876.393	5334
876.521	5261
876.65	5277
876.778	5189
876.906	5075
877.034	5056
877.162	5045
877.29	4987
877.418	5086
877.546	5029
877.674	5079
877.802	5010
877.93	5029
878.058	4946
878.185	4881
878.313	4991
878.441	4984
878.568	4793
878.696	4919
878.824	4972
878.951	5041
879.079	5181
879.206	5315
879.333	5143
879.461	5018
879.588	5010
879.715	5162
879.842	5197
879.97	5037
880.097	4786
880.224	4774
880.351	4820
880.478	4866
880.605	4797
880.732	4774
880.859	5132
880.986	4919
881.112	4965
881.239	4786
881.366	4717
881.493	4641
881.619	4649
881.746	4691
881.872	4725
881.999	4687
882.125	4668
882.252	4755
882.378	4805
882.505	5018
882.631	4843
882.757	4698
882.883	4744
883.01	4801
883.136	4664
883.262	4634
883.388	4683
883.514	4881
883.64	4847
883.766	4812
883.892	4706
884.018	4729
884.143	4919
884.269	5022
884.395	4672
884.52	4679
884.646	4683
884.772	4660
884.897	4599
885.023	4744
885.148	4774
885.274	4934
885.399	4839
885.524	4740
885.65	4717
885.775	4786
885.9	4694
886.025	4889
886.15	4881
886.275	4744
886.4	4664
886.525	4755
886.65	4729
886.775	4755
886.9	4927
887.025	5018
887.149	4816
887.274	4698
887.399	4618
887.523	4634
887.648	4599
887.773	4561
887.897	4805
888.021	4782
888.146	4721
888.27	4847
888.395	4965
888.519	4839
888.643	4843
888.767	4835
888.891	4660
889.015	4668
889.139	4641
889.263	4630
889.387	4752
889.511	4911
889.635	4831
889.759	4660
889.883	4698
890.006	4763
890.13	4900
890.254	4618
890.377	4668
890.501	4580
890.624	4565
890.748	4649
890.871	4538
890.995	4432
891.118	4398
891.241	4558
891.364	4535
891.488	4694
891.611	4535
891.734	4478
891.857	4615
891.98	4565
892.103	4668
892.226	4611
892.349	4550
892.471	4424
892.594	4558
892.717	4577
892.839	4577
892.962	4599
893.085	4714
893.207	4645
893.33	4493
893.452	4508
893.575	4698
893.697	4588
893.819	4812
893.941	4892
894.064	4820
894.186	4573
894.308	4558
894.43	4717
894.552	4847
894.674	4721
894.796	4603
894.918	4615
895.04	4550
895.161	4691
895.283	4679
895.405	4607
895.526	4634
895.648	4675
895.769	4698
895.891	4710
896.012	4729
896.134	4733
896.255	4641
896.376	4660
896.498	4653
896.619	4656
896.74	4599
896.861	4637
896.982	4976
897.103	5086
897.224	4850
897.345	4824
897.466	4714
897.587	4706
897.708	4881
897.828	4816
897.949	4698
898.07	4577
898.19	4698
898.311	4809
898.431	4721
898.552	4748
898.672	4847
898.792	4793
898.913	4755
899.033	4634
899.153	4561
899.273	4500
899.393	4531
899.513	4527
899.633	4584
899.753	4573
899.873	4504
899.993	4588
900.113	4592
900.232	4634
900.352	4535
900.472	4519
900.591	4413
900.711	4531
900.83	4440
900.95	4656
901.069	4714
901.189	4558
901.308	4375
901.427	4360
901.546	4409
901.665	4478
901.784	4519
901.904	4390
902.023	4367
902.141	4238
902.26	4211
902.379	4333
902.498	4310
902.617	4287
902.735	4379
902.854	4462
902.973	4356
903.091	4242
903.21	4253
903.328	4318
903.446	4287
903.565	4306
903.683	4341
903.801	4272
903.919	4409
904.038	4470
904.156	4306
904.274	4478
904.392	4424
904.51	4447
904.627	4512
904.745	4626
904.863	4656
904.981	4398
905.098	4333
905.216	4386
905.334	4443
905.451	4432
905.569	4489
905.686	4592
905.803	4603
905.921	4424
906.038	4546
906.155	4531
906.272	4405
906.389	4493
906.506	4363
906.623	4390
906.74	4436
906.857	4333
906.974	4344
907.091	4599
907.208	4706
907.324	4599
907.441	4493
907.557	4356
907.674	4390
907.79	4360
907.907	4386
908.023	4542
908.139	4538
908.256	4478
908.372	4485
908.488	4493
908.604	4375
908.72	4329
908.836	4413
908.952	4371
909.068	4443
909.184	4577
909.3	4500
909.415	4630
909.531	4603
909.647	4371
909.762	4402
909.878	4375
909.993	4489
910.108	4432
910.224	4485
910.339	4538
910.454	4417
910.57	4409
910.685	4390
910.8	4714
910.915	4592
911.03	4531
911.145	4337
911.259	4325
911.374	4367
911.489	4303
911.604	4249
911.718	4185
911.833	4253
911.947	4120
912.062	4040
912.176	4211
912.291	4238
912.405	4303
912.519	4500
912.633	4538
912.748	4428
912.862	4352
912.976	4242
913.09	4116
913.204	4196
913.318	4295
913.431	4367
913.545	4402
913.659	4436
913.772	4344
913.886	4284
914	4280
914.113	4379
914.226	4462
914.34	4363
914.453	4265
914.566	4447
914.68	4306
914.793	4367
914.906	4192
915.019	4166
915.132	4101
915.245	4169
915.358	4223
915.47	4215
915.583	4280
915.696	4291
915.809	4424
915.921	4470
916.034	4268
916.146	4303
916.259	4230
916.371	4371
916.483	4371
916.595	4284
916.708	4341
916.82	4329
916.932	4333
917.044	4363
917.156	4329
917.268	4291
917.38	4303
917.491	4310
917.603	4341
917.715	4421
917.826	4440
917.938	4367
918.049	4223
918.161	4394
918.272	4538
918.384	4565
918.495	4455
918.606	4280
918.717	4253
918.828	4360
918.939	4390
919.05	4280
919.161	4352
919.272	4105
919.383	4246
919.494	4447
919.604	4634
919.715	4379
919.826	4379
919.936	4432
920.047	4535
920.157	4538
920.267	4714
920.378	4558
920.488	4485
920.598	4687
920.708	4866
920.818	4790
920.928	4782
921.038	4972
921.148	4942
921.258	4607
921.368	4603
921.477	4523
921.587	4497
921.697	4405
921.806	4523
921.916	4489
922.025	4295
922.134	4287
922.244	4234
922.353	4413
922.462	4196
922.571	4147
922.68	4029
922.789	3975
922.898	4013
923.007	3994
923.116	4109
923.224	4090
923.333	4097
923.442	4002
923.55	3953
923.659	4097
923.767	4154
923.876	4048
923.984	4154
924.092	3991
924.201	4074
924.309	4044
924.417	4086
924.525	4109
924.633	4112
924.741	5079
924.849	3960
924.956	4131
925.064	3949
925.172	3911
925.279	3983
925.387	4082
925.494	4086
925.602	4219
925.709	4188
925.816	4044
925.924	4143
926.031	4196
926.138	4158
926.245	4234
926.352	4124
926.459	4246
926.566	4303
926.673	4192
926.779	4071
926.886	4082
926.993	3968
927.099	3991
927.206	3930
927.312	3953
927.419	4093
927.525	4074
927.631	4093
927.737	3968
927.843	3930
927.95	3838
928.056	3968
928.162	3941
928.267	4097
928.373	4653
928.479	4139
928.585	3892
928.69	4036
928.796	4090
928.901	3987
929.007	3846
929.112	3994
929.218	3994
929.323	3987
929.428	3960
929.533	4093
929.638	3892
929.743	3953
929.848	4082
929.953	3998
930.058	3926
930.163	3789
930.267	3819
930.372	3956
930.477	3854
930.581	4112
930.685	3972
930.79	3823
930.894	3892
930.998	3819
931.103	4059
931.207	3694
931.311	3686
931.415	3667
931.519	3515
931.623	3572
