Data from test_V78500241_2143.txt Node
Date: Fri Mar 25 17:03:54 CST 2022
User: usil
Spectrometer: V785-0024
Trigger mode: 0
Integration Time (sec): 4.000000E-1
Scans to average: 1
Nonlinearity correction enabled: false
Boxcar width: 0
Storing dark spectrum: false
XAxis mode: Wavelengths
Number of Pixels in Spectrum: 1024
>>>>>Begin Spectral Data<<<<<
801.071	7970
801.214	8016
801.356	7837
801.499	7925
801.641	7753
801.783	7814
801.926	7982
802.068	7909
802.211	7970
802.353	7989
802.496	7814
802.638	7811
802.78	7902
802.923	7917
803.065	7833
803.208	7807
803.35	7959
803.492	8103
803.635	8168
803.777	8035
803.919	8115
804.061	8484
804.204	8134
804.346	8062
804.488	7982
804.63	8027
804.773	8020
804.915	8039
805.057	8256
805.199	8157
805.341	8225
805.483	8202
805.626	8168
805.768	8157
805.91	8180
806.052	8176
806.194	8062
806.336	8286
806.478	8161
806.62	8039
806.762	8183
806.904	8286
807.046	8499
807.188	8412
807.33	8301
807.472	8324
807.614	8149
807.756	8142
807.898	7986
808.04	7845
808.182	7902
808.324	7826
808.465	7898
808.607	8054
808.749	8157
808.891	8225
809.033	8377
809.174	8221
809.316	8111
809.458	8050
809.6	8016
809.741	8107
809.883	8043
810.025	8084
810.166	8126
810.308	7955
810.45	8058
810.591	7852
810.733	7753
810.875	7731
811.016	7476
811.158	7422
811.299	7578
811.441	7693
811.582	7704
811.724	7537
811.865	7518
812.007	7624
812.148	7556
812.29	7628
812.431	7757
812.573	7864
812.714	7947
812.855	8119
812.997	8218
813.138	8313
813.279	8164
813.421	8001
813.562	7986
813.703	7814
813.845	7693
813.986	7403
814.127	7236
814.268	7217
814.41	7149
814.551	7198
814.692	7297
814.833	7076
814.974	7103
815.115	7099
815.256	6947
815.397	6916
815.539	6932
815.68	6741
815.821	6844
815.962	6810
816.103	6848
816.244	6677
816.385	6593
816.526	6589
816.666	6494
816.807	6323
816.948	6422
817.089	6433
817.23	6369
817.371	6399
817.512	6376
817.653	6384
817.793	6311
817.934	6384
818.075	6464
818.216	6407
818.356	6388
818.497	6251
818.638	6136
818.778	6163
818.919	6148
819.06	6144
819.2	6323
819.341	6331
819.481	6342
819.622	6585
819.762	6700
819.903	6662
820.043	6620
820.184	6642
820.324	6631
820.465	6703
820.605	6677
820.746	6585
820.886	6536
821.026	6696
821.167	6677
821.307	6818
821.447	6806
821.588	6719
821.728	6540
821.868	6464
822.008	6331
822.149	6384
822.289	6338
822.429	6175
822.569	6098
822.709	6152
822.849	5870
822.99	5882
823.13	5935
823.27	5935
823.41	5794
823.55	5798
823.69	5790
823.83	5817
823.97	5627
824.11	5505
824.25	5444
824.389	5600
824.529	5566
824.669	5505
824.809	5600
824.949	5646
825.089	5566
825.228	5543
825.368	5452
825.508	5353
825.648	5326
825.787	5357
825.927	5360
826.067	5303
826.206	5307
826.346	5410
826.485	5414
826.625	5364
826.765	5604
826.904	5509
827.044	5220
827.183	5189
827.323	5193
827.462	5204
827.601	5208
827.741	5212
827.88	5208
828.02	5105
828.159	5216
828.298	5311
828.437	5368
828.577	5273
828.716	5547
828.855	5322
828.994	5170
829.134	5140
829.273	5178
829.412	5136
829.551	5105
829.69	5159
829.829	5216
829.968	5368
830.107	5265
830.246	5288
830.385	5185
830.524	5113
830.663	5045
830.802	4930
830.941	4919
831.08	4850
831.219	4987
831.357	4953
831.496	5185
831.635	4919
831.774	4805
831.913	4889
832.051	4736
832.19	4759
832.329	4881
832.467	4698
832.606	4577
832.744	4717
832.883	4702
833.022	4702
833.16	4752
833.299	4801
833.437	4816
833.576	4828
833.714	4866
833.852	4809
833.991	4904
834.129	4968
834.267	4919
834.406	4942
834.544	5003
834.682	5022
834.821	4984
834.959	5136
835.097	4972
835.235	5121
835.373	5094
835.511	5045
835.65	5083
835.788	5029
835.926	4915
836.064	4862
836.202	4930
836.34	5170
836.478	5201
836.615	5147
836.753	5231
836.891	5299
837.029	5258
837.167	5208
837.305	5174
837.443	5155
837.58	5094
837.718	5220
837.856	5170
837.993	5105
838.131	5174
838.269	5185
838.406	5166
838.544	5208
838.681	5079
838.819	4957
838.956	4885
839.094	4873
839.231	4923
839.369	5083
839.506	5444
839.643	5299
839.781	5029
839.918	5056
840.055	5143
840.193	5056
840.33	5105
840.467	5166
840.604	5155
840.742	5387
840.879	5025
841.016	5090
841.153	5201
841.29	5379
841.427	5353
841.564	5299
841.701	5357
841.838	5269
841.975	5223
842.112	5284
842.249	5159
842.385	5166
842.522	5307
842.659	5216
842.796	5147
842.933	5143
843.069	5109
843.206	5174
843.343	5277
843.479	5231
843.616	5208
843.752	5014
843.889	5048
844.025	5239
844.162	5064
844.298	5197
844.435	5056
844.571	4999
844.708	5220
844.844	5296
844.98	5277
845.117	5292
845.253	5159
845.389	5098
845.525	5124
845.661	5189
845.798	5071
845.934	5060
846.07	5022
846.206	5143
846.342	5273
846.478	5193
846.614	5018
846.75	4987
846.886	4946
847.022	5105
847.158	4965
847.294	5083
847.429	5033
847.565	5098
847.701	5292
847.837	4873
847.972	4797
848.108	5010
848.244	4896
848.379	4782
848.515	4675
848.65	4694
848.786	4736
848.921	4850
849.057	4854
849.192	4858
849.328	4820
849.463	4854
849.598	4797
849.734	4744
849.869	4675
850.004	4630
850.14	4733
850.275	4611
850.41	4535
850.545	4596
850.68	4615
850.815	4641
850.95	4626
851.085	4850
851.22	4733
851.355	4675
851.49	4523
851.625	4649
851.76	4687
851.895	4588
852.03	4542
852.165	4622
852.299	4721
852.434	4755
852.569	4710
852.703	4740
852.838	4835
852.973	4900
853.107	4911
853.242	4694
853.376	4691
853.511	4535
853.645	4618
853.78	4850
853.914	4725
854.048	4626
854.183	4649
854.317	4694
854.451	4839
854.585	4679
854.72	4653
854.854	4740
854.988	4573
855.122	4675
855.256	4459
855.39	4630
855.524	4763
855.658	4755
855.792	4694
855.926	4725
856.06	4771
856.194	4790
856.327	4645
856.461	4577
856.595	4637
856.729	4622
856.862	4691
856.996	4694
857.13	4752
857.263	4771
857.397	4752
857.53	4630
857.664	4744
857.797	4755
857.931	4786
858.064	4729
858.197	4691
858.331	4672
858.464	4577
858.597	4500
858.731	4615
858.864	4649
858.997	4577
859.13	4664
859.263	4626
859.396	4706
859.529	4561
859.662	4588
859.795	4523
859.928	4664
860.061	4733
860.194	4767
860.327	4634
860.46	4554
860.592	4672
860.725	4755
860.858	4725
860.99	4584
861.123	4535
861.256	4527
861.388	4592
861.521	5353
861.653	4481
861.786	4402
861.918	4459
862.05	4565
862.183	4531
862.315	4569
862.447	4603
862.58	4504
862.712	4402
862.844	4383
862.976	4527
863.108	4440
863.24	4759
863.372	4318
863.504	4417
863.636	4405
863.768	4447
863.9	4481
864.032	4386
864.164	4402
864.296	4455
864.428	4550
864.559	4519
864.691	4558
864.823	4542
864.954	4470
865.086	4542
865.217	4459
865.349	4428
865.48	4436
865.612	4474
865.743	4622
865.875	4455
866.006	4409
866.137	4436
866.269	4443
866.4	4436
866.531	4447
866.662	4398
866.793	4394
866.924	4405
867.055	4504
867.186	4481
867.317	4424
867.448	4421
867.579	4379
867.71	4394
867.841	4352
867.972	4428
868.103	4443
868.233	4447
868.364	4466
868.495	4459
868.625	4615
868.756	4767
868.886	4565
869.017	4626
869.147	4786
869.278	4740
869.408	4603
869.539	4641
869.669	4668
869.799	4653
869.929	4717
870.06	4714
870.19	4908
870.32	4904
870.45	4938
870.58	4984
870.71	5064
870.84	5052
870.97	4915
871.1	4961
871.23	5159
871.36	5075
871.489	5014
871.619	5025
871.749	5090
871.879	5109
872.008	5201
872.138	5045
872.267	4972
872.397	4801
872.526	4797
872.656	4714
872.785	4839
872.915	4995
873.044	5018
873.173	4987
873.303	4946
873.432	4942
873.561	4987
873.69	4877
873.819	4881
873.948	4915
874.077	4797
874.206	4790
874.335	4824
874.464	4927
874.593	5037
874.722	4980
874.851	5098
874.979	5075
875.108	5048
875.237	4892
875.365	4866
875.494	4843
875.623	4942
875.751	4828
875.88	4820
876.008	4965
876.136	5014
876.265	5143
876.393	5349
876.521	5277
876.65	5216
876.778	5170
876.906	5056
877.034	5029
877.162	5064
877.29	4965
877.418	5094
877.546	5041
877.674	5083
877.802	5022
877.93	5041
878.058	4919
878.185	4873
878.313	4991
878.441	4949
878.568	4835
878.696	4850
878.824	4984
878.951	4991
879.079	5162
879.206	5273
879.333	5128
879.461	4995
879.588	4995
879.715	5140
879.842	5212
879.97	4980
880.097	4774
880.224	4790
880.351	4774
880.478	4820
880.605	4786
880.732	4820
880.859	5067
880.986	4900
881.112	4896
881.239	4801
881.366	4668
881.493	4573
881.619	4649
881.746	4607
881.872	4607
881.999	4622
882.125	4675
882.252	4809
882.378	4866
882.505	4953
882.631	4824
882.757	4660
882.883	4725
883.01	4691
883.136	4645
883.262	4607
883.388	4634
883.514	4805
883.64	4870
883.766	4736
883.892	4694
884.018	4683
884.143	4870
884.269	4961
884.395	4664
884.52	4615
884.646	4603
884.772	4577
884.897	4531
885.023	4687
885.148	4778
885.274	4866
885.399	4759
885.524	4679
885.65	4706
885.775	4763
885.9	4698
886.025	4839
886.15	4782
886.275	4786
886.4	4702
886.525	4706
886.65	4683
886.775	4649
886.9	4892
887.025	5029
887.149	4809
887.274	4618
887.399	4565
887.523	4580
887.648	4580
887.773	4596
887.897	4733
888.021	4755
888.146	4679
888.27	4831
888.395	4873
888.519	4812
888.643	4805
888.767	4801
888.891	4698
889.015	4622
889.139	4626
889.263	4588
889.387	4755
889.511	4835
889.635	4816
889.759	4630
889.883	4634
890.006	4706
890.13	4850
890.254	4645
890.377	4725
890.501	4508
890.624	4500
890.748	4645
890.871	4512
890.995	4424
891.118	4390
891.241	4497
891.364	4497
891.488	4592
891.611	4519
891.734	4538
891.857	4569
891.98	4588
892.103	4653
892.226	4599
892.349	4519
892.471	4436
892.594	4584
892.717	4596
892.839	4569
892.962	4607
893.085	4717
893.207	4603
893.33	4474
893.452	4512
893.575	4637
893.697	4596
893.819	4797
893.941	4793
894.064	4790
894.186	4592
894.308	4569
894.43	4782
894.552	4782
894.674	4740
894.796	4497
894.918	4573
895.04	4550
895.161	4725
895.283	4641
895.405	4607
895.526	4637
895.648	4668
895.769	4679
895.891	4729
896.012	4790
896.134	4725
896.255	4664
896.376	4634
896.498	4634
896.619	4653
896.74	4683
896.861	4588
896.982	4938
897.103	5064
897.224	4801
897.345	4698
897.466	4653
897.587	4710
897.708	4797
897.828	4793
897.949	4691
898.07	4516
898.19	4596
898.311	4778
898.431	4637
898.552	4714
898.672	4805
898.792	4778
898.913	4771
899.033	4588
899.153	4527
899.273	4424
899.393	4497
899.513	4516
899.633	4481
899.753	4565
899.873	4508
899.993	4565
900.113	4546
900.232	4561
900.352	4558
900.472	4436
900.591	4348
900.711	4512
900.83	4424
900.95	4599
901.069	4694
901.189	4535
901.308	4383
901.427	4299
901.546	4352
901.665	4478
901.784	4512
901.904	4402
902.023	4280
902.141	4211
902.26	4185
902.379	4287
902.498	4280
902.617	4242
902.735	4371
902.854	4402
902.973	4363
903.091	4211
903.21	4219
903.328	4291
903.446	4280
903.565	4211
903.683	4333
903.801	4318
903.919	4390
904.038	4421
904.156	4287
904.274	4409
904.392	4413
904.51	4383
904.627	4512
904.745	4527
904.863	4599
904.981	4398
905.098	4325
905.216	4367
905.334	4462
905.451	4436
905.569	4497
905.686	4550
905.803	4550
905.921	4424
906.038	4538
906.155	4485
906.272	4383
906.389	4447
906.506	4379
906.623	4405
906.74	4398
906.857	4333
906.974	4390
907.091	4538
907.208	4683
907.324	4611
907.441	4432
907.557	4344
907.674	4329
907.79	4333
907.907	4367
908.023	4493
908.139	4489
908.256	4409
908.372	4500
908.488	4451
908.604	4352
908.72	4337
908.836	4394
908.952	4383
909.068	4432
909.184	4531
909.3	4474
909.415	4497
909.531	4592
909.647	4337
909.762	4390
909.878	4306
909.993	4485
910.108	4421
910.224	4409
910.339	4519
910.454	4462
910.57	4356
910.685	4287
910.8	4656
910.915	4588
911.03	4470
911.145	4344
911.259	4314
911.374	4367
911.489	4280
911.604	4280
911.718	4188
911.833	4196
911.947	4067
912.062	4036
912.176	4150
912.291	4196
912.405	4242
912.519	4459
912.633	4508
912.748	4337
912.862	4314
912.976	4200
913.09	4078
913.204	4166
913.318	4276
913.431	4360
913.545	4322
913.659	4455
913.772	4333
913.886	4268
914	4215
914.113	4394
914.226	4424
914.34	4333
914.453	4265
914.566	4428
914.68	4276
914.793	4325
914.906	4196
915.019	4124
915.132	4128
915.245	4181
915.358	4192
915.47	4185
915.583	4291
915.696	4268
915.809	4405
915.921	4436
916.034	4257
916.146	4249
916.259	4223
916.371	4363
916.483	4371
916.595	4280
916.708	4272
916.82	4329
916.932	4318
917.044	4333
917.156	4280
917.268	4227
917.38	4261
917.491	4268
917.603	4280
917.715	4417
917.826	4421
917.938	4314
918.049	4219
918.161	4417
918.272	4523
918.384	4538
918.495	4432
918.606	4299
918.717	4246
918.828	4344
918.939	4363
919.05	4242
919.161	4306
919.272	4143
919.383	4188
919.494	4417
919.604	4664
919.715	4436
919.826	4383
919.936	4394
920.047	4481
920.157	4497
920.267	4691
920.378	4573
920.488	4512
920.598	4698
920.708	4889
920.818	4752
920.928	4755
921.038	4934
921.148	4938
921.258	4626
921.368	4550
921.477	4538
921.587	4443
921.697	4398
921.806	4561
921.916	4417
922.025	4207
922.134	4249
922.244	4223
922.353	4356
922.462	4158
922.571	4093
922.68	3991
922.789	3968
922.898	4067
923.007	3956
923.116	4093
923.224	4090
923.333	4059
923.442	4040
923.55	3968
923.659	4017
923.767	4093
923.876	4013
923.984	4162
924.092	3998
924.201	4032
924.309	4116
924.417	4078
924.525	4055
924.633	4109
924.741	5083
924.849	3949
924.956	4109
925.064	3968
925.172	3892
925.279	3968
925.387	4082
925.494	4067
925.602	4181
925.709	4143
925.816	4067
925.924	4105
926.031	4230
926.138	4204
926.245	4188
926.352	4067
926.459	4211
926.566	4310
926.673	4147
926.779	4059
926.886	4105
926.993	3983
927.099	3960
927.206	3953
927.312	3934
927.419	4032
927.525	4017
927.631	4025
927.737	3953
927.843	3972
927.95	3861
928.056	3930
928.162	3975
928.267	4040
928.373	4645
928.479	4078
928.585	3857
928.69	4002
928.796	4078
928.901	3983
929.007	3873
929.112	4044
929.218	4010
929.323	3972
929.428	3934
929.533	4082
929.638	3918
929.743	3949
929.848	4048
929.953	3972
930.058	3918
930.163	3789
930.267	3823
930.372	3975
930.477	3797
930.581	4120
930.685	3945
930.79	3835
930.894	3857
930.998	3884
931.103	3983
931.207	3701
931.311	3686
931.415	3679
931.519	3511
931.623	3526
