Data from test_V78500241_1635.txt Node
Date: Fri Mar 25 17:00:22 CST 2022
User: usil
Spectrometer: V785-0024
Trigger mode: 0
Integration Time (sec): 4.000000E-1
Scans to average: 1
Nonlinearity correction enabled: false
Boxcar width: 0
Storing dark spectrum: false
XAxis mode: Wavelengths
Number of Pixels in Spectrum: 1024
>>>>>Begin Spectral Data<<<<<
801.071	8050
801.214	7944
801.356	7856
801.499	7818
801.641	7715
801.783	7856
801.926	7970
802.068	7963
802.211	8001
802.353	7959
802.496	7822
802.638	7849
802.78	7909
802.923	7940
803.065	7875
803.208	7875
803.35	7940
803.492	8031
803.635	8172
803.777	8012
803.919	8062
804.061	8469
804.204	8134
804.346	7986
804.488	7909
804.63	8081
804.773	8031
804.915	8103
805.057	8267
805.199	8111
805.341	8142
805.483	8214
805.626	8195
805.768	8134
805.91	8210
806.052	8240
806.194	8081
806.336	8221
806.478	8065
806.62	8073
806.762	8161
806.904	8305
807.046	8503
807.188	8355
807.33	8332
807.472	8339
807.614	8119
807.756	8123
807.898	8016
808.04	7814
808.182	7963
808.324	7822
808.465	7936
808.607	8020
808.749	8088
808.891	8176
809.033	8229
809.174	8111
809.316	8073
809.458	8100
809.6	7993
809.741	8046
809.883	8065
810.025	8168
810.166	8031
810.308	8008
810.45	7978
810.591	7868
810.733	7742
810.875	7677
811.016	7514
811.158	7476
811.299	7601
811.441	7647
811.582	7666
811.724	7548
811.865	7514
812.007	7613
812.148	7544
812.29	7594
812.431	7784
812.573	7909
812.714	7989
812.855	8130
812.997	8126
813.138	8301
813.279	8187
813.421	8103
813.562	7909
813.703	7818
813.845	7693
813.986	7449
814.127	7217
814.268	7152
814.41	7194
814.551	7145
814.692	7293
814.833	7118
814.974	7099
815.115	7110
815.256	6913
815.397	6954
815.539	6916
815.68	6730
815.821	6795
815.962	6894
816.103	6806
816.244	6711
816.385	6597
816.526	6563
816.666	6429
816.807	6311
816.948	6475
817.089	6498
817.23	6460
817.371	6292
817.512	6403
817.653	6399
817.793	6372
817.934	6418
818.075	6441
818.216	6395
818.356	6380
818.497	6270
818.638	6095
818.778	6133
818.919	6148
819.06	6079
819.2	6273
819.341	6315
819.481	6342
819.622	6566
819.762	6719
819.903	6646
820.043	6616
820.184	6566
820.324	6578
820.465	6703
820.605	6696
820.746	6604
820.886	6513
821.026	6662
821.167	6646
821.307	6802
821.447	6776
821.588	6642
821.728	6540
821.868	6506
822.008	6232
822.149	6308
822.289	6395
822.429	6125
822.569	6083
822.709	6106
822.849	5931
822.99	5893
823.13	5958
823.27	5946
823.41	5783
823.55	5790
823.69	5764
823.83	5764
823.97	5718
824.11	5581
824.25	5509
824.389	5547
824.529	5573
824.669	5490
824.809	5646
824.949	5634
825.089	5611
825.228	5516
825.368	5357
825.508	5345
825.648	5334
825.787	5349
825.927	5353
826.067	5258
826.206	5273
826.346	5383
826.485	5414
826.625	5387
826.765	5581
826.904	5444
827.044	5242
827.183	5128
827.323	5132
827.462	5239
827.601	5132
827.741	5231
827.88	5307
828.02	5083
828.159	5216
828.298	5334
828.437	5337
828.577	5292
828.716	5490
828.855	5292
828.994	5147
829.134	5174
829.273	5166
829.412	5079
829.551	5155
829.69	5193
829.829	5201
829.968	5330
830.107	5261
830.246	5197
830.385	5155
830.524	5094
830.663	5067
830.802	4995
830.941	4885
831.08	4877
831.219	4938
831.357	4976
831.496	5121
831.635	4934
831.774	4881
831.913	4839
832.051	4736
832.19	4710
832.329	4809
832.467	4660
832.606	4626
832.744	4698
832.883	4710
833.022	4687
833.16	4763
833.299	4839
833.437	4824
833.576	4828
833.714	4847
833.852	4873
833.991	4866
834.129	4942
834.267	4968
834.406	4915
834.544	4942
834.682	4942
834.821	4995
834.959	5121
835.097	4938
835.235	5151
835.373	5083
835.511	5075
835.65	5006
835.788	5010
835.926	4885
836.064	4797
836.202	4904
836.34	5155
836.478	5216
836.615	5098
836.753	5220
836.891	5227
837.029	5223
837.167	5208
837.305	5098
837.443	5121
837.58	5067
837.718	5212
837.856	5132
837.993	5151
838.131	5216
838.269	5231
838.406	5128
838.544	5166
838.681	5041
838.819	4999
838.956	4911
839.094	4904
839.231	5003
839.369	5090
839.506	5436
839.643	5269
839.781	5014
839.918	5018
840.055	5037
840.193	5071
840.33	5109
840.467	5090
840.604	5132
840.742	5398
840.879	5025
841.016	5083
841.153	5128
841.29	5360
841.427	5376
841.564	5326
841.701	5326
841.838	5227
841.975	5254
842.112	5254
842.249	5128
842.385	5090
842.522	5353
842.659	5117
842.796	5083
842.933	5239
843.069	5147
843.206	5159
843.343	5288
843.479	5212
843.616	5288
843.752	5052
843.889	5014
844.025	5193
844.162	5006
844.298	5208
844.435	5060
844.571	5022
844.708	5208
844.844	5307
844.98	5318
845.117	5277
845.253	5117
845.389	5075
845.525	5159
845.661	5113
845.798	5029
845.934	5151
846.07	5045
846.206	5197
846.342	5254
846.478	5143
846.614	4984
846.75	4961
846.886	4942
847.022	5037
847.158	4999
847.294	5090
847.429	5094
847.565	5025
847.701	5318
847.837	4892
847.972	4816
848.108	4938
848.244	4873
848.379	4816
848.515	4744
848.65	4691
848.786	4683
848.921	4786
849.057	4873
849.192	4892
849.328	4786
849.463	4805
849.598	4759
849.734	4805
849.869	4672
850.004	4580
850.14	4672
850.275	4596
850.41	4538
850.545	4516
850.68	4607
850.815	4596
850.95	4607
851.085	4824
851.22	4725
851.355	4656
851.49	4523
851.625	4645
851.76	4622
851.895	4558
852.03	4489
852.165	4618
852.299	4714
852.434	4782
852.569	4675
852.703	4721
852.838	4774
852.973	4873
853.107	4934
853.242	4714
853.376	4668
853.511	4535
853.645	4573
853.78	4816
853.914	4637
854.048	4698
854.183	4656
854.317	4736
854.451	4831
854.585	4656
854.72	4615
854.854	4740
854.988	4599
855.122	4599
855.256	4489
855.39	4656
855.524	4763
855.658	4721
855.792	4717
855.926	4717
856.06	4782
856.194	4805
856.327	4679
856.461	4580
856.595	4577
856.729	4622
856.862	4729
856.996	4672
857.13	4679
857.263	4763
857.397	4820
857.53	4664
857.664	4729
857.797	4744
857.931	4797
858.064	4637
858.197	4782
858.331	4626
858.464	4596
858.597	4519
858.731	4645
858.864	4637
858.997	4565
859.13	4691
859.263	4672
859.396	4687
859.529	4550
859.662	4531
859.795	4550
859.928	4634
860.061	4744
860.194	4702
860.327	4592
860.46	4550
860.592	4691
860.725	4679
860.858	4767
860.99	4538
861.123	4538
861.256	4546
861.388	4618
861.521	5185
861.653	4459
861.786	4459
861.918	4481
862.05	4489
862.183	4489
862.315	4573
862.447	4668
862.58	4565
862.712	4413
862.844	4295
862.976	4455
863.108	4394
863.24	4759
863.372	4356
863.504	4405
863.636	4417
863.768	4489
863.9	4424
864.032	4333
864.164	4379
864.296	4470
864.428	4538
864.559	4607
864.691	4535
864.823	4523
864.954	4474
865.086	4478
865.217	4455
865.349	4432
865.48	4405
865.612	4451
865.743	4592
865.875	4455
866.006	4409
866.137	4405
866.269	4405
866.4	4478
866.531	4432
866.662	4398
866.793	4440
866.924	4390
867.055	4485
867.186	4459
867.317	4421
867.448	4337
867.579	4394
867.71	4394
867.841	4352
867.972	4451
868.103	4436
868.233	4478
868.364	4462
868.495	4451
868.625	4668
868.756	4717
868.886	4596
869.017	4618
869.147	4721
869.278	4786
869.408	4694
869.539	4615
869.669	4714
869.799	4694
869.929	4740
870.06	4782
870.19	4987
870.32	4919
870.45	4927
870.58	5022
870.71	5056
870.84	5090
870.97	4930
871.1	4889
871.23	5155
871.36	5117
871.489	5083
871.619	5041
871.749	5033
871.879	5098
872.008	5124
872.138	5056
872.267	4976
872.397	4824
872.526	4744
872.656	4744
872.785	4793
872.915	4930
873.044	5025
873.173	4972
873.303	4976
873.432	4961
873.561	4965
873.69	4828
873.819	4850
873.948	4946
874.077	4793
874.206	4740
874.335	4797
874.464	4877
874.593	5045
874.722	4923
874.851	5090
874.979	5105
875.108	5037
875.237	4911
875.365	4870
875.494	4889
875.623	4946
875.751	4850
875.88	4885
876.008	4968
876.136	5022
876.265	5201
876.393	5296
876.521	5269
876.65	5204
876.778	5128
876.906	4987
877.034	4991
877.162	5010
877.29	4984
877.418	4991
877.546	5048
877.674	5037
877.802	5010
877.93	4995
878.058	4915
878.185	4881
878.313	4957
878.441	4995
878.568	4793
878.696	4858
878.824	4972
878.951	4999
879.079	5151
879.206	5231
879.333	5090
879.461	4938
879.588	4984
879.715	5132
879.842	5220
879.97	5029
880.097	4786
880.224	4793
880.351	4828
880.478	4847
880.605	4820
880.732	4793
880.859	5109
880.986	4908
881.112	4904
881.239	4714
881.366	4694
881.493	4565
881.619	4615
881.746	4668
881.872	4645
881.999	4630
882.125	4679
882.252	4767
882.378	4782
882.505	4938
882.631	4782
882.757	4679
882.883	4721
883.01	4698
883.136	4675
883.262	4588
883.388	4630
883.514	4759
883.64	4831
883.766	4740
883.892	4672
884.018	4736
884.143	4850
884.269	4976
884.395	4668
884.52	4615
884.646	4622
884.772	4577
884.897	4580
885.023	4626
885.148	4828
885.274	4862
885.399	4809
885.524	4740
885.65	4706
885.775	4740
885.9	4702
886.025	4843
886.15	4812
886.275	4698
886.4	4660
886.525	4691
886.65	4687
886.775	4714
886.9	4843
887.025	5075
887.149	4778
887.274	4660
887.399	4565
887.523	4588
887.648	4561
887.773	4554
887.897	4694
888.021	4752
888.146	4691
888.27	4805
888.395	4892
888.519	4809
888.643	4774
888.767	4854
888.891	4687
889.015	4596
889.139	4679
889.263	4577
889.387	4759
889.511	4866
889.635	4786
889.759	4611
889.883	4691
890.006	4721
890.13	4816
890.254	4588
890.377	4653
890.501	4535
890.624	4527
890.748	4622
890.871	4527
890.995	4363
891.118	4383
891.241	4516
891.364	4527
891.488	4675
891.611	4493
891.734	4535
891.857	4645
891.98	4565
892.103	4645
892.226	4603
892.349	4459
892.471	4413
892.594	4504
892.717	4622
892.839	4584
892.962	4596
893.085	4702
893.207	4584
893.33	4493
893.452	4508
893.575	4656
893.697	4561
893.819	4790
893.941	4831
894.064	4755
894.186	4538
894.308	4565
894.43	4725
894.552	4801
894.674	4740
894.796	4565
894.918	4584
895.04	4550
895.161	4675
895.283	4679
895.405	4554
895.526	4626
895.648	4698
895.769	4687
895.891	4664
896.012	4748
896.134	4714
896.255	4618
896.376	4626
896.498	4660
896.619	4672
896.74	4630
896.861	4694
896.982	4930
897.103	5075
897.224	4843
897.345	4725
897.466	4649
897.587	4729
897.708	4801
897.828	4809
897.949	4706
898.07	4489
898.19	4626
898.311	4843
898.431	4637
898.552	4683
898.672	4774
898.792	4793
898.913	4752
899.033	4634
899.153	4489
899.273	4417
899.393	4474
899.513	4519
899.633	4481
899.753	4516
899.873	4500
899.993	4588
900.113	4546
900.232	4565
900.352	4523
900.472	4481
900.591	4428
900.711	4474
900.83	4478
900.95	4558
901.069	4656
901.189	4519
901.308	4371
901.427	4329
901.546	4363
901.665	4455
901.784	4489
901.904	4356
902.023	4322
902.141	4139
902.26	4128
902.379	4303
902.498	4287
902.617	4242
902.735	4367
902.854	4424
902.973	4352
903.091	4192
903.21	4219
903.328	4306
903.446	4265
903.565	4261
903.683	4371
903.801	4299
903.919	4405
904.038	4386
904.156	4325
904.274	4447
904.392	4394
904.51	4421
904.627	4504
904.745	4565
904.863	4630
904.981	4379
905.098	4299
905.216	4337
905.334	4447
905.451	4417
905.569	4474
905.686	4531
905.803	4546
905.921	4417
906.038	4523
906.155	4462
906.272	4379
906.389	4455
906.506	4356
906.623	4390
906.74	4402
906.857	4310
906.974	4363
907.091	4546
907.208	4736
907.324	4538
907.441	4512
907.557	4386
907.674	4341
907.79	4280
907.907	4371
908.023	4424
908.139	4481
908.256	4455
908.372	4451
908.488	4470
908.604	4287
908.72	4318
908.836	4398
908.952	4390
909.068	4390
909.184	4599
909.3	4516
909.415	4580
909.531	4565
909.647	4360
909.762	4348
909.878	4348
909.993	4428
910.108	4409
910.224	4417
910.339	4500
910.454	4402
910.57	4386
910.685	4348
910.8	4618
910.915	4554
911.03	4485
911.145	4318
911.259	4310
911.374	4379
911.489	4287
911.604	4272
911.718	4154
911.833	4234
911.947	4071
912.062	4032
912.176	4169
912.291	4215
912.405	4257
912.519	4432
912.633	4504
912.748	4348
912.862	4303
912.976	4219
913.09	4090
913.204	4196
913.318	4280
913.431	4341
913.545	4325
913.659	4417
913.772	4322
913.886	4257
914	4204
914.113	4405
914.226	4459
914.34	4383
914.453	4227
914.566	4402
914.68	4280
914.793	4325
914.906	4131
915.019	4120
915.132	4082
915.245	4154
915.358	4207
915.47	4246
915.583	4192
915.696	4272
915.809	4424
915.921	4375
916.034	4261
916.146	4230
916.259	4196
916.371	4402
916.483	4318
916.595	4268
916.708	4314
916.82	4325
916.932	4303
917.044	4291
917.156	4360
917.268	4215
917.38	4287
917.491	4306
917.603	4329
917.715	4436
917.826	4421
917.938	4371
918.049	4223
918.161	4383
918.272	4527
918.384	4569
918.495	4421
918.606	4318
918.717	4261
918.828	4344
918.939	4363
919.05	4234
919.161	4303
919.272	4154
919.383	4211
919.494	4474
919.604	4607
919.715	4424
919.826	4417
919.936	4356
920.047	4512
920.157	4481
920.267	4672
920.378	4546
920.488	4466
920.598	4698
920.708	4862
920.818	4725
920.928	4755
921.038	4976
921.148	4953
921.258	4611
921.368	4577
921.477	4508
921.587	4451
921.697	4436
921.806	4569
921.916	4436
922.025	4276
922.134	4299
922.244	4204
922.353	4322
922.462	4135
922.571	4112
922.68	4044
922.789	3937
922.898	4044
923.007	3964
923.116	4101
923.224	4048
923.333	4086
923.442	3994
923.55	3964
923.659	4013
923.767	4086
923.876	3998
923.984	4112
924.092	3983
924.201	4090
924.309	4131
924.417	4097
924.525	4013
924.633	4135
924.741	4858
924.849	3915
924.956	4139
925.064	3972
925.172	3903
925.279	3975
925.387	4044
925.494	4017
925.602	4230
925.709	4173
925.816	4067
925.924	4109
926.031	4238
926.138	4116
926.245	4242
926.352	4090
926.459	4257
926.566	4344
926.673	4139
926.779	4097
926.886	4055
926.993	3994
927.099	3956
927.206	3941
927.312	3953
927.419	4017
927.525	3979
927.631	4097
927.737	3972
927.843	3972
927.95	3842
928.056	3930
928.162	3968
928.267	4055
928.373	4565
928.479	4128
928.585	3884
928.69	3991
928.796	4055
928.901	3979
929.007	3785
929.112	3972
929.218	3956
929.323	3918
929.428	3934
929.533	4090
929.638	3960
929.743	3903
929.848	4090
929.953	4013
930.058	3945
930.163	3747
930.267	3804
930.372	3949
930.477	3816
930.581	4086
930.685	3915
930.79	3838
930.894	3880
930.998	3865
931.103	4036
931.207	3736
931.311	3690
931.415	3660
931.519	3523
931.623	3481
