Data from test_V78500241_2114.txt Node
Date: Fri Mar 25 17:03:42 CST 2022
User: usil
Spectrometer: V785-0024
Trigger mode: 0
Integration Time (sec): 4.000000E-1
Scans to average: 1
Nonlinearity correction enabled: false
Boxcar width: 0
Storing dark spectrum: false
XAxis mode: Wavelengths
Number of Pixels in Spectrum: 1024
>>>>>Begin Spectral Data<<<<<
801.071	7993
801.214	8016
801.356	7826
801.499	7822
801.641	7818
801.783	7909
801.926	8008
802.068	8001
802.211	7967
802.353	8008
802.496	7898
802.638	7871
802.78	7845
802.923	7932
803.065	7898
803.208	7849
803.35	7913
803.492	8100
803.635	8103
803.777	8016
803.919	8100
804.061	8446
804.204	8195
804.346	8081
804.488	8012
804.63	8077
804.773	7940
804.915	8168
805.057	8275
805.199	8138
805.341	8168
805.483	8263
805.626	8233
805.768	8172
805.91	8183
806.052	8248
806.194	8134
806.336	8343
806.478	8111
806.62	8081
806.762	8142
806.904	8279
807.046	8446
807.188	8404
807.33	8339
807.472	8290
807.614	8138
807.756	8176
807.898	7951
808.04	7860
808.182	7928
808.324	7849
808.465	7955
808.607	8119
808.749	8119
808.891	8187
809.033	8358
809.174	8168
809.316	8168
809.458	8100
809.6	8016
809.741	8073
809.883	8027
810.025	8084
810.166	8024
810.308	8058
810.45	7978
810.591	7818
810.733	7788
810.875	7674
811.016	7586
811.158	7468
811.299	7537
811.441	7712
811.582	7693
811.724	7571
811.865	7518
812.007	7609
812.148	7662
812.29	7681
812.431	7750
812.573	7898
812.714	8043
812.855	8183
812.997	8195
813.138	8317
813.279	8164
813.421	8058
813.562	7898
813.703	7780
813.845	7750
813.986	7419
814.127	7244
814.268	7232
814.41	7145
814.551	7152
814.692	7221
814.833	7088
814.974	7168
815.115	7107
815.256	6993
815.397	6996
815.539	6958
815.68	6795
815.821	6738
815.962	6833
816.103	6859
816.244	6715
816.385	6620
816.526	6597
816.666	6525
816.807	6365
816.948	6422
817.089	6460
817.23	6429
817.371	6369
817.512	6357
817.653	6422
817.793	6410
817.934	6437
818.075	6372
818.216	6494
818.356	6403
818.497	6292
818.638	6110
818.778	6140
818.919	6178
819.06	6167
819.2	6334
819.341	6350
819.481	6346
819.622	6528
819.762	6734
819.903	6700
820.043	6566
820.184	6582
820.324	6623
820.465	6703
820.605	6715
820.746	6665
820.886	6525
821.026	6642
821.167	6719
821.307	6787
821.447	6798
821.588	6642
821.728	6597
821.868	6547
822.008	6365
822.149	6380
822.289	6342
822.429	6205
822.569	6102
822.709	6155
822.849	5904
822.99	5923
823.13	5931
823.27	5942
823.41	5790
823.55	5794
823.69	5707
823.83	5783
823.97	5661
824.11	5558
824.25	5493
824.389	5516
824.529	5558
824.669	5528
824.809	5657
824.949	5672
825.089	5623
825.228	5558
825.368	5376
825.508	5353
825.648	5414
825.787	5414
825.927	5391
826.067	5360
826.206	5322
826.346	5345
826.485	5455
826.625	5440
826.765	5490
826.904	5490
827.044	5223
827.183	5239
827.323	5166
827.462	5284
827.601	5166
827.741	5220
827.88	5201
828.02	5113
828.159	5258
828.298	5318
828.437	5398
828.577	5250
828.716	5448
828.855	5402
828.994	5136
829.134	5132
829.273	5178
829.412	5124
829.551	5166
829.69	5197
829.829	5189
829.968	5360
830.107	5258
830.246	5322
830.385	5143
830.524	5140
830.663	5105
830.802	4965
830.941	4801
831.08	4858
831.219	5006
831.357	4991
831.496	5147
831.635	4946
831.774	4870
831.913	4885
832.051	4763
832.19	4782
832.329	4866
832.467	4706
832.606	4649
832.744	4748
832.883	4721
833.022	4706
833.16	4778
833.299	4797
833.437	4824
833.576	4801
833.714	4911
833.852	4843
833.991	4908
834.129	4968
834.267	4976
834.406	4919
834.544	4972
834.682	4987
834.821	4953
834.959	5155
835.097	4965
835.235	5124
835.373	5064
835.511	5102
835.65	5025
835.788	5064
835.926	4942
836.064	4847
836.202	4938
836.34	5216
836.478	5178
836.615	5132
836.753	5178
836.891	5326
837.029	5242
837.167	5193
837.305	5193
837.443	5155
837.58	5075
837.718	5292
837.856	5178
837.993	5121
838.131	5216
838.269	5231
838.406	5242
838.544	5208
838.681	5067
838.819	5010
838.956	4892
839.094	4900
839.231	5014
839.369	5079
839.506	5402
839.643	5277
839.781	5124
839.918	5018
840.055	5064
840.193	5060
840.33	5155
840.467	5174
840.604	5166
840.742	5444
840.879	5056
841.016	5151
841.153	5128
841.29	5414
841.427	5345
841.564	5288
841.701	5349
841.838	5284
841.975	5231
842.112	5220
842.249	5155
842.385	5121
842.522	5364
842.659	5162
842.796	5181
842.933	5197
843.069	5155
843.206	5170
843.343	5280
843.479	5261
843.616	5223
843.752	5014
843.889	5033
844.025	5201
844.162	5014
844.298	5185
844.435	5113
844.571	5083
844.708	5208
844.844	5292
844.98	5307
845.117	5261
845.253	5102
845.389	5155
845.525	5140
845.661	5193
845.798	5075
845.934	5147
846.07	5006
846.206	5155
846.342	5235
846.478	5204
846.614	5048
846.75	4953
846.886	4904
847.022	5098
847.158	5014
847.294	5090
847.429	5090
847.565	5048
847.701	5341
847.837	4835
847.972	4816
848.108	5010
848.244	4923
848.379	4774
848.515	4755
848.65	4710
848.786	4748
848.921	4786
849.057	4870
849.192	4858
849.328	4790
849.463	4843
849.598	4786
849.734	4793
849.869	4675
850.004	4630
850.14	4668
850.275	4626
850.41	4516
850.545	4561
850.68	4603
850.815	4596
850.95	4611
851.085	4850
851.22	4679
851.355	4683
851.49	4618
851.625	4641
851.76	4573
851.895	4535
852.03	4561
852.165	4675
852.299	4729
852.434	4763
852.569	4763
852.703	4774
852.838	4835
852.973	4915
853.107	4934
853.242	4782
853.376	4645
853.511	4546
853.645	4645
853.78	4786
853.914	4736
854.048	4660
854.183	4691
854.317	4691
854.451	4824
854.585	4622
854.72	4611
854.854	4729
854.988	4561
855.122	4615
855.256	4512
855.39	4637
855.524	4733
855.658	4752
855.792	4649
855.926	4744
856.06	4736
856.194	4843
856.327	4668
856.461	4611
856.595	4577
856.729	4630
856.862	4748
856.996	4691
857.13	4736
857.263	4740
857.397	4801
857.53	4634
857.664	4759
857.797	4729
857.931	4778
858.064	4710
858.197	4736
858.331	4645
858.464	4588
858.597	4500
858.731	4664
858.864	4599
858.997	4542
859.13	4626
859.263	4645
859.396	4687
859.529	4584
859.662	4558
859.795	4546
859.928	4637
860.061	4702
860.194	4733
860.327	4630
860.46	4561
860.592	4702
860.725	4733
860.858	4721
860.99	4558
861.123	4519
861.256	4512
861.388	4641
861.521	5425
861.653	4519
861.786	4481
861.918	4409
862.05	4527
862.183	4558
862.315	4561
862.447	4607
862.58	4592
862.712	4428
862.844	4303
862.976	4481
863.108	4428
863.24	4748
863.372	4303
863.504	4421
863.636	4394
863.768	4409
863.9	4413
864.032	4367
864.164	4428
864.296	4459
864.428	4519
864.559	4546
864.691	4535
864.823	4504
864.954	4508
865.086	4527
865.217	4443
865.349	4428
865.48	4440
865.612	4455
865.743	4634
865.875	4474
866.006	4417
866.137	4508
866.269	4440
866.4	4417
866.531	4390
866.662	4363
866.793	4398
866.924	4443
867.055	4440
867.186	4455
867.317	4417
867.448	4371
867.579	4390
867.71	4379
867.841	4402
867.972	4466
868.103	4440
868.233	4459
868.364	4462
868.495	4527
868.625	4656
868.756	4763
868.886	4596
869.017	4618
869.147	4748
869.278	4805
869.408	4615
869.539	4626
869.669	4675
869.799	4672
869.929	4736
870.06	4717
870.19	4927
870.32	4987
870.45	4991
870.58	5006
870.71	5083
870.84	5151
870.97	4949
871.1	4892
871.23	5162
871.36	5140
871.489	5083
871.619	5117
871.749	5064
871.879	5094
872.008	5189
872.138	5090
872.267	4976
872.397	4889
872.526	4831
872.656	4759
872.785	4782
872.915	4938
873.044	4999
873.173	4946
873.303	4972
873.432	4934
873.561	4942
873.69	4942
873.819	4854
873.948	4896
874.077	4831
874.206	4748
874.335	4820
874.464	4927
874.593	5067
874.722	4915
874.851	5105
874.979	5086
875.108	5006
875.237	4911
875.365	4870
875.494	4820
875.623	4987
875.751	4828
875.88	4847
876.008	4972
876.136	5014
876.265	5181
876.393	5292
876.521	5288
876.65	5220
876.778	5197
876.906	5048
877.034	5022
877.162	5037
877.29	4987
877.418	5124
877.546	5079
877.674	5056
877.802	4995
877.93	5018
878.058	4930
878.185	4809
878.313	4942
878.441	4919
878.568	4797
878.696	4866
878.824	4927
878.951	5025
879.079	5083
879.206	5239
879.333	5117
879.461	5033
879.588	4965
879.715	5090
879.842	5235
879.97	5018
880.097	4767
880.224	4763
880.351	4774
880.478	4854
880.605	4816
880.732	4793
880.859	5083
880.986	4889
881.112	4885
881.239	4752
881.366	4694
881.493	4596
881.619	4611
881.746	4622
881.872	4630
881.999	4656
882.125	4672
882.252	4771
882.378	4828
882.505	4923
882.631	4771
882.757	4679
882.883	4706
883.01	4740
883.136	4645
883.262	4592
883.388	4592
883.514	4843
883.64	4881
883.766	4828
883.892	4653
884.018	4744
884.143	4858
884.269	5022
884.395	4698
884.52	4622
884.646	4641
884.772	4626
884.897	4565
885.023	4641
885.148	4782
885.274	4862
885.399	4793
885.524	4710
885.65	4721
885.775	4744
885.9	4706
886.025	4854
886.15	4759
886.275	4717
886.4	4630
886.525	4717
886.65	4660
886.775	4672
886.9	4885
887.025	5025
887.149	4782
887.274	4637
887.399	4599
887.523	4558
887.648	4519
887.773	4573
887.897	4797
888.021	4733
888.146	4649
888.27	4839
888.395	4904
888.519	4816
888.643	4812
888.767	4854
888.891	4645
889.015	4607
889.139	4630
889.263	4615
889.387	4790
889.511	4828
889.635	4809
889.759	4626
889.883	4634
890.006	4736
890.13	4850
890.254	4596
890.377	4694
890.501	4497
890.624	4546
890.748	4637
890.871	4493
890.995	4428
891.118	4402
891.241	4538
891.364	4554
891.488	4626
891.611	4485
891.734	4542
891.857	4630
891.98	4535
892.103	4615
892.226	4580
892.349	4546
892.471	4413
892.594	4523
892.717	4569
892.839	4573
892.962	4607
893.085	4672
893.207	4596
893.33	4497
893.452	4481
893.575	4679
893.697	4554
893.819	4812
893.941	4809
894.064	4774
894.186	4558
894.308	4542
894.43	4733
894.552	4816
894.674	4710
894.796	4580
894.918	4596
895.04	4569
895.161	4683
895.283	4641
895.405	4622
895.526	4592
895.648	4649
895.769	4679
895.891	4694
896.012	4744
896.134	4714
896.255	4622
896.376	4630
896.498	4645
896.619	4706
896.74	4607
896.861	4615
896.982	4915
897.103	5071
897.224	4854
897.345	4714
897.466	4653
897.587	4679
897.708	4839
897.828	4782
897.949	4660
898.07	4546
898.19	4649
898.311	4843
898.431	4672
898.552	4763
898.672	4805
898.792	4790
898.913	4714
899.033	4592
899.153	4474
899.273	4398
899.393	4504
899.513	4485
899.633	4523
899.753	4538
899.873	4512
899.993	4561
900.113	4504
900.232	4561
900.352	4527
900.472	4462
900.591	4383
900.711	4493
900.83	4447
900.95	4588
901.069	4675
901.189	4550
901.308	4371
901.427	4291
901.546	4371
901.665	4440
901.784	4538
901.904	4371
902.023	4310
902.141	4200
902.26	4188
902.379	4303
902.498	4276
902.617	4223
902.735	4375
902.854	4394
902.973	4299
903.091	4181
903.21	4238
903.328	4310
903.446	4276
903.565	4268
903.683	4333
903.801	4291
903.919	4428
904.038	4440
904.156	4337
904.274	4440
904.392	4455
904.51	4443
904.627	4436
904.745	4584
904.863	4702
904.981	4398
905.098	4265
905.216	4367
905.334	4447
905.451	4375
905.569	4428
905.686	4497
905.803	4603
905.921	4428
906.038	4535
906.155	4474
906.272	4417
906.389	4455
906.506	4394
906.623	4329
906.74	4367
906.857	4272
906.974	4379
907.091	4542
907.208	4679
907.324	4565
907.441	4497
907.557	4371
907.674	4314
907.79	4348
907.907	4386
908.023	4481
908.139	4478
908.256	4417
908.372	4504
908.488	4466
908.604	4360
908.72	4344
908.836	4394
908.952	4383
909.068	4436
909.184	4550
909.3	4466
909.415	4584
909.531	4523
909.647	4322
909.762	4371
909.878	4318
909.993	4432
910.108	4394
910.224	4394
910.339	4466
910.454	4409
910.57	4341
910.685	4295
910.8	4626
910.915	4558
911.03	4478
911.145	4333
911.259	4360
911.374	4314
911.489	4306
911.604	4276
911.718	4181
911.833	4215
911.947	4135
912.062	4078
912.176	4162
912.291	4227
912.405	4249
912.519	4462
912.633	4489
912.748	4390
912.862	4318
912.976	4196
913.09	4105
913.204	4169
913.318	4291
913.431	4413
913.545	4394
913.659	4440
913.772	4432
913.886	4230
914	4211
914.113	4394
914.226	4459
914.34	4383
914.453	4211
914.566	4386
914.68	4325
914.793	4344
914.906	4124
915.019	4116
915.132	4025
915.245	4196
915.358	4173
915.47	4280
915.583	4261
915.696	4303
915.809	4398
915.921	4421
916.034	4242
916.146	4299
916.259	4185
916.371	4398
916.483	4367
916.595	4272
916.708	4325
916.82	4325
916.932	4318
917.044	4299
917.156	4268
917.268	4242
917.38	4234
917.491	4246
917.603	4322
917.715	4440
917.826	4379
917.938	4371
918.049	4181
918.161	4409
918.272	4455
918.384	4550
918.495	4432
918.606	4325
918.717	4249
918.828	4352
918.939	4352
919.05	4242
919.161	4310
919.272	4112
919.383	4215
919.494	4443
919.604	4603
919.715	4432
919.826	4356
919.936	4409
920.047	4504
920.157	4451
920.267	4691
920.378	4554
920.488	4519
920.598	4725
920.708	4862
920.818	4752
920.928	4778
921.038	4915
921.148	4934
921.258	4634
921.368	4538
921.477	4481
921.587	4440
921.697	4383
921.806	4538
921.916	4409
922.025	4246
922.134	4238
922.244	4238
922.353	4341
922.462	4177
922.571	4131
922.68	4032
922.789	4017
922.898	4025
923.007	3968
923.116	4105
923.224	4025
923.333	4032
923.442	3968
923.55	3960
923.659	4048
923.767	4078
923.876	4013
923.984	4112
924.092	3998
924.201	4067
924.309	4128
924.417	4116
924.525	4063
924.633	4105
924.741	5071
924.849	3918
924.956	4139
925.064	3968
925.172	3930
925.279	3934
925.387	4002
925.494	4036
925.602	4188
925.709	4177
925.816	4048
925.924	4120
926.031	4238
926.138	4150
926.245	4207
926.352	4082
926.459	4287
926.566	4306
926.673	4154
926.779	4071
926.886	4120
926.993	3960
927.099	3956
927.206	3945
927.312	3937
927.419	4074
927.525	3994
927.631	4093
927.737	3941
927.843	3899
927.95	3842
928.056	3991
928.162	3953
928.267	4044
928.373	4618
928.479	4097
928.585	3823
928.69	4006
928.796	4055
928.901	3991
929.007	3812
929.112	3994
929.218	4002
929.323	3953
929.428	3953
929.533	4147
929.638	3918
929.743	3956
929.848	4074
929.953	3994
930.058	3922
930.163	3804
930.267	3819
930.372	3968
930.477	3835
930.581	4120
930.685	3960
930.79	3842
930.894	3941
930.998	3842
931.103	4097
931.207	3701
931.311	3690
931.415	3641
931.519	3526
931.623	3549
