Data from test_V78500241_967.txt Node
Date: Fri Mar 25 16:55:43 CST 2022
User: usil
Spectrometer: V785-0024
Trigger mode: 0
Integration Time (sec): 4.000000E-1
Scans to average: 1
Nonlinearity correction enabled: false
Boxcar width: 0
Storing dark spectrum: false
XAxis mode: Wavelengths
Number of Pixels in Spectrum: 1024
>>>>>Begin Spectral Data<<<<<
801.071	8027
801.214	8069
801.356	7951
801.499	7925
801.641	7822
801.783	7814
801.926	7947
802.068	7936
802.211	7932
802.353	7940
802.496	7841
802.638	7837
802.78	7913
802.923	7993
803.065	7925
803.208	7997
803.35	8005
803.492	8130
803.635	8138
803.777	8008
803.919	8199
804.061	8412
804.204	8138
804.346	8054
804.488	7944
804.63	8081
804.773	8058
804.915	8043
805.057	8233
805.199	8176
805.341	8225
805.483	8313
805.626	8180
805.768	8164
805.91	8187
806.052	8256
806.194	8081
806.336	8271
806.478	8088
806.62	8149
806.762	8157
806.904	8286
807.046	8427
807.188	8343
807.33	8286
807.472	8294
807.614	8123
807.756	8069
807.898	7986
808.04	7940
808.182	7917
808.324	7879
808.465	7947
808.607	8096
808.749	8077
808.891	8191
809.033	8339
809.174	8218
809.316	8069
809.458	8039
809.6	8005
809.741	8039
809.883	8024
810.025	8103
810.166	8081
810.308	8084
810.45	8081
810.591	7906
810.733	7742
810.875	7738
811.016	7552
811.158	7510
811.299	7597
811.441	7780
811.582	7674
811.724	7643
811.865	7563
812.007	7616
812.148	7571
812.29	7578
812.431	7757
812.573	7868
812.714	7978
812.855	8130
812.997	8195
813.138	8317
813.279	8138
813.421	8130
813.562	8031
813.703	7902
813.845	7830
813.986	7521
814.127	7278
814.268	7164
814.41	7206
814.551	7133
814.692	7141
814.833	7084
814.974	7088
815.115	7141
815.256	7023
815.397	6973
815.539	7034
815.68	6833
815.821	6768
815.962	6833
816.103	6814
816.244	6711
816.385	6646
816.526	6631
816.666	6521
816.807	6296
816.948	6433
817.089	6452
817.23	6483
817.371	6437
817.512	6372
817.653	6441
817.793	6384
817.934	6380
818.075	6452
818.216	6399
818.356	6448
818.497	6205
818.638	6167
818.778	6171
818.919	6182
819.06	6152
819.2	6331
819.341	6331
819.481	6308
819.622	6551
819.762	6768
819.903	6783
820.043	6654
820.184	6566
820.324	6620
820.465	6692
820.605	6707
820.746	6642
820.886	6551
821.026	6734
821.167	6730
821.307	6886
821.447	6757
821.588	6612
821.728	6582
821.868	6490
822.008	6331
822.149	6445
822.289	6327
822.429	6175
822.569	6057
822.709	6136
822.849	5939
822.99	5851
823.13	5920
823.27	5885
823.41	5748
823.55	5794
823.69	5779
823.83	5783
823.97	5646
824.11	5539
824.25	5547
824.389	5528
824.529	5646
824.669	5505
824.809	5634
824.949	5707
825.089	5604
825.228	5539
825.368	5410
825.508	5334
825.648	5349
825.787	5368
825.927	5387
826.067	5299
826.206	5273
826.346	5349
826.485	5467
826.625	5391
826.765	5577
826.904	5463
827.044	5303
827.183	5216
827.323	5128
827.462	5242
827.601	5181
827.741	5174
827.88	5231
828.02	5132
828.159	5216
828.298	5261
828.437	5353
828.577	5303
828.716	5471
828.855	5372
828.994	5189
829.134	5117
829.273	5162
829.412	5162
829.551	5170
829.69	5136
829.829	5254
829.968	5391
830.107	5269
830.246	5261
830.385	5193
830.524	5124
830.663	5052
830.802	5010
830.941	4896
831.08	4881
831.219	4965
831.357	4984
831.496	5162
831.635	4908
831.774	4854
831.913	4854
832.051	4698
832.19	4725
832.329	4870
832.467	4698
832.606	4618
832.744	4755
832.883	4733
833.022	4717
833.16	4809
833.299	4847
833.437	4828
833.576	4835
833.714	4847
833.852	4858
833.991	4908
834.129	4965
834.267	4987
834.406	4885
834.544	5003
834.682	4957
834.821	4938
834.959	5162
835.097	4942
835.235	5124
835.373	5132
835.511	5086
835.65	5056
835.788	5025
835.926	4843
836.064	4889
836.202	4934
836.34	5170
836.478	5277
836.615	5143
836.753	5162
836.891	5292
837.029	5273
837.167	5250
837.305	5178
837.443	5143
837.58	5094
837.718	5261
837.856	5208
837.993	5174
838.131	5231
838.269	5185
838.406	5159
838.544	5109
838.681	5022
838.819	5022
838.956	4881
839.094	4965
839.231	5006
839.369	5060
839.506	5425
839.643	5250
839.781	5098
839.918	5045
840.055	5075
840.193	5117
840.33	5121
840.467	5083
840.604	5124
840.742	5463
840.879	5102
841.016	5025
841.153	5143
841.29	5364
841.427	5311
841.564	5296
841.701	5353
841.838	5239
841.975	5239
842.112	5223
842.249	5109
842.385	5037
842.522	5334
842.659	5170
842.796	5162
842.933	5178
843.069	5132
843.206	5128
843.343	5296
843.479	5223
843.616	5269
843.752	5033
843.889	4991
844.025	5216
844.162	5010
844.298	5216
844.435	5121
844.571	5041
844.708	5185
844.844	5307
844.98	5364
845.117	5246
845.253	5170
845.389	5113
845.525	5181
845.661	5102
845.798	5018
845.934	5140
846.07	5052
846.206	5212
846.342	5277
846.478	5166
846.614	5025
846.75	4968
846.886	4976
847.022	5109
847.158	4999
847.294	5071
847.429	5098
847.565	5025
847.701	5303
847.837	4889
847.972	4782
848.108	4927
848.244	4923
848.379	4774
848.515	4736
848.65	4672
848.786	4752
848.921	4793
849.057	4816
849.192	4843
849.328	4835
849.463	4885
849.598	4774
849.734	4759
849.869	4698
850.004	4626
850.14	4668
850.275	4558
850.41	4516
850.545	4546
850.68	4558
850.815	4622
850.95	4603
851.085	4835
851.22	4740
851.355	4622
851.49	4637
851.625	4596
851.76	4698
851.895	4531
852.03	4481
852.165	4599
852.299	4694
852.434	4774
852.569	4721
852.703	4740
852.838	4812
852.973	4911
853.107	4896
853.242	4683
853.376	4694
853.511	4500
853.645	4607
853.78	4809
853.914	4702
854.048	4622
854.183	4683
854.317	4710
854.451	4854
854.585	4679
854.72	4637
854.854	4733
854.988	4607
855.122	4584
855.256	4535
855.39	4656
855.524	4797
855.658	4733
855.792	4675
855.926	4782
856.06	4767
856.194	4744
856.327	4668
856.461	4584
856.595	4649
856.729	4603
856.862	4740
856.996	4653
857.13	4740
857.263	4767
857.397	4782
857.53	4626
857.664	4691
857.797	4755
857.931	4725
858.064	4668
858.197	4714
858.331	4637
858.464	4588
858.597	4535
858.731	4596
858.864	4603
858.997	4615
859.13	4637
859.263	4656
859.396	4702
859.529	4584
859.662	4569
859.795	4550
859.928	4649
860.061	4801
860.194	4706
860.327	4569
860.46	4569
860.592	4679
860.725	4717
860.858	4660
860.99	4561
861.123	4497
861.256	4550
861.388	4573
861.521	5254
861.653	4485
861.786	4455
861.918	4462
862.05	4542
862.183	4565
862.315	4584
862.447	4637
862.58	4531
862.712	4371
862.844	4390
862.976	4440
863.108	4470
863.24	4885
863.372	4348
863.504	4394
863.636	4375
863.768	4485
863.9	4394
864.032	4352
864.164	4421
864.296	4424
864.428	4531
864.559	4512
864.691	4493
864.823	4497
864.954	4466
865.086	4527
865.217	4485
865.349	4402
865.48	4485
865.612	4455
865.743	4580
865.875	4451
866.006	4390
866.137	4481
866.269	4432
866.4	4481
866.531	4386
866.662	4398
866.793	4405
866.924	4428
867.055	4462
867.186	4432
867.317	4413
867.448	4333
867.579	4390
867.71	4402
867.841	4375
867.972	4447
868.103	4466
868.233	4432
868.364	4436
868.495	4497
868.625	4637
868.756	4714
868.886	4584
869.017	4618
869.147	4752
869.278	4702
869.408	4672
869.539	4675
869.669	4698
869.799	4641
869.929	4778
870.06	4691
870.19	4968
870.32	4900
870.45	4915
870.58	5014
870.71	5090
870.84	5064
870.97	4885
871.1	4866
871.23	5170
871.36	5113
871.489	4987
871.619	5029
871.749	5121
871.879	5113
872.008	5204
872.138	5022
872.267	4957
872.397	4831
872.526	4790
872.656	4706
872.785	4790
872.915	4911
873.044	5022
873.173	4908
873.303	4984
873.432	4995
873.561	4904
873.69	4877
873.819	4866
873.948	4900
874.077	4790
874.206	4778
874.335	4797
874.464	4915
874.593	5083
874.722	4949
874.851	5094
874.979	4987
875.108	5025
875.237	4911
875.365	4820
875.494	4850
875.623	5003
875.751	4801
875.88	4919
876.008	4953
876.136	4995
876.265	5216
876.393	5345
876.521	5242
876.65	5242
876.778	5121
876.906	5064
877.034	4987
877.162	5014
877.29	5010
877.418	5022
877.546	5025
877.674	5071
877.802	5010
877.93	5003
878.058	4927
878.185	4892
878.313	4942
878.441	4995
878.568	4816
878.696	4877
878.824	4968
878.951	4961
879.079	5128
879.206	5254
879.333	5056
879.461	5010
879.588	5018
879.715	5060
879.842	5220
879.97	5006
880.097	4771
880.224	4729
880.351	4786
880.478	4816
880.605	4809
880.732	4748
880.859	5094
880.986	4934
881.112	4915
881.239	4774
881.366	4721
881.493	4645
881.619	4577
881.746	4584
881.872	4607
881.999	4630
882.125	4736
882.252	4748
882.378	4831
882.505	4942
882.631	4774
882.757	4691
882.883	4698
883.01	4702
883.136	4645
883.262	4607
883.388	4599
883.514	4782
883.64	4873
883.766	4797
883.892	4607
884.018	4736
884.143	4892
884.269	5022
884.395	4706
884.52	4664
884.646	4584
884.772	4554
884.897	4516
885.023	4634
885.148	4797
885.274	4831
885.399	4771
885.524	4729
885.65	4687
885.775	4752
885.9	4691
886.025	4801
886.15	4755
886.275	4725
886.4	4615
886.525	4706
886.65	4675
886.775	4672
886.9	4881
887.025	5003
887.149	4790
887.274	4653
887.399	4561
887.523	4569
887.648	4531
887.773	4569
887.897	4721
888.021	4786
888.146	4687
888.27	4805
888.395	4877
888.519	4774
888.643	4786
888.767	4797
888.891	4626
889.015	4622
889.139	4637
889.263	4645
889.387	4702
889.511	4885
889.635	4809
889.759	4637
889.883	4653
890.006	4702
890.13	4824
890.254	4603
890.377	4691
890.501	4550
890.624	4519
890.748	4664
890.871	4516
890.995	4436
891.118	4398
891.241	4462
891.364	4546
891.488	4622
891.611	4527
891.734	4485
891.857	4565
891.98	4542
892.103	4615
892.226	4580
892.349	4500
892.471	4432
892.594	4500
892.717	4615
892.839	4588
892.962	4607
893.085	4596
893.207	4596
893.33	4443
893.452	4504
893.575	4660
893.697	4542
893.819	4790
893.941	4900
894.064	4793
894.186	4535
894.308	4592
894.43	4748
894.552	4854
894.674	4740
894.796	4523
894.918	4573
895.04	4580
895.161	4698
895.283	4622
895.405	4558
895.526	4611
895.648	4656
895.769	4687
895.891	4725
896.012	4717
896.134	4721
896.255	4694
896.376	4588
896.498	4592
896.619	4672
896.74	4607
896.861	4622
896.982	4904
897.103	5109
897.224	4839
897.345	4774
897.466	4637
897.587	4721
897.708	4870
897.828	4793
897.949	4645
898.07	4538
898.19	4615
898.311	4824
898.431	4706
898.552	4721
898.672	4843
898.792	4759
898.913	4725
899.033	4634
899.153	4519
899.273	4451
899.393	4474
899.513	4512
899.633	4481
899.753	4554
899.873	4462
899.993	4558
900.113	4512
900.232	4565
900.352	4538
900.472	4493
900.591	4405
900.711	4538
900.83	4417
900.95	4592
901.069	4645
901.189	4535
901.308	4344
901.427	4329
901.546	4348
901.665	4440
901.784	4504
901.904	4344
902.023	4352
902.141	4143
902.26	4162
902.379	4276
902.498	4234
902.617	4166
902.735	4375
902.854	4424
902.973	4352
903.091	4211
903.21	4238
903.328	4295
903.446	4230
903.565	4272
903.683	4322
903.801	4246
903.919	4386
904.038	4440
904.156	4280
904.274	4379
904.392	4398
904.51	4383
904.627	4462
904.745	4573
904.863	4653
904.981	4424
905.098	4284
905.216	4341
905.334	4417
905.451	4447
905.569	4436
905.686	4577
905.803	4554
905.921	4390
906.038	4550
906.155	4451
906.272	4379
906.389	4466
906.506	4375
906.623	4390
906.74	4367
906.857	4318
906.974	4383
907.091	4531
907.208	4630
907.324	4546
907.441	4500
907.557	4390
907.674	4318
907.79	4291
907.907	4394
908.023	4436
908.139	4443
908.256	4421
908.372	4417
908.488	4421
908.604	4325
908.72	4318
908.836	4409
908.952	4390
909.068	4375
909.184	4596
909.3	4478
909.415	4596
909.531	4580
909.647	4344
909.762	4352
909.878	4333
909.993	4386
910.108	4447
910.224	4440
910.339	4459
910.454	4379
910.57	4379
910.685	4295
910.8	4618
910.915	4569
911.03	4512
911.145	4314
911.259	4291
911.374	4356
911.489	4272
911.604	4238
911.718	4131
911.833	4200
911.947	4074
912.062	4021
912.176	4223
912.291	4173
912.405	4249
912.519	4489
912.633	4489
912.748	4367
912.862	4341
912.976	4211
913.09	4112
913.204	4207
913.318	4246
913.431	4356
913.545	4379
913.659	4394
913.772	4325
913.886	4253
914	4230
914.113	4352
914.226	4447
914.34	4341
914.453	4219
914.566	4375
914.68	4268
914.793	4329
914.906	4162
915.019	4120
915.132	4086
915.245	4196
915.358	4169
915.47	4249
915.583	4265
915.696	4284
915.809	4402
915.921	4379
916.034	4242
916.146	4242
916.259	4223
916.371	4325
916.483	4386
916.595	4230
916.708	4344
916.82	4310
916.932	4306
917.044	4291
917.156	4383
917.268	4261
917.38	4242
917.491	4268
917.603	4333
917.715	4394
917.826	4455
917.938	4329
918.049	4219
918.161	4356
918.272	4497
918.384	4478
918.495	4451
918.606	4306
918.717	4219
918.828	4325
918.939	4360
919.05	4257
919.161	4287
919.272	4128
919.383	4173
919.494	4462
919.604	4618
919.715	4394
919.826	4337
919.936	4371
920.047	4519
920.157	4516
920.267	4729
920.378	4489
920.488	4474
920.598	4714
920.708	4839
920.818	4744
920.928	4748
921.038	4927
921.148	4930
921.258	4641
921.368	4535
921.477	4466
921.587	4428
921.697	4360
921.806	4489
921.916	4417
922.025	4227
922.134	4253
922.244	4242
922.353	4299
922.462	4166
922.571	4090
922.68	4055
922.789	3975
922.898	4021
923.007	3972
923.116	4074
923.224	4048
923.333	4093
923.442	4006
923.55	3968
923.659	4010
923.767	4055
923.876	3991
923.984	4093
924.092	3960
924.201	4063
924.309	4040
924.417	4116
924.525	4101
924.633	4124
924.741	5079
924.849	3899
924.956	4139
925.064	3956
925.172	3884
925.279	3975
925.387	4013
925.494	4067
925.602	4192
925.709	4192
925.816	4002
925.924	4124
926.031	4200
926.138	4124
926.245	4188
926.352	4101
926.459	4230
926.566	4272
926.673	4109
926.779	4120
926.886	4093
926.993	3972
927.099	3956
927.206	3979
927.312	3915
927.419	4063
927.525	3994
927.631	4093
927.737	3937
927.843	3945
927.95	3793
928.056	3960
928.162	3987
928.267	4036
928.373	4672
928.479	4131
928.585	3831
928.69	4002
928.796	4078
928.901	3953
929.007	3854
929.112	4032
929.218	3994
929.323	3953
929.428	3911
929.533	4097
929.638	3922
929.743	3922
929.848	4025
929.953	3979
930.058	3888
930.163	3751
930.267	3800
930.372	3949
930.477	3793
930.581	4055
930.685	3972
930.79	3800
930.894	3888
930.998	3850
931.103	4029
931.207	3724
931.311	3698
931.415	3686
931.519	3519
931.623	3553
