Data from test_V78500241_403.txt Node
Date: Fri Mar 25 16:51:48 CST 2022
User: usil
Spectrometer: V785-0024
Trigger mode: 0
Integration Time (sec): 4.000000E-1
Scans to average: 1
Nonlinearity correction enabled: false
Boxcar width: 0
Storing dark spectrum: false
XAxis mode: Wavelengths
Number of Pixels in Spectrum: 1024
>>>>>Begin Spectral Data<<<<<
801.071	8058
801.214	8046
801.356	7883
801.499	7989
801.641	7864
801.783	7814
801.926	8043
802.068	8024
802.211	8024
802.353	7989
802.496	7871
802.638	7841
802.78	7917
802.923	8016
803.065	7871
803.208	7898
803.35	7997
803.492	8054
803.635	8123
803.777	7959
803.919	8157
804.061	8412
804.204	8191
804.346	8065
804.488	7928
804.63	8001
804.773	7997
804.915	8046
805.057	8259
805.199	8164
805.341	8187
805.483	8282
805.626	8161
805.768	8058
805.91	8138
806.052	8187
806.194	8088
806.336	8404
806.478	8157
806.62	8115
806.762	8187
806.904	8206
807.046	8503
807.188	8313
807.33	8279
807.472	8332
807.614	8191
807.756	8172
807.898	8016
808.04	7959
808.182	7936
808.324	7917
808.465	7967
808.607	8096
808.749	8130
808.891	8221
809.033	8301
809.174	8206
809.316	8043
809.458	8065
809.6	8046
809.741	8039
809.883	8035
810.025	8100
810.166	8126
810.308	8065
810.45	8054
810.591	7864
810.733	7776
810.875	7666
811.016	7567
811.158	7502
811.299	7594
811.441	7849
811.582	7769
811.724	7582
811.865	7578
812.007	7696
812.148	7567
812.29	7658
812.431	7780
812.573	7890
812.714	7989
812.855	8180
812.997	8244
813.138	8252
813.279	8210
813.421	8100
813.562	8084
813.703	7913
813.845	7818
813.986	7514
814.127	7324
814.268	7251
814.41	7274
814.551	7244
814.692	7289
814.833	7110
814.974	7133
815.115	7145
815.256	6916
815.397	6935
815.539	6939
815.68	6844
815.821	6795
815.962	6966
816.103	6833
816.244	6722
816.385	6673
816.526	6700
816.666	6509
816.807	6285
816.948	6490
817.089	6532
817.23	6460
817.371	6380
817.512	6361
817.653	6479
817.793	6346
817.934	6395
818.075	6498
818.216	6429
818.356	6414
818.497	6175
818.638	6148
818.778	6178
818.919	6087
819.06	6076
819.2	6350
819.341	6369
819.481	6334
819.622	6582
819.762	6749
819.903	6673
820.043	6639
820.184	6582
820.324	6589
820.465	6734
820.605	6707
820.746	6620
820.886	6483
821.026	6662
821.167	6703
821.307	6825
821.447	6798
821.588	6639
821.728	6585
821.868	6460
822.008	6369
822.149	6338
822.289	6391
822.429	6152
822.569	6083
822.709	6121
822.849	5931
822.99	5916
823.13	5927
823.27	5916
823.41	5767
823.55	5767
823.69	5786
823.83	5844
823.97	5649
824.11	5562
824.25	5505
824.389	5520
824.529	5570
824.669	5505
824.809	5615
824.949	5661
825.089	5611
825.228	5551
825.368	5402
825.508	5330
825.648	5353
825.787	5421
825.927	5372
826.067	5353
826.206	5284
826.346	5368
826.485	5444
826.625	5433
826.765	5539
826.904	5493
827.044	5258
827.183	5216
827.323	5189
827.462	5250
827.601	5178
827.741	5201
827.88	5220
828.02	5124
828.159	5235
828.298	5311
828.437	5334
828.577	5235
828.716	5509
828.855	5322
828.994	5216
829.134	5159
829.273	5216
829.412	5170
829.551	5159
829.69	5121
829.829	5227
829.968	5364
830.107	5273
830.246	5277
830.385	5181
830.524	5098
830.663	5102
830.802	4999
830.941	4908
831.08	4885
831.219	5003
831.357	5006
831.496	5162
831.635	4953
831.774	4847
831.913	4828
832.051	4702
832.19	4748
832.329	4847
832.467	4729
832.606	4668
832.744	4744
832.883	4729
833.022	4755
833.16	4782
833.299	4831
833.437	4797
833.576	4835
833.714	4858
833.852	4850
833.991	4877
834.129	4980
834.267	4957
834.406	4866
834.544	5010
834.682	4885
834.821	4995
834.959	5208
835.097	4991
835.235	5151
835.373	5159
835.511	5117
835.65	5067
835.788	5037
835.926	4904
836.064	4862
836.202	4904
836.34	5193
836.478	5258
836.615	5162
836.753	5174
836.891	5269
837.029	5280
837.167	5239
837.305	5178
837.443	5185
837.58	5079
837.718	5242
837.856	5143
837.993	5140
838.131	5227
838.269	5239
838.406	5239
838.544	5181
838.681	5048
838.819	5037
838.956	4866
839.094	4965
839.231	5025
839.369	5067
839.506	5455
839.643	5280
839.781	5140
839.918	4995
840.055	5109
840.193	5105
840.33	5086
840.467	5147
840.604	5227
840.742	5436
840.879	5037
841.016	5117
841.153	5147
841.29	5372
841.427	5357
841.564	5311
841.701	5345
841.838	5284
841.975	5261
842.112	5273
842.249	5155
842.385	5105
842.522	5284
842.659	5174
842.796	5151
842.933	5197
843.069	5109
843.206	5159
843.343	5296
843.479	5201
843.616	5223
843.752	5048
843.889	5037
844.025	5235
844.162	5064
844.298	5201
844.435	5045
844.571	5056
844.708	5235
844.844	5273
844.98	5315
845.117	5269
845.253	5201
845.389	5094
845.525	5147
845.661	5159
845.798	5056
845.934	5140
846.07	5018
846.206	5204
846.342	5288
846.478	5151
846.614	5037
846.75	4942
846.886	4911
847.022	5132
847.158	5014
847.294	5060
847.429	5083
847.565	5079
847.701	5349
847.837	4870
847.972	4786
848.108	4957
848.244	4927
848.379	4771
848.515	4733
848.65	4748
848.786	4782
848.921	4733
849.057	4900
849.192	4900
849.328	4786
849.463	4809
849.598	4824
849.734	4774
849.869	4725
850.004	4660
850.14	4702
850.275	4615
850.41	4508
850.545	4554
850.68	4550
850.815	4641
850.95	4565
851.085	4820
851.22	4714
851.355	4599
851.49	4592
851.625	4660
851.76	4641
851.895	4580
852.03	4535
852.165	4694
852.299	4714
852.434	4793
852.569	4740
852.703	4771
852.838	4866
852.973	4908
853.107	4896
853.242	4736
853.376	4626
853.511	4550
853.645	4622
853.78	4759
853.914	4672
854.048	4679
854.183	4683
854.317	4691
854.451	4839
854.585	4649
854.72	4618
854.854	4759
854.988	4615
855.122	4615
855.256	4565
855.39	4672
855.524	4752
855.658	4733
855.792	4752
855.926	4706
856.06	4744
856.194	4782
856.327	4733
856.461	4649
856.595	4588
856.729	4607
856.862	4774
856.996	4653
857.13	4771
857.263	4744
857.397	4793
857.53	4656
857.664	4729
857.797	4786
857.931	4778
858.064	4660
858.197	4717
858.331	4634
858.464	4611
858.597	4554
858.731	4611
858.864	4637
858.997	4588
859.13	4672
859.263	4717
859.396	4706
859.529	4599
859.662	4561
859.795	4493
859.928	4641
860.061	4744
860.194	4725
860.327	4603
860.46	4603
860.592	4736
860.725	4717
860.858	4725
860.99	4569
861.123	4516
861.256	4535
861.388	4573
861.521	5372
861.653	4447
861.786	4470
861.918	4432
862.05	4508
862.183	4519
862.315	4637
862.447	4622
862.58	4550
862.712	4428
862.844	4360
862.976	4462
863.108	4440
863.24	4782
863.372	4337
863.504	4421
863.636	4413
863.768	4500
863.9	4443
864.032	4348
864.164	4459
864.296	4489
864.428	4516
864.559	4592
864.691	4508
864.823	4523
864.954	4546
865.086	4516
865.217	4451
865.349	4417
865.48	4474
865.612	4508
865.743	4615
865.875	4481
866.006	4436
866.137	4459
866.269	4440
866.4	4409
866.531	4447
866.662	4440
866.793	4394
866.924	4405
867.055	4481
867.186	4466
867.317	4402
867.448	4386
867.579	4386
867.71	4390
867.841	4390
867.972	4485
868.103	4440
868.233	4428
868.364	4462
868.495	4470
868.625	4668
868.756	4771
868.886	4615
869.017	4649
869.147	4809
869.278	4771
869.408	4706
869.539	4615
869.669	4710
869.799	4622
869.929	4706
870.06	4725
870.19	4946
870.32	4949
870.45	4915
870.58	5010
870.71	5064
870.84	5143
870.97	4915
871.1	4892
871.23	5159
871.36	5128
871.489	4965
871.619	5124
871.749	5079
871.879	5170
872.008	5155
872.138	5006
872.267	4984
872.397	4877
872.526	4809
872.656	4774
872.785	4801
872.915	4965
873.044	4938
873.173	4927
873.303	5006
873.432	4984
873.561	4957
873.69	4866
873.819	4809
873.948	4854
874.077	4831
874.206	4740
874.335	4812
874.464	4961
874.593	5060
874.722	4968
874.851	5071
874.979	5136
875.108	5045
875.237	4911
875.365	4877
875.494	4881
875.623	4991
875.751	4839
875.88	4892
876.008	4946
876.136	5033
876.265	5277
876.393	5284
876.521	5239
876.65	5204
876.778	5159
876.906	5060
877.034	5003
877.162	5029
877.29	4980
877.418	5048
877.546	5048
877.674	5071
877.802	5037
877.93	5048
878.058	4946
878.185	4915
878.313	4991
878.441	4965
878.568	4797
878.696	4850
878.824	4949
878.951	4980
879.079	5109
879.206	5292
879.333	5098
879.461	4968
879.588	5006
879.715	5147
879.842	5216
879.97	4961
880.097	4752
880.224	4759
880.351	4824
880.478	4858
880.605	4774
880.732	4812
880.859	5071
880.986	4915
881.112	4877
881.239	4771
881.366	4664
881.493	4626
881.619	4550
881.746	4691
881.872	4687
881.999	4679
882.125	4675
882.252	4771
882.378	4793
882.505	4949
882.631	4831
882.757	4702
882.883	4733
883.01	4729
883.136	4702
883.262	4577
883.388	4588
883.514	4824
883.64	4870
883.766	4786
883.892	4645
884.018	4702
884.143	4919
884.269	5022
884.395	4672
884.52	4596
884.646	4641
884.772	4626
884.897	4550
885.023	4653
885.148	4736
885.274	4877
885.399	4771
885.524	4736
885.65	4714
885.775	4759
885.9	4664
886.025	4812
886.15	4755
886.275	4725
886.4	4664
886.525	4687
886.65	4698
886.775	4672
886.9	4881
887.025	5029
887.149	4790
887.274	4710
887.399	4630
887.523	4622
887.648	4611
887.773	4577
887.897	4759
888.021	4774
888.146	4660
888.27	4805
888.395	4873
888.519	4782
888.643	4816
888.767	4805
888.891	4683
889.015	4641
889.139	4637
889.263	4554
889.387	4710
889.511	4889
889.635	4797
889.759	4573
889.883	4683
890.006	4714
890.13	4835
890.254	4607
890.377	4698
890.501	4504
890.624	4535
890.748	4649
890.871	4527
890.995	4424
891.118	4360
891.241	4523
891.364	4561
891.488	4672
891.611	4497
891.734	4535
891.857	4561
891.98	4569
892.103	4599
892.226	4577
892.349	4531
892.471	4447
892.594	4558
892.717	4618
892.839	4573
892.962	4622
893.085	4649
893.207	4603
893.33	4481
893.452	4535
893.575	4630
893.697	4569
893.819	4763
893.941	4805
894.064	4752
894.186	4531
894.308	4580
894.43	4706
894.552	4854
894.674	4767
894.796	4558
894.918	4577
895.04	4565
895.161	4721
895.283	4656
895.405	4573
895.526	4630
895.648	4656
895.769	4675
895.891	4702
896.012	4797
896.134	4679
896.255	4656
896.376	4615
896.498	4641
896.619	4664
896.74	4554
896.861	4618
896.982	4866
897.103	5102
897.224	4873
897.345	4755
897.466	4683
897.587	4786
897.708	4873
897.828	4748
897.949	4691
898.07	4588
898.19	4645
898.311	4847
898.431	4717
898.552	4733
898.672	4820
898.792	4809
898.913	4782
899.033	4653
899.153	4527
899.273	4436
899.393	4527
899.513	4523
899.633	4512
899.753	4531
899.873	4573
899.993	4630
900.113	4569
900.232	4630
900.352	4554
900.472	4493
900.591	4447
900.711	4527
900.83	4470
900.95	4622
901.069	4733
901.189	4622
901.308	4386
901.427	4363
901.546	4447
901.665	4527
901.784	4554
901.904	4417
902.023	4367
902.141	4272
902.26	4211
902.379	4360
902.498	4287
902.617	4242
902.735	4447
902.854	4394
902.973	4394
903.091	4223
903.21	4234
903.328	4337
903.446	4295
903.565	4291
903.683	4394
903.801	4375
903.919	4428
904.038	4470
904.156	4402
904.274	4500
904.392	4440
904.51	4440
904.627	4546
904.745	4630
904.863	4645
904.981	4489
905.098	4363
905.216	4421
905.334	4489
905.451	4535
905.569	4451
905.686	4596
905.803	4603
905.921	4531
906.038	4611
906.155	4519
906.272	4440
906.389	4550
906.506	4421
906.623	4394
906.74	4455
906.857	4356
906.974	4421
907.091	4653
907.208	4710
907.324	4641
907.441	4546
907.557	4394
907.674	4375
907.79	4325
907.907	4481
908.023	4519
908.139	4504
908.256	4470
908.372	4512
908.488	4500
908.604	4405
908.72	4398
908.836	4375
908.952	4443
909.068	4451
909.184	4603
909.3	4508
909.415	4569
909.531	4596
909.647	4363
909.762	4409
909.878	4375
909.993	4462
910.108	4470
910.224	4497
910.339	4512
910.454	4459
910.57	4421
910.685	4310
910.8	4691
910.915	4626
911.03	4478
911.145	4363
911.259	4379
911.374	4436
911.489	4348
911.604	4371
911.718	4246
911.833	4242
911.947	4158
912.062	4051
912.176	4246
912.291	4318
912.405	4280
912.519	4558
912.633	4516
912.748	4383
912.862	4375
912.976	4253
913.09	4173
913.204	4188
913.318	4257
913.431	4436
913.545	4451
913.659	4417
913.772	4394
913.886	4284
914	4306
914.113	4405
914.226	4432
914.34	4470
914.453	4200
914.566	4436
914.68	4375
914.793	4344
914.906	4230
915.019	4150
915.132	4097
915.245	4211
915.358	4291
915.47	4291
915.583	4287
915.696	4329
915.809	4455
915.921	4432
916.034	4280
916.146	4291
916.259	4265
916.371	4379
916.483	4398
916.595	4306
916.708	4394
916.82	4341
916.932	4386
917.044	4383
917.156	4367
917.268	4249
917.38	4265
917.491	4314
917.603	4360
917.715	4440
917.826	4485
917.938	4390
918.049	4268
918.161	4417
918.272	4596
918.384	4580
918.495	4493
918.606	4344
918.717	4223
918.828	4379
918.939	4356
919.05	4337
919.161	4337
919.272	4169
919.383	4268
919.494	4485
919.604	4641
919.715	4466
919.826	4379
919.936	4440
920.047	4527
920.157	4519
920.267	4740
920.378	4550
920.488	4504
920.598	4759
920.708	4942
920.818	4778
920.928	4793
921.038	4961
921.148	4953
921.258	4656
921.368	4599
921.477	4554
921.587	4478
921.697	4440
921.806	4565
921.916	4485
922.025	4310
922.134	4322
922.244	4268
922.353	4360
922.462	4219
922.571	4173
922.68	4017
922.789	4029
922.898	4040
923.007	4002
923.116	4143
923.224	4078
923.333	4097
923.442	4010
923.55	4013
923.659	4029
923.767	4192
923.876	4040
923.984	4112
924.092	4055
924.201	4112
924.309	4150
924.417	4162
924.525	4097
924.633	4143
924.741	5086
924.849	3941
924.956	4143
925.064	4002
925.172	3960
925.279	3960
925.387	4067
925.494	4086
925.602	4295
925.709	4196
925.816	4086
925.924	4196
926.031	4268
926.138	4215
926.245	4227
926.352	4116
926.459	4265
926.566	4341
926.673	4238
926.779	4101
926.886	4112
926.993	4025
927.099	4010
927.206	3979
927.312	3972
927.419	4082
927.525	4071
927.631	4109
927.737	4025
927.843	4017
927.95	3892
928.056	3956
928.162	4044
928.267	4082
928.373	4721
928.479	4135
928.585	3926
928.69	4017
928.796	4105
928.901	3991
929.007	3857
929.112	4002
929.218	4002
929.323	4010
929.428	3987
929.533	4109
929.638	3953
929.743	4025
929.848	4097
929.953	4051
930.058	3953
930.163	3781
930.267	3899
930.372	4021
930.477	3838
930.581	4131
930.685	4006
930.79	3831
930.894	3945
930.998	3873
931.103	4044
931.207	3717
931.311	3728
931.415	3671
931.519	3568
931.623	3538
