Data from test_V78500241_1770.txt Node
Date: Fri Mar 25 17:01:18 CST 2022
User: usil
Spectrometer: V785-0024
Trigger mode: 0
Integration Time (sec): 4.000000E-1
Scans to average: 1
Nonlinearity correction enabled: false
Boxcar width: 0
Storing dark spectrum: false
XAxis mode: Wavelengths
Number of Pixels in Spectrum: 1024
>>>>>Begin Spectral Data<<<<<
801.071	7959
801.214	7959
801.356	7875
801.499	7814
801.641	7830
801.783	7757
801.926	8024
802.068	7887
802.211	7986
802.353	7993
802.496	7852
802.638	7894
802.78	7883
802.923	7982
803.065	7909
803.208	7776
803.35	7951
803.492	8088
803.635	8149
803.777	7997
803.919	8134
804.061	8400
804.204	8206
804.346	8065
804.488	7982
804.63	8088
804.773	7986
804.915	8077
805.057	8320
805.199	8180
805.341	8248
805.483	8298
805.626	8172
805.768	8111
805.91	8259
806.052	8206
806.194	8054
806.336	8286
806.478	8123
806.62	8058
806.762	8119
806.904	8229
807.046	8446
807.188	8404
807.33	8259
807.472	8336
807.614	8199
807.756	8126
807.898	7970
808.04	7868
808.182	7818
808.324	7871
808.465	7925
808.607	8084
808.749	8153
808.891	8191
809.033	8298
809.174	8229
809.316	8100
809.458	8138
809.6	8016
809.741	8001
809.883	7989
810.025	8039
810.166	8035
810.308	8050
810.45	8016
810.591	7868
810.733	7742
810.875	7769
811.016	7544
811.158	7495
811.299	7575
811.441	7681
811.582	7594
811.724	7544
811.865	7506
812.007	7658
812.148	7578
812.29	7658
812.431	7765
812.573	7928
812.714	7940
812.855	8142
812.997	8195
813.138	8347
813.279	8138
813.421	8035
813.562	7974
813.703	7864
813.845	7700
813.986	7396
814.127	7247
814.268	7190
814.41	7175
814.551	7190
814.692	7232
814.833	7141
814.974	7164
815.115	7114
815.256	6951
815.397	6867
815.539	7000
815.68	6844
815.821	6810
815.962	6897
816.103	6776
816.244	6768
816.385	6604
816.526	6570
816.666	6475
816.807	6319
816.948	6441
817.089	6532
817.23	6471
817.371	6372
817.512	6372
817.653	6384
817.793	6331
817.934	6467
818.075	6414
818.216	6407
818.356	6422
818.497	6235
818.638	6175
818.778	6125
818.919	6133
819.06	6140
819.2	6311
819.341	6304
819.481	6422
819.622	6528
819.762	6707
819.903	6707
820.043	6582
820.184	6585
820.324	6589
820.465	6703
820.605	6654
820.746	6646
820.886	6513
821.026	6589
821.167	6715
821.307	6768
821.447	6829
821.588	6673
821.728	6601
821.868	6460
822.008	6308
822.149	6422
822.289	6369
822.429	6182
822.569	6060
822.709	6121
822.849	5920
822.99	5904
823.13	5866
823.27	5916
823.41	5809
823.55	5695
823.69	5741
823.83	5767
823.97	5642
824.11	5535
824.25	5482
824.389	5547
824.529	5562
824.669	5570
824.809	5646
824.949	5665
825.089	5604
825.228	5570
825.368	5421
825.508	5341
825.648	5357
825.787	5360
825.927	5322
826.067	5307
826.206	5261
826.346	5360
826.485	5448
826.625	5410
826.765	5604
826.904	5436
827.044	5239
827.183	5261
827.323	5117
827.462	5212
827.601	5170
827.741	5143
827.88	5231
828.02	5174
828.159	5235
828.298	5318
828.437	5330
828.577	5261
828.716	5486
828.855	5315
828.994	5197
829.134	5166
829.273	5174
829.412	5105
829.551	5113
829.69	5189
829.829	5273
829.968	5345
830.107	5280
830.246	5220
830.385	5166
830.524	5079
830.663	5052
830.802	4972
830.941	4946
831.08	4896
831.219	4961
831.357	5003
831.496	5147
831.635	4911
831.774	4835
831.913	4828
832.051	4698
832.19	4721
832.329	4801
832.467	4679
832.606	4656
832.744	4668
832.883	4740
833.022	4744
833.16	4782
833.299	4820
833.437	4854
833.576	4839
833.714	4847
833.852	4866
833.991	4839
834.129	4927
834.267	4904
834.406	4828
834.544	4995
834.682	4953
834.821	5010
834.959	5109
835.097	4968
835.235	5124
835.373	5067
835.511	5079
835.65	5014
835.788	5014
835.926	4908
836.064	4896
836.202	4949
836.34	5140
836.478	5166
836.615	5105
836.753	5197
836.891	5261
837.029	5235
837.167	5166
837.305	5170
837.443	5079
837.58	5140
837.718	5284
837.856	5174
837.993	5136
838.131	5239
838.269	5197
838.406	5201
838.544	5155
838.681	5029
838.819	5037
838.956	4927
839.094	4938
839.231	4984
839.369	5090
839.506	5421
839.643	5250
839.781	5105
839.918	5003
840.055	5067
840.193	5056
840.33	5094
840.467	5136
840.604	5140
840.742	5421
840.879	5090
841.016	5132
841.153	5174
841.29	5334
841.427	5273
841.564	5273
841.701	5376
841.838	5269
841.975	5208
842.112	5273
842.249	5147
842.385	5075
842.522	5326
842.659	5109
842.796	5166
842.933	5166
843.069	5162
843.206	5159
843.343	5288
843.479	5250
843.616	5242
843.752	4980
843.889	4965
844.025	5208
844.162	5010
844.298	5216
844.435	5113
844.571	5075
844.708	5208
844.844	5284
844.98	5379
845.117	5239
845.253	5109
845.389	5037
845.525	5113
845.661	5170
845.798	5060
845.934	5128
846.07	5105
846.206	5155
846.342	5296
846.478	5181
846.614	5064
846.75	4961
846.886	4923
847.022	5136
847.158	4995
847.294	5083
847.429	5071
847.565	5045
847.701	5357
847.837	4862
847.972	4828
848.108	4953
848.244	4896
848.379	4755
848.515	4725
848.65	4702
848.786	4698
848.921	4729
849.057	4854
849.192	4892
849.328	4797
849.463	4805
849.598	4774
849.734	4725
849.869	4721
850.004	4649
850.14	4687
850.275	4611
850.41	4481
850.545	4584
850.68	4599
850.815	4603
850.95	4596
851.085	4835
851.22	4740
851.355	4706
851.49	4611
851.625	4596
851.76	4637
851.895	4519
852.03	4558
852.165	4615
852.299	4679
852.434	4797
852.569	4736
852.703	4786
852.838	4908
852.973	4938
853.107	4900
853.242	4774
853.376	4626
853.511	4561
853.645	4618
853.78	4801
853.914	4679
854.048	4634
854.183	4672
854.317	4725
854.451	4835
854.585	4694
854.72	4675
854.854	4702
854.988	4603
855.122	4653
855.256	4535
855.39	4702
855.524	4801
855.658	4752
855.792	4698
855.926	4755
856.06	4733
856.194	4786
856.327	4649
856.461	4615
856.595	4538
856.729	4592
856.862	4763
856.996	4687
857.13	4721
857.263	4698
857.397	4828
857.53	4637
857.664	4725
857.797	4706
857.931	4805
858.064	4694
858.197	4694
858.331	4615
858.464	4622
858.597	4466
858.731	4611
858.864	4596
858.997	4603
859.13	4634
859.263	4607
859.396	4706
859.529	4588
859.662	4584
859.795	4535
859.928	4634
860.061	4710
860.194	4740
860.327	4599
860.46	4550
860.592	4675
860.725	4717
860.858	4717
860.99	4565
861.123	4523
861.256	4538
861.388	4588
861.521	5265
861.653	4500
861.786	4352
861.918	4424
862.05	4516
862.183	4558
862.315	4645
862.447	4698
862.58	4546
862.712	4390
862.844	4318
862.976	4455
863.108	4466
863.24	4881
863.372	4291
863.504	4417
863.636	4409
863.768	4493
863.9	4390
864.032	4390
864.164	4386
864.296	4466
864.428	4508
864.559	4558
864.691	4512
864.823	4478
864.954	4508
865.086	4474
865.217	4428
865.349	4428
865.48	4481
865.612	4455
865.743	4637
865.875	4478
866.006	4421
866.137	4493
866.269	4447
866.4	4424
866.531	4413
866.662	4443
866.793	4356
866.924	4413
867.055	4516
867.186	4459
867.317	4417
867.448	4363
867.579	4367
867.71	4413
867.841	4383
867.972	4443
868.103	4481
868.233	4436
868.364	4451
868.495	4508
868.625	4637
868.756	4733
868.886	4554
869.017	4618
869.147	4786
869.278	4782
869.408	4683
869.539	4592
869.669	4725
869.799	4649
869.929	4767
870.06	4759
870.19	4965
870.32	4942
870.45	4976
870.58	4968
870.71	5086
870.84	5079
870.97	4987
871.1	4919
871.23	5098
871.36	5181
871.489	5033
871.619	5105
871.749	5105
871.879	5155
872.008	5166
872.138	5048
872.267	4991
872.397	4870
872.526	4812
872.656	4748
872.785	4801
872.915	4900
873.044	5064
873.173	4934
873.303	4953
873.432	4953
873.561	4957
873.69	4858
873.819	4885
873.948	4877
874.077	4793
874.206	4767
874.335	4748
874.464	4900
874.593	5132
874.722	4961
874.851	5086
874.979	5064
875.108	5025
875.237	4877
875.365	4870
875.494	4854
875.623	4987
875.751	4850
875.88	4850
876.008	4984
876.136	5025
876.265	5159
876.393	5337
876.521	5227
876.65	5185
876.778	5166
876.906	5102
877.034	4999
877.162	5045
877.29	5014
877.418	5048
877.546	5033
877.674	5048
877.802	5048
877.93	4991
878.058	4930
878.185	4854
878.313	4980
878.441	4972
878.568	4812
878.696	4854
878.824	4949
878.951	4995
879.079	5124
879.206	5341
879.333	5102
879.461	4972
879.588	5018
879.715	5090
879.842	5208
879.97	5022
880.097	4786
880.224	4763
880.351	4812
880.478	4828
880.605	4805
880.732	4820
880.859	5071
880.986	4866
881.112	4881
881.239	4774
881.366	4634
881.493	4622
881.619	4588
881.746	4603
881.872	4668
881.999	4592
882.125	4733
882.252	4839
882.378	4809
882.505	4953
882.631	4771
882.757	4630
882.883	4653
883.01	4771
883.136	4698
883.262	4561
883.388	4630
883.514	4793
883.64	4930
883.766	4771
883.892	4683
884.018	4759
884.143	4870
884.269	4999
884.395	4702
884.52	4622
884.646	4634
884.772	4588
884.897	4531
885.023	4622
885.148	4847
885.274	4835
885.399	4774
885.524	4698
885.65	4702
885.775	4725
885.9	4683
886.025	4866
886.15	4774
886.275	4755
886.4	4622
886.525	4668
886.65	4660
886.775	4683
886.9	4957
887.025	5018
887.149	4828
887.274	4607
887.399	4607
887.523	4584
887.648	4580
887.773	4603
887.897	4710
888.021	4793
888.146	4717
888.27	4801
888.395	4892
888.519	4767
888.643	4820
888.767	4831
888.891	4672
889.015	4615
889.139	4611
889.263	4577
889.387	4706
889.511	4904
889.635	4790
889.759	4660
889.883	4649
890.006	4793
890.13	4835
890.254	4626
890.377	4702
890.501	4512
890.624	4497
890.748	4637
890.871	4565
890.995	4489
891.118	4360
891.241	4531
891.364	4565
891.488	4641
891.611	4516
891.734	4508
891.857	4618
891.98	4554
892.103	4675
892.226	4611
892.349	4577
892.471	4402
892.594	4554
892.717	4626
892.839	4550
892.962	4550
893.085	4649
893.207	4592
893.33	4455
893.452	4546
893.575	4630
893.697	4592
893.819	4828
893.941	4850
894.064	4771
894.186	4580
894.308	4573
894.43	4710
894.552	4820
894.674	4744
894.796	4546
894.918	4630
895.04	4535
895.161	4706
895.283	4649
895.405	4550
895.526	4630
895.648	4687
895.769	4683
895.891	4702
896.012	4774
896.134	4683
896.255	4683
896.376	4603
896.498	4592
896.619	4698
896.74	4622
896.861	4626
896.982	4915
897.103	5041
897.224	4801
897.345	4740
897.466	4611
897.587	4740
897.708	4862
897.828	4721
897.949	4694
898.07	4618
898.19	4626
898.311	4801
898.431	4649
898.552	4721
898.672	4839
898.792	4778
898.913	4733
899.033	4683
899.153	4554
899.273	4470
899.393	4466
899.513	4558
899.633	4542
899.753	4554
899.873	4485
899.993	4573
900.113	4531
900.232	4558
900.352	4577
900.472	4478
900.591	4375
900.711	4512
900.83	4455
900.95	4596
901.069	4668
901.189	4592
901.308	4386
901.427	4333
901.546	4344
901.665	4428
901.784	4504
901.904	4371
902.023	4299
902.141	4196
902.26	4158
902.379	4280
902.498	4230
902.617	4223
902.735	4325
902.854	4421
902.973	4314
903.091	4200
903.21	4230
903.328	4310
903.446	4295
903.565	4280
903.683	4344
903.801	4257
903.919	4356
904.038	4455
904.156	4303
904.274	4405
904.392	4383
904.51	4428
904.627	4481
904.745	4565
904.863	4599
904.981	4379
905.098	4280
905.216	4337
905.334	4432
905.451	4424
905.569	4466
905.686	4603
905.803	4561
905.921	4409
906.038	4527
906.155	4500
906.272	4405
906.389	4455
906.506	4344
906.623	4356
906.74	4344
906.857	4325
906.974	4344
907.091	4607
907.208	4653
907.324	4584
907.441	4542
907.557	4344
907.674	4344
907.79	4341
907.907	4360
908.023	4478
908.139	4497
908.256	4421
908.372	4451
908.488	4428
908.604	4394
908.72	4322
908.836	4344
908.952	4356
909.068	4363
909.184	4580
909.3	4516
909.415	4546
909.531	4550
909.647	4356
909.762	4348
909.878	4394
909.993	4405
910.108	4428
910.224	4424
910.339	4470
910.454	4409
910.57	4386
910.685	4284
910.8	4664
910.915	4607
911.03	4451
911.145	4375
911.259	4325
911.374	4363
911.489	4306
911.604	4310
911.718	4154
911.833	4207
911.947	4093
912.062	4048
912.176	4204
912.291	4215
912.405	4230
912.519	4478
912.633	4527
912.748	4375
912.862	4306
912.976	4188
913.09	4124
913.204	4200
913.318	4246
913.431	4367
913.545	4360
913.659	4424
913.772	4329
913.886	4238
914	4272
914.113	4383
914.226	4440
914.34	4383
914.453	4246
914.566	4424
914.68	4303
914.793	4333
914.906	4120
915.019	4169
915.132	4071
915.245	4173
915.358	4196
915.47	4223
915.583	4276
915.696	4344
915.809	4383
915.921	4398
916.034	4253
916.146	4227
916.259	4253
916.371	4383
916.483	4314
916.595	4207
916.708	4333
916.82	4299
916.932	4337
917.044	4344
917.156	4344
917.268	4227
917.38	4238
917.491	4268
917.603	4337
917.715	4432
917.826	4462
917.938	4341
918.049	4227
918.161	4402
918.272	4504
918.384	4546
918.495	4497
918.606	4322
918.717	4230
918.828	4333
918.939	4344
919.05	4253
919.161	4318
919.272	4131
919.383	4207
919.494	4455
919.604	4622
919.715	4436
919.826	4352
919.936	4363
920.047	4523
920.157	4500
920.267	4687
920.378	4561
920.488	4519
920.598	4733
920.708	4877
920.818	4763
920.928	4793
921.038	4961
921.148	4885
921.258	4634
921.368	4527
921.477	4481
921.587	4493
921.697	4352
921.806	4519
921.916	4462
922.025	4253
922.134	4265
922.244	4261
922.353	4337
922.462	4131
922.571	4124
922.68	4040
922.789	3945
922.898	4078
923.007	3960
923.116	4078
923.224	4086
923.333	4067
923.442	3994
923.55	4029
923.659	3987
923.767	4131
923.876	4010
923.984	4131
924.092	4002
924.201	4063
924.309	4082
924.417	4124
924.525	4074
924.633	4120
924.741	5041
924.849	3876
924.956	4093
925.064	3930
925.172	3876
925.279	3968
925.387	4051
925.494	4051
925.602	4230
925.709	4204
925.816	4082
925.924	4154
926.031	4166
926.138	4173
926.245	4242
926.352	4093
926.459	4219
926.566	4310
926.673	4173
926.779	4093
926.886	4093
926.993	3983
927.099	3975
927.206	3926
927.312	3934
927.419	4055
927.525	4048
927.631	4055
927.737	3937
927.843	3941
927.95	3869
928.056	3918
928.162	4017
928.267	4086
928.373	4580
928.479	4116
928.585	3880
928.69	4025
928.796	4074
928.901	3983
929.007	3861
929.112	4017
929.218	3964
929.323	3960
929.428	3945
929.533	4105
929.638	3907
929.743	3949
929.848	4051
929.953	4006
930.058	3915
930.163	3762
930.267	3800
930.372	3983
930.477	3804
930.581	4074
930.685	3968
930.79	3793
930.894	3899
930.998	3865
931.103	4044
931.207	3705
931.311	3686
931.415	3679
931.519	3542
931.623	3545
