Data from test_V78500241_829.txt Node
Date: Fri Mar 25 16:54:46 CST 2022
User: usil
Spectrometer: V785-0024
Trigger mode: 0
Integration Time (sec): 4.000000E-1
Scans to average: 1
Nonlinearity correction enabled: false
Boxcar width: 0
Storing dark spectrum: false
XAxis mode: Wavelengths
Number of Pixels in Spectrum: 1024
>>>>>Begin Spectral Data<<<<<
801.071	8008
801.214	7944
801.356	7849
801.499	7868
801.641	7753
801.783	7833
801.926	7959
802.068	7936
802.211	7967
802.353	7906
802.496	7803
802.638	7860
802.78	7887
802.923	7875
803.065	7898
803.208	7868
803.35	8016
803.492	8161
803.635	8153
803.777	8043
803.919	8008
804.061	8381
804.204	8164
804.346	7947
804.488	7909
804.63	8096
804.773	8050
804.915	7989
805.057	8206
805.199	8221
805.341	8164
805.483	8240
805.626	8259
805.768	8058
805.91	8172
806.052	8157
806.194	8126
806.336	8317
806.478	8050
806.62	8050
806.762	8187
806.904	8259
807.046	8400
807.188	8271
807.33	8328
807.472	8328
807.614	8153
807.756	8111
807.898	7913
808.04	7856
808.182	7913
808.324	7902
808.465	7921
808.607	8035
808.749	8073
808.891	8069
809.033	8244
809.174	8183
809.316	8069
809.458	8035
809.6	7887
809.741	8046
809.883	7978
810.025	8092
810.166	8084
810.308	7993
810.45	8008
810.591	7902
810.733	7723
810.875	7693
811.016	7514
811.158	7472
811.299	7556
811.441	7696
811.582	7590
811.724	7571
811.865	7499
812.007	7582
812.148	7578
812.29	7609
812.431	7712
812.573	7803
812.714	7932
812.855	8050
812.997	8187
813.138	8313
813.279	8233
813.421	8035
813.562	7993
813.703	7818
813.845	7765
813.986	7445
814.127	7327
814.268	7213
814.41	7232
814.551	7171
814.692	7107
814.833	6977
814.974	7084
815.115	7084
815.256	6970
815.397	6916
815.539	6973
815.68	6856
815.821	6764
815.962	6863
816.103	6764
816.244	6715
816.385	6589
816.526	6601
816.666	6418
816.807	6262
816.948	6380
817.089	6399
817.23	6441
817.371	6365
817.512	6414
817.653	6471
817.793	6372
817.934	6376
818.075	6403
818.216	6464
818.356	6418
818.497	6178
818.638	6087
818.778	6129
818.919	6140
819.06	6106
819.2	6308
819.341	6308
819.481	6380
819.622	6525
819.762	6692
819.903	6665
820.043	6627
820.184	6547
820.324	6536
820.465	6650
820.605	6635
820.746	6593
820.886	6513
821.026	6616
821.167	6707
821.307	6795
821.447	6779
821.588	6597
821.728	6532
821.868	6479
822.008	6277
822.149	6350
822.289	6380
822.429	6079
822.569	6057
822.709	6114
822.849	5897
822.99	5859
823.13	5946
823.27	5920
823.41	5783
823.55	5752
823.69	5756
823.83	5767
823.97	5653
824.11	5524
824.25	5490
824.389	5600
824.529	5592
824.669	5471
824.809	5684
824.949	5661
825.089	5604
825.228	5554
825.368	5395
825.508	5288
825.648	5318
825.787	5395
825.927	5376
826.067	5250
826.206	5269
826.346	5357
826.485	5368
826.625	5379
826.765	5566
826.904	5448
827.044	5258
827.183	5204
827.323	5109
827.462	5235
827.601	5185
827.741	5185
827.88	5208
828.02	5094
828.159	5212
828.298	5254
828.437	5330
828.577	5273
828.716	5455
828.855	5296
828.994	5136
829.134	5090
829.273	5124
829.412	5060
829.551	5086
829.69	5132
829.829	5212
829.968	5345
830.107	5250
830.246	5250
830.385	5147
830.524	5105
830.663	5033
830.802	4980
830.941	4889
831.08	4839
831.219	4915
831.357	4972
831.496	5136
831.635	4862
831.774	4778
831.913	4889
832.051	4729
832.19	4717
832.329	4828
832.467	4675
832.606	4584
832.744	4733
832.883	4687
833.022	4725
833.16	4755
833.299	4839
833.437	4870
833.576	4771
833.714	4866
833.852	4843
833.991	4873
834.129	4949
834.267	4900
834.406	4835
834.544	4961
834.682	4946
834.821	4961
834.959	5181
835.097	4999
835.235	5094
835.373	5014
835.511	5109
835.65	5060
835.788	5006
835.926	4858
836.064	4904
836.202	4946
836.34	5166
836.478	5181
836.615	5067
836.753	5231
836.891	5280
837.029	5254
837.167	5189
837.305	5124
837.443	5128
837.58	5056
837.718	5227
837.856	5151
837.993	5147
838.131	5204
838.269	5212
838.406	5189
838.544	5181
838.681	5029
838.819	5003
838.956	4919
839.094	4858
839.231	5014
839.369	5079
839.506	5421
839.643	5239
839.781	5064
839.918	4976
840.055	5037
840.193	5064
840.33	5105
840.467	5132
840.604	5166
840.742	5429
840.879	5045
841.016	5071
841.153	5155
841.29	5341
841.427	5330
841.564	5307
841.701	5303
841.838	5258
841.975	5227
842.112	5261
842.249	5193
842.385	5105
842.522	5315
842.659	5136
842.796	5155
842.933	5136
843.069	5128
843.206	5117
843.343	5322
843.479	5208
843.616	5220
843.752	5010
843.889	4984
844.025	5212
844.162	4995
844.298	5147
844.435	5056
844.571	5010
844.708	5178
844.844	5280
844.98	5357
845.117	5303
845.253	5159
845.389	5071
845.525	5128
845.661	5170
845.798	4995
845.934	5132
846.07	5060
846.206	5151
846.342	5288
846.478	5189
846.614	5014
846.75	4908
846.886	4873
847.022	5174
847.158	5033
847.294	5075
847.429	5086
847.565	5052
847.701	5326
847.837	4831
847.972	4767
848.108	4938
848.244	4930
848.379	4755
848.515	4748
848.65	4729
848.786	4679
848.921	4809
849.057	4854
849.192	4885
849.328	4733
849.463	4812
849.598	4786
849.734	4755
849.869	4653
850.004	4611
850.14	4596
850.275	4580
850.41	4508
850.545	4565
850.68	4538
850.815	4649
850.95	4603
851.085	4847
851.22	4763
851.355	4694
851.49	4630
851.625	4615
851.76	4618
851.895	4561
852.03	4500
852.165	4630
852.299	4755
852.434	4809
852.569	4801
852.703	4752
852.838	4828
852.973	4923
853.107	4866
853.242	4729
853.376	4702
853.511	4531
853.645	4592
853.78	4805
853.914	4698
854.048	4607
854.183	4634
854.317	4679
854.451	4839
854.585	4630
854.72	4672
854.854	4782
854.988	4588
855.122	4615
855.256	4493
855.39	4634
855.524	4767
855.658	4733
855.792	4679
855.926	4714
856.06	4774
856.194	4706
856.327	4630
856.461	4599
856.595	4596
856.729	4626
856.862	4778
856.996	4717
857.13	4702
857.263	4694
857.397	4759
857.53	4660
857.664	4710
857.797	4717
857.931	4736
858.064	4645
858.197	4706
858.331	4596
858.464	4588
858.597	4508
858.731	4637
858.864	4649
858.997	4584
859.13	4664
859.263	4630
859.396	4656
859.529	4622
859.662	4565
859.795	4516
859.928	4584
860.061	4714
860.194	4729
860.327	4584
860.46	4523
860.592	4698
860.725	4687
860.858	4672
860.99	4596
861.123	4455
861.256	4504
861.388	4615
861.521	5246
861.653	4470
861.786	4459
861.918	4436
862.05	4497
862.183	4558
862.315	4630
862.447	4675
862.58	4535
862.712	4394
862.844	4375
862.976	4447
863.108	4497
863.24	4755
863.372	4306
863.504	4398
863.636	4379
863.768	4455
863.9	4409
864.032	4367
864.164	4394
864.296	4493
864.428	4550
864.559	4569
864.691	4558
864.823	4527
864.954	4478
865.086	4519
865.217	4478
865.349	4405
865.48	4443
865.612	4489
865.743	4622
865.875	4443
866.006	4421
866.137	4481
866.269	4409
866.4	4394
866.531	4394
866.662	4375
866.793	4459
866.924	4383
867.055	4489
867.186	4443
867.317	4375
867.448	4375
867.579	4367
867.71	4348
867.841	4386
867.972	4443
868.103	4451
868.233	4417
868.364	4478
868.495	4462
868.625	4683
868.756	4740
868.886	4516
869.017	4615
869.147	4748
869.278	4771
869.408	4668
869.539	4637
869.669	4694
869.799	4653
869.929	4771
870.06	4672
870.19	4949
870.32	4854
870.45	4927
870.58	5010
870.71	5064
870.84	5117
870.97	4908
871.1	4900
871.23	5136
871.36	5067
871.489	5025
871.619	5041
871.749	5060
871.879	5098
872.008	5159
872.138	5014
872.267	4911
872.397	4911
872.526	4797
872.656	4683
872.785	4790
872.915	4938
873.044	4968
873.173	4946
873.303	4991
873.432	4957
873.561	4942
873.69	4892
873.819	4854
873.948	4873
874.077	4809
874.206	4744
874.335	4763
874.464	4934
874.593	5029
874.722	4949
874.851	5086
874.979	5022
875.108	5041
875.237	4889
875.365	4866
875.494	4843
875.623	4957
875.751	4797
875.88	4877
876.008	4972
876.136	5037
876.265	5189
876.393	5326
876.521	5220
876.65	5258
876.778	5132
876.906	5109
877.034	5022
877.162	5048
877.29	4984
877.418	5056
877.546	4991
877.674	5018
877.802	5041
877.93	5018
878.058	4904
878.185	4854
878.313	4949
878.441	4889
878.568	4809
878.696	4790
878.824	4949
878.951	4991
879.079	5121
879.206	5235
879.333	5109
879.461	4946
879.588	4976
879.715	5109
879.842	5174
879.97	4980
880.097	4721
880.224	4725
880.351	4786
880.478	4793
880.605	4816
880.732	4797
880.859	5098
880.986	4889
881.112	4816
881.239	4782
881.366	4656
881.493	4565
881.619	4577
881.746	4615
881.872	4653
881.999	4668
882.125	4615
882.252	4793
882.378	4763
882.505	4968
882.631	4797
882.757	4691
882.883	4733
883.01	4698
883.136	4664
883.262	4596
883.388	4611
883.514	4812
883.64	4847
883.766	4786
883.892	4653
884.018	4740
884.143	4889
884.269	4953
884.395	4649
884.52	4622
884.646	4611
884.772	4592
884.897	4584
885.023	4664
885.148	4793
885.274	4805
885.399	4816
885.524	4744
885.65	4755
885.775	4767
885.9	4679
886.025	4839
886.15	4828
886.275	4698
886.4	4637
886.525	4691
886.65	4706
886.775	4683
886.9	4900
887.025	5003
887.149	4801
887.274	4618
887.399	4516
887.523	4573
887.648	4531
887.773	4569
887.897	4714
888.021	4740
888.146	4653
888.27	4740
888.395	4831
888.519	4782
888.643	4797
888.767	4828
888.891	4694
889.015	4588
889.139	4664
889.263	4580
889.387	4763
889.511	4843
889.635	4820
889.759	4687
889.883	4645
890.006	4702
890.13	4820
890.254	4596
890.377	4641
890.501	4508
890.624	4485
890.748	4577
890.871	4519
890.995	4421
891.118	4402
891.241	4538
891.364	4516
891.488	4649
891.611	4538
891.734	4516
891.857	4569
891.98	4508
892.103	4615
892.226	4580
892.349	4531
892.471	4417
892.594	4592
892.717	4565
892.839	4546
892.962	4611
893.085	4596
893.207	4592
893.33	4474
893.452	4516
893.575	4660
893.697	4542
893.819	4740
893.941	4835
894.064	4736
894.186	4603
894.308	4577
894.43	4725
894.552	4763
894.674	4679
894.796	4531
894.918	4577
895.04	4607
895.161	4702
895.283	4653
895.405	4603
895.526	4626
895.648	4660
895.769	4645
895.891	4702
896.012	4706
896.134	4694
896.255	4675
896.376	4618
896.498	4649
896.619	4687
896.74	4588
896.861	4664
896.982	4908
897.103	5113
897.224	4862
897.345	4706
897.466	4641
897.587	4740
897.708	4847
897.828	4752
897.949	4634
898.07	4538
898.19	4603
898.311	4862
898.431	4653
898.552	4717
898.672	4831
898.792	4771
898.913	4721
899.033	4634
899.153	4512
899.273	4398
899.393	4519
899.513	4508
899.633	4497
899.753	4508
899.873	4508
899.993	4577
900.113	4531
900.232	4565
900.352	4550
900.472	4462
900.591	4371
900.711	4512
900.83	4417
900.95	4569
901.069	4683
901.189	4550
901.308	4360
901.427	4344
901.546	4390
901.665	4485
901.784	4504
901.904	4356
902.023	4344
902.141	4185
902.26	4185
902.379	4280
902.498	4246
902.617	4181
902.735	4348
902.854	4383
902.973	4394
903.091	4154
903.21	4200
903.328	4234
903.446	4253
903.565	4276
903.683	4398
903.801	4268
903.919	4390
904.038	4424
904.156	4287
904.274	4428
904.392	4348
904.51	4398
904.627	4485
904.745	4592
904.863	4615
904.981	4390
905.098	4306
905.216	4375
905.334	4356
905.451	4432
905.569	4413
905.686	4523
905.803	4584
905.921	4394
906.038	4565
906.155	4440
906.272	4379
906.389	4459
906.506	4352
906.623	4356
906.74	4405
906.857	4295
906.974	4363
907.091	4561
907.208	4656
907.324	4645
907.441	4493
907.557	4390
907.674	4341
907.79	4325
907.907	4363
908.023	4470
908.139	4519
908.256	4375
908.372	4447
908.488	4432
908.604	4379
908.72	4329
908.836	4344
908.952	4348
909.068	4409
909.184	4531
909.3	4455
909.415	4512
909.531	4565
909.647	4367
909.762	4356
909.878	4352
909.993	4455
910.108	4367
910.224	4379
910.339	4470
910.454	4383
910.57	4352
910.685	4306
910.8	4637
910.915	4588
911.03	4462
911.145	4287
911.259	4329
911.374	4360
911.489	4280
911.604	4261
911.718	4150
911.833	4188
911.947	4063
912.062	4059
912.176	4196
912.291	4253
912.405	4215
912.519	4466
912.633	4485
912.748	4371
912.862	4276
912.976	4204
913.09	4067
913.204	4154
913.318	4261
913.431	4367
913.545	4367
913.659	4432
913.772	4402
913.886	4249
914	4200
914.113	4360
914.226	4402
914.34	4306
914.453	4219
914.566	4462
914.68	4272
914.793	4310
914.906	4135
915.019	4128
915.132	4112
915.245	4173
915.358	4181
915.47	4223
915.583	4268
915.696	4287
915.809	4348
915.921	4367
916.034	4276
916.146	4223
916.259	4230
916.371	4383
916.483	4371
916.595	4265
916.708	4303
916.82	4337
916.932	4344
917.044	4341
917.156	4329
917.268	4200
917.38	4238
917.491	4207
917.603	4329
917.715	4409
917.826	4352
917.938	4363
918.049	4211
918.161	4344
918.272	4550
918.384	4546
918.495	4478
918.606	4227
918.717	4196
918.828	4363
918.939	4394
919.05	4257
919.161	4295
919.272	4128
919.383	4230
919.494	4470
919.604	4596
919.715	4356
919.826	4325
919.936	4379
920.047	4500
920.157	4474
920.267	4675
920.378	4500
920.488	4489
920.598	4694
920.708	4881
920.818	4759
920.928	4778
921.038	4961
921.148	4850
921.258	4626
921.368	4554
921.477	4516
921.587	4398
921.697	4356
921.806	4542
921.916	4402
922.025	4257
922.134	4261
922.244	4253
922.353	4310
922.462	4181
922.571	4173
922.68	4013
922.789	3945
922.898	3987
923.007	4013
923.116	4090
923.224	4036
923.333	4040
923.442	4002
923.55	3964
923.659	3998
923.767	4086
923.876	3956
923.984	4093
924.092	3975
924.201	4059
924.309	4112
924.417	4105
924.525	4071
924.633	4112
924.741	4877
924.849	3930
924.956	4116
925.064	3937
925.172	3915
925.279	3949
925.387	4048
925.494	4048
925.602	4192
925.709	4173
925.816	4029
925.924	4124
926.031	4215
926.138	4131
926.245	4185
926.352	4051
926.459	4242
926.566	4261
926.673	4143
926.779	4063
926.886	4093
926.993	4010
927.099	3911
927.206	3934
927.312	3937
927.419	4025
927.525	4013
927.631	4101
927.737	3972
927.843	3884
927.95	3819
928.056	3926
928.162	3922
928.267	4044
928.373	4679
928.479	4097
928.585	3819
928.69	3994
928.796	4093
928.901	3922
929.007	3793
929.112	3994
929.218	3945
929.323	3896
929.428	3945
929.533	4105
929.638	3911
929.743	3941
929.848	4021
929.953	3987
930.058	3899
930.163	3759
930.267	3804
930.372	3941
930.477	3770
930.581	4051
930.685	3964
930.79	3823
930.894	3861
930.998	3827
931.103	4051
931.207	3698
931.311	3713
931.415	3667
931.519	3500
931.623	3568
