Data from test_V78500241_2606.txt Node
Date: Fri Mar 25 17:07:07 CST 2022
User: usil
Spectrometer: V785-0024
Trigger mode: 0
Integration Time (sec): 4.000000E-1
Scans to average: 1
Nonlinearity correction enabled: false
Boxcar width: 0
Storing dark spectrum: false
XAxis mode: Wavelengths
Number of Pixels in Spectrum: 1024
>>>>>Begin Spectral Data<<<<<
801.071	8039
801.214	8024
801.356	7921
801.499	7860
801.641	7830
801.783	7826
801.926	7989
802.068	7974
802.211	8012
802.353	7944
802.496	7879
802.638	7795
802.78	7917
802.923	7871
803.065	7830
803.208	7875
803.35	8039
803.492	8168
803.635	8206
803.777	8065
803.919	8115
804.061	8469
804.204	8111
804.346	8142
804.488	7940
804.63	8081
804.773	7982
804.915	8103
805.057	8294
805.199	8218
805.341	8199
805.483	8301
805.626	8256
805.768	8161
805.91	8195
806.052	8199
806.194	8138
806.336	8320
806.478	8058
806.62	8058
806.762	8103
806.904	8248
807.046	8492
807.188	8396
807.33	8263
807.472	8298
807.614	8168
807.756	8180
807.898	8084
808.04	7811
808.182	7879
808.324	7887
808.465	7936
808.607	8035
808.749	8134
808.891	8206
809.033	8351
809.174	8233
809.316	8103
809.458	8111
809.6	7993
809.741	8054
809.883	8039
810.025	8149
810.166	8123
810.308	8001
810.45	8005
810.591	7856
810.733	7746
810.875	7719
811.016	7544
811.158	7407
811.299	7651
811.441	7700
811.582	7693
811.724	7582
811.865	7548
812.007	7662
812.148	7597
812.29	7552
812.431	7803
812.573	7849
812.714	7997
812.855	8126
812.997	8218
813.138	8313
813.279	8191
813.421	8119
813.562	7982
813.703	7890
813.845	7738
813.986	7381
814.127	7297
814.268	7198
814.41	7209
814.551	7194
814.692	7228
814.833	7076
814.974	7164
815.115	7107
815.256	6966
815.397	6935
815.539	6935
815.68	6768
815.821	6833
815.962	6844
816.103	6844
816.244	6692
816.385	6684
816.526	6574
816.666	6544
816.807	6357
816.948	6433
817.089	6456
817.23	6403
817.371	6433
817.512	6403
817.653	6395
817.793	6380
817.934	6403
818.075	6532
818.216	6437
818.356	6433
818.497	6232
818.638	6121
818.778	6125
818.919	6178
819.06	6155
819.2	6365
819.341	6429
819.481	6380
819.622	6570
819.762	6779
819.903	6688
820.043	6601
820.184	6582
820.324	6620
820.465	6722
820.605	6688
820.746	6639
820.886	6517
821.026	6734
821.167	6745
821.307	6825
821.447	6791
821.588	6726
821.728	6604
821.868	6502
822.008	6319
822.149	6418
822.289	6395
822.429	6194
822.569	6106
822.709	6163
822.849	5939
822.99	5942
823.13	5912
823.27	5973
823.41	5786
823.55	5798
823.69	5771
823.83	5779
823.97	5684
824.11	5577
824.25	5547
824.389	5573
824.529	5604
824.669	5516
824.809	5608
824.949	5668
825.089	5627
825.228	5501
825.368	5379
825.508	5360
825.648	5364
825.787	5364
825.927	5379
826.067	5330
826.206	5288
826.346	5383
826.485	5444
826.625	5425
826.765	5551
826.904	5520
827.044	5296
827.183	5208
827.323	5117
827.462	5197
827.601	5174
827.741	5227
827.88	5174
828.02	5147
828.159	5239
828.298	5353
828.437	5360
828.577	5273
828.716	5486
828.855	5337
828.994	5185
829.134	5151
829.273	5231
829.412	5166
829.551	5136
829.69	5147
829.829	5242
829.968	5387
830.107	5307
830.246	5239
830.385	5181
830.524	5155
830.663	5052
830.802	4984
830.941	4900
831.08	4850
831.219	4991
831.357	5041
831.496	5143
831.635	4904
831.774	4900
831.913	4835
832.051	4740
832.19	4755
832.329	4824
832.467	4714
832.606	4634
832.744	4702
832.883	4702
833.022	4736
833.16	4801
833.299	4847
833.437	4797
833.576	4809
833.714	4858
833.852	4828
833.991	4930
834.129	4961
834.267	4915
834.406	4892
834.544	4984
834.682	5018
834.821	4957
834.959	5170
835.097	5056
835.235	5193
835.373	5132
835.511	5113
835.65	5056
835.788	5010
835.926	4919
836.064	4896
836.202	4942
836.34	5162
836.478	5201
836.615	5124
836.753	5227
836.891	5326
837.029	5216
837.167	5212
837.305	5162
837.443	5170
837.58	5056
837.718	5250
837.856	5181
837.993	5181
838.131	5220
838.269	5239
838.406	5193
838.544	5140
838.681	5018
838.819	4984
838.956	4942
839.094	4908
839.231	4991
839.369	5121
839.506	5482
839.643	5231
839.781	5048
839.918	5052
840.055	5083
840.193	5079
840.33	5075
840.467	5143
840.604	5174
840.742	5467
840.879	5155
841.016	5128
841.153	5147
841.29	5387
841.427	5395
841.564	5261
841.701	5368
841.838	5258
841.975	5231
842.112	5269
842.249	5155
842.385	5079
842.522	5277
842.659	5216
842.796	5121
842.933	5170
843.069	5128
843.206	5155
843.343	5311
843.479	5258
843.616	5265
843.752	5014
843.889	5018
844.025	5246
844.162	5003
844.298	5216
844.435	5102
844.571	5025
844.708	5197
844.844	5299
844.98	5341
845.117	5307
845.253	5143
845.389	5067
845.525	5166
845.661	5128
845.798	5117
845.934	5201
846.07	5086
846.206	5208
846.342	5330
846.478	5143
846.614	4991
846.75	4991
846.886	4968
847.022	5155
847.158	5060
847.294	5079
847.429	5102
847.565	5140
847.701	5345
847.837	4831
847.972	4797
848.108	4965
848.244	4961
848.379	4774
848.515	4767
848.65	4729
848.786	4721
848.921	4782
849.057	4915
849.192	4911
849.328	4805
849.463	4847
849.598	4824
849.734	4748
849.869	4706
850.004	4611
850.14	4622
850.275	4660
850.41	4535
850.545	4596
850.68	4645
850.815	4588
850.95	4599
851.085	4870
851.22	4683
851.355	4656
851.49	4607
851.625	4672
851.76	4672
851.895	4573
852.03	4584
852.165	4702
852.299	4736
852.434	4755
852.569	4755
852.703	4778
852.838	4835
852.973	4946
853.107	4904
853.242	4733
853.376	4675
853.511	4588
853.645	4580
853.78	4809
853.914	4725
854.048	4683
854.183	4611
854.317	4687
854.451	4885
854.585	4691
854.72	4687
854.854	4748
854.988	4535
855.122	4607
855.256	4561
855.39	4698
855.524	4801
855.658	4714
855.792	4702
855.926	4717
856.06	4755
856.194	4820
856.327	4679
856.461	4637
856.595	4596
856.729	4588
856.862	4774
856.996	4675
857.13	4733
857.263	4733
857.397	4820
857.53	4630
857.664	4721
857.797	4755
857.931	4782
858.064	4714
858.197	4778
858.331	4710
858.464	4599
858.597	4538
858.731	4687
858.864	4653
858.997	4641
859.13	4649
859.263	4641
859.396	4702
859.529	4592
859.662	4561
859.795	4527
859.928	4649
860.061	4774
860.194	4771
860.327	4641
860.46	4615
860.592	4752
860.725	4736
860.858	4725
860.99	4565
861.123	4508
861.256	4550
861.388	4611
861.521	5448
861.653	4451
861.786	4470
861.918	4478
862.05	4508
862.183	4542
862.315	4645
862.447	4675
862.58	4596
862.712	4394
862.844	4356
862.976	4478
863.108	4481
863.24	4736
863.372	4299
863.504	4443
863.636	4421
863.768	4432
863.9	4466
864.032	4367
864.164	4409
864.296	4478
864.428	4565
864.559	4577
864.691	4531
864.823	4558
864.954	4440
865.086	4508
865.217	4478
865.349	4440
865.48	4474
865.612	4497
865.743	4588
865.875	4447
866.006	4440
866.137	4421
866.269	4417
866.4	4447
866.531	4447
866.662	4371
866.793	4383
866.924	4421
867.055	4508
867.186	4440
867.317	4428
867.448	4352
867.579	4417
867.71	4394
867.841	4421
867.972	4451
868.103	4440
868.233	4424
868.364	4432
868.495	4462
868.625	4698
868.756	4759
868.886	4592
869.017	4577
869.147	4805
869.278	4763
869.408	4687
869.539	4656
869.669	4721
869.799	4725
869.929	4748
870.06	4774
870.19	4961
870.32	4892
870.45	4965
870.58	4984
870.71	5098
870.84	5132
870.97	4900
871.1	4900
871.23	5124
871.36	5155
871.489	5075
871.619	5117
871.749	5113
871.879	5102
872.008	5189
872.138	5067
872.267	4991
872.397	4881
872.526	4858
872.656	4748
872.785	4786
872.915	4976
873.044	5041
873.173	4938
873.303	4980
873.432	4927
873.561	4961
873.69	4919
873.819	4873
873.948	4927
874.077	4786
874.206	4793
874.335	4805
874.464	4984
874.593	5086
874.722	4957
874.851	5147
874.979	5018
875.108	5022
875.237	4889
875.365	4854
875.494	4877
875.623	5010
875.751	4835
875.88	4877
876.008	5003
876.136	5006
876.265	5223
876.393	5284
876.521	5162
876.65	5223
876.778	5174
876.906	5079
877.034	5014
877.162	5067
877.29	5003
877.418	5083
877.546	5048
877.674	5022
877.802	5056
877.93	5052
878.058	4949
878.185	4847
878.313	4961
878.441	4949
878.568	4824
878.696	4881
878.824	4965
878.951	4991
879.079	5136
879.206	5288
879.333	5094
879.461	4976
879.588	4972
879.715	5170
879.842	5269
879.97	4999
880.097	4793
880.224	4736
880.351	4774
880.478	4755
880.605	4812
880.732	4793
880.859	5056
880.986	4900
881.112	4892
881.239	4805
881.366	4649
881.493	4580
881.619	4592
881.746	4634
881.872	4626
881.999	4634
882.125	4679
882.252	4790
882.378	4831
882.505	4987
882.631	4797
882.757	4615
882.883	4740
883.01	4744
883.136	4672
883.262	4603
883.388	4592
883.514	4797
883.64	4854
883.766	4793
883.892	4664
884.018	4740
884.143	4892
884.269	5003
884.395	4656
884.52	4641
884.646	4599
884.772	4573
884.897	4542
885.023	4660
885.148	4774
885.274	4835
885.399	4824
885.524	4721
885.65	4694
885.775	4740
885.9	4729
886.025	4862
886.15	4771
886.275	4702
886.4	4615
886.525	4698
886.65	4679
886.775	4694
886.9	4942
887.025	5037
887.149	4801
887.274	4679
887.399	4554
887.523	4664
887.648	4588
887.773	4592
887.897	4774
888.021	4767
888.146	4691
888.27	4744
888.395	4866
888.519	4816
888.643	4790
888.767	4824
888.891	4698
889.015	4611
889.139	4714
889.263	4615
889.387	4725
889.511	4850
889.635	4774
889.759	4615
889.883	4668
890.006	4687
890.13	4828
890.254	4645
890.377	4710
890.501	4554
890.624	4546
890.748	4649
890.871	4489
890.995	4428
891.118	4413
891.241	4489
891.364	4523
891.488	4637
891.611	4512
891.734	4508
891.857	4580
891.98	4531
892.103	4653
892.226	4573
892.349	4462
892.471	4390
892.594	4538
892.717	4580
892.839	4546
892.962	4558
893.085	4630
893.207	4580
893.33	4497
893.452	4550
893.575	4660
893.697	4527
893.819	4778
893.941	4862
894.064	4740
894.186	4538
894.308	4569
894.43	4733
894.552	4809
894.674	4771
894.796	4527
894.918	4603
895.04	4580
895.161	4748
895.283	4702
895.405	4596
895.526	4664
895.648	4710
895.769	4660
895.891	4683
896.012	4725
896.134	4771
896.255	4607
896.376	4634
896.498	4596
896.619	4664
896.74	4626
896.861	4656
896.982	4900
897.103	5060
897.224	4793
897.345	4710
897.466	4675
897.587	4675
897.708	4877
897.828	4809
897.949	4687
898.07	4531
898.19	4607
898.311	4828
898.431	4649
898.552	4710
898.672	4847
898.792	4790
898.913	4702
899.033	4626
899.153	4497
899.273	4402
899.393	4508
899.513	4493
899.633	4538
899.753	4577
899.873	4504
899.993	4596
900.113	4546
900.232	4561
900.352	4531
900.472	4512
900.591	4386
900.711	4451
900.83	4432
900.95	4580
901.069	4687
901.189	4573
901.308	4394
901.427	4337
901.546	4344
901.665	4447
901.784	4538
901.904	4363
902.023	4295
902.141	4147
902.26	4128
902.379	4280
902.498	4227
902.617	4188
902.735	4390
902.854	4409
902.973	4322
903.091	4185
903.21	4219
903.328	4314
903.446	4303
903.565	4272
903.683	4314
903.801	4299
903.919	4405
904.038	4451
904.156	4333
904.274	4424
904.392	4428
904.51	4424
904.627	4470
904.745	4573
904.863	4622
904.981	4386
905.098	4268
905.216	4325
905.334	4383
905.451	4428
905.569	4459
905.686	4535
905.803	4550
905.921	4417
906.038	4596
906.155	4489
906.272	4398
906.389	4466
906.506	4367
906.623	4360
906.74	4386
906.857	4363
906.974	4329
907.091	4516
907.208	4721
907.324	4596
907.441	4489
907.557	4314
907.674	4360
907.79	4295
907.907	4356
908.023	4497
908.139	4497
908.256	4436
908.372	4470
908.488	4470
908.604	4329
908.72	4299
908.836	4310
908.952	4386
909.068	4432
909.184	4554
909.3	4481
909.415	4558
909.531	4512
909.647	4337
909.762	4375
909.878	4318
909.993	4451
910.108	4409
910.224	4363
910.339	4440
910.454	4417
910.57	4409
910.685	4325
910.8	4653
910.915	4649
911.03	4470
911.145	4348
911.259	4329
911.374	4375
911.489	4249
911.604	4261
911.718	4181
911.833	4211
911.947	4093
912.062	4002
912.176	4204
912.291	4261
912.405	4261
912.519	4432
912.633	4504
912.748	4329
912.862	4265
912.976	4177
913.09	4071
913.204	4185
913.318	4219
913.431	4337
913.545	4341
913.659	4443
913.772	4322
913.886	4207
914	4207
914.113	4371
914.226	4421
914.34	4371
914.453	4192
914.566	4409
914.68	4287
914.793	4341
914.906	4131
915.019	4124
915.132	4097
915.245	4173
915.358	4211
915.47	4215
915.583	4192
915.696	4272
915.809	4447
915.921	4383
916.034	4261
916.146	4242
916.259	4223
916.371	4386
916.483	4363
916.595	4223
916.708	4329
916.82	4291
916.932	4325
917.044	4367
917.156	4363
917.268	4257
917.38	4280
917.491	4268
917.603	4363
917.715	4455
917.826	4436
917.938	4379
918.049	4276
918.161	4402
918.272	4577
918.384	4535
918.495	4466
918.606	4337
918.717	4280
918.828	4314
918.939	4390
919.05	4295
919.161	4352
919.272	4147
919.383	4272
919.494	4451
919.604	4691
919.715	4459
919.826	4390
919.936	4497
920.047	4573
920.157	4554
920.267	4733
920.378	4565
920.488	4535
920.598	4740
920.708	4911
920.818	4820
920.928	4771
921.038	4972
921.148	4965
921.258	4637
921.368	4618
921.477	4565
921.587	4493
921.697	4424
921.806	4611
921.916	4489
922.025	4322
922.134	4325
922.244	4310
922.353	4394
922.462	4234
922.571	4143
922.68	4048
922.789	3975
922.898	4055
923.007	4036
923.116	4169
923.224	4086
923.333	4131
923.442	4074
923.55	4006
923.659	4067
923.767	4158
923.876	4036
923.984	4143
924.092	4025
924.201	4093
924.309	4116
924.417	4139
924.525	4124
924.633	4116
924.741	5094
924.849	3930
924.956	4188
925.064	3998
925.172	4006
925.279	3972
925.387	4116
925.494	4112
925.602	4234
925.709	4242
925.816	4074
925.924	4169
926.031	4299
926.138	4246
926.245	4253
926.352	4124
926.459	4287
926.566	4367
926.673	4177
926.779	4143
926.886	4097
926.993	4059
927.099	4002
927.206	3979
927.312	3979
927.419	4135
927.525	4051
927.631	4166
927.737	3956
927.843	4013
927.95	3899
928.056	4010
928.162	4036
928.267	4074
928.373	4618
928.479	4128
928.585	3880
928.69	4059
928.796	4097
928.901	3987
929.007	3873
929.112	4067
929.218	4021
929.323	3949
929.428	3987
929.533	4120
929.638	3934
929.743	4048
929.848	4040
929.953	4055
930.058	3934
930.163	3816
930.267	3823
930.372	3968
930.477	3850
930.581	4135
930.685	3972
930.79	3869
930.894	3918
930.998	3918
931.103	4036
931.207	3804
931.311	3736
931.415	3682
931.519	3530
931.623	3587
