Data from test_V78500241_177.txt Node
Date: Fri Mar 25 16:50:14 CST 2022
User: usil
Spectrometer: V785-0024
Trigger mode: 0
Integration Time (sec): 4.000000E-1
Scans to average: 1
Nonlinearity correction enabled: false
Boxcar width: 0
Storing dark spectrum: false
XAxis mode: Wavelengths
Number of Pixels in Spectrum: 1024
>>>>>Begin Spectral Data<<<<<
801.071	8054
801.214	8005
801.356	7864
801.499	7856
801.641	7811
801.783	7883
801.926	8027
802.068	7868
802.211	7993
802.353	8005
802.496	7849
802.638	7875
802.78	7928
802.923	7925
803.065	7871
803.208	7875
803.35	7947
803.492	8058
803.635	8134
803.777	8001
803.919	8134
804.061	8362
804.204	8103
804.346	8005
804.488	7944
804.63	8138
804.773	8001
804.915	8096
805.057	8290
805.199	8153
805.341	8199
805.483	8279
805.626	8218
805.768	8073
805.91	8123
806.052	8183
806.194	8081
806.336	8298
806.478	8100
806.62	8008
806.762	8123
806.904	8248
807.046	8438
807.188	8351
807.33	8298
807.472	8317
807.614	8134
807.756	8126
807.898	8043
808.04	7894
808.182	7845
808.324	7925
808.465	7902
808.607	8084
808.749	8081
808.891	8180
809.033	8279
809.174	8172
809.316	8031
809.458	8115
809.6	7955
809.741	8050
809.883	7993
810.025	8107
810.166	8126
810.308	8088
810.45	7970
810.591	7890
810.733	7704
810.875	7674
811.016	7502
811.158	7537
811.299	7582
811.441	7822
811.582	7674
811.724	7620
811.865	7571
812.007	7594
812.148	7639
812.29	7628
812.431	7814
812.573	7932
812.714	7982
812.855	8206
812.997	8290
813.138	8396
813.279	8172
813.421	8065
813.562	7997
813.703	7894
813.845	7765
813.986	7495
814.127	7289
814.268	7251
814.41	7171
814.551	7209
814.692	7198
814.833	7118
814.974	7168
815.115	7110
815.256	6966
815.397	6859
815.539	6928
815.68	6875
815.821	6741
815.962	6875
816.103	6871
816.244	6711
816.385	6612
816.526	6631
816.666	6517
816.807	6380
816.948	6388
817.089	6426
817.23	6460
817.371	6372
817.512	6388
817.653	6456
817.793	6376
817.934	6422
818.075	6460
818.216	6525
818.356	6342
818.497	6235
818.638	6079
818.778	6117
818.919	6106
819.06	6125
819.2	6311
819.341	6315
819.481	6346
819.622	6502
819.762	6684
819.903	6681
820.043	6620
820.184	6551
820.324	6536
820.465	6703
820.605	6639
820.746	6673
820.886	6528
821.026	6654
821.167	6741
821.307	6821
821.447	6795
821.588	6681
821.728	6616
821.868	6525
822.008	6315
822.149	6346
822.289	6277
822.429	6148
822.569	6163
822.709	6102
822.849	5923
822.99	5912
823.13	5977
823.27	5999
823.41	5805
823.55	5756
823.69	5764
823.83	5733
823.97	5661
824.11	5554
824.25	5524
824.389	5539
824.529	5642
824.669	5520
824.809	5672
824.949	5642
825.089	5672
825.228	5554
825.368	5379
825.508	5353
825.648	5368
825.787	5387
825.927	5379
826.067	5284
826.206	5299
826.346	5341
826.485	5402
826.625	5398
826.765	5573
826.904	5486
827.044	5208
827.183	5231
827.323	5147
827.462	5269
827.601	5220
827.741	5208
827.88	5208
828.02	5128
828.159	5220
828.298	5288
828.437	5383
828.577	5284
828.716	5471
828.855	5345
828.994	5185
829.134	5136
829.273	5208
829.412	5151
829.551	5136
829.69	5212
829.829	5227
829.968	5395
830.107	5296
830.246	5315
830.385	5201
830.524	5121
830.663	5079
830.802	4987
830.941	4927
831.08	4870
831.219	4980
831.357	4976
831.496	5197
831.635	4908
831.774	4877
831.913	4885
832.051	4691
832.19	4782
832.329	4911
832.467	4702
832.606	4622
832.744	4710
832.883	4736
833.022	4729
833.16	4778
833.299	4831
833.437	4831
833.576	4820
833.714	4824
833.852	4870
833.991	4877
834.129	4953
834.267	4972
834.406	4866
834.544	4968
834.682	4991
834.821	4946
834.959	5181
835.097	5025
835.235	5193
835.373	5079
835.511	5113
835.65	5018
835.788	5022
835.926	4908
836.064	4915
836.202	4904
836.34	5136
836.478	5216
836.615	5159
836.753	5239
836.891	5296
837.029	5204
837.167	5185
837.305	5155
837.443	5166
837.58	5109
837.718	5261
837.856	5174
837.993	5174
838.131	5235
838.269	5246
838.406	5216
838.544	5143
838.681	5048
838.819	5060
838.956	4915
839.094	4923
839.231	4972
839.369	5075
839.506	5467
839.643	5280
839.781	5128
839.918	5029
840.055	5071
840.193	5086
840.33	5132
840.467	5159
840.604	5136
840.742	5440
840.879	5155
841.016	5121
841.153	5159
841.29	5421
841.427	5376
841.564	5315
841.701	5383
841.838	5212
841.975	5242
842.112	5280
842.249	5136
842.385	5124
842.522	5364
842.659	5166
842.796	5105
842.933	5220
843.069	5162
843.206	5212
843.343	5269
843.479	5246
843.616	5273
843.752	5006
843.889	5006
844.025	5185
844.162	5052
844.298	5216
844.435	5086
844.571	5033
844.708	5212
844.844	5280
844.98	5349
845.117	5273
845.253	5143
845.389	5128
845.525	5178
845.661	5170
845.798	5029
845.934	5113
846.07	5045
846.206	5174
846.342	5280
846.478	5174
846.614	5003
846.75	5014
846.886	4938
847.022	5170
847.158	5041
847.294	5056
847.429	5121
847.565	5037
847.701	5353
847.837	4877
847.972	4805
848.108	4927
848.244	4942
848.379	4793
848.515	4710
848.65	4729
848.786	4736
848.921	4793
849.057	4847
849.192	4862
849.328	4843
849.463	4854
849.598	4805
849.734	4759
849.869	4687
850.004	4622
850.14	4683
850.275	4599
850.41	4470
850.545	4584
850.68	4637
850.815	4626
850.95	4626
851.085	4915
851.22	4786
851.355	4664
851.49	4637
851.625	4649
851.76	4656
851.895	4573
852.03	4538
852.165	4668
852.299	4729
852.434	4755
852.569	4752
852.703	4771
852.838	4892
852.973	4942
853.107	4930
853.242	4717
853.376	4706
853.511	4561
853.645	4611
853.78	4828
853.914	4725
854.048	4672
854.183	4649
854.317	4721
854.451	4866
854.585	4752
854.72	4596
854.854	4778
854.988	4618
855.122	4618
855.256	4531
855.39	4687
855.524	4816
855.658	4736
855.792	4725
855.926	4759
856.06	4755
856.194	4839
856.327	4733
856.461	4645
856.595	4569
856.729	4653
856.862	4744
856.996	4668
857.13	4714
857.263	4748
857.397	4801
857.53	4626
857.664	4759
857.797	4782
857.931	4790
858.064	4672
858.197	4736
858.331	4675
858.464	4599
858.597	4554
858.731	4698
858.864	4656
858.997	4603
859.13	4717
859.263	4691
859.396	4630
859.529	4611
859.662	4561
859.795	4519
859.928	4588
860.061	4763
860.194	4774
860.327	4580
860.46	4596
860.592	4672
860.725	4736
860.858	4706
860.99	4588
861.123	4554
861.256	4523
861.388	4649
861.521	5433
861.653	4493
861.786	4466
861.918	4497
862.05	4516
862.183	4569
862.315	4546
862.447	4675
862.58	4531
862.712	4424
862.844	4337
862.976	4447
863.108	4424
863.24	4854
863.372	4344
863.504	4424
863.636	4390
863.768	4478
863.9	4466
864.032	4341
864.164	4421
864.296	4474
864.428	4577
864.559	4554
864.691	4569
864.823	4535
864.954	4504
865.086	4531
865.217	4485
865.349	4462
865.48	4436
865.612	4485
865.743	4615
865.875	4470
866.006	4447
866.137	4428
866.269	4409
866.4	4428
866.531	4447
866.662	4428
866.793	4424
866.924	4402
867.055	4523
867.186	4478
867.317	4455
867.448	4386
867.579	4375
867.71	4371
867.841	4360
867.972	4451
868.103	4500
868.233	4459
868.364	4421
868.495	4485
868.625	4687
868.756	4782
868.886	4615
869.017	4656
869.147	4778
869.278	4778
869.408	4694
869.539	4653
869.669	4668
869.799	4634
869.929	4740
870.06	4702
870.19	4938
870.32	4980
870.45	4972
870.58	4984
870.71	5109
870.84	5067
870.97	4987
871.1	4904
871.23	5185
871.36	5174
871.489	5075
871.619	5147
871.749	5094
871.879	5155
872.008	5242
872.138	5090
872.267	4900
872.397	4820
872.526	4816
872.656	4763
872.785	4801
872.915	4972
873.044	5003
873.173	5003
873.303	4987
873.432	4957
873.561	5003
873.69	4885
873.819	4923
873.948	4919
874.077	4782
874.206	4771
874.335	4839
874.464	4911
874.593	5075
874.722	5003
874.851	5124
874.979	5071
875.108	5048
875.237	4911
875.365	4896
875.494	4896
875.623	4934
875.751	4805
875.88	4854
876.008	5029
876.136	5060
876.265	5204
876.393	5284
876.521	5269
876.65	5220
876.778	5201
876.906	5067
877.034	5022
877.162	5109
877.29	5060
877.418	5075
877.546	5067
877.674	5045
877.802	5083
877.93	4980
878.058	4938
878.185	4873
878.313	4949
878.441	4923
878.568	4809
878.696	4889
878.824	4999
878.951	4976
879.079	5136
879.206	5299
879.333	5071
879.461	4980
879.588	5018
879.715	5140
879.842	5269
879.97	5033
880.097	4809
880.224	4793
880.351	4820
880.478	4854
880.605	4854
880.732	4843
880.859	5117
880.986	4877
881.112	4927
881.239	4778
881.366	4679
881.493	4672
881.619	4618
881.746	4653
881.872	4679
881.999	4679
882.125	4622
882.252	4824
882.378	4862
882.505	4957
882.631	4782
882.757	4660
882.883	4771
883.01	4793
883.136	4664
883.262	4653
883.388	4618
883.514	4763
883.64	4862
883.766	4828
883.892	4691
884.018	4733
884.143	4881
884.269	4968
884.395	4706
884.52	4607
884.646	4611
884.772	4607
884.897	4565
885.023	4725
885.148	4801
885.274	4885
885.399	4816
885.524	4736
885.65	4725
885.775	4786
885.9	4717
886.025	4908
886.15	4797
886.275	4733
886.4	4664
886.525	4759
886.65	4691
886.775	4702
886.9	4930
887.025	5041
887.149	4805
887.274	4721
887.399	4599
887.523	4603
887.648	4626
887.773	4596
887.897	4759
888.021	4744
888.146	4637
888.27	4820
888.395	4927
888.519	4866
888.643	4843
888.767	4774
888.891	4679
889.015	4622
889.139	4622
889.263	4611
889.387	4755
889.511	4915
889.635	4790
889.759	4679
889.883	4668
890.006	4710
890.13	4828
890.254	4637
890.377	4687
890.501	4554
890.624	4542
890.748	4641
890.871	4516
890.995	4459
891.118	4390
891.241	4516
891.364	4550
891.488	4611
891.611	4523
891.734	4538
891.857	4558
891.98	4561
892.103	4679
892.226	4618
892.349	4531
892.471	4413
892.594	4538
892.717	4584
892.839	4573
892.962	4580
893.085	4649
893.207	4558
893.33	4497
893.452	4523
893.575	4710
893.697	4599
893.819	4793
893.941	4877
894.064	4748
894.186	4622
894.308	4592
894.43	4729
894.552	4858
894.674	4774
894.796	4599
894.918	4603
895.04	4558
895.161	4694
895.283	4653
895.405	4592
895.526	4694
895.648	4748
895.769	4740
895.891	4691
896.012	4771
896.134	4691
896.255	4649
896.376	4641
896.498	4634
896.619	4725
896.74	4615
896.861	4615
896.982	4984
897.103	5128
897.224	4904
897.345	4759
897.466	4706
897.587	4733
897.708	4866
897.828	4828
897.949	4672
898.07	4542
898.19	4622
898.311	4805
898.431	4683
898.552	4744
898.672	4793
898.792	4854
898.913	4706
899.033	4618
899.153	4523
899.273	4421
899.393	4527
899.513	4531
899.633	4512
899.753	4538
899.873	4561
899.993	4603
900.113	4523
900.232	4584
900.352	4569
900.472	4447
900.591	4417
900.711	4504
900.83	4489
900.95	4653
901.069	4668
901.189	4542
901.308	4375
901.427	4371
901.546	4451
901.665	4459
901.784	4512
901.904	4383
902.023	4322
902.141	4196
902.26	4200
902.379	4287
902.498	4204
902.617	4188
902.735	4440
902.854	4417
902.973	4383
903.091	4246
903.21	4204
903.328	4337
903.446	4268
903.565	4268
903.683	4356
903.801	4272
903.919	4375
904.038	4455
904.156	4329
904.274	4447
904.392	4383
904.51	4478
904.627	4470
904.745	4615
904.863	4653
904.981	4402
905.098	4375
905.216	4352
905.334	4474
905.451	4428
905.569	4459
905.686	4618
905.803	4569
905.921	4386
906.038	4550
906.155	4421
906.272	4405
906.389	4485
906.506	4360
906.623	4428
906.74	4405
906.857	4325
906.974	4394
907.091	4592
907.208	4706
907.324	4603
907.441	4481
907.557	4318
907.674	4371
907.79	4405
907.907	4394
908.023	4508
908.139	4485
908.256	4466
908.372	4493
908.488	4440
908.604	4379
908.72	4371
908.836	4341
908.952	4424
909.068	4417
909.184	4565
909.3	4478
909.415	4599
909.531	4558
909.647	4371
909.762	4386
909.878	4383
909.993	4447
910.108	4443
910.224	4440
910.339	4466
910.454	4424
910.57	4344
910.685	4322
910.8	4706
910.915	4584
911.03	4481
911.145	4337
911.259	4344
911.374	4386
911.489	4325
911.604	4295
911.718	4143
911.833	4192
911.947	4090
912.062	4017
912.176	4219
912.291	4265
912.405	4280
912.519	4489
912.633	4489
912.748	4417
912.862	4341
912.976	4238
913.09	4128
913.204	4192
913.318	4265
913.431	4405
913.545	4383
913.659	4428
913.772	4383
913.886	4261
914	4215
914.113	4394
914.226	4443
914.34	4443
914.453	4284
914.566	4394
914.68	4344
914.793	4348
914.906	4192
915.019	4124
915.132	4063
915.245	4177
915.358	4265
915.47	4223
915.583	4249
915.696	4367
915.809	4436
915.921	4413
916.034	4265
916.146	4268
916.259	4265
916.371	4337
916.483	4402
916.595	4280
916.708	4337
916.82	4341
916.932	4341
917.044	4344
917.156	4375
917.268	4215
917.38	4322
917.491	4280
917.603	4360
917.715	4428
917.826	4451
917.938	4375
918.049	4306
918.161	4375
918.272	4584
918.384	4573
918.495	4478
918.606	4325
918.717	4246
918.828	4386
918.939	4371
919.05	4284
919.161	4333
919.272	4135
919.383	4253
919.494	4440
919.604	4634
919.715	4421
919.826	4341
919.936	4402
920.047	4504
920.157	4508
920.267	4714
920.378	4584
920.488	4577
920.598	4691
920.708	4938
920.818	4793
920.928	4767
921.038	4980
921.148	4934
921.258	4653
921.368	4584
921.477	4481
921.587	4516
921.697	4424
921.806	4569
921.916	4386
922.025	4295
922.134	4230
922.244	4253
922.353	4356
922.462	4223
922.571	4135
922.68	4010
922.789	4017
922.898	4048
923.007	4025
923.116	4078
923.224	4055
923.333	4074
923.442	4021
923.55	3994
923.659	4097
923.767	4120
923.876	4025
923.984	4162
924.092	3975
924.201	4074
924.309	4078
924.417	4162
924.525	4025
924.633	4074
924.741	4862
924.849	3934
924.956	4135
925.064	3956
925.172	3934
925.279	3964
925.387	4097
925.494	4078
925.602	4207
925.709	4200
925.816	4032
925.924	4109
926.031	4249
926.138	4154
926.245	4200
926.352	4086
926.459	4253
926.566	4310
926.673	4162
926.779	4086
926.886	4090
926.993	3960
927.099	3949
927.206	3934
927.312	3960
927.419	4078
927.525	4036
927.631	4086
927.737	4002
927.843	3937
927.95	3869
928.056	3930
928.162	4051
928.267	4063
928.373	4729
928.479	4128
928.585	3873
928.69	3991
928.796	4067
928.901	3991
929.007	3838
929.112	3998
929.218	3972
929.323	3953
929.428	3960
929.533	4166
929.638	3896
929.743	4006
929.848	4082
929.953	3956
930.058	3926
930.163	3816
930.267	3827
930.372	3941
930.477	3831
930.581	4105
930.685	3972
930.79	3812
930.894	3899
930.998	3884
931.103	4036
931.207	3709
931.311	3713
931.415	3637
931.519	3511
931.623	3557
