Data from test_V78500241_926.txt Node
Date: Fri Mar 25 16:55:26 CST 2022
User: usil
Spectrometer: V785-0024
Trigger mode: 0
Integration Time (sec): 4.000000E-1
Scans to average: 1
Nonlinearity correction enabled: false
Boxcar width: 0
Storing dark spectrum: false
XAxis mode: Wavelengths
Number of Pixels in Spectrum: 1024
>>>>>Begin Spectral Data<<<<<
801.071	7986
801.214	8027
801.356	7883
801.499	7875
801.641	7841
801.783	7784
801.926	8020
802.068	7917
802.211	7928
802.353	7917
802.496	7856
802.638	7894
802.78	7868
802.923	7970
803.065	7928
803.208	7894
803.35	7997
803.492	8103
803.635	8115
803.777	7997
803.919	8065
804.061	8446
804.204	8244
804.346	8046
804.488	7955
804.63	8115
804.773	7997
804.915	8157
805.057	8225
805.199	8107
805.341	8229
805.483	8187
805.626	8187
805.768	8092
805.91	8187
806.052	8210
806.194	8096
806.336	8267
806.478	8126
806.62	8027
806.762	8084
806.904	8221
807.046	8465
807.188	8393
807.33	8347
807.472	8385
807.614	8149
807.756	8050
807.898	7936
808.04	7856
808.182	7932
808.324	7841
808.465	7807
808.607	8039
808.749	8084
808.891	8142
809.033	8180
809.174	8172
809.316	8065
809.458	8043
809.6	7944
809.741	8012
809.883	8016
810.025	8138
810.166	8062
810.308	8039
810.45	8016
810.591	7864
810.733	7746
810.875	7613
811.016	7457
811.158	7457
811.299	7552
811.441	7727
811.582	7700
811.724	7556
811.865	7441
812.007	7605
812.148	7556
812.29	7647
812.431	7761
812.573	7860
812.714	8012
812.855	8111
812.997	8202
813.138	8370
813.279	8202
813.421	8073
813.562	8039
813.703	7826
813.845	7769
813.986	7510
814.127	7297
814.268	7244
814.41	7190
814.551	7099
814.692	7168
814.833	7012
814.974	7110
815.115	7072
815.256	6966
815.397	6882
815.539	6951
815.68	6829
815.821	6791
815.962	6821
816.103	6814
816.244	6669
816.385	6631
816.526	6616
816.666	6456
816.807	6277
816.948	6418
817.089	6426
817.23	6403
817.371	6376
817.512	6361
817.653	6399
817.793	6376
817.934	6380
818.075	6471
818.216	6426
818.356	6391
818.497	6197
818.638	6076
818.778	6087
818.919	6064
819.06	6121
819.2	6273
819.341	6327
819.481	6311
819.622	6517
819.762	6772
819.903	6734
820.043	6570
820.184	6616
820.324	6563
820.465	6696
820.605	6681
820.746	6616
820.886	6544
821.026	6620
821.167	6696
821.307	6779
821.447	6753
821.588	6662
821.728	6563
821.868	6490
822.008	6346
822.149	6304
822.289	6361
822.429	6125
822.569	6064
822.709	6136
822.849	5893
822.99	5897
823.13	5942
823.27	5882
823.41	5790
823.55	5703
823.69	5775
823.83	5771
823.97	5688
824.11	5558
824.25	5501
824.389	5509
824.529	5577
824.669	5520
824.809	5596
824.949	5608
825.089	5638
825.228	5543
825.368	5406
825.508	5345
825.648	5307
825.787	5391
825.927	5337
826.067	5303
826.206	5307
826.346	5315
826.485	5398
826.625	5372
826.765	5535
826.904	5440
827.044	5307
827.183	5178
827.323	5109
827.462	5208
827.601	5155
827.741	5178
827.88	5239
828.02	5102
828.159	5246
828.298	5269
828.437	5326
828.577	5284
828.716	5482
828.855	5265
828.994	5117
829.134	5155
829.273	5162
829.412	5140
829.551	5079
829.69	5132
829.829	5239
829.968	5357
830.107	5197
830.246	5284
830.385	5124
830.524	5151
830.663	5041
830.802	4946
830.941	4911
831.08	4858
831.219	4972
831.357	4976
831.496	5155
831.635	4980
831.774	4828
831.913	4850
832.051	4725
832.19	4729
832.329	4801
832.467	4691
832.606	4607
832.744	4714
832.883	4706
833.022	4714
833.16	4771
833.299	4812
833.437	4767
833.576	4850
833.714	4824
833.852	4873
833.991	4881
834.129	4908
834.267	4957
834.406	4889
834.544	4999
834.682	4968
834.821	4949
834.959	5174
835.097	5022
835.235	5075
835.373	5075
835.511	5113
835.65	4968
835.788	4984
835.926	4904
836.064	4885
836.202	4862
836.34	5124
836.478	5208
836.615	5147
836.753	5151
836.891	5345
837.029	5277
837.167	5170
837.305	5079
837.443	5136
837.58	5060
837.718	5204
837.856	5151
837.993	5113
838.131	5174
838.269	5193
838.406	5155
838.544	5197
838.681	5056
838.819	5003
838.956	4889
839.094	4908
839.231	4930
839.369	5094
839.506	5429
839.643	5307
839.781	5064
839.918	5033
840.055	5079
840.193	5094
840.33	5071
840.467	5109
840.604	5143
840.742	5444
840.879	5048
841.016	5113
841.153	5132
841.29	5391
841.427	5315
841.564	5277
841.701	5318
841.838	5223
841.975	5212
842.112	5254
842.249	5124
842.385	5079
842.522	5326
842.659	5231
842.796	5197
842.933	5204
843.069	5128
843.206	5143
843.343	5265
843.479	5185
843.616	5269
843.752	5083
843.889	4953
844.025	5181
844.162	5003
844.298	5174
844.435	5102
844.571	5052
844.708	5189
844.844	5307
844.98	5334
845.117	5277
845.253	5098
845.389	5071
845.525	5155
845.661	5067
845.798	5041
845.934	5143
846.07	5010
846.206	5117
846.342	5166
846.478	5136
846.614	4987
846.75	4957
846.886	4949
847.022	5124
847.158	5014
847.294	4984
847.429	5113
847.565	5025
847.701	5261
847.837	4812
847.972	4755
848.108	4957
848.244	4927
848.379	4782
848.515	4694
848.65	4729
848.786	4767
848.921	4797
849.057	4858
849.192	4889
849.328	4824
849.463	4805
849.598	4816
849.734	4729
849.869	4706
850.004	4637
850.14	4615
850.275	4573
850.41	4538
850.545	4538
850.68	4542
850.815	4622
850.95	4607
851.085	4847
851.22	4812
851.355	4649
851.49	4611
851.625	4588
851.76	4596
851.895	4588
852.03	4497
852.165	4584
852.299	4683
852.434	4790
852.569	4691
852.703	4778
852.838	4858
852.973	4919
853.107	4889
853.242	4698
853.376	4656
853.511	4546
853.645	4561
853.78	4782
853.914	4691
854.048	4634
854.183	4634
854.317	4687
854.451	4831
854.585	4698
854.72	4607
854.854	4714
854.988	4569
855.122	4664
855.256	4504
855.39	4626
855.524	4771
855.658	4721
855.792	4687
855.926	4687
856.06	4744
856.194	4812
856.327	4675
856.461	4618
856.595	4626
856.729	4561
856.862	4748
856.996	4656
857.13	4721
857.263	4721
857.397	4767
857.53	4626
857.664	4691
857.797	4755
857.931	4809
858.064	4656
858.197	4721
858.331	4630
858.464	4554
858.597	4519
858.731	4634
858.864	4634
858.997	4592
859.13	4645
859.263	4622
859.396	4698
859.529	4546
859.662	4512
859.795	4584
859.928	4618
860.061	4702
860.194	4759
860.327	4599
860.46	4558
860.592	4626
860.725	4710
860.858	4694
860.99	4596
861.123	4531
861.256	4489
861.388	4531
861.521	5140
861.653	4474
861.786	4436
861.918	4489
862.05	4500
862.183	4493
862.315	4615
862.447	4611
862.58	4550
862.712	4360
862.844	4333
862.976	4462
863.108	4474
863.24	4710
863.372	4383
863.504	4386
863.636	4363
863.768	4481
863.9	4455
864.032	4386
864.164	4333
864.296	4421
864.428	4546
864.559	4527
864.691	4512
864.823	4470
864.954	4512
865.086	4508
865.217	4466
865.349	4360
865.48	4436
865.612	4485
865.743	4599
865.875	4447
866.006	4455
866.137	4417
866.269	4440
866.4	4440
866.531	4398
866.662	4379
866.793	4363
866.924	4337
867.055	4493
867.186	4474
867.317	4424
867.448	4348
867.579	4421
867.71	4398
867.841	4344
867.972	4451
868.103	4462
868.233	4402
868.364	4489
868.495	4451
868.625	4626
868.756	4710
868.886	4531
869.017	4580
869.147	4786
869.278	4774
869.408	4649
869.539	4630
869.669	4702
869.799	4664
869.929	4744
870.06	4790
870.19	4946
870.32	4854
870.45	4927
870.58	4968
870.71	5056
870.84	5094
870.97	4892
871.1	4873
871.23	5098
871.36	5067
871.489	5018
871.619	5075
871.749	5086
871.879	5105
872.008	5147
872.138	5029
872.267	4938
872.397	4801
872.526	4714
872.656	4714
872.785	4801
872.915	4949
873.044	4991
873.173	4953
873.303	4965
873.432	4953
873.561	4949
873.69	4854
873.819	4870
873.948	4858
874.077	4797
874.206	4759
874.335	4759
874.464	4885
874.593	5041
874.722	4938
874.851	5086
874.979	5048
875.108	5037
875.237	4930
875.365	4881
875.494	4790
875.623	4930
875.751	4828
875.88	4858
876.008	4953
876.136	5033
876.265	5147
876.393	5296
876.521	5258
876.65	5181
876.778	5121
876.906	5060
877.034	5052
877.162	5060
877.29	4972
877.418	5090
877.546	5022
877.674	5052
877.802	5022
877.93	4987
878.058	4934
878.185	4824
878.313	4927
878.441	4980
878.568	4782
878.696	4862
878.824	4919
878.951	4965
879.079	5124
879.206	5235
879.333	5090
879.461	4968
879.588	5003
879.715	5090
879.842	5216
879.97	4995
880.097	4752
880.224	4725
880.351	4771
880.478	4782
880.605	4759
880.732	4774
880.859	5067
880.986	4873
881.112	4896
881.239	4786
881.366	4641
881.493	4607
881.619	4554
881.746	4615
881.872	4668
881.999	4630
882.125	4668
882.252	4797
882.378	4828
882.505	4946
882.631	4793
882.757	4687
882.883	4702
883.01	4721
883.136	4675
883.262	4550
883.388	4622
883.514	4820
883.64	4812
883.766	4816
883.892	4660
884.018	4675
884.143	4904
884.269	4961
884.395	4637
884.52	4584
884.646	4580
884.772	4637
884.897	4558
885.023	4664
885.148	4733
885.274	4866
885.399	4782
885.524	4721
885.65	4714
885.775	4752
885.9	4714
886.025	4828
886.15	4771
886.275	4664
886.4	4656
886.525	4733
886.65	4729
886.775	4675
886.9	4881
887.025	5022
887.149	4797
887.274	4698
887.399	4561
887.523	4592
887.648	4554
887.773	4607
887.897	4797
888.021	4767
888.146	4672
888.27	4763
888.395	4885
888.519	4793
888.643	4793
888.767	4866
888.891	4687
889.015	4615
889.139	4656
889.263	4542
889.387	4771
889.511	4847
889.635	4767
889.759	4596
889.883	4660
890.006	4691
890.13	4805
890.254	4603
890.377	4687
890.501	4550
890.624	4516
890.748	4630
890.871	4527
890.995	4348
891.118	4363
891.241	4500
891.364	4535
891.488	4637
891.611	4470
891.734	4485
891.857	4569
891.98	4550
892.103	4599
892.226	4554
892.349	4531
892.471	4398
892.594	4573
892.717	4546
892.839	4538
892.962	4565
893.085	4649
893.207	4569
893.33	4466
893.452	4497
893.575	4649
893.697	4580
893.819	4786
893.941	4839
894.064	4767
894.186	4573
894.308	4561
894.43	4729
894.552	4805
894.674	4778
894.796	4607
894.918	4561
895.04	4531
895.161	4698
895.283	4672
895.405	4569
895.526	4664
895.648	4672
895.769	4714
895.891	4691
896.012	4759
896.134	4710
896.255	4630
896.376	4664
896.498	4596
896.619	4679
896.74	4630
896.861	4596
896.982	4934
897.103	5041
897.224	4812
897.345	4702
897.466	4683
897.587	4694
897.708	4839
897.828	4759
897.949	4660
898.07	4535
898.19	4607
898.311	4824
898.431	4683
898.552	4763
898.672	4797
898.792	4793
898.913	4733
899.033	4569
899.153	4459
899.273	4383
899.393	4485
899.513	4508
899.633	4500
899.753	4497
899.873	4489
899.993	4580
900.113	4542
900.232	4584
900.352	4523
900.472	4466
900.591	4379
900.711	4466
900.83	4428
900.95	4630
901.069	4683
901.189	4554
901.308	4356
901.427	4318
901.546	4394
901.665	4466
901.784	4466
901.904	4344
902.023	4363
902.141	4173
902.26	4166
902.379	4306
902.498	4200
902.617	4185
902.735	4360
902.854	4394
902.973	4348
903.091	4192
903.21	4227
903.328	4284
903.446	4272
903.565	4207
903.683	4333
903.801	4257
903.919	4383
904.038	4432
904.156	4318
904.274	4443
904.392	4371
904.51	4417
904.627	4443
904.745	4611
904.863	4599
904.981	4367
905.098	4287
905.216	4367
905.334	4459
905.451	4432
905.569	4390
905.686	4558
905.803	4611
905.921	4348
906.038	4542
906.155	4470
906.272	4386
906.389	4462
906.506	4348
906.623	4360
906.74	4383
906.857	4272
906.974	4360
907.091	4561
907.208	4687
907.324	4603
907.441	4478
907.557	4375
907.674	4310
907.79	4265
907.907	4325
908.023	4481
908.139	4462
908.256	4428
908.372	4436
908.488	4466
908.604	4371
908.72	4329
908.836	4371
908.952	4379
909.068	4402
909.184	4535
909.3	4489
909.415	4561
909.531	4580
909.647	4371
909.762	4367
909.878	4348
909.993	4424
910.108	4402
910.224	4436
910.339	4489
910.454	4363
910.57	4390
910.685	4344
910.8	4626
910.915	4538
911.03	4504
911.145	4367
911.259	4337
911.374	4360
911.489	4287
911.604	4249
911.718	4150
911.833	4169
911.947	4063
912.062	3968
912.176	4177
912.291	4192
912.405	4261
912.519	4428
912.633	4493
912.748	4367
912.862	4337
912.976	4181
913.09	4101
913.204	4143
913.318	4268
913.431	4322
913.545	4280
913.659	4451
913.772	4371
913.886	4272
914	4192
914.113	4360
914.226	4394
914.34	4344
914.453	4265
914.566	4398
914.68	4291
914.793	4291
914.906	4162
915.019	4128
915.132	4097
915.245	4173
915.358	4200
915.47	4234
915.583	4291
915.696	4306
915.809	4379
915.921	4398
916.034	4291
916.146	4246
916.259	4223
916.371	4329
916.483	4356
916.595	4253
916.708	4333
916.82	4329
916.932	4329
917.044	4295
917.156	4265
917.268	4242
917.38	4299
917.491	4211
917.603	4367
917.715	4421
917.826	4451
917.938	4337
918.049	4215
918.161	4379
918.272	4485
918.384	4516
918.495	4432
918.606	4306
918.717	4207
918.828	4337
918.939	4390
919.05	4268
919.161	4265
919.272	4131
919.383	4169
919.494	4489
919.604	4607
919.715	4417
919.826	4333
919.936	4421
920.047	4451
920.157	4466
920.267	4725
920.378	4531
920.488	4504
920.598	4755
920.708	4892
920.818	4759
920.928	4755
921.038	4934
921.148	4938
921.258	4626
921.368	4535
921.477	4516
921.587	4478
921.697	4325
921.806	4516
921.916	4432
922.025	4287
922.134	4280
922.244	4192
922.353	4276
922.462	4181
922.571	4067
922.68	4032
922.789	3987
922.898	4059
923.007	3956
923.116	4105
923.224	4067
923.333	4078
923.442	3979
923.55	3987
923.659	3975
923.767	4105
923.876	3998
923.984	4078
924.092	3930
924.201	4040
924.309	4082
924.417	4097
924.525	4044
924.633	4063
924.741	4862
924.849	3941
924.956	4128
925.064	3953
925.172	3876
925.279	3918
925.387	4109
925.494	4055
925.602	4200
925.709	4177
925.816	4021
925.924	4128
926.031	4204
926.138	4150
926.245	4196
926.352	4078
926.459	4249
926.566	4287
926.673	4154
926.779	4078
926.886	4048
926.993	3964
927.099	3926
927.206	3884
927.312	3911
927.419	4051
927.525	3991
927.631	4097
927.737	3972
927.843	3907
927.95	3846
928.056	3960
928.162	3983
928.267	4055
928.373	4580
928.479	4120
928.585	3884
928.69	3972
928.796	4051
928.901	3960
929.007	3804
929.112	4021
929.218	3960
929.323	3937
929.428	3930
929.533	4116
929.638	3930
929.743	3907
929.848	4032
929.953	3983
930.058	3930
930.163	3766
930.267	3823
930.372	3975
930.477	3812
930.581	4059
930.685	3941
930.79	3800
930.894	3838
930.998	3873
931.103	3983
931.207	3690
931.311	3694
931.415	3679
931.519	3515
931.623	3515
