Data from test_V78500241_1118.txt Node
Date: Fri Mar 25 16:56:46 CST 2022
User: usil
Spectrometer: V785-0024
Trigger mode: 0
Integration Time (sec): 4.000000E-1
Scans to average: 1
Nonlinearity correction enabled: false
Boxcar width: 0
Storing dark spectrum: false
XAxis mode: Wavelengths
Number of Pixels in Spectrum: 1024
>>>>>Begin Spectral Data<<<<<
801.071	8039
801.214	8088
801.356	7932
801.499	7902
801.641	7822
801.783	7833
801.926	7951
802.068	7879
802.211	7963
802.353	8012
802.496	7909
802.638	7936
802.78	7947
802.923	7955
803.065	7875
803.208	7860
803.35	7921
803.492	8142
803.635	8157
803.777	8039
803.919	8149
804.061	8419
804.204	8130
804.346	8069
804.488	7970
804.63	8123
804.773	7974
804.915	8069
805.057	8290
805.199	8142
805.341	8191
805.483	8305
805.626	8100
805.768	8043
805.91	8237
806.052	8168
806.194	8100
806.336	8286
806.478	8115
806.62	8107
806.762	8103
806.904	8275
807.046	8499
807.188	8313
807.33	8336
807.472	8305
807.614	8199
807.756	8058
807.898	8024
808.04	7906
808.182	7959
808.324	7864
808.465	7917
808.607	8115
808.749	8138
808.891	8115
809.033	8290
809.174	8233
809.316	8058
809.458	8031
809.6	7970
809.741	7970
809.883	8096
810.025	8031
810.166	7970
810.308	8016
810.45	8050
810.591	7845
810.733	7784
810.875	7666
811.016	7499
811.158	7441
811.299	7552
811.441	7723
811.582	7693
811.724	7636
811.865	7518
812.007	7586
812.148	7544
812.29	7597
812.431	7693
812.573	7864
812.714	7963
812.855	8084
812.997	8298
813.138	8317
813.279	8149
813.421	8058
813.562	7963
813.703	7898
813.845	7719
813.986	7472
814.127	7251
814.268	7228
814.41	7168
814.551	7198
814.692	7213
814.833	7004
814.974	7145
815.115	7061
815.256	6958
815.397	6909
815.539	6947
815.68	6810
815.821	6825
815.962	6867
816.103	6802
816.244	6684
816.385	6620
816.526	6654
816.666	6483
816.807	6247
816.948	6395
817.089	6513
817.23	6403
817.371	6407
817.512	6407
817.653	6391
817.793	6342
817.934	6418
818.075	6448
818.216	6410
818.356	6433
818.497	6194
818.638	6083
818.778	6136
818.919	6121
819.06	6144
819.2	6281
819.341	6308
819.481	6353
819.622	6525
819.762	6764
819.903	6692
820.043	6585
820.184	6597
820.324	6616
820.465	6726
820.605	6639
820.746	6646
820.886	6525
821.026	6669
821.167	6700
821.307	6749
821.447	6741
821.588	6673
821.728	6467
821.868	6521
822.008	6361
822.149	6403
822.289	6342
822.429	6155
822.569	6087
822.709	6152
822.849	5916
822.99	5923
823.13	5908
823.27	5885
823.41	5790
823.55	5840
823.69	5741
823.83	5771
823.97	5691
824.11	5512
824.25	5440
824.389	5539
824.529	5604
824.669	5490
824.809	5623
824.949	5596
825.089	5585
825.228	5528
825.368	5395
825.508	5296
825.648	5303
825.787	5372
825.927	5368
826.067	5235
826.206	5273
826.346	5322
826.485	5436
826.625	5387
826.765	5543
826.904	5429
827.044	5231
827.183	5151
827.323	5204
827.462	5246
827.601	5159
827.741	5136
827.88	5246
828.02	5124
828.159	5250
828.298	5288
828.437	5292
828.577	5273
828.716	5414
828.855	5326
828.994	5143
829.134	5136
829.273	5193
829.412	5094
829.551	5132
829.69	5155
829.829	5239
829.968	5357
830.107	5254
830.246	5284
830.385	5147
830.524	5143
830.663	5033
830.802	4987
830.941	4892
831.08	4797
831.219	4976
831.357	4915
831.496	5098
831.635	4946
831.774	4801
831.913	4797
832.051	4752
832.19	4717
832.329	4816
832.467	4691
832.606	4637
832.744	4778
832.883	4763
833.022	4702
833.16	4793
833.299	4797
833.437	4854
833.576	4782
833.714	4850
833.852	4858
833.991	4828
834.129	4934
834.267	4934
834.406	4900
834.544	4961
834.682	4965
834.821	4942
834.959	5113
835.097	4968
835.235	5075
835.373	5048
835.511	5109
835.65	5014
835.788	5045
835.926	4927
836.064	4885
836.202	4949
836.34	5124
836.478	5227
836.615	5098
836.753	5220
836.891	5258
837.029	5242
837.167	5208
837.305	5204
837.443	5147
837.58	5014
837.718	5193
837.856	5193
837.993	5197
838.131	5189
838.269	5189
838.406	5147
838.544	5174
838.681	5048
838.819	4953
838.956	4900
839.094	4870
839.231	5003
839.369	5102
839.506	5387
839.643	5189
839.781	5098
839.918	5003
840.055	5045
840.193	5079
840.33	5071
840.467	5117
840.604	5166
840.742	5459
840.879	5105
841.016	5079
841.153	5117
841.29	5376
841.427	5307
841.564	5307
841.701	5318
841.838	5280
841.975	5208
842.112	5254
842.249	5109
842.385	5105
842.522	5318
842.659	5143
842.796	5174
842.933	5193
843.069	5170
843.206	5109
843.343	5277
843.479	5223
843.616	5239
843.752	5045
843.889	5003
844.025	5189
844.162	4991
844.298	5178
844.435	5064
844.571	5037
844.708	5117
844.844	5311
844.98	5311
845.117	5273
845.253	5174
845.389	5025
845.525	5128
845.661	5124
845.798	5033
845.934	5143
846.07	4972
846.206	5189
846.342	5242
846.478	5140
846.614	5006
846.75	4900
846.886	4919
847.022	5086
847.158	5014
847.294	5083
847.429	5052
847.565	5079
847.701	5360
847.837	4843
847.972	4835
848.108	4915
848.244	4965
848.379	4729
848.515	4694
848.65	4672
848.786	4687
848.921	4782
849.057	4824
849.192	4889
849.328	4809
849.463	4866
849.598	4763
849.734	4740
849.869	4634
850.004	4649
850.14	4660
850.275	4592
850.41	4508
850.545	4558
850.68	4580
850.815	4592
850.95	4573
851.085	4782
851.22	4729
851.355	4664
851.49	4580
851.625	4622
851.76	4687
851.895	4527
852.03	4500
852.165	4645
852.299	4790
852.434	4771
852.569	4698
852.703	4778
852.838	4820
852.973	4934
853.107	4915
853.242	4763
853.376	4637
853.511	4523
853.645	4645
853.78	4801
853.914	4653
854.048	4641
854.183	4588
854.317	4698
854.451	4839
854.585	4664
854.72	4641
854.854	4729
854.988	4607
855.122	4649
855.256	4489
855.39	4664
855.524	4740
855.658	4717
855.792	4702
855.926	4774
856.06	4744
856.194	4736
856.327	4660
856.461	4603
856.595	4607
856.729	4634
856.862	4702
856.996	4664
857.13	4744
857.263	4767
857.397	4809
857.53	4615
857.664	4660
857.797	4797
857.931	4797
858.064	4687
858.197	4740
858.331	4626
858.464	4603
858.597	4516
858.731	4634
858.864	4618
858.997	4615
859.13	4634
859.263	4668
859.396	4634
859.529	4561
859.662	4561
859.795	4538
859.928	4622
860.061	4717
860.194	4816
860.327	4611
860.46	4569
860.592	4698
860.725	4759
860.858	4725
860.99	4584
861.123	4512
861.256	4554
861.388	4641
861.521	5402
861.653	4504
861.786	4440
861.918	4421
862.05	4512
862.183	4573
862.315	4588
862.447	4618
862.58	4535
862.712	4409
862.844	4329
862.976	4424
863.108	4443
863.24	4744
863.372	4360
863.504	4398
863.636	4375
863.768	4474
863.9	4440
864.032	4318
864.164	4409
864.296	4432
864.428	4523
864.559	4527
864.691	4500
864.823	4504
864.954	4466
865.086	4531
865.217	4474
865.349	4409
865.48	4432
865.612	4489
865.743	4653
865.875	4455
866.006	4417
866.137	4436
866.269	4451
866.4	4440
866.531	4409
866.662	4398
866.793	4386
866.924	4405
867.055	4447
867.186	4436
867.317	4436
867.448	4337
867.579	4322
867.71	4371
867.841	4322
867.972	4470
868.103	4417
868.233	4455
868.364	4424
868.495	4447
868.625	4664
868.756	4736
868.886	4542
869.017	4607
869.147	4729
869.278	4744
869.408	4656
869.539	4668
869.669	4702
869.799	4630
869.929	4717
870.06	4721
870.19	4957
870.32	4927
870.45	4946
870.58	4984
870.71	5056
870.84	5083
870.97	4915
871.1	4896
871.23	5155
871.36	5151
871.489	4999
871.619	5060
871.749	5079
871.879	5056
872.008	5193
872.138	5083
872.267	4965
872.397	4812
872.526	4835
872.656	4744
872.785	4782
872.915	4984
873.044	5037
873.173	4919
873.303	4930
873.432	4961
873.561	4976
873.69	4889
873.819	4873
873.948	4942
874.077	4790
874.206	4736
874.335	4721
874.464	4908
874.593	5003
874.722	4896
874.851	5132
874.979	5045
875.108	5079
875.237	4889
875.365	4831
875.494	4866
875.623	4972
875.751	4763
875.88	4847
876.008	4904
876.136	5010
876.265	5117
876.393	5337
876.521	5193
876.65	5216
876.778	5086
876.906	5045
877.034	5010
877.162	5041
877.29	4946
877.418	5014
877.546	5025
877.674	5037
877.802	4953
877.93	5052
878.058	4904
878.185	4797
878.313	4919
878.441	4908
878.568	4790
878.696	4870
878.824	4934
878.951	4946
879.079	5124
879.206	5231
879.333	5124
879.461	4930
879.588	4999
879.715	5075
879.842	5220
879.97	5003
880.097	4721
880.224	4710
880.351	4786
880.478	4812
880.605	4805
880.732	4736
880.859	5025
880.986	4892
881.112	4900
881.239	4763
881.366	4622
881.493	4645
881.619	4611
881.746	4637
881.872	4664
881.999	4599
882.125	4691
882.252	4797
882.378	4801
882.505	4934
882.631	4843
882.757	4660
882.883	4672
883.01	4733
883.136	4653
883.262	4569
883.388	4618
883.514	4797
883.64	4824
883.766	4744
883.892	4656
884.018	4706
884.143	4896
884.269	5052
884.395	4672
884.52	4649
884.646	4645
884.772	4626
884.897	4558
885.023	4603
885.148	4797
885.274	4873
885.399	4793
885.524	4755
885.65	4645
885.775	4736
885.9	4729
886.025	4881
886.15	4797
886.275	4721
886.4	4653
886.525	4698
886.65	4687
886.775	4675
886.9	4892
887.025	5010
887.149	4824
887.274	4615
887.399	4607
887.523	4588
887.648	4561
887.773	4546
887.897	4717
888.021	4778
888.146	4694
888.27	4790
888.395	4915
888.519	4805
888.643	4790
888.767	4790
888.891	4649
889.015	4588
889.139	4626
889.263	4611
889.387	4767
889.511	4828
889.635	4771
889.759	4626
889.883	4656
890.006	4759
890.13	4809
890.254	4634
890.377	4637
890.501	4531
890.624	4508
890.748	4660
890.871	4497
890.995	4428
891.118	4379
891.241	4523
891.364	4554
891.488	4630
891.611	4470
891.734	4519
891.857	4577
891.98	4508
892.103	4637
892.226	4580
892.349	4531
892.471	4405
892.594	4554
892.717	4588
892.839	4577
892.962	4603
893.085	4645
893.207	4592
893.33	4459
893.452	4493
893.575	4592
893.697	4554
893.819	4744
893.941	4797
894.064	4801
894.186	4584
894.308	4607
894.43	4733
894.552	4854
894.674	4767
894.796	4485
894.918	4577
895.04	4573
895.161	4668
895.283	4675
895.405	4546
895.526	4634
895.648	4679
895.769	4653
895.891	4698
896.012	4759
896.134	4740
896.255	4664
896.376	4630
896.498	4618
896.619	4615
896.74	4596
896.861	4656
896.982	4892
897.103	5086
897.224	4782
897.345	4752
897.466	4679
897.587	4744
897.708	4843
897.828	4797
897.949	4649
898.07	4527
898.19	4675
898.311	4786
898.431	4645
898.552	4793
898.672	4835
898.792	4812
898.913	4710
899.033	4618
899.153	4478
899.273	4436
899.393	4481
899.513	4565
899.633	4493
899.753	4554
899.873	4527
899.993	4580
900.113	4508
900.232	4588
900.352	4516
900.472	4432
900.591	4421
900.711	4478
900.83	4424
900.95	4580
901.069	4675
901.189	4588
901.308	4348
901.427	4310
901.546	4322
901.665	4440
901.784	4512
901.904	4383
902.023	4344
902.141	4185
902.26	4158
902.379	4314
902.498	4234
902.617	4227
902.735	4344
902.854	4379
902.973	4367
903.091	4211
903.21	4219
903.328	4268
903.446	4227
903.565	4238
903.683	4375
903.801	4268
903.919	4402
904.038	4405
904.156	4314
904.274	4500
904.392	4424
904.51	4432
904.627	4474
904.745	4577
904.863	4577
904.981	4405
905.098	4337
905.216	4348
905.334	4409
905.451	4436
905.569	4459
905.686	4573
905.803	4588
905.921	4394
906.038	4489
906.155	4466
906.272	4318
906.389	4440
906.506	4329
906.623	4386
906.74	4402
906.857	4314
906.974	4333
907.091	4523
907.208	4675
907.324	4607
907.441	4451
907.557	4344
907.674	4409
907.79	4299
907.907	4363
908.023	4436
908.139	4485
908.256	4402
908.372	4481
908.488	4470
908.604	4322
908.72	4341
908.836	4390
908.952	4322
909.068	4402
909.184	4508
909.3	4519
909.415	4645
909.531	4527
909.647	4341
909.762	4356
909.878	4352
909.993	4428
910.108	4352
910.224	4356
910.339	4523
910.454	4386
910.57	4398
910.685	4318
910.8	4618
910.915	4603
911.03	4481
911.145	4276
911.259	4329
911.374	4356
911.489	4265
911.604	4272
911.718	4128
911.833	4219
911.947	4067
912.062	4025
912.176	4173
912.291	4265
912.405	4242
912.519	4432
912.633	4493
912.748	4322
912.862	4306
912.976	4234
913.09	4090
913.204	4177
913.318	4265
913.431	4360
913.545	4409
913.659	4413
913.772	4367
913.886	4246
914	4211
914.113	4348
914.226	4386
914.34	4360
914.453	4230
914.566	4413
914.68	4276
914.793	4333
914.906	4192
915.019	4143
915.132	4093
915.245	4192
915.358	4253
915.47	4223
915.583	4249
915.696	4272
915.809	4436
915.921	4367
916.034	4238
916.146	4242
916.259	4234
916.371	4352
916.483	4371
916.595	4261
916.708	4329
916.82	4310
916.932	4325
917.044	4318
917.156	4322
917.268	4242
917.38	4257
917.491	4314
917.603	4341
917.715	4405
917.826	4390
917.938	4371
918.049	4192
918.161	4371
918.272	4527
918.384	4542
918.495	4405
918.606	4272
918.717	4242
918.828	4306
918.939	4409
919.05	4257
919.161	4306
919.272	4154
919.383	4211
919.494	4413
919.604	4615
919.715	4478
919.826	4329
919.936	4375
920.047	4527
920.157	4485
920.267	4656
920.378	4561
920.488	4436
920.598	4656
920.708	4858
920.818	4725
920.928	4729
921.038	4919
921.148	4953
921.258	4645
921.368	4535
921.477	4462
921.587	4447
921.697	4367
921.806	4519
921.916	4424
922.025	4257
922.134	4280
922.244	4234
922.353	4341
922.462	4185
922.571	4112
922.68	3991
922.789	3987
922.898	3991
923.007	3983
923.116	4074
923.224	4109
923.333	4067
923.442	3987
923.55	3979
923.659	4025
923.767	4109
923.876	3991
923.984	4116
924.092	3960
924.201	4051
924.309	4086
924.417	4120
924.525	4059
924.633	4162
924.741	5018
924.849	3896
924.956	4105
925.064	3972
925.172	3941
925.279	3975
925.387	4051
925.494	4032
925.602	4185
925.709	4154
925.816	4093
925.924	4143
926.031	4215
926.138	4154
926.245	4158
926.352	4067
926.459	4211
926.566	4322
926.673	4158
926.779	4071
926.886	4116
926.993	4002
927.099	3934
927.206	3934
927.312	3892
927.419	4032
927.525	4017
927.631	4055
927.737	3934
927.843	3911
927.95	3827
928.056	3934
928.162	4006
928.267	4025
928.373	4691
928.479	4131
928.585	3842
928.69	4040
928.796	4059
928.901	3968
929.007	3865
929.112	4040
929.218	3975
929.323	3972
929.428	3960
929.533	4105
929.638	3915
929.743	3918
929.848	4025
929.953	4071
930.058	3880
930.163	3770
930.267	3804
930.372	3975
930.477	3835
930.581	4059
930.685	3945
930.79	3823
930.894	3903
930.998	3850
931.103	4017
931.207	3690
931.311	3679
931.415	3682
931.519	3507
931.623	3587
