Data from test_V78500241_1083.txt Node
Date: Fri Mar 25 16:56:31 CST 2022
User: usil
Spectrometer: V785-0024
Trigger mode: 0
Integration Time (sec): 4.000000E-1
Scans to average: 1
Nonlinearity correction enabled: false
Boxcar width: 0
Storing dark spectrum: false
XAxis mode: Wavelengths
Number of Pixels in Spectrum: 1024
>>>>>Begin Spectral Data<<<<<
801.071	8058
801.214	8039
801.356	7898
801.499	7849
801.641	7772
801.783	7811
801.926	7959
802.068	7936
802.211	7921
802.353	7974
802.496	7875
802.638	7894
802.78	7909
802.923	7982
803.065	7932
803.208	7890
803.35	8065
803.492	8088
803.635	8161
803.777	8031
803.919	8199
804.061	8537
804.204	8225
804.346	8103
804.488	8016
804.63	8138
804.773	8050
804.915	8058
805.057	8381
805.199	8168
805.341	8259
805.483	8252
805.626	8240
805.768	8187
805.91	8221
806.052	8252
806.194	8096
806.336	8271
806.478	8069
806.62	8008
806.762	8115
806.904	8301
807.046	8465
807.188	8408
807.33	8324
807.472	8355
807.614	8187
807.756	8172
807.898	8050
808.04	7917
808.182	7982
808.324	7852
808.465	7906
808.607	8069
808.749	8180
808.891	8275
809.033	8275
809.174	8168
809.316	8123
809.458	8103
809.6	8012
809.741	8035
809.883	8031
810.025	8111
810.166	8092
810.308	8054
810.45	8100
810.591	7898
810.733	7742
810.875	7685
811.016	7502
811.158	7506
811.299	7643
811.441	7681
811.582	7776
811.724	7586
811.865	7571
812.007	7548
812.148	7658
812.29	7696
812.431	7742
812.573	7845
812.714	7932
812.855	8126
812.997	8279
813.138	8290
813.279	8172
813.421	8183
813.562	7925
813.703	7875
813.845	7822
813.986	7468
814.127	7282
814.268	7266
814.41	7209
814.551	7133
814.692	7145
814.833	7038
814.974	7099
815.115	7091
815.256	6989
815.397	6947
815.539	7012
815.68	6829
815.821	6791
815.962	6886
816.103	6806
816.244	6795
816.385	6665
816.526	6623
816.666	6486
816.807	6292
816.948	6475
817.089	6528
817.23	6471
817.371	6391
817.512	6467
817.653	6407
817.793	6376
817.934	6388
818.075	6483
818.216	6471
818.356	6350
818.497	6289
818.638	6083
818.778	6095
818.919	6152
819.06	6209
819.2	6311
819.341	6319
819.481	6388
819.622	6498
819.762	6783
819.903	6719
820.043	6620
820.184	6566
820.324	6566
820.465	6738
820.605	6700
820.746	6642
820.886	6525
821.026	6665
821.167	6662
821.307	6772
821.447	6798
821.588	6623
821.728	6563
821.868	6521
822.008	6323
822.149	6361
822.289	6388
822.429	6182
822.569	6087
822.709	6163
822.849	5931
822.99	5851
823.13	5916
823.27	5965
823.41	5836
823.55	5779
823.69	5786
823.83	5775
823.97	5695
824.11	5547
824.25	5478
824.389	5547
824.529	5570
824.669	5501
824.809	5627
824.949	5665
825.089	5646
825.228	5551
825.368	5448
825.508	5353
825.648	5395
825.787	5391
825.927	5383
826.067	5337
826.206	5299
826.346	5398
826.485	5360
826.625	5448
826.765	5608
826.904	5467
827.044	5292
827.183	5201
827.323	5086
827.462	5216
827.601	5216
827.741	5170
827.88	5246
828.02	5128
828.159	5242
828.298	5235
828.437	5364
828.577	5307
828.716	5467
828.855	5330
828.994	5201
829.134	5166
829.273	5128
829.412	5140
829.551	5109
829.69	5174
829.829	5170
829.968	5395
830.107	5303
830.246	5242
830.385	5155
830.524	5170
830.663	5056
830.802	4965
830.941	4892
831.08	4866
831.219	4972
831.357	4987
831.496	5143
831.635	4900
831.774	4816
831.913	4812
832.051	4710
832.19	4717
832.329	4839
832.467	4729
832.606	4622
832.744	4714
832.883	4691
833.022	4675
833.16	4763
833.299	4839
833.437	4767
833.576	4805
833.714	4828
833.852	4889
833.991	4885
834.129	4949
834.267	4942
834.406	4927
834.544	4999
834.682	4949
834.821	5041
834.959	5098
835.097	5006
835.235	5151
835.373	5113
835.511	5140
835.65	5029
835.788	5045
835.926	4900
836.064	4911
836.202	4889
836.34	5185
836.478	5174
836.615	5155
836.753	5227
836.891	5322
837.029	5235
837.167	5143
837.305	5147
837.443	5140
837.58	5113
837.718	5273
837.856	5201
837.993	5121
838.131	5159
838.269	5212
838.406	5204
838.544	5185
838.681	5037
838.819	5045
838.956	4889
839.094	4911
839.231	4991
839.369	5083
839.506	5398
839.643	5231
839.781	5071
839.918	5022
840.055	5102
840.193	5094
840.33	5086
840.467	5094
840.604	5151
840.742	5429
840.879	5090
841.016	5105
841.153	5212
841.29	5368
841.427	5364
841.564	5311
841.701	5436
841.838	5220
841.975	5261
842.112	5288
842.249	5174
842.385	5117
842.522	5326
842.659	5178
842.796	5109
842.933	5178
843.069	5197
843.206	5166
843.343	5296
843.479	5235
843.616	5311
843.752	5037
843.889	4995
844.025	5178
844.162	5045
844.298	5201
844.435	5090
844.571	5113
844.708	5178
844.844	5307
844.98	5307
845.117	5322
845.253	5136
845.389	5075
845.525	5166
845.661	5102
845.798	5071
845.934	5102
846.07	5045
846.206	5231
846.342	5307
846.478	5178
846.614	5003
846.75	4961
846.886	4919
847.022	5143
847.158	5029
847.294	5147
847.429	5143
847.565	5052
847.701	5353
847.837	4843
847.972	4797
848.108	4957
848.244	4957
848.379	4778
848.515	4778
848.65	4675
848.786	4778
848.921	4767
849.057	4908
849.192	4900
849.328	4866
849.463	4843
849.598	4809
849.734	4774
849.869	4729
850.004	4626
850.14	4675
850.275	4599
850.41	4516
850.545	4550
850.68	4588
850.815	4615
850.95	4615
851.085	4816
851.22	4748
851.355	4714
851.49	4672
851.625	4607
851.76	4637
851.895	4527
852.03	4535
852.165	4649
852.299	4733
852.434	4812
852.569	4733
852.703	4782
852.838	4850
852.973	4984
853.107	4957
853.242	4778
853.376	4721
853.511	4573
853.645	4592
853.78	4767
853.914	4710
854.048	4668
854.183	4618
854.317	4725
854.451	4847
854.585	4706
854.72	4656
854.854	4744
854.988	4611
855.122	4660
855.256	4500
855.39	4615
855.524	4793
855.658	4729
855.792	4641
855.926	4736
856.06	4771
856.194	4812
856.327	4721
856.461	4607
856.595	4611
856.729	4622
856.862	4717
856.996	4675
857.13	4736
857.263	4767
857.397	4763
857.53	4660
857.664	4778
857.797	4755
857.931	4809
858.064	4694
858.197	4748
858.331	4611
858.464	4634
858.597	4523
858.731	4645
858.864	4664
858.997	4615
859.13	4664
859.263	4679
859.396	4706
859.529	4546
859.662	4569
859.795	4508
859.928	4622
860.061	4759
860.194	4733
860.327	4653
860.46	4512
860.592	4752
860.725	4752
860.858	4752
860.99	4542
861.123	4535
861.256	4573
861.388	4607
861.521	5395
861.653	4481
861.786	4481
861.918	4508
862.05	4527
862.183	4561
862.315	4573
862.447	4641
862.58	4523
862.712	4398
862.844	4322
862.976	4447
863.108	4481
863.24	4908
863.372	4348
863.504	4440
863.636	4417
863.768	4462
863.9	4421
864.032	4379
864.164	4379
864.296	4451
864.428	4569
864.559	4561
864.691	4577
864.823	4474
864.954	4493
865.086	4500
865.217	4443
865.349	4398
865.48	4443
865.612	4508
865.743	4630
865.875	4478
866.006	4432
866.137	4470
866.269	4436
866.4	4413
866.531	4394
866.662	4344
866.793	4436
866.924	4390
867.055	4550
867.186	4474
867.317	4432
867.448	4363
867.579	4402
867.71	4421
867.841	4348
867.972	4455
868.103	4474
868.233	4466
868.364	4428
868.495	4531
868.625	4641
868.756	4793
868.886	4554
869.017	4592
869.147	4702
869.278	4767
869.408	4679
869.539	4611
869.669	4683
869.799	4634
869.929	4725
870.06	4706
870.19	4965
870.32	4927
870.45	4919
870.58	5014
870.71	5048
870.84	5090
870.97	4991
871.1	4873
871.23	5124
871.36	5109
871.489	5018
871.619	5048
871.749	5067
871.879	5124
872.008	5166
872.138	5098
872.267	4995
872.397	4870
872.526	4782
872.656	4702
872.785	4778
872.915	4930
873.044	5014
873.173	4930
873.303	4930
873.432	4976
873.561	4896
873.69	4870
873.819	4831
873.948	4949
874.077	4816
874.206	4752
874.335	4831
874.464	4911
874.593	5086
874.722	4980
874.851	5075
874.979	5086
875.108	5022
875.237	4911
875.365	4870
875.494	4900
875.623	4961
875.751	4850
875.88	4858
876.008	4980
876.136	4995
876.265	5220
876.393	5280
876.521	5250
876.65	5239
876.778	5143
876.906	4991
877.034	5014
877.162	4995
877.29	4934
877.418	5014
877.546	5003
877.674	5033
877.802	5022
877.93	5022
878.058	4927
878.185	4877
878.313	4999
878.441	4911
878.568	4771
878.696	4866
878.824	4923
878.951	4995
879.079	5098
879.206	5284
879.333	5037
879.461	4984
879.588	4946
879.715	5048
879.842	5239
879.97	4965
880.097	4778
880.224	4725
880.351	4786
880.478	4782
880.605	4828
880.732	4771
880.859	5094
880.986	4904
881.112	4908
881.239	4812
881.366	4668
881.493	4603
881.619	4554
881.746	4641
881.872	4630
881.999	4653
882.125	4675
882.252	4809
882.378	4755
882.505	4972
882.631	4812
882.757	4687
882.883	4736
883.01	4694
883.136	4668
883.262	4554
883.388	4592
883.514	4805
883.64	4843
883.766	4767
883.892	4637
884.018	4679
884.143	4850
884.269	4957
884.395	4679
884.52	4653
884.646	4649
884.772	4554
884.897	4550
885.023	4653
885.148	4797
885.274	4786
885.399	4774
885.524	4672
885.65	4714
885.775	4740
885.9	4702
886.025	4835
886.15	4752
886.275	4698
886.4	4645
886.525	4706
886.65	4656
886.775	4641
886.9	4930
887.025	5045
887.149	4793
887.274	4626
887.399	4542
887.523	4618
887.648	4622
887.773	4573
887.897	4740
888.021	4793
888.146	4683
888.27	4744
888.395	4881
888.519	4786
888.643	4774
888.767	4858
888.891	4717
889.015	4554
889.139	4634
889.263	4580
889.387	4759
889.511	4839
889.635	4805
889.759	4630
889.883	4618
890.006	4729
890.13	4820
890.254	4626
890.377	4691
890.501	4531
890.624	4542
890.748	4664
890.871	4500
890.995	4428
891.118	4398
891.241	4504
891.364	4497
891.488	4630
891.611	4440
891.734	4527
891.857	4573
891.98	4535
892.103	4656
892.226	4603
892.349	4531
892.471	4421
892.594	4565
892.717	4554
892.839	4592
892.962	4580
893.085	4607
893.207	4637
893.33	4447
893.452	4516
893.575	4634
893.697	4603
893.819	4782
893.941	4839
894.064	4771
894.186	4554
894.308	4523
894.43	4748
894.552	4786
894.674	4717
894.796	4580
894.918	4603
895.04	4546
895.161	4691
895.283	4679
895.405	4573
895.526	4607
895.648	4653
895.769	4706
895.891	4694
896.012	4748
896.134	4740
896.255	4634
896.376	4637
896.498	4622
896.619	4668
896.74	4584
896.861	4679
896.982	4892
897.103	5045
897.224	4790
897.345	4752
897.466	4622
897.587	4694
897.708	4854
897.828	4736
897.949	4668
898.07	4542
898.19	4634
898.311	4809
898.431	4679
898.552	4714
898.672	4801
898.792	4801
898.913	4706
899.033	4588
899.153	4554
899.273	4417
899.393	4497
899.513	4504
899.633	4516
899.753	4561
899.873	4497
899.993	4596
900.113	4535
900.232	4603
900.352	4519
900.472	4455
900.591	4379
900.711	4451
900.83	4436
900.95	4599
901.069	4698
901.189	4538
901.308	4352
901.427	4299
901.546	4394
901.665	4447
901.784	4413
901.904	4367
902.023	4318
902.141	4219
902.26	4185
902.379	4291
902.498	4234
902.617	4242
902.735	4371
902.854	4383
902.973	4325
903.091	4162
903.21	4219
903.328	4325
903.446	4276
903.565	4192
903.683	4360
903.801	4287
903.919	4409
904.038	4424
904.156	4344
904.274	4390
904.392	4386
904.51	4398
904.627	4432
904.745	4637
904.863	4630
904.981	4394
905.098	4333
905.216	4360
905.334	4394
905.451	4436
905.569	4455
905.686	4527
905.803	4584
905.921	4398
906.038	4531
906.155	4474
906.272	4443
906.389	4424
906.506	4306
906.623	4375
906.74	4390
906.857	4322
906.974	4348
907.091	4561
907.208	4656
907.324	4550
907.441	4481
907.557	4344
907.674	4303
907.79	4337
907.907	4394
908.023	4428
908.139	4497
908.256	4417
908.372	4413
908.488	4470
908.604	4306
908.72	4363
908.836	4367
908.952	4409
909.068	4402
909.184	4558
909.3	4470
909.415	4558
909.531	4512
909.647	4360
909.762	4352
909.878	4287
909.993	4417
910.108	4428
910.224	4428
910.339	4493
910.454	4428
910.57	4390
910.685	4306
910.8	4656
910.915	4550
911.03	4489
911.145	4333
911.259	4299
911.374	4356
911.489	4265
911.604	4303
911.718	4143
911.833	4150
911.947	4055
912.062	4036
912.176	4238
912.291	4234
912.405	4223
912.519	4436
912.633	4523
912.748	4318
912.862	4265
912.976	4173
913.09	4139
913.204	4181
913.318	4306
913.431	4352
913.545	4390
913.659	4447
913.772	4333
913.886	4211
914	4207
914.113	4360
914.226	4432
914.34	4386
914.453	4272
914.566	4398
914.68	4276
914.793	4306
914.906	4150
915.019	4131
915.132	4059
915.245	4169
915.358	4192
915.47	4261
915.583	4234
915.696	4291
915.809	4379
915.921	4424
916.034	4287
916.146	4246
916.259	4227
916.371	4348
916.483	4341
916.595	4291
916.708	4314
916.82	4299
916.932	4310
917.044	4341
917.156	4329
917.268	4181
917.38	4303
917.491	4246
917.603	4383
917.715	4413
917.826	4417
917.938	4322
918.049	4230
918.161	4409
918.272	4538
918.384	4580
918.495	4455
918.606	4299
918.717	4192
918.828	4310
918.939	4352
919.05	4207
919.161	4299
919.272	4150
919.383	4200
919.494	4344
919.604	4645
919.715	4413
919.826	4325
919.936	4402
920.047	4470
920.157	4466
920.267	4691
920.378	4504
920.488	4466
920.598	4721
920.708	4801
920.818	4782
920.928	4759
921.038	4915
921.148	4889
921.258	4599
921.368	4523
921.477	4485
921.587	4440
921.697	4341
921.806	4535
921.916	4421
922.025	4272
922.134	4253
922.244	4200
922.353	4287
922.462	4192
922.571	4131
922.68	4044
922.789	3994
922.898	4002
923.007	4010
923.116	4086
923.224	4059
923.333	4082
923.442	3960
923.55	3975
923.659	4040
923.767	4051
923.876	3998
923.984	4093
924.092	3968
924.201	4059
924.309	4086
924.417	4074
924.525	4036
924.633	4090
924.741	5064
924.849	3876
924.956	4090
925.064	3945
925.172	3854
925.279	3926
925.387	4010
925.494	4040
925.602	4204
925.709	4166
925.816	4021
925.924	4120
926.031	4227
926.138	4131
926.245	4169
926.352	4086
926.459	4249
926.566	4276
926.673	4128
926.779	4109
926.886	4074
926.993	3960
927.099	3949
927.206	3968
927.312	3945
927.419	4036
927.525	4040
927.631	4116
927.737	3880
927.843	3956
927.95	3865
928.056	3972
928.162	3934
928.267	4021
928.373	4664
928.479	4143
928.585	3838
928.69	4017
928.796	4036
928.901	3911
929.007	3857
929.112	4025
929.218	3987
929.323	3896
929.428	3892
929.533	4093
929.638	3892
929.743	3937
929.848	3987
929.953	4002
930.058	3918
930.163	3747
930.267	3835
930.372	3964
930.477	3800
930.581	4071
930.685	3945
930.79	3800
930.894	3896
930.998	3854
931.103	4010
931.207	3694
931.311	3724
931.415	3648
931.519	3519
931.623	3549
