Data from test_V78500241_1431.txt Node
Date: Fri Mar 25 16:58:57 CST 2022
User: usil
Spectrometer: V785-0024
Trigger mode: 0
Integration Time (sec): 4.000000E-1
Scans to average: 1
Nonlinearity correction enabled: false
Boxcar width: 0
Storing dark spectrum: false
XAxis mode: Wavelengths
Number of Pixels in Spectrum: 1024
>>>>>Begin Spectral Data<<<<<
801.071	8081
801.214	8054
801.356	7902
801.499	7845
801.641	7772
801.783	7772
801.926	7955
802.068	7925
802.211	7944
802.353	8012
802.496	7826
802.638	7841
802.78	7925
802.923	7921
803.065	7868
803.208	7951
803.35	7982
803.492	8123
803.635	8180
803.777	8111
803.919	8123
804.061	8400
804.204	8206
804.346	8062
804.488	8001
804.63	8149
804.773	8069
804.915	8138
805.057	8282
805.199	8206
805.341	8119
805.483	8244
805.626	8183
805.768	8176
805.91	8195
806.052	8221
806.194	8100
806.336	8282
806.478	8111
806.62	8058
806.762	8119
806.904	8313
807.046	8495
807.188	8320
807.33	8244
807.472	8332
807.614	8153
807.756	8290
807.898	7898
808.04	7921
808.182	7955
808.324	7841
808.465	7978
808.607	8126
808.749	8050
808.891	8161
809.033	8328
809.174	8202
809.316	8096
809.458	8058
809.6	7997
809.741	8024
809.883	8046
810.025	8088
810.166	8134
810.308	8081
810.45	8008
810.591	7837
810.733	7765
810.875	7674
811.016	7559
811.158	7502
811.299	7616
811.441	7670
811.582	7689
811.724	7556
811.865	7521
812.007	7582
812.148	7563
812.29	7674
812.431	7811
812.573	7894
812.714	7959
812.855	8058
812.997	8142
813.138	8358
813.279	8176
813.421	8046
813.562	7940
813.703	7871
813.845	7700
813.986	7449
814.127	7266
814.268	7244
814.41	7225
814.551	7164
814.692	7202
814.833	6993
814.974	7114
815.115	7137
815.256	6943
815.397	7000
815.539	6973
815.68	6856
815.821	6768
815.962	6856
816.103	6818
816.244	6734
816.385	6684
816.526	6555
816.666	6528
816.807	6353
816.948	6391
817.089	6494
817.23	6441
817.371	6369
817.512	6331
817.653	6300
817.793	6418
817.934	6384
818.075	6445
818.216	6426
818.356	6395
818.497	6304
818.638	6155
818.778	6133
818.919	6064
819.06	6159
819.2	6327
819.341	6331
819.481	6399
819.622	6574
819.762	6715
819.903	6703
820.043	6566
820.184	6604
820.324	6570
820.465	6665
820.605	6684
820.746	6662
820.886	6540
821.026	6658
821.167	6658
821.307	6802
821.447	6795
821.588	6650
821.728	6547
821.868	6525
822.008	6338
822.149	6391
822.289	6289
822.429	6163
822.569	6125
822.709	6110
822.849	5961
822.99	5817
823.13	5920
823.27	5920
823.41	5745
823.55	5783
823.69	5779
823.83	5809
823.97	5688
824.11	5535
824.25	5501
824.389	5520
824.529	5577
824.669	5501
824.809	5638
824.949	5668
825.089	5627
825.228	5539
825.368	5379
825.508	5315
825.648	5353
825.787	5345
825.927	5353
826.067	5277
826.206	5315
826.346	5387
826.485	5376
826.625	5410
826.765	5558
826.904	5436
827.044	5254
827.183	5204
827.323	5094
827.462	5280
827.601	5162
827.741	5174
827.88	5174
828.02	5178
828.159	5280
828.298	5299
828.437	5368
828.577	5315
828.716	5467
828.855	5330
828.994	5147
829.134	5117
829.273	5201
829.412	5124
829.551	5117
829.69	5140
829.829	5280
829.968	5398
830.107	5299
830.246	5261
830.385	5201
830.524	5166
830.663	5102
830.802	4957
830.941	4881
831.08	4862
831.219	4930
831.357	4976
831.496	5162
831.635	4854
831.774	4870
831.913	4820
832.051	4748
832.19	4698
832.329	4839
832.467	4736
832.606	4596
832.744	4706
832.883	4721
833.022	4721
833.16	4755
833.299	4843
833.437	4797
833.576	4812
833.714	4862
833.852	4889
833.991	4877
834.129	4900
834.267	4946
834.406	4915
834.544	4987
834.682	4949
834.821	5006
834.959	5132
835.097	5006
835.235	5178
835.373	5086
835.511	5121
835.65	4980
835.788	4991
835.926	4873
836.064	4896
836.202	4949
836.34	5117
836.478	5212
836.615	5143
836.753	5227
836.891	5258
837.029	5254
837.167	5208
837.305	5136
837.443	5212
837.58	5105
837.718	5227
837.856	5166
837.993	5113
838.131	5212
838.269	5162
838.406	5208
838.544	5208
838.681	5083
838.819	5018
838.956	4911
839.094	4870
839.231	4949
839.369	5045
839.506	5376
839.643	5288
839.781	5064
839.918	4976
840.055	5064
840.193	5086
840.33	5094
840.467	5143
840.604	5166
840.742	5410
840.879	5105
841.016	5117
841.153	5162
841.29	5345
841.427	5364
841.564	5322
841.701	5357
841.838	5311
841.975	5170
842.112	5254
842.249	5094
842.385	5098
842.522	5322
842.659	5109
842.796	5166
842.933	5201
843.069	5117
843.206	5117
843.343	5345
843.479	5208
843.616	5254
843.752	5037
843.889	4999
844.025	5258
844.162	5029
844.298	5216
844.435	5037
844.571	4995
844.708	5162
844.844	5315
844.98	5376
845.117	5280
845.253	5143
845.389	5045
845.525	5170
845.661	5143
845.798	5045
845.934	5124
846.07	5033
846.206	5166
846.342	5292
846.478	5204
846.614	4984
846.75	4991
846.886	4972
847.022	5155
847.158	5022
847.294	5075
847.429	5109
847.565	5022
847.701	5296
847.837	4843
847.972	4843
848.108	4957
848.244	4915
848.379	4778
848.515	4714
848.65	4702
848.786	4736
848.921	4805
849.057	4904
849.192	4850
849.328	4801
849.463	4816
849.598	4797
849.734	4782
849.869	4641
850.004	4637
850.14	4599
850.275	4622
850.41	4519
850.545	4588
850.68	4649
850.815	4584
850.95	4660
851.085	4847
851.22	4733
851.355	4668
851.49	4607
851.625	4580
851.76	4630
851.895	4531
852.03	4550
852.165	4615
852.299	4717
852.434	4786
852.569	4687
852.703	4763
852.838	4824
852.973	4889
853.107	4927
853.242	4687
853.376	4698
853.511	4535
853.645	4626
853.78	4820
853.914	4744
854.048	4668
854.183	4622
854.317	4653
854.451	4850
854.585	4675
854.72	4611
854.854	4763
854.988	4588
855.122	4611
855.256	4550
855.39	4637
855.524	4740
855.658	4725
855.792	4641
855.926	4725
856.06	4759
856.194	4793
856.327	4694
856.461	4592
856.595	4626
856.729	4588
856.862	4744
856.996	4664
857.13	4672
857.263	4752
857.397	4805
857.53	4691
857.664	4702
857.797	4729
857.931	4797
858.064	4740
858.197	4725
858.331	4645
858.464	4660
858.597	4523
858.731	4565
858.864	4596
858.997	4588
859.13	4641
859.263	4664
859.396	4691
859.529	4588
859.662	4618
859.795	4466
859.928	4668
860.061	4748
860.194	4812
860.327	4626
860.46	4508
860.592	4717
860.725	4729
860.858	4710
860.99	4588
861.123	4550
861.256	4519
861.388	4615
861.521	5429
861.653	4485
861.786	4459
861.918	4466
862.05	4523
862.183	4546
862.315	4588
862.447	4637
862.58	4519
862.712	4398
862.844	4268
862.976	4478
863.108	4455
863.24	4877
863.372	4303
863.504	4421
863.636	4386
863.768	4485
863.9	4455
864.032	4333
864.164	4409
864.296	4443
864.428	4527
864.559	4531
864.691	4497
864.823	4542
864.954	4519
865.086	4504
865.217	4436
865.349	4417
865.48	4478
865.612	4516
865.743	4630
865.875	4474
866.006	4440
866.137	4474
866.269	4481
866.4	4405
866.531	4421
866.662	4424
866.793	4443
866.924	4402
867.055	4462
867.186	4402
867.317	4417
867.448	4341
867.579	4405
867.71	4394
867.841	4383
867.972	4455
868.103	4432
868.233	4417
868.364	4459
868.495	4523
868.625	4675
868.756	4702
868.886	4573
869.017	4618
869.147	4733
869.278	4714
869.408	4637
869.539	4694
869.669	4672
869.799	4664
869.929	4717
870.06	4778
870.19	4991
870.32	4968
870.45	4934
870.58	5029
870.71	5075
870.84	5079
870.97	4957
871.1	4965
871.23	5102
871.36	5109
871.489	5003
871.619	5052
871.749	5094
871.879	5132
872.008	5204
872.138	5094
872.267	4999
872.397	4858
872.526	4801
872.656	4687
872.785	4824
872.915	4934
873.044	5025
873.173	4927
873.303	4946
873.432	4968
873.561	4957
873.69	4858
873.819	4831
873.948	4904
874.077	4824
874.206	4759
874.335	4828
874.464	4908
874.593	5056
874.722	4946
874.851	5086
874.979	5098
875.108	4999
875.237	4881
875.365	4896
875.494	4858
875.623	4968
875.751	4835
875.88	4908
876.008	4930
876.136	5018
876.265	5208
876.393	5307
876.521	5201
876.65	5208
876.778	5117
876.906	5041
877.034	5006
877.162	5014
877.29	4991
877.418	5045
877.546	5037
877.674	5014
877.802	5025
877.93	4995
878.058	4942
878.185	4877
878.313	4915
878.441	4946
878.568	4786
878.696	4877
878.824	4938
878.951	4949
879.079	5124
879.206	5334
879.333	5060
879.461	4942
879.588	4987
879.715	5067
879.842	5239
879.97	5022
880.097	4733
880.224	4763
880.351	4801
880.478	4824
880.605	4752
880.732	4850
880.859	5094
880.986	4942
881.112	4896
881.239	4782
881.366	4634
881.493	4611
881.619	4561
881.746	4641
881.872	4630
881.999	4672
882.125	4645
882.252	4752
882.378	4854
882.505	4965
882.631	4790
882.757	4683
882.883	4717
883.01	4687
883.136	4641
883.262	4607
883.388	4569
883.514	4774
883.64	4873
883.766	4774
883.892	4630
884.018	4748
884.143	4824
884.269	5052
884.395	4683
884.52	4577
884.646	4637
884.772	4577
884.897	4558
885.023	4626
885.148	4782
885.274	4850
885.399	4816
885.524	4664
885.65	4729
885.775	4717
885.9	4702
886.025	4812
886.15	4782
886.275	4691
886.4	4656
886.525	4721
886.65	4729
886.775	4683
886.9	4843
887.025	5018
887.149	4801
887.274	4599
887.399	4561
887.523	4622
887.648	4546
887.773	4584
887.897	4698
888.021	4759
888.146	4698
888.27	4831
888.395	4877
888.519	4782
888.643	4828
888.767	4828
888.891	4679
889.015	4645
889.139	4679
889.263	4565
889.387	4782
889.511	4873
889.635	4793
889.759	4634
889.883	4637
890.006	4755
890.13	4782
890.254	4584
890.377	4706
890.501	4497
890.624	4523
890.748	4615
890.871	4504
890.995	4432
891.118	4443
891.241	4466
891.364	4523
891.488	4599
891.611	4546
891.734	4516
891.857	4599
891.98	4466
892.103	4577
892.226	4603
892.349	4466
892.471	4405
892.594	4527
892.717	4615
892.839	4592
892.962	4577
893.085	4649
893.207	4599
893.33	4497
893.452	4489
893.575	4660
893.697	4554
893.819	4767
893.941	4774
894.064	4778
894.186	4599
894.308	4580
894.43	4759
894.552	4801
894.674	4733
894.796	4546
894.918	4618
895.04	4523
895.161	4706
895.283	4672
895.405	4573
895.526	4592
895.648	4694
895.769	4672
895.891	4679
896.012	4771
896.134	4721
896.255	4664
896.376	4664
896.498	4611
896.619	4694
896.74	4580
896.861	4641
896.982	4919
897.103	5113
897.224	4847
897.345	4755
897.466	4656
897.587	4706
897.708	4854
897.828	4771
897.949	4664
898.07	4550
898.19	4599
898.311	4831
898.431	4694
898.552	4714
898.672	4790
898.792	4782
898.913	4771
899.033	4630
899.153	4527
899.273	4447
899.393	4523
899.513	4512
899.633	4478
899.753	4497
899.873	4508
899.993	4569
900.113	4512
900.232	4615
900.352	4497
900.472	4455
900.591	4413
900.711	4466
900.83	4462
900.95	4580
901.069	4729
901.189	4519
901.308	4356
901.427	4348
901.546	4402
901.665	4493
901.784	4512
901.904	4424
902.023	4344
902.141	4196
902.26	4150
902.379	4295
902.498	4215
902.617	4223
902.735	4398
902.854	4436
902.973	4386
903.091	4242
903.21	4219
903.328	4291
903.446	4246
903.565	4257
903.683	4352
903.801	4257
903.919	4367
904.038	4440
904.156	4306
904.274	4451
904.392	4417
904.51	4405
904.627	4455
904.745	4569
904.863	4558
904.981	4417
905.098	4299
905.216	4352
905.334	4421
905.451	4440
905.569	4417
905.686	4565
905.803	4588
905.921	4360
906.038	4565
906.155	4459
906.272	4413
906.389	4440
906.506	4352
906.623	4390
906.74	4398
906.857	4280
906.974	4337
907.091	4565
907.208	4656
907.324	4531
907.441	4512
907.557	4344
907.674	4318
907.79	4314
907.907	4390
908.023	4462
908.139	4455
908.256	4394
908.372	4413
908.488	4375
908.604	4352
908.72	4329
908.836	4329
908.952	4344
909.068	4451
909.184	4588
909.3	4451
909.415	4538
909.531	4577
909.647	4318
909.762	4341
909.878	4352
909.993	4436
910.108	4379
910.224	4421
910.339	4497
910.454	4371
910.57	4318
910.685	4314
910.8	4626
910.915	4573
911.03	4478
911.145	4295
911.259	4303
911.374	4363
911.489	4303
911.604	4303
911.718	4215
911.833	4257
911.947	4116
912.062	4055
912.176	4215
912.291	4253
912.405	4272
912.519	4459
912.633	4459
912.748	4363
912.862	4333
912.976	4162
913.09	4051
913.204	4192
913.318	4234
913.431	4360
913.545	4333
913.659	4394
913.772	4390
913.886	4257
914	4188
914.113	4390
914.226	4459
914.34	4363
914.453	4234
914.566	4405
914.68	4318
914.793	4291
914.906	4143
915.019	4116
915.132	4074
915.245	4150
915.358	4234
915.47	4185
915.583	4242
915.696	4268
915.809	4398
915.921	4447
916.034	4272
916.146	4238
916.259	4238
916.371	4367
916.483	4322
916.595	4265
916.708	4303
916.82	4337
916.932	4246
917.044	4276
917.156	4333
917.268	4200
917.38	4223
917.491	4265
917.603	4325
917.715	4428
917.826	4424
917.938	4363
918.049	4207
918.161	4367
918.272	4535
918.384	4577
918.495	4447
918.606	4276
918.717	4192
918.828	4318
918.939	4394
919.05	4272
919.161	4348
919.272	4097
919.383	4257
919.494	4428
919.604	4615
919.715	4409
919.826	4322
919.936	4405
920.047	4546
920.157	4462
920.267	4660
920.378	4519
920.488	4550
920.598	4710
920.708	4885
920.818	4733
920.928	4752
921.038	4946
921.148	4915
921.258	4611
921.368	4577
921.477	4493
921.587	4421
921.697	4337
921.806	4569
921.916	4504
922.025	4265
922.134	4265
922.244	4169
922.353	4333
922.462	4196
922.571	4124
922.68	4017
922.789	3994
922.898	4021
923.007	3956
923.116	4078
923.224	4051
923.333	4090
923.442	3998
923.55	4002
923.659	4059
923.767	4112
923.876	3975
923.984	4109
924.092	4010
924.201	4055
924.309	4097
924.417	4128
924.525	4074
924.633	4109
924.741	5033
924.849	3896
924.956	4139
925.064	3960
925.172	3880
925.279	3972
925.387	4055
925.494	4029
925.602	4211
925.709	4204
925.816	4029
925.924	4078
926.031	4185
926.138	4204
926.245	4204
926.352	4090
926.459	4185
926.566	4268
926.673	4177
926.779	4074
926.886	4109
926.993	4002
927.099	3956
927.206	3922
927.312	3972
927.419	4051
927.525	4055
927.631	4063
927.737	3953
927.843	3934
927.95	3831
928.056	3956
928.162	3987
928.267	4071
928.373	4565
928.479	4112
928.585	3918
928.69	3994
928.796	4086
928.901	3968
929.007	3857
929.112	4032
929.218	3937
929.323	3899
929.428	3953
929.533	4147
929.638	3915
929.743	3964
929.848	4078
929.953	3960
930.058	3907
930.163	3789
930.267	3861
930.372	3979
930.477	3808
930.581	4040
930.685	3899
930.79	3808
930.894	3873
930.998	3835
931.103	4021
931.207	3690
931.311	3717
931.415	3679
931.519	3545
931.623	3526
