Data from test_V78500241_568.txt Node
Date: Fri Mar 25 16:52:57 CST 2022
User: usil
Spectrometer: V785-0024
Trigger mode: 0
Integration Time (sec): 4.000000E-1
Scans to average: 1
Nonlinearity correction enabled: false
Boxcar width: 0
Storing dark spectrum: false
XAxis mode: Wavelengths
Number of Pixels in Spectrum: 1024
>>>>>Begin Spectral Data<<<<<
801.071	8046
801.214	7963
801.356	7849
801.499	7887
801.641	7765
801.783	7799
801.926	8043
802.068	7986
802.211	7970
802.353	7959
802.496	7868
802.638	7974
802.78	7883
802.923	7909
803.065	7887
803.208	7826
803.35	7894
803.492	8084
803.635	8111
803.777	7963
803.919	8069
804.061	8438
804.204	8111
804.346	7986
804.488	7940
804.63	8103
804.773	8073
804.915	8092
805.057	8298
805.199	8123
805.341	8233
805.483	8229
805.626	8130
805.768	8103
805.91	8119
806.052	8244
806.194	8058
806.336	8271
806.478	8130
806.62	8119
806.762	8142
806.904	8229
807.046	8473
807.188	8393
807.33	8309
807.472	8317
807.614	8096
807.756	8077
807.898	7970
808.04	7803
808.182	7879
808.324	7932
808.465	7944
808.607	8020
808.749	8054
808.891	8164
809.033	8343
809.174	8161
809.316	8005
809.458	8039
809.6	7947
809.741	8024
809.883	8008
810.025	8084
810.166	8046
810.308	7997
810.45	8039
810.591	7868
810.733	7769
810.875	7636
811.016	7514
811.158	7502
811.299	7590
811.441	7765
811.582	7643
811.724	7563
811.865	7540
812.007	7613
812.148	7597
812.29	7674
812.431	7685
812.573	7799
812.714	7963
812.855	8180
812.997	8256
813.138	8393
813.279	8275
813.421	8149
813.562	7989
813.703	7887
813.845	7822
813.986	7506
814.127	7369
814.268	7320
814.41	7198
814.551	7187
814.692	7209
814.833	7099
814.974	7103
815.115	7171
815.256	6966
815.397	6924
815.539	6947
815.68	6818
815.821	6745
815.962	6871
816.103	6878
816.244	6768
816.385	6593
816.526	6589
816.666	6566
816.807	6315
816.948	6437
817.089	6486
817.23	6437
817.371	6376
817.512	6353
817.653	6357
817.793	6350
817.934	6433
818.075	6429
818.216	6407
818.356	6407
818.497	6262
818.638	6102
818.778	6136
818.919	6045
819.06	6155
819.2	6296
819.341	6300
819.481	6342
819.622	6547
819.762	6734
819.903	6650
820.043	6662
820.184	6540
820.324	6601
820.465	6654
820.605	6635
820.746	6585
820.886	6471
821.026	6635
821.167	6623
821.307	6787
821.447	6787
821.588	6631
821.728	6589
821.868	6502
822.008	6342
822.149	6376
822.289	6353
822.429	6117
822.569	6110
822.709	6125
822.849	5882
822.99	5942
823.13	5904
823.27	5923
823.41	5771
823.55	5783
823.69	5729
823.83	5779
823.97	5649
824.11	5497
824.25	5505
824.389	5505
824.529	5543
824.669	5516
824.809	5611
824.949	5665
825.089	5627
825.228	5554
825.368	5341
825.508	5322
825.648	5318
825.787	5395
825.927	5364
826.067	5315
826.206	5277
826.346	5395
826.485	5383
826.625	5383
826.765	5551
826.904	5455
827.044	5231
827.183	5208
827.323	5075
827.462	5261
827.601	5170
827.741	5162
827.88	5189
828.02	5090
828.159	5269
828.298	5296
828.437	5387
828.577	5273
828.716	5459
828.855	5303
828.994	5162
829.134	5159
829.273	5204
829.412	5136
829.551	5132
829.69	5109
829.829	5227
829.968	5376
830.107	5307
830.246	5227
830.385	5159
830.524	5086
830.663	5071
830.802	4968
830.941	4870
831.08	4835
831.219	4949
831.357	4938
831.496	5166
831.635	4930
831.774	4801
831.913	4858
832.051	4725
832.19	4793
832.329	4771
832.467	4649
832.606	4611
832.744	4717
832.883	4687
833.022	4717
833.16	4831
833.299	4786
833.437	4839
833.576	4820
833.714	4881
833.852	4858
833.991	4892
834.129	4972
834.267	5010
834.406	4854
834.544	4976
834.682	4984
834.821	4995
834.959	5170
835.097	4984
835.235	5109
835.373	5045
835.511	5052
835.65	4991
835.788	5003
835.926	4892
836.064	4854
836.202	4965
836.34	5117
836.478	5185
836.615	5105
836.753	5208
836.891	5269
837.029	5197
837.167	5147
837.305	5189
837.443	5140
837.58	5113
837.718	5254
837.856	5170
837.993	5086
838.131	5273
838.269	5227
838.406	5227
838.544	5151
838.681	5018
838.819	4980
838.956	4900
839.094	4900
839.231	4942
839.369	5064
839.506	5402
839.643	5258
839.781	5033
839.918	5067
840.055	5102
840.193	5140
840.33	5113
840.467	5102
840.604	5193
840.742	5452
840.879	5083
841.016	5056
841.153	5147
841.29	5360
841.427	5284
841.564	5307
841.701	5395
841.838	5292
841.975	5181
842.112	5265
842.249	5147
842.385	5140
842.522	5265
842.659	5166
842.796	5113
842.933	5201
843.069	5140
843.206	5121
843.343	5292
843.479	5242
843.616	5216
843.752	5014
843.889	4995
844.025	5220
844.162	4999
844.298	5143
844.435	5064
844.571	5094
844.708	5170
844.844	5220
844.98	5318
845.117	5299
845.253	5121
845.389	5056
845.525	5193
845.661	5159
845.798	4991
845.934	5109
846.07	5079
846.206	5231
846.342	5223
846.478	5128
846.614	5022
846.75	4934
846.886	4968
847.022	5204
847.158	5003
847.294	5048
847.429	5079
847.565	5071
847.701	5315
847.837	4801
847.972	4809
848.108	4896
848.244	4942
848.379	4774
848.515	4710
848.65	4710
848.786	4771
848.921	4752
849.057	4835
849.192	4885
849.328	4847
849.463	4835
849.598	4797
849.734	4710
849.869	4691
850.004	4626
850.14	4653
850.275	4615
850.41	4519
850.545	4561
850.68	4561
850.815	4607
850.95	4634
851.085	4835
851.22	4698
851.355	4656
851.49	4599
851.625	4645
851.76	4622
851.895	4573
852.03	4569
852.165	4584
852.299	4653
852.434	4782
852.569	4752
852.703	4763
852.838	4900
852.973	4930
853.107	4927
853.242	4714
853.376	4672
853.511	4512
853.645	4634
853.78	4831
853.914	4668
854.048	4649
854.183	4630
854.317	4717
854.451	4835
854.585	4660
854.72	4637
854.854	4752
854.988	4626
855.122	4660
855.256	4542
855.39	4672
855.524	4782
855.658	4759
855.792	4702
855.926	4744
856.06	4752
856.194	4759
856.327	4721
856.461	4599
856.595	4649
856.729	4603
856.862	4729
856.996	4683
857.13	4706
857.263	4778
857.397	4786
857.53	4649
857.664	4736
857.797	4752
857.931	4771
858.064	4656
858.197	4706
858.331	4645
858.464	4622
858.597	4542
858.731	4599
858.864	4645
858.997	4516
859.13	4641
859.263	4675
859.396	4668
859.529	4561
859.662	4554
859.795	4474
859.928	4630
860.061	4763
860.194	4763
860.327	4607
860.46	4554
860.592	4733
860.725	4683
860.858	4710
860.99	4550
861.123	4535
861.256	4489
861.388	4569
861.521	5406
861.653	4459
861.786	4432
861.918	4485
862.05	4538
862.183	4561
862.315	4615
862.447	4607
862.58	4542
862.712	4383
862.844	4276
862.976	4421
863.108	4466
863.24	4828
863.372	4333
863.504	4402
863.636	4402
863.768	4497
863.9	4447
864.032	4379
864.164	4375
864.296	4470
864.428	4542
864.559	4554
864.691	4523
864.823	4493
864.954	4451
865.086	4493
865.217	4459
865.349	4390
865.48	4440
865.612	4512
865.743	4626
865.875	4466
866.006	4447
866.137	4455
866.269	4459
866.4	4447
866.531	4432
866.662	4405
866.793	4428
866.924	4390
867.055	4493
867.186	4478
867.317	4409
867.448	4383
867.579	4413
867.71	4379
867.841	4367
867.972	4462
868.103	4447
868.233	4455
868.364	4455
868.495	4512
868.625	4641
868.756	4752
868.886	4584
869.017	4630
869.147	4744
869.278	4778
869.408	4679
869.539	4698
869.669	4717
869.799	4653
869.929	4710
870.06	4725
870.19	4957
870.32	4980
870.45	4965
870.58	5018
870.71	5128
870.84	5075
870.97	4946
871.1	4904
871.23	5109
871.36	5090
871.489	5037
871.619	5075
871.749	5136
871.879	5075
872.008	5166
872.138	5022
872.267	4972
872.397	4881
872.526	4839
872.656	4736
872.785	4839
872.915	4961
873.044	4999
873.173	4949
873.303	4987
873.432	4930
873.561	4953
873.69	4862
873.819	4877
873.948	4866
874.077	4820
874.206	4717
874.335	4805
874.464	4930
874.593	5067
874.722	4968
874.851	5117
874.979	5041
875.108	5025
875.237	4915
875.365	4881
875.494	4904
875.623	4927
875.751	4870
875.88	4946
876.008	5010
876.136	5029
876.265	5166
876.393	5315
876.521	5288
876.65	5235
876.778	5185
876.906	5056
877.034	5033
877.162	5022
877.29	5003
877.418	5079
877.546	5014
877.674	5014
877.802	5052
877.93	5045
878.058	4911
878.185	4889
878.313	4953
878.441	4980
878.568	4809
878.696	4866
878.824	4965
878.951	4999
879.079	5090
879.206	5277
879.333	5121
879.461	5022
879.588	4995
879.715	5071
879.842	5227
879.97	5048
880.097	4774
880.224	4717
880.351	4824
880.478	4828
880.605	4801
880.732	4809
880.859	5045
880.986	4858
881.112	4908
881.239	4755
881.366	4744
881.493	4569
881.619	4599
881.746	4679
881.872	4664
881.999	4664
882.125	4752
882.252	4778
882.378	4831
882.505	4987
882.631	4774
882.757	4679
882.883	4759
883.01	4725
883.136	4656
883.262	4607
883.388	4615
883.514	4805
883.64	4828
883.766	4786
883.892	4645
884.018	4729
884.143	4847
884.269	5018
884.395	4702
884.52	4672
884.646	4645
884.772	4592
884.897	4577
885.023	4615
885.148	4793
885.274	4847
885.399	4782
885.524	4714
885.65	4717
885.775	4740
885.9	4755
886.025	4839
886.15	4774
886.275	4717
886.4	4683
886.525	4706
886.65	4687
886.775	4656
886.9	4889
887.025	4965
887.149	4774
887.274	4683
887.399	4592
887.523	4550
887.648	4580
887.773	4599
887.897	4782
888.021	4816
888.146	4656
888.27	4820
888.395	4900
888.519	4824
888.643	4828
888.767	4843
888.891	4668
889.015	4569
889.139	4656
889.263	4577
889.387	4733
889.511	4892
889.635	4782
889.759	4664
889.883	4664
890.006	4767
890.13	4862
890.254	4573
890.377	4668
890.501	4546
890.624	4519
890.748	4656
890.871	4538
890.995	4398
891.118	4379
891.241	4516
891.364	4538
891.488	4596
891.611	4504
891.734	4542
891.857	4577
891.98	4546
892.103	4645
892.226	4561
892.349	4523
892.471	4436
892.594	4550
892.717	4596
892.839	4615
892.962	4615
893.085	4653
893.207	4607
893.33	4512
893.452	4558
893.575	4645
893.697	4561
893.819	4793
893.941	4824
894.064	4767
894.186	4561
894.308	4599
894.43	4744
894.552	4820
894.674	4744
894.796	4523
894.918	4554
895.04	4588
895.161	4702
895.283	4656
895.405	4519
895.526	4645
895.648	4691
895.769	4664
895.891	4759
896.012	4748
896.134	4725
896.255	4664
896.376	4622
896.498	4637
896.619	4694
896.74	4588
896.861	4634
896.982	4942
897.103	5090
897.224	4824
897.345	4740
897.466	4698
897.587	4710
897.708	4881
897.828	4744
897.949	4660
898.07	4550
898.19	4656
898.311	4790
898.431	4683
898.552	4725
898.672	4816
898.792	4809
898.913	4717
899.033	4637
899.153	4523
899.273	4428
899.393	4459
899.513	4527
899.633	4554
899.753	4538
899.873	4489
899.993	4542
900.113	4554
900.232	4615
900.352	4535
900.472	4424
900.591	4436
900.711	4489
900.83	4470
900.95	4611
901.069	4687
901.189	4538
901.308	4356
901.427	4325
901.546	4375
901.665	4447
901.784	4478
901.904	4375
902.023	4363
902.141	4188
902.26	4207
902.379	4276
902.498	4268
902.617	4234
902.735	4348
902.854	4417
902.973	4383
903.091	4192
903.21	4227
903.328	4310
903.446	4249
903.565	4257
903.683	4333
903.801	4303
903.919	4413
904.038	4436
904.156	4352
904.274	4462
904.392	4413
904.51	4451
904.627	4474
904.745	4573
904.863	4615
904.981	4371
905.098	4303
905.216	4356
905.334	4451
905.451	4447
905.569	4421
905.686	4558
905.803	4561
905.921	4421
906.038	4504
906.155	4478
906.272	4375
906.389	4478
906.506	4329
906.623	4413
906.74	4409
906.857	4337
906.974	4356
907.091	4558
907.208	4656
907.324	4592
907.441	4462
907.557	4325
907.674	4363
907.79	4341
907.907	4356
908.023	4527
908.139	4497
908.256	4405
908.372	4436
908.488	4409
908.604	4390
908.72	4333
908.836	4383
908.952	4329
909.068	4455
909.184	4569
909.3	4462
909.415	4569
909.531	4596
909.647	4390
909.762	4371
909.878	4314
909.993	4440
910.108	4360
910.224	4443
910.339	4443
910.454	4383
910.57	4363
910.685	4325
910.8	4653
910.915	4599
911.03	4440
911.145	4333
911.259	4268
911.374	4398
911.489	4333
911.604	4257
911.718	4173
911.833	4230
911.947	4044
912.062	4063
912.176	4173
912.291	4257
912.405	4215
912.519	4481
912.633	4554
912.748	4333
912.862	4325
912.976	4200
913.09	4135
913.204	4204
913.318	4253
913.431	4360
913.545	4379
913.659	4451
913.772	4341
913.886	4257
914	4242
914.113	4371
914.226	4459
914.34	4363
914.453	4257
914.566	4436
914.68	4276
914.793	4314
914.906	4162
915.019	4139
915.132	4090
915.245	4181
915.358	4181
915.47	4207
915.583	4246
915.696	4295
915.809	4432
915.921	4443
916.034	4238
916.146	4249
916.259	4215
916.371	4390
916.483	4367
916.595	4261
916.708	4337
916.82	4337
916.932	4287
917.044	4344
917.156	4337
917.268	4215
917.38	4329
917.491	4268
917.603	4352
917.715	4443
917.826	4436
917.938	4367
918.049	4257
918.161	4402
918.272	4542
918.384	4538
918.495	4455
918.606	4322
918.717	4265
918.828	4303
918.939	4352
919.05	4261
919.161	4310
919.272	4143
919.383	4211
919.494	4428
919.604	4622
919.715	4413
919.826	4367
919.936	4409
920.047	4523
920.157	4474
920.267	4729
920.378	4538
920.488	4478
920.598	4706
920.708	4877
920.818	4721
920.928	4698
921.038	4976
921.148	4919
921.258	4626
921.368	4573
921.477	4478
921.587	4432
921.697	4352
921.806	4573
921.916	4428
922.025	4238
922.134	4291
922.244	4261
922.353	4322
922.462	4181
922.571	4204
922.68	3960
922.789	3956
922.898	4063
923.007	4017
923.116	4097
923.224	4055
923.333	4116
923.442	3998
923.55	3956
923.659	3979
923.767	4101
923.876	4006
923.984	4112
924.092	3979
924.201	4120
924.309	4090
924.417	4135
924.525	4086
924.633	4112
924.741	5052
924.849	3907
924.956	4154
925.064	3937
925.172	3888
925.279	3960
925.387	4071
925.494	4078
925.602	4238
925.709	4166
925.816	4082
925.924	4124
926.031	4215
926.138	4196
926.245	4204
926.352	4090
926.459	4230
926.566	4306
926.673	4181
926.779	4101
926.886	4044
926.993	4006
927.099	3964
927.206	3945
927.312	3960
927.419	4036
927.525	4051
927.631	4086
927.737	3953
927.843	3968
927.95	3819
928.056	3937
928.162	3994
928.267	4032
928.373	4630
928.479	4086
928.585	3819
928.69	4021
928.796	4032
928.901	3987
929.007	3873
929.112	4006
929.218	3956
929.323	3945
929.428	3956
929.533	4074
929.638	3892
929.743	4029
929.848	4048
929.953	4029
930.058	3960
930.163	3781
930.267	3797
930.372	3964
930.477	3800
930.581	4097
930.685	3956
930.79	3797
930.894	3903
930.998	3857
931.103	3975
931.207	3713
931.311	3713
931.415	3648
931.519	3504
931.623	3568
