Data from test_V78500241_810.txt Node
Date: Fri Mar 25 16:54:38 CST 2022
User: usil
Spectrometer: V785-0024
Trigger mode: 0
Integration Time (sec): 4.000000E-1
Scans to average: 1
Nonlinearity correction enabled: false
Boxcar width: 0
Storing dark spectrum: false
XAxis mode: Wavelengths
Number of Pixels in Spectrum: 1024
>>>>>Begin Spectral Data<<<<<
801.071	8024
801.214	8005
801.356	7860
801.499	7833
801.641	7818
801.783	7833
801.926	7959
802.068	7951
802.211	7951
802.353	7959
802.496	7852
802.638	7898
802.78	7921
802.923	7970
803.065	7807
803.208	7849
803.35	7928
803.492	8043
803.635	8149
803.777	8050
803.919	8119
804.061	8427
804.204	8142
804.346	8046
804.488	7936
804.63	8134
804.773	8031
804.915	8172
805.057	8229
805.199	8130
805.341	8248
805.483	8263
805.626	8202
805.768	8073
805.91	8214
806.052	8164
806.194	8058
806.336	8298
806.478	8145
806.62	8069
806.762	8176
806.904	8225
807.046	8469
807.188	8377
807.33	8221
807.472	8267
807.614	8157
807.756	8008
807.898	7932
808.04	7860
808.182	7940
808.324	7887
808.465	7902
808.607	7978
808.749	8069
808.891	8221
809.033	8275
809.174	8252
809.316	8031
809.458	8081
809.6	7947
809.741	8020
809.883	7997
810.025	8065
810.166	8001
810.308	8001
810.45	8043
810.591	7875
810.733	7788
810.875	7651
811.016	7529
811.158	7521
811.299	7559
811.441	7674
811.582	7685
811.724	7616
811.865	7487
812.007	7601
812.148	7533
812.29	7578
812.431	7723
812.573	7906
812.714	7936
812.855	8054
812.997	8138
813.138	8263
813.279	8183
813.421	8073
813.562	8062
813.703	7852
813.845	7734
813.986	7483
814.127	7236
814.268	7324
814.41	7152
814.551	7061
814.692	7103
814.833	7019
814.974	7114
815.115	7076
815.256	6897
815.397	6897
815.539	6973
815.68	6783
815.821	6791
815.962	6848
816.103	6795
816.244	6677
816.385	6646
816.526	6631
816.666	6464
816.807	6292
816.948	6407
817.089	6494
817.23	6437
817.371	6353
817.512	6342
817.653	6361
817.793	6391
817.934	6357
818.075	6403
818.216	6407
818.356	6399
818.497	6190
818.638	6148
818.778	6098
818.919	6136
819.06	6091
819.2	6296
819.341	6300
819.481	6296
819.622	6566
819.762	6745
819.903	6703
820.043	6585
820.184	6570
820.324	6551
820.465	6585
820.605	6612
820.746	6582
820.886	6486
821.026	6582
821.167	6715
821.307	6806
821.447	6730
821.588	6658
821.728	6483
821.868	6456
822.008	6270
822.149	6369
822.289	6380
822.429	6114
822.569	5992
822.709	6117
822.849	5958
822.99	5824
823.13	5923
823.27	5904
823.41	5790
823.55	5752
823.69	5699
823.83	5756
823.97	5600
824.11	5478
824.25	5471
824.389	5520
824.529	5577
824.669	5524
824.809	5604
824.949	5585
825.089	5562
825.228	5535
825.368	5395
825.508	5330
825.648	5330
825.787	5337
825.927	5307
826.067	5296
826.206	5296
826.346	5341
826.485	5429
826.625	5376
826.765	5554
826.904	5452
827.044	5242
827.183	5140
827.323	5117
827.462	5201
827.601	5140
827.741	5159
827.88	5212
828.02	5132
828.159	5246
828.298	5277
828.437	5379
828.577	5303
828.716	5436
828.855	5292
828.994	5140
829.134	5155
829.273	5124
829.412	5181
829.551	5113
829.69	5105
829.829	5258
829.968	5349
830.107	5277
830.246	5269
830.385	5159
830.524	5079
830.663	5098
830.802	4980
830.941	4938
831.08	4843
831.219	4999
831.357	4980
831.496	5113
831.635	4881
831.774	4809
831.913	4809
832.051	4714
832.19	4668
832.329	4896
832.467	4694
832.606	4641
832.744	4729
832.883	4706
833.022	4706
833.16	4740
833.299	4793
833.437	4824
833.576	4839
833.714	4862
833.852	4858
833.991	4839
834.129	4919
834.267	4930
834.406	4885
834.544	4957
834.682	4953
834.821	4968
834.959	5098
835.097	4946
835.235	5124
835.373	5045
835.511	5105
835.65	5029
835.788	5033
835.926	4847
836.064	4885
836.202	4877
836.34	5162
836.478	5204
836.615	5090
836.753	5189
836.891	5296
837.029	5261
837.167	5208
837.305	5185
837.443	5162
837.58	5003
837.718	5189
837.856	5193
837.993	5162
838.131	5223
838.269	5117
838.406	5212
838.544	5166
838.681	5045
838.819	4980
838.956	4911
839.094	4900
839.231	4980
839.369	5117
839.506	5391
839.643	5280
839.781	5067
839.918	4991
840.055	5064
840.193	5052
840.33	5109
840.467	5056
840.604	5143
840.742	5410
840.879	5003
841.016	5094
841.153	5166
841.29	5330
841.427	5307
841.564	5296
841.701	5364
841.838	5322
841.975	5231
842.112	5242
842.249	5124
842.385	5048
842.522	5318
842.659	5189
842.796	5113
842.933	5162
843.069	5113
843.206	5128
843.343	5292
843.479	5269
843.616	5231
843.752	5045
843.889	5022
844.025	5181
844.162	5041
844.298	5201
844.435	5056
844.571	5014
844.708	5197
844.844	5326
844.98	5349
845.117	5265
845.253	5147
845.389	5052
845.525	5143
845.661	5071
845.798	5048
845.934	5132
846.07	5048
846.206	5181
846.342	5204
846.478	5155
846.614	4995
846.75	4972
846.886	4938
847.022	5094
847.158	5010
847.294	5037
847.429	5117
847.565	5018
847.701	5383
847.837	4850
847.972	4797
848.108	4976
848.244	4873
848.379	4786
848.515	4755
848.65	4710
848.786	4721
848.921	4763
849.057	4854
849.192	4915
849.328	4839
849.463	4812
849.598	4755
849.734	4763
849.869	4698
850.004	4637
850.14	4656
850.275	4615
850.41	4542
850.545	4538
850.68	4580
850.815	4599
850.95	4603
851.085	4763
851.22	4763
851.355	4634
851.49	4626
851.625	4622
851.76	4630
851.895	4535
852.03	4493
852.165	4618
852.299	4679
852.434	4797
852.569	4729
852.703	4740
852.838	4812
852.973	4946
853.107	4885
853.242	4744
853.376	4599
853.511	4542
853.645	4645
853.78	4828
853.914	4725
854.048	4649
854.183	4588
854.317	4672
854.451	4801
854.585	4656
854.72	4599
854.854	4786
854.988	4615
855.122	4683
855.256	4535
855.39	4656
855.524	4763
855.658	4698
855.792	4702
855.926	4710
856.06	4740
856.194	4767
856.327	4687
856.461	4599
856.595	4592
856.729	4626
856.862	4725
856.996	4702
857.13	4664
857.263	4759
857.397	4790
857.53	4618
857.664	4694
857.797	4759
857.931	4748
858.064	4744
858.197	4721
858.331	4653
858.464	4603
858.597	4504
858.731	4592
858.864	4630
858.997	4550
859.13	4675
859.263	4637
859.396	4691
859.529	4527
859.662	4561
859.795	4573
859.928	4580
860.061	4801
860.194	4729
860.327	4615
860.46	4603
860.592	4668
860.725	4729
860.858	4668
860.99	4550
861.123	4554
861.256	4531
861.388	4653
861.521	5277
861.653	4470
861.786	4421
861.918	4462
862.05	4459
862.183	4497
862.315	4622
862.447	4611
862.58	4561
862.712	4417
862.844	4322
862.976	4455
863.108	4466
863.24	4835
863.372	4322
863.504	4394
863.636	4379
863.768	4474
863.9	4432
864.032	4360
864.164	4405
864.296	4455
864.428	4504
864.559	4535
864.691	4504
864.823	4558
864.954	4512
865.086	4497
865.217	4440
865.349	4447
865.48	4447
865.612	4470
865.743	4603
865.875	4432
866.006	4447
866.137	4417
866.269	4447
866.4	4424
866.531	4424
866.662	4424
866.793	4405
866.924	4383
867.055	4443
867.186	4451
867.317	4436
867.448	4352
867.579	4375
867.71	4367
867.841	4398
867.972	4451
868.103	4466
868.233	4394
868.364	4451
868.495	4493
868.625	4634
868.756	4733
868.886	4565
869.017	4558
869.147	4752
869.278	4748
869.408	4656
869.539	4626
869.669	4729
869.799	4694
869.929	4759
870.06	4694
870.19	4946
870.32	4835
870.45	4980
870.58	5006
870.71	5067
870.84	5048
870.97	4911
871.1	4870
871.23	5117
871.36	5136
871.489	4949
871.619	5052
871.749	5094
871.879	5098
872.008	5174
872.138	5033
872.267	4942
872.397	4824
872.526	4786
872.656	4691
872.785	4801
872.915	4904
873.044	5022
873.173	4927
873.303	4961
873.432	4965
873.561	4991
873.69	4927
873.819	4835
873.948	4892
874.077	4790
874.206	4771
874.335	4790
874.464	4911
874.593	5048
874.722	4900
874.851	5064
874.979	5045
875.108	5014
875.237	4877
875.365	4885
875.494	4862
875.623	5003
875.751	4744
875.88	4858
876.008	4965
876.136	4965
876.265	5181
876.393	5322
876.521	5189
876.65	5185
876.778	5151
876.906	5037
877.034	5083
877.162	5025
877.29	4999
877.418	5014
877.546	5010
877.674	5029
877.802	5029
877.93	4995
878.058	4938
878.185	4839
878.313	4915
878.441	4946
878.568	4778
878.696	4870
878.824	4908
878.951	4953
879.079	5079
879.206	5254
879.333	5048
879.461	4953
879.588	5003
879.715	5094
879.842	5193
879.97	4961
880.097	4797
880.224	4736
880.351	4805
880.478	4774
880.605	4816
880.732	4816
880.859	5090
880.986	4873
881.112	4881
881.239	4714
881.366	4607
881.493	4607
881.619	4584
881.746	4580
881.872	4679
881.999	4607
882.125	4694
882.252	4797
882.378	4809
882.505	4930
882.631	4839
882.757	4603
882.883	4721
883.01	4675
883.136	4675
883.262	4573
883.388	4630
883.514	4881
883.64	4877
883.766	4755
883.892	4637
884.018	4729
884.143	4858
884.269	4961
884.395	4653
884.52	4596
884.646	4592
884.772	4565
884.897	4588
885.023	4615
885.148	4767
885.274	4843
885.399	4854
885.524	4694
885.65	4691
885.775	4710
885.9	4721
886.025	4881
886.15	4843
886.275	4721
886.4	4653
886.525	4725
886.65	4710
886.775	4698
886.9	4873
887.025	5010
887.149	4759
887.274	4664
887.399	4603
887.523	4622
887.648	4565
887.773	4622
887.897	4797
888.021	4828
888.146	4656
888.27	4820
888.395	4889
888.519	4805
888.643	4801
888.767	4839
888.891	4698
889.015	4580
889.139	4656
889.263	4615
889.387	4736
889.511	4850
889.635	4797
889.759	4641
889.883	4634
890.006	4729
890.13	4835
890.254	4630
890.377	4714
890.501	4512
890.624	4531
890.748	4618
890.871	4481
890.995	4413
891.118	4371
891.241	4508
891.364	4523
891.488	4618
891.611	4451
891.734	4519
891.857	4596
891.98	4527
892.103	4577
892.226	4542
892.349	4504
892.471	4398
892.594	4561
892.717	4554
892.839	4508
892.962	4573
893.085	4626
893.207	4580
893.33	4474
893.452	4497
893.575	4679
893.697	4535
893.819	4778
893.941	4828
894.064	4733
894.186	4630
894.308	4622
894.43	4740
894.552	4805
894.674	4733
894.796	4550
894.918	4573
895.04	4535
895.161	4698
895.283	4656
895.405	4569
895.526	4596
895.648	4672
895.769	4675
895.891	4710
896.012	4698
896.134	4668
896.255	4694
896.376	4603
896.498	4599
896.619	4622
896.74	4573
896.861	4656
896.982	4946
897.103	5041
897.224	4805
897.345	4744
897.466	4641
897.587	4679
897.708	4812
897.828	4702
897.949	4607
898.07	4569
898.19	4618
898.311	4824
898.431	4675
898.552	4706
898.672	4835
898.792	4793
898.913	4725
899.033	4592
899.153	4508
899.273	4474
899.393	4523
899.513	4500
899.633	4474
899.753	4542
899.873	4512
899.993	4584
900.113	4527
900.232	4554
900.352	4577
900.472	4497
900.591	4440
900.711	4485
900.83	4436
900.95	4611
901.069	4736
901.189	4565
901.308	4409
901.427	4363
901.546	4383
901.665	4527
901.784	4546
901.904	4405
902.023	4344
902.141	4215
902.26	4139
902.379	4363
902.498	4284
902.617	4265
902.735	4428
902.854	4424
902.973	4375
903.091	4265
903.21	4276
903.328	4341
903.446	4329
903.565	4295
903.683	4405
903.801	4280
903.919	4447
904.038	4466
904.156	4375
904.274	4535
904.392	4421
904.51	4478
904.627	4478
904.745	4622
904.863	4664
904.981	4409
905.098	4333
905.216	4402
905.334	4466
905.451	4455
905.569	4432
905.686	4618
905.803	4580
905.921	4478
906.038	4588
906.155	4500
906.272	4443
906.389	4462
906.506	4424
906.623	4375
906.74	4432
906.857	4337
906.974	4405
907.091	4615
907.208	4710
907.324	4637
907.441	4516
907.557	4390
907.674	4386
907.79	4367
907.907	4413
908.023	4550
908.139	4504
908.256	4462
908.372	4504
908.488	4451
908.604	4424
908.72	4375
908.836	4405
908.952	4405
909.068	4474
909.184	4641
909.3	4577
909.415	4641
909.531	4580
909.647	4424
909.762	4440
909.878	4394
909.993	4443
910.108	4447
910.224	4424
910.339	4558
910.454	4428
910.57	4371
910.685	4363
910.8	4683
910.915	4668
911.03	4538
911.145	4325
911.259	4375
911.374	4394
911.489	4341
911.604	4360
911.718	4219
911.833	4234
911.947	4097
912.062	4074
912.176	4276
912.291	4246
912.405	4318
912.519	4504
912.633	4523
912.748	4402
912.862	4333
912.976	4238
913.09	4139
913.204	4166
913.318	4257
913.431	4398
913.545	4428
913.659	4519
913.772	4337
913.886	4287
914	4219
914.113	4398
914.226	4421
914.34	4398
914.453	4249
914.566	4436
914.68	4344
914.793	4341
914.906	4192
915.019	4131
915.132	4051
915.245	4173
915.358	4238
915.47	4287
915.583	4261
915.696	4314
915.809	4390
915.921	4470
916.034	4310
916.146	4280
916.259	4215
916.371	4409
916.483	4371
916.595	4299
916.708	4379
916.82	4360
916.932	4322
917.044	4325
917.156	4367
917.268	4280
917.38	4295
917.491	4299
917.603	4363
917.715	4417
917.826	4478
917.938	4402
918.049	4280
918.161	4379
918.272	4554
918.384	4603
918.495	4478
918.606	4303
918.717	4242
918.828	4341
918.939	4413
919.05	4257
919.161	4348
919.272	4173
919.383	4287
919.494	4440
919.604	4649
919.715	4443
919.826	4402
919.936	4402
920.047	4538
920.157	4500
920.267	4717
920.378	4538
920.488	4550
920.598	4717
920.708	4889
920.818	4767
920.928	4805
921.038	4965
921.148	4923
921.258	4653
921.368	4603
921.477	4588
921.587	4508
921.697	4375
921.806	4584
921.916	4462
922.025	4306
922.134	4310
922.244	4268
922.353	4363
922.462	4215
922.571	4173
922.68	3998
922.789	4010
922.898	4040
923.007	4063
923.116	4116
923.224	4169
923.333	4192
923.442	4032
923.55	3998
923.659	4048
923.767	4124
923.876	4006
923.984	4143
924.092	4017
924.201	4143
924.309	4143
924.417	4158
924.525	4147
924.633	4093
924.741	4930
924.849	3964
924.956	4150
925.064	3983
925.172	3930
925.279	4025
925.387	4067
925.494	4097
925.602	4242
925.709	4200
925.816	4051
925.924	4162
926.031	4265
926.138	4234
926.245	4200
926.352	4082
926.459	4268
926.566	4352
926.673	4154
926.779	4105
926.886	4139
926.993	4044
927.099	4029
927.206	3960
927.312	3994
927.419	4101
927.525	4059
927.631	4116
927.737	4010
927.843	4006
927.95	3888
928.056	3979
928.162	3979
928.267	4071
928.373	4694
928.479	4139
928.585	3884
928.69	4044
928.796	4131
928.901	4010
929.007	3880
929.112	4055
929.218	3987
929.323	3956
929.428	3987
929.533	4093
929.638	3911
929.743	3953
929.848	4120
929.953	4044
930.058	3930
930.163	3808
930.267	3823
930.372	4013
930.477	3850
930.581	4128
930.685	3953
930.79	3857
930.894	3857
930.998	3880
931.103	4063
931.207	3759
931.311	3728
931.415	3717
931.519	3545
931.623	3568
