Data from test_V78500241_2195.txt Node
Date: Fri Mar 25 17:04:15 CST 2022
User: usil
Spectrometer: V785-0024
Trigger mode: 0
Integration Time (sec): 4.000000E-1
Scans to average: 1
Nonlinearity correction enabled: false
Boxcar width: 0
Storing dark spectrum: false
XAxis mode: Wavelengths
Number of Pixels in Spectrum: 1024
>>>>>Begin Spectral Data<<<<<
801.071	8012
801.214	7978
801.356	7807
801.499	7784
801.641	7841
801.783	7860
801.926	7890
802.068	7928
802.211	8050
802.353	7921
802.496	7818
802.638	7826
802.78	7909
802.923	7932
803.065	7879
803.208	7860
803.35	7913
803.492	8073
803.635	8157
803.777	8001
803.919	8103
804.061	8389
804.204	8176
804.346	8138
804.488	7951
804.63	8107
804.773	8035
804.915	8096
805.057	8279
805.199	8206
805.341	8183
805.483	8244
805.626	8252
805.768	8176
805.91	8218
806.052	8206
806.194	8119
806.336	8305
806.478	8024
806.62	8138
806.762	8149
806.904	8279
807.046	8476
807.188	8305
807.33	8370
807.472	8347
807.614	8130
807.756	8096
807.898	8054
808.04	7845
808.182	7925
808.324	7845
808.465	7940
808.607	8035
808.749	8134
808.891	8237
809.033	8290
809.174	8138
809.316	8103
809.458	8035
809.6	8050
809.741	7951
809.883	8016
810.025	8077
810.166	7978
810.308	8005
810.45	8016
810.591	7845
810.733	7731
810.875	7632
811.016	7552
811.158	7434
811.299	7575
811.441	7734
811.582	7685
811.724	7529
811.865	7521
812.007	7605
812.148	7567
812.29	7613
812.431	7788
812.573	7860
812.714	8001
812.855	8103
812.997	8248
813.138	8252
813.279	8123
813.421	8020
813.562	7928
813.703	7788
813.845	7746
813.986	7438
814.127	7327
814.268	7175
814.41	7179
814.551	7171
814.692	7179
814.833	7057
814.974	7156
815.115	7156
815.256	6924
815.397	6973
815.539	6916
815.68	6806
815.821	6757
815.962	6837
816.103	6806
816.244	6745
816.385	6582
816.526	6578
816.666	6525
816.807	6266
816.948	6467
817.089	6445
817.23	6384
817.371	6399
817.512	6289
817.653	6361
817.793	6357
817.934	6403
818.075	6460
818.216	6426
818.356	6422
818.497	6228
818.638	6133
818.778	6220
818.919	6106
819.06	6159
819.2	6327
819.341	6327
819.481	6327
819.622	6490
819.762	6673
819.903	6681
820.043	6582
820.184	6570
820.324	6578
820.465	6688
820.605	6650
820.746	6631
820.886	6475
821.026	6559
821.167	6711
821.307	6818
821.447	6776
821.588	6688
821.728	6494
821.868	6498
822.008	6338
822.149	6399
822.289	6342
822.429	6155
822.569	6038
822.709	6136
822.849	5908
822.99	5897
823.13	5859
823.27	5916
823.41	5813
823.55	5756
823.69	5752
823.83	5726
823.97	5619
824.11	5581
824.25	5528
824.389	5543
824.529	5535
824.669	5516
824.809	5646
824.949	5665
825.089	5623
825.228	5570
825.368	5414
825.508	5357
825.648	5322
825.787	5368
825.927	5398
826.067	5292
826.206	5254
826.346	5318
826.485	5406
826.625	5398
826.765	5554
826.904	5490
827.044	5246
827.183	5223
827.323	5136
827.462	5201
827.601	5166
827.741	5147
827.88	5208
828.02	5048
828.159	5235
828.298	5296
828.437	5326
828.577	5280
828.716	5444
828.855	5265
828.994	5147
829.134	5105
829.273	5155
829.412	5151
829.551	5132
829.69	5132
829.829	5242
829.968	5402
830.107	5208
830.246	5277
830.385	5185
830.524	5117
830.663	5102
830.802	4991
830.941	4961
831.08	4934
831.219	4968
831.357	4980
831.496	5124
831.635	4908
831.774	4858
831.913	4843
832.051	4717
832.19	4763
832.329	4843
832.467	4626
832.606	4687
832.744	4721
832.883	4660
833.022	4706
833.16	4793
833.299	4824
833.437	4793
833.576	4820
833.714	4850
833.852	4809
833.991	4911
834.129	4957
834.267	4934
834.406	4885
834.544	4987
834.682	4987
834.821	4934
834.959	5155
835.097	5025
835.235	5162
835.373	5048
835.511	5098
835.65	4991
835.788	5056
835.926	4854
836.064	4889
836.202	4915
836.34	5166
836.478	5204
836.615	5121
836.753	5242
836.891	5246
837.029	5242
837.167	5170
837.305	5132
837.443	5136
837.58	5083
837.718	5197
837.856	5121
837.993	5143
838.131	5235
838.269	5181
838.406	5216
838.544	5178
838.681	5025
838.819	5060
838.956	4927
839.094	4873
839.231	4991
839.369	5090
839.506	5421
839.643	5311
839.781	5083
839.918	4976
840.055	5136
840.193	5105
840.33	5109
840.467	5117
840.604	5170
840.742	5402
840.879	5048
841.016	5109
841.153	5128
841.29	5387
841.427	5364
841.564	5330
841.701	5330
841.838	5273
841.975	5220
842.112	5250
842.249	5094
842.385	5113
842.522	5337
842.659	5178
842.796	5174
842.933	5117
843.069	5181
843.206	5159
843.343	5330
843.479	5162
843.616	5235
843.752	5018
843.889	5018
844.025	5223
844.162	5048
844.298	5193
844.435	5048
844.571	5048
844.708	5159
844.844	5277
844.98	5341
845.117	5315
845.253	5143
845.389	5128
845.525	5132
845.661	5147
845.798	5037
845.934	5155
846.07	5041
846.206	5204
846.342	5250
846.478	5170
846.614	5022
846.75	5022
846.886	4949
847.022	5155
847.158	4991
847.294	5064
847.429	5098
847.565	5003
847.701	5330
847.837	4881
847.972	4793
848.108	4923
848.244	4927
848.379	4797
848.515	4748
848.65	4691
848.786	4725
848.921	4782
849.057	4854
849.192	4911
849.328	4793
849.463	4843
849.598	4805
849.734	4736
849.869	4683
850.004	4603
850.14	4675
850.275	4603
850.41	4561
850.545	4550
850.68	4596
850.815	4607
850.95	4618
851.085	4850
851.22	4748
851.355	4656
851.49	4607
851.625	4561
851.76	4618
851.895	4588
852.03	4577
852.165	4645
852.299	4702
852.434	4744
852.569	4733
852.703	4740
852.838	4820
852.973	4885
853.107	4870
853.242	4691
853.376	4675
853.511	4565
853.645	4588
853.78	4767
853.914	4694
854.048	4653
854.183	4710
854.317	4664
854.451	4847
854.585	4645
854.72	4656
854.854	4740
854.988	4535
855.122	4637
855.256	4504
855.39	4664
855.524	4767
855.658	4691
855.792	4694
855.926	4755
856.06	4733
856.194	4767
856.327	4687
856.461	4626
856.595	4622
856.729	4664
856.862	4759
856.996	4706
857.13	4733
857.263	4714
857.397	4782
857.53	4626
857.664	4771
857.797	4725
857.931	4740
858.064	4675
858.197	4702
858.331	4672
858.464	4573
858.597	4523
858.731	4634
858.864	4645
858.997	4588
859.13	4675
859.263	4694
859.396	4645
859.529	4580
859.662	4569
859.795	4546
859.928	4580
860.061	4748
860.194	4740
860.327	4577
860.46	4580
860.592	4656
860.725	4729
860.858	4660
860.99	4561
861.123	4512
861.256	4531
861.388	4588
861.521	5433
861.653	4409
861.786	4440
861.918	4485
862.05	4519
862.183	4561
862.315	4596
862.447	4664
862.58	4535
862.712	4383
862.844	4306
862.976	4428
863.108	4462
863.24	4778
863.372	4322
863.504	4386
863.636	4424
863.768	4470
863.9	4470
864.032	4390
864.164	4390
864.296	4500
864.428	4512
864.559	4569
864.691	4527
864.823	4504
864.954	4493
865.086	4516
865.217	4459
865.349	4383
865.48	4409
865.612	4470
865.743	4615
865.875	4432
866.006	4459
866.137	4443
866.269	4428
866.4	4447
866.531	4333
866.662	4394
866.793	4413
866.924	4402
867.055	4493
867.186	4394
867.317	4409
867.448	4379
867.579	4421
867.71	4375
867.841	4310
867.972	4474
868.103	4459
868.233	4443
868.364	4428
868.495	4485
868.625	4668
868.756	4733
868.886	4573
869.017	4615
869.147	4740
869.278	4774
869.408	4656
869.539	4607
869.669	4656
869.799	4630
869.929	4702
870.06	4721
870.19	4965
870.32	4896
870.45	4892
870.58	4987
870.71	5109
870.84	5071
870.97	4908
871.1	4870
871.23	5117
871.36	5117
871.489	4968
871.619	5079
871.749	5098
871.879	5124
872.008	5155
872.138	5056
872.267	4968
872.397	4862
872.526	4809
872.656	4687
872.785	4740
872.915	5006
873.044	5052
873.173	4927
873.303	4961
873.432	4946
873.561	4911
873.69	4862
873.819	4824
873.948	4915
874.077	4873
874.206	4778
874.335	4816
874.464	4976
874.593	5052
874.722	4938
874.851	5140
874.979	5037
875.108	5075
875.237	4896
875.365	4915
875.494	4873
875.623	4953
875.751	4862
875.88	4923
876.008	5052
876.136	5045
876.265	5227
876.393	5357
876.521	5277
876.65	5231
876.778	5178
876.906	5102
877.034	5052
877.162	5041
877.29	5045
877.418	5117
877.546	5075
877.674	5045
877.802	5079
877.93	5056
878.058	4927
878.185	4957
878.313	4953
878.441	4972
878.568	4812
878.696	4862
878.824	5003
878.951	4965
879.079	5212
879.206	5330
879.333	5185
879.461	4980
879.588	5029
879.715	5189
879.842	5258
879.97	5048
880.097	4873
880.224	4767
880.351	4835
880.478	4885
880.605	4774
880.732	4797
880.859	5147
880.986	4927
881.112	4961
881.239	4805
881.366	4679
881.493	4641
881.619	4622
881.746	4653
881.872	4645
881.999	4710
882.125	4740
882.252	4862
882.378	4889
882.505	5014
882.631	4831
882.757	4706
882.883	4763
883.01	4782
883.136	4687
883.262	4607
883.388	4675
883.514	4866
883.64	4908
883.766	4816
883.892	4691
884.018	4771
884.143	4934
884.269	5037
884.395	4691
884.52	4683
884.646	4622
884.772	4630
884.897	4592
885.023	4729
885.148	4793
885.274	4896
885.399	4805
885.524	4786
885.65	4729
885.775	4740
885.9	4714
886.025	4896
886.15	4847
886.275	4706
886.4	4710
886.525	4744
886.65	4717
886.775	4752
886.9	4923
887.025	5083
887.149	4805
887.274	4675
887.399	4599
887.523	4748
887.648	4653
887.773	4672
887.897	4793
888.021	4786
888.146	4706
888.27	4835
888.395	4927
888.519	4797
888.643	4828
888.767	4835
888.891	4748
889.015	4710
889.139	4683
889.263	4615
889.387	4793
889.511	4889
889.635	4850
889.759	4660
889.883	4649
890.006	4729
890.13	4900
890.254	4664
890.377	4672
890.501	4554
890.624	4512
890.748	4596
890.871	4508
890.995	4478
891.118	4459
891.241	4542
891.364	4584
891.488	4698
891.611	4508
891.734	4546
891.857	4630
891.98	4588
892.103	4710
892.226	4615
892.349	4550
892.471	4451
892.594	4554
892.717	4615
892.839	4565
892.962	4641
893.085	4653
893.207	4615
893.33	4527
893.452	4558
893.575	4660
893.697	4592
893.819	4809
893.941	4839
894.064	4797
894.186	4630
894.308	4569
894.43	4774
894.552	4835
894.674	4828
894.796	4550
894.918	4634
895.04	4561
895.161	4694
895.283	4656
895.405	4618
895.526	4702
895.648	4736
895.769	4786
895.891	4736
896.012	4797
896.134	4740
896.255	4706
896.376	4702
896.498	4660
896.619	4698
896.74	4592
896.861	4607
896.982	4961
897.103	5113
897.224	4839
897.345	4744
897.466	4687
897.587	4744
897.708	4900
897.828	4812
897.949	4714
898.07	4615
898.19	4668
898.311	4870
898.431	4691
898.552	4706
898.672	4828
898.792	4809
898.913	4748
899.033	4660
899.153	4516
899.273	4432
899.393	4538
899.513	4516
899.633	4535
899.753	4569
899.873	4592
899.993	4637
900.113	4558
900.232	4599
900.352	4584
900.472	4554
900.591	4424
900.711	4527
900.83	4413
900.95	4672
901.069	4714
901.189	4573
901.308	4432
901.427	4402
901.546	4398
901.665	4481
901.784	4500
901.904	4421
902.023	4409
902.141	4227
902.26	4181
902.379	4306
902.498	4295
902.617	4272
902.735	4424
902.854	4455
902.973	4367
903.091	4249
903.21	4253
903.328	4268
903.446	4363
903.565	4299
903.683	4341
903.801	4291
903.919	4413
904.038	4459
904.156	4363
904.274	4436
904.392	4440
904.51	4512
904.627	4538
904.745	4607
904.863	4641
904.981	4432
905.098	4337
905.216	4356
905.334	4451
905.451	4443
905.569	4466
905.686	4565
905.803	4626
905.921	4421
906.038	4569
906.155	4500
906.272	4436
906.389	4459
906.506	4386
906.623	4394
906.74	4436
906.857	4322
906.974	4386
907.091	4603
907.208	4694
907.324	4577
907.441	4474
907.557	4375
907.674	4367
907.79	4341
907.907	4428
908.023	4523
908.139	4481
908.256	4500
908.372	4497
908.488	4481
908.604	4402
908.72	4322
908.836	4386
908.952	4424
909.068	4466
909.184	4592
909.3	4462
909.415	4580
909.531	4565
909.647	4405
909.762	4386
909.878	4375
909.993	4443
910.108	4424
910.224	4413
910.339	4516
910.454	4409
910.57	4352
910.685	4360
910.8	4687
910.915	4611
911.03	4497
911.145	4363
911.259	4310
911.374	4383
911.489	4295
911.604	4295
911.718	4158
911.833	4276
911.947	4101
912.062	4071
912.176	4219
912.291	4272
912.405	4272
912.519	4516
912.633	4531
912.748	4402
912.862	4344
912.976	4284
913.09	4086
913.204	4162
913.318	4299
913.431	4379
913.545	4360
913.659	4478
913.772	4341
913.886	4242
914	4291
914.113	4348
914.226	4489
914.34	4394
914.453	4265
914.566	4436
914.68	4303
914.793	4356
914.906	4173
915.019	4116
915.132	4131
915.245	4227
915.358	4204
915.47	4314
915.583	4280
915.696	4318
915.809	4470
915.921	4436
916.034	4287
916.146	4291
916.259	4272
916.371	4383
916.483	4417
916.595	4322
916.708	4325
916.82	4295
916.932	4329
917.044	4394
917.156	4356
917.268	4238
917.38	4310
917.491	4280
917.603	4348
917.715	4451
917.826	4481
917.938	4360
918.049	4249
918.161	4424
918.272	4531
918.384	4584
918.495	4504
918.606	4318
918.717	4253
918.828	4333
918.939	4390
919.05	4268
919.161	4363
919.272	4150
919.383	4242
919.494	4447
919.604	4611
919.715	4462
919.826	4322
919.936	4417
920.047	4550
920.157	4485
920.267	4702
920.378	4565
920.488	4546
920.598	4729
920.708	4881
920.818	4809
920.928	4778
921.038	4980
921.148	4934
921.258	4641
921.368	4531
921.477	4550
921.587	4516
921.697	4348
921.806	4599
921.916	4443
922.025	4318
922.134	4325
922.244	4196
922.353	4325
922.462	4154
922.571	4116
922.68	4059
922.789	3972
922.898	3975
923.007	3987
923.116	4112
923.224	4139
923.333	4128
923.442	3991
923.55	4002
923.659	4029
923.767	4071
923.876	4013
923.984	4154
924.092	4021
924.201	4112
924.309	4120
924.417	4162
924.525	4006
924.633	4093
924.741	5086
924.849	3956
924.956	4162
925.064	3991
925.172	3865
925.279	4002
925.387	4105
925.494	4051
925.602	4219
925.709	4181
925.816	4071
925.924	4166
926.031	4223
926.138	4196
926.245	4185
926.352	4071
926.459	4219
926.566	4322
926.673	4120
926.779	4051
926.886	4124
926.993	3972
927.099	3953
927.206	3975
927.312	3968
927.419	4048
927.525	4025
927.631	4128
927.737	3972
927.843	3949
927.95	3876
928.056	3972
928.162	3994
928.267	4071
928.373	4714
928.479	4139
928.585	3945
928.69	4029
928.796	4093
928.901	3994
929.007	3850
929.112	4044
929.218	4010
929.323	3991
929.428	3964
929.533	4105
929.638	3884
929.743	3956
929.848	4048
929.953	3987
930.058	3926
930.163	3800
930.267	3850
930.372	3979
930.477	3846
930.581	4097
930.685	3937
930.79	3842
930.894	3869
930.998	3915
931.103	4078
931.207	3740
931.311	3713
931.415	3660
931.519	3526
931.623	3515
