Data from test_V78500241_614.txt Node
Date: Fri Mar 25 16:53:16 CST 2022
User: usil
Spectrometer: V785-0024
Trigger mode: 0
Integration Time (sec): 4.000000E-1
Scans to average: 1
Nonlinearity correction enabled: false
Boxcar width: 0
Storing dark spectrum: false
XAxis mode: Wavelengths
Number of Pixels in Spectrum: 1024
>>>>>Begin Spectral Data<<<<<
801.071	8024
801.214	7986
801.356	7803
801.499	7803
801.641	7769
801.783	7807
801.926	7978
802.068	7947
802.211	8046
802.353	8012
802.496	7887
802.638	7871
802.78	7989
802.923	7944
803.065	7833
803.208	7803
803.35	8005
803.492	8050
803.635	8126
803.777	8058
803.919	8111
804.061	8412
804.204	8176
804.346	8027
804.488	7955
804.63	8081
804.773	8020
804.915	8092
805.057	8233
805.199	8134
805.341	8256
805.483	8328
805.626	8229
805.768	8043
805.91	8233
806.052	8210
806.194	8126
806.336	8248
806.478	8107
806.62	8062
806.762	8161
806.904	8275
807.046	8514
807.188	8339
807.33	8271
807.472	8290
807.614	8187
807.756	8138
807.898	7989
808.04	7860
808.182	7928
808.324	7887
808.465	7898
808.607	8039
808.749	8134
808.891	8206
809.033	8339
809.174	8077
809.316	8096
809.458	7993
809.6	7917
809.741	8005
809.883	8035
810.025	8088
810.166	8069
810.308	8016
810.45	7955
810.591	7864
810.733	7757
810.875	7689
811.016	7609
811.158	7510
811.299	7548
811.441	7689
811.582	7696
811.724	7575
811.865	7544
812.007	7540
812.148	7609
812.29	7601
812.431	7750
812.573	7879
812.714	8027
812.855	8130
812.997	8195
813.138	8279
813.279	8202
813.421	8100
813.562	7970
813.703	7913
813.845	7833
813.986	7480
814.127	7255
814.268	7236
814.41	7194
814.551	7160
814.692	7206
814.833	7069
814.974	7088
815.115	7156
815.256	6932
815.397	6913
815.539	6943
815.68	6818
815.821	6791
815.962	6886
816.103	6818
816.244	6719
816.385	6662
816.526	6669
816.666	6498
816.807	6285
816.948	6426
817.089	6456
817.23	6422
817.371	6350
817.512	6384
817.653	6403
817.793	6388
817.934	6410
818.075	6509
818.216	6464
818.356	6388
818.497	6251
818.638	6133
818.778	6133
818.919	6114
819.06	6152
819.2	6289
819.341	6319
819.481	6323
819.622	6574
819.762	6749
819.903	6681
820.043	6574
820.184	6517
820.324	6551
820.465	6639
820.605	6700
820.746	6604
820.886	6502
821.026	6635
821.167	6688
821.307	6715
821.447	6738
821.588	6604
821.728	6532
821.868	6456
822.008	6273
822.149	6365
822.289	6308
822.429	6163
822.569	6072
822.709	6102
822.849	5828
822.99	5920
823.13	5935
823.27	5897
823.41	5760
823.55	5798
823.69	5718
823.83	5802
823.97	5714
824.11	5509
824.25	5509
824.389	5543
824.529	5562
824.669	5520
824.809	5638
824.949	5634
825.089	5684
825.228	5573
825.368	5395
825.508	5326
825.648	5330
825.787	5368
825.927	5364
826.067	5277
826.206	5299
826.346	5372
826.485	5425
826.625	5421
826.765	5532
826.904	5433
827.044	5242
827.183	5261
827.323	5132
827.462	5212
827.601	5136
827.741	5178
827.88	5178
828.02	5113
828.159	5265
828.298	5250
828.437	5337
828.577	5277
828.716	5459
828.855	5307
828.994	5166
829.134	5060
829.273	5151
829.412	5143
829.551	5109
829.69	5105
829.829	5193
829.968	5364
830.107	5261
830.246	5280
830.385	5170
830.524	5132
830.663	5090
830.802	4999
830.941	4889
831.08	4828
831.219	4976
831.357	4965
831.496	5124
831.635	4942
831.774	4828
831.913	4858
832.051	4752
832.19	4725
832.329	4816
832.467	4702
832.606	4649
832.744	4675
832.883	4752
833.022	4755
833.16	4805
833.299	4828
833.437	4831
833.576	4816
833.714	4839
833.852	4835
833.991	4900
834.129	4923
834.267	4946
834.406	4911
834.544	4965
834.682	4968
834.821	4968
834.959	5162
835.097	4961
835.235	5159
835.373	5075
835.511	5071
835.65	5006
835.788	5041
835.926	4923
836.064	4862
836.202	4927
836.34	5174
836.478	5273
836.615	5109
836.753	5189
836.891	5258
837.029	5258
837.167	5239
837.305	5094
837.443	5140
837.58	5075
837.718	5254
837.856	5197
837.993	5140
838.131	5239
838.269	5212
838.406	5151
838.544	5174
838.681	5029
838.819	5003
838.956	4896
839.094	4881
839.231	4949
839.369	5109
839.506	5452
839.643	5254
839.781	5083
839.918	5014
840.055	5151
840.193	5086
840.33	5086
840.467	5109
840.604	5147
840.742	5379
840.879	5102
841.016	5083
841.153	5170
841.29	5341
841.427	5330
841.564	5299
841.701	5357
841.838	5246
841.975	5227
842.112	5269
842.249	5094
842.385	5079
842.522	5345
842.659	5159
842.796	5140
842.933	5197
843.069	5136
843.206	5132
843.343	5318
843.479	5223
843.616	5258
843.752	5010
843.889	5022
844.025	5231
844.162	5033
844.298	5231
844.435	5067
844.571	4995
844.708	5181
844.844	5318
844.98	5337
845.117	5341
845.253	5143
845.389	5079
845.525	5170
845.661	5189
845.798	4999
845.934	5128
846.07	4987
846.206	5185
846.342	5299
846.478	5193
846.614	5033
846.75	5014
846.886	4934
847.022	5102
847.158	4991
847.294	5056
847.429	5094
847.565	5037
847.701	5307
847.837	4858
847.972	4809
848.108	4930
848.244	4942
848.379	4740
848.515	4729
848.65	4702
848.786	4744
848.921	4744
849.057	4850
849.192	4881
849.328	4801
849.463	4866
849.598	4774
849.734	4774
849.869	4694
850.004	4630
850.14	4641
850.275	4573
850.41	4497
850.545	4538
850.68	4615
850.815	4603
850.95	4607
851.085	4835
851.22	4740
851.355	4664
851.49	4622
851.625	4634
851.76	4634
851.895	4538
852.03	4546
852.165	4626
852.299	4725
852.434	4755
852.569	4729
852.703	4729
852.838	4866
852.973	4934
853.107	4915
853.242	4702
853.376	4630
853.511	4500
853.645	4641
853.78	4820
853.914	4675
854.048	4702
854.183	4637
854.317	4710
854.451	4805
854.585	4679
854.72	4626
854.854	4759
854.988	4565
855.122	4637
855.256	4554
855.39	4660
855.524	4805
855.658	4733
855.792	4733
855.926	4721
856.06	4774
856.194	4797
856.327	4611
856.461	4607
856.595	4618
856.729	4622
856.862	4752
856.996	4653
857.13	4733
857.263	4729
857.397	4748
857.53	4641
857.664	4748
857.797	4744
857.931	4744
858.064	4694
858.197	4729
858.331	4615
858.464	4592
858.597	4546
858.731	4675
858.864	4584
858.997	4577
859.13	4672
859.263	4649
859.396	4668
859.529	4622
859.662	4538
859.795	4512
859.928	4664
860.061	4748
860.194	4786
860.327	4550
860.46	4550
860.592	4694
860.725	4702
860.858	4668
860.99	4550
861.123	4481
861.256	4550
861.388	4580
861.521	5395
861.653	4466
861.786	4424
861.918	4466
862.05	4531
862.183	4554
862.315	4565
862.447	4668
862.58	4538
862.712	4363
862.844	4344
862.976	4432
863.108	4436
863.24	4850
863.372	4337
863.504	4459
863.636	4421
863.768	4493
863.9	4417
864.032	4405
864.164	4398
864.296	4489
864.428	4550
864.559	4565
864.691	4580
864.823	4470
864.954	4478
865.086	4531
865.217	4466
865.349	4405
865.48	4462
865.612	4474
865.743	4615
865.875	4470
866.006	4390
866.137	4466
866.269	4413
866.4	4436
866.531	4417
866.662	4421
866.793	4386
866.924	4394
867.055	4531
867.186	4489
867.317	4383
867.448	4363
867.579	4390
867.71	4379
867.841	4360
867.972	4451
868.103	4455
868.233	4436
868.364	4432
868.495	4500
868.625	4683
868.756	4740
868.886	4558
869.017	4634
869.147	4733
869.278	4744
869.408	4664
869.539	4622
869.669	4736
869.799	4637
869.929	4729
870.06	4740
870.19	4942
870.32	4938
870.45	4942
870.58	4961
870.71	5079
870.84	5052
870.97	4961
871.1	4873
871.23	5128
871.36	5105
871.489	5033
871.619	5071
871.749	5079
871.879	5151
872.008	5197
872.138	5060
872.267	4999
872.397	4816
872.526	4782
872.656	4710
872.785	4790
872.915	4930
873.044	5033
873.173	4965
873.303	4934
873.432	4938
873.561	4961
873.69	4915
873.819	4892
873.948	4873
874.077	4828
874.206	4805
874.335	4744
874.464	4942
874.593	5086
874.722	4938
874.851	5105
874.979	5052
875.108	4991
875.237	4942
875.365	4839
875.494	4873
875.623	4999
875.751	4820
875.88	4824
876.008	4972
876.136	5022
876.265	5151
876.393	5318
876.521	5258
876.65	5212
876.778	5121
876.906	5056
877.034	4968
877.162	5029
877.29	4942
877.418	5029
877.546	5037
877.674	5048
877.802	5052
877.93	5025
878.058	4938
878.185	4820
878.313	4927
878.441	4919
878.568	4778
878.696	4915
878.824	4953
878.951	4991
879.079	5128
879.206	5273
879.333	5113
879.461	4976
879.588	4976
879.715	5094
879.842	5216
879.97	5022
880.097	4771
880.224	4698
880.351	4870
880.478	4831
880.605	4786
880.732	4778
880.859	5094
880.986	4927
881.112	4923
881.239	4736
881.366	4691
881.493	4611
881.619	4569
881.746	4611
881.872	4675
881.999	4706
882.125	4656
882.252	4812
882.378	4812
882.505	4953
882.631	4782
882.757	4698
882.883	4759
883.01	4710
883.136	4668
883.262	4603
883.388	4637
883.514	4816
883.64	4835
883.766	4820
883.892	4672
884.018	4714
884.143	4911
884.269	4987
884.395	4653
884.52	4618
884.646	4683
884.772	4607
884.897	4546
885.023	4733
885.148	4786
885.274	4812
885.399	4831
885.524	4736
885.65	4683
885.775	4778
885.9	4763
886.025	4843
886.15	4809
886.275	4706
886.4	4645
886.525	4763
886.65	4664
886.775	4675
886.9	4881
887.025	5029
887.149	4835
887.274	4702
887.399	4580
887.523	4603
887.648	4561
887.773	4599
887.897	4812
888.021	4763
888.146	4702
888.27	4877
888.395	4953
888.519	4790
888.643	4850
888.767	4873
888.891	4683
889.015	4634
889.139	4660
889.263	4542
889.387	4721
889.511	4828
889.635	4812
889.759	4599
889.883	4675
890.006	4706
890.13	4812
890.254	4618
890.377	4706
890.501	4573
890.624	4565
890.748	4630
890.871	4554
890.995	4409
891.118	4348
891.241	4512
891.364	4504
891.488	4672
891.611	4470
891.734	4504
891.857	4550
891.98	4538
892.103	4649
892.226	4569
892.349	4535
892.471	4424
892.594	4607
892.717	4637
892.839	4535
892.962	4569
893.085	4660
893.207	4531
893.33	4489
893.452	4531
893.575	4714
893.697	4546
893.819	4793
893.941	4843
894.064	4733
894.186	4531
894.308	4535
894.43	4733
894.552	4816
894.674	4755
894.796	4531
894.918	4596
895.04	4584
895.161	4740
895.283	4637
895.405	4580
895.526	4660
895.648	4683
895.769	4641
895.891	4683
896.012	4702
896.134	4710
896.255	4622
896.376	4664
896.498	4634
896.619	4668
896.74	4599
896.861	4675
896.982	4892
897.103	5037
897.224	4824
897.345	4675
897.466	4672
897.587	4763
897.708	4866
897.828	4759
897.949	4675
898.07	4554
898.19	4645
898.311	4812
898.431	4710
898.552	4687
898.672	4797
898.792	4790
898.913	4744
899.033	4641
899.153	4493
899.273	4405
899.393	4436
899.513	4485
899.633	4508
899.753	4573
899.873	4538
899.993	4577
900.113	4554
900.232	4584
900.352	4535
900.472	4481
900.591	4371
900.711	4497
900.83	4447
900.95	4580
901.069	4641
901.189	4565
901.308	4417
901.427	4280
901.546	4337
901.665	4474
901.784	4554
901.904	4367
902.023	4325
902.141	4223
902.26	4158
902.379	4318
902.498	4223
902.617	4234
902.735	4352
902.854	4383
902.973	4329
903.091	4219
903.21	4204
903.328	4280
903.446	4253
903.565	4276
903.683	4322
903.801	4246
903.919	4375
904.038	4432
904.156	4295
904.274	4405
904.392	4371
904.51	4383
904.627	4470
904.745	4558
904.863	4626
904.981	4379
905.098	4287
905.216	4356
905.334	4447
905.451	4451
905.569	4424
905.686	4558
905.803	4531
905.921	4375
906.038	4519
906.155	4478
906.272	4394
906.389	4451
906.506	4314
906.623	4356
906.74	4398
906.857	4352
906.974	4428
907.091	4554
907.208	4645
907.324	4596
907.441	4470
907.557	4383
907.674	4344
907.79	4306
907.907	4398
908.023	4481
908.139	4504
908.256	4421
908.372	4428
908.488	4443
908.604	4356
908.72	4314
908.836	4333
908.952	4383
909.068	4409
909.184	4554
909.3	4516
909.415	4550
909.531	4546
909.647	4360
909.762	4383
909.878	4303
909.993	4432
910.108	4424
910.224	4386
910.339	4497
910.454	4383
910.57	4383
910.685	4348
910.8	4626
910.915	4554
911.03	4497
911.145	4325
911.259	4284
911.374	4383
911.489	4249
911.604	4242
911.718	4147
911.833	4196
911.947	4048
912.062	3998
912.176	4158
912.291	4207
912.405	4291
912.519	4379
912.633	4493
912.748	4325
912.862	4295
912.976	4230
913.09	4097
913.204	4188
913.318	4227
913.431	4375
913.545	4394
913.659	4474
913.772	4329
913.886	4265
914	4238
914.113	4344
914.226	4440
914.34	4394
914.453	4242
914.566	4459
914.68	4318
914.793	4329
914.906	4143
915.019	4173
915.132	4101
915.245	4181
915.358	4249
915.47	4268
915.583	4306
915.696	4337
915.809	4383
915.921	4417
916.034	4284
916.146	4303
916.259	4253
916.371	4363
916.483	4356
916.595	4287
916.708	4383
916.82	4383
916.932	4322
917.044	4325
917.156	4341
917.268	4276
917.38	4325
917.491	4352
917.603	4363
917.715	4470
917.826	4462
917.938	4394
918.049	4306
918.161	4451
918.272	4573
918.384	4599
918.495	4451
918.606	4348
918.717	4314
918.828	4394
918.939	4390
919.05	4295
919.161	4363
919.272	4158
919.383	4249
919.494	4485
919.604	4641
919.715	4493
919.826	4428
919.936	4459
920.047	4592
920.157	4512
920.267	4736
920.378	4588
920.488	4504
920.598	4752
920.708	4911
920.818	4790
920.928	4774
921.038	5010
921.148	4915
921.258	4637
921.368	4622
921.477	4485
921.587	4527
921.697	4409
921.806	4618
921.916	4451
922.025	4287
922.134	4295
922.244	4265
922.353	4344
922.462	4253
922.571	4166
922.68	4093
922.789	4051
922.898	4105
923.007	3983
923.116	4147
923.224	4082
923.333	4154
923.442	4006
923.55	4002
923.659	4074
923.767	4147
923.876	4040
923.984	4147
924.092	4021
924.201	4128
924.309	4173
924.417	4192
924.525	4086
924.633	4120
924.741	5098
924.849	3968
924.956	4227
925.064	4006
925.172	3968
925.279	3972
925.387	4059
925.494	4131
925.602	4253
925.709	4207
925.816	4086
925.924	4131
926.031	4234
926.138	4177
926.245	4238
926.352	4135
926.459	4284
926.566	4375
926.673	4215
926.779	4135
926.886	4101
926.993	4048
927.099	4048
927.206	3926
927.312	3956
927.419	4074
927.525	4021
927.631	4116
927.737	3983
927.843	3953
927.95	3899
928.056	4002
928.162	4036
928.267	4097
928.373	4740
928.479	4173
928.585	3888
928.69	4090
928.796	4074
928.901	3987
929.007	3869
929.112	3983
929.218	4010
929.323	3953
929.428	3960
929.533	4109
929.638	3975
929.743	3991
929.848	4078
929.953	4055
930.058	3922
930.163	3797
930.267	3865
930.372	3987
930.477	3850
930.581	4120
930.685	3975
930.79	3865
930.894	3869
930.998	3884
931.103	4040
931.207	3747
931.311	3663
931.415	3736
931.519	3549
931.623	3580
