Data from test_V78500241_152.txt Node
Date: Fri Mar 25 16:50:03 CST 2022
User: usil
Spectrometer: V785-0024
Trigger mode: 0
Integration Time (sec): 4.000000E-1
Scans to average: 1
Nonlinearity correction enabled: false
Boxcar width: 0
Storing dark spectrum: false
XAxis mode: Wavelengths
Number of Pixels in Spectrum: 1024
>>>>>Begin Spectral Data<<<<<
801.071	7940
801.214	7982
801.356	7883
801.499	7890
801.641	7811
801.783	7906
801.926	7951
802.068	7947
802.211	8008
802.353	8001
802.496	7902
802.638	7925
802.78	7936
802.923	7913
803.065	7849
803.208	7841
803.35	7932
803.492	8153
803.635	8168
803.777	7978
803.919	8081
804.061	8446
804.204	8077
804.346	7993
804.488	7913
804.63	8107
804.773	7963
804.915	8096
805.057	8263
805.199	8103
805.341	8214
805.483	8320
805.626	8164
805.768	8069
805.91	8168
806.052	8161
806.194	8043
806.336	8400
806.478	8111
806.62	8058
806.762	8164
806.904	8286
807.046	8480
807.188	8305
807.33	8343
807.472	8351
807.614	8218
807.756	8069
807.898	8062
808.04	7913
808.182	7906
808.324	7890
808.465	7963
808.607	8024
808.749	8084
808.891	8214
809.033	8275
809.174	8221
809.316	8081
809.458	8111
809.6	7959
809.741	8035
809.883	8088
810.025	8084
810.166	8046
810.308	8069
810.45	8001
810.591	7997
810.733	7833
810.875	7715
811.016	7552
811.158	7548
811.299	7628
811.441	7731
811.582	7727
811.724	7639
811.865	7620
812.007	7632
812.148	7552
812.29	7704
812.431	7811
812.573	7913
812.714	8012
812.855	8259
812.997	8294
813.138	8415
813.279	8286
813.421	8180
813.562	8046
813.703	7879
813.845	7761
813.986	7468
814.127	7324
814.268	7266
814.41	7240
814.551	7221
814.692	7259
814.833	7122
814.974	7168
815.115	7266
815.256	7015
815.397	6939
815.539	6966
815.68	6882
815.821	6776
815.962	6859
816.103	6859
816.244	6795
816.385	6631
816.526	6658
816.666	6555
816.807	6353
816.948	6448
817.089	6448
817.23	6395
817.371	6361
817.512	6407
817.653	6479
817.793	6350
817.934	6475
818.075	6483
818.216	6429
818.356	6441
818.497	6266
818.638	6114
818.778	6152
818.919	6148
819.06	6129
819.2	6327
819.341	6334
819.481	6350
819.622	6551
819.762	6787
819.903	6681
820.043	6631
820.184	6563
820.324	6589
820.465	6658
820.605	6681
820.746	6688
820.886	6547
821.026	6730
821.167	6745
821.307	6791
821.447	6833
821.588	6719
821.728	6570
821.868	6528
822.008	6357
822.149	6475
822.289	6418
822.429	6205
822.569	6095
822.709	6102
822.849	5984
822.99	5916
823.13	5954
823.27	5946
823.41	5874
823.55	5802
823.69	5737
823.83	5790
823.97	5688
824.11	5585
824.25	5528
824.389	5554
824.529	5600
824.669	5539
824.809	5676
824.949	5630
825.089	5661
825.228	5505
825.368	5421
825.508	5326
825.648	5364
825.787	5417
825.927	5406
826.067	5372
826.206	5242
826.346	5337
826.485	5425
826.625	5398
826.765	5581
826.904	5486
827.044	5223
827.183	5208
827.323	5185
827.462	5227
827.601	5162
827.741	5197
827.88	5246
828.02	5132
828.159	5227
828.298	5311
828.437	5349
828.577	5311
828.716	5467
828.855	5330
828.994	5193
829.134	5197
829.273	5208
829.412	5151
829.551	5124
829.69	5159
829.829	5311
829.968	5364
830.107	5288
830.246	5284
830.385	5166
830.524	5166
830.663	5075
830.802	4995
830.941	4889
831.08	4877
831.219	5022
831.357	4991
831.496	5155
831.635	4934
831.774	4892
831.913	4862
832.051	4710
832.19	4744
832.329	4896
832.467	4664
832.606	4660
832.744	4717
832.883	4721
833.022	4740
833.16	4805
833.299	4824
833.437	4831
833.576	4835
833.714	4809
833.852	4896
833.991	4919
834.129	4953
834.267	4934
834.406	4900
834.544	5003
834.682	4991
834.821	5003
834.959	5162
835.097	4984
835.235	5117
835.373	5067
835.511	5132
835.65	5056
835.788	5067
835.926	4854
836.064	4896
836.202	4915
836.34	5136
836.478	5277
836.615	5124
836.753	5212
836.891	5277
837.029	5292
837.167	5216
837.305	5155
837.443	5140
837.58	5090
837.718	5311
837.856	5170
837.993	5201
838.131	5235
838.269	5235
838.406	5239
838.544	5170
838.681	5029
838.819	5033
838.956	4881
839.094	4942
839.231	4972
839.369	5083
839.506	5455
839.643	5254
839.781	5033
839.918	5014
840.055	5151
840.193	5060
840.33	5136
840.467	5136
840.604	5147
840.742	5383
840.879	5075
841.016	5140
841.153	5136
841.29	5387
841.427	5364
841.564	5353
841.701	5357
841.838	5261
841.975	5239
842.112	5242
842.249	5151
842.385	5147
842.522	5372
842.659	5166
842.796	5140
842.933	5235
843.069	5159
843.206	5159
843.343	5345
843.479	5265
843.616	5307
843.752	5041
843.889	5029
844.025	5250
844.162	4984
844.298	5220
844.435	5128
844.571	5052
844.708	5235
844.844	5246
844.98	5364
845.117	5277
845.253	5155
845.389	5071
845.525	5159
845.661	5136
845.798	5025
845.934	5124
846.07	5086
846.206	5258
846.342	5280
846.478	5162
846.614	5056
846.75	5014
846.886	5022
847.022	5140
847.158	5079
847.294	5041
847.429	5113
847.565	5094
847.701	5299
847.837	4801
847.972	4816
848.108	5006
848.244	4938
848.379	4820
848.515	4740
848.65	4725
848.786	4748
848.921	4771
849.057	4854
849.192	4930
849.328	4824
849.463	4831
849.598	4820
849.734	4793
849.869	4736
850.004	4611
850.14	4679
850.275	4603
850.41	4565
850.545	4596
850.68	4622
850.815	4611
850.95	4672
851.085	4862
851.22	4740
851.355	4687
851.49	4611
851.625	4656
851.76	4649
851.895	4558
852.03	4519
852.165	4656
852.299	4733
852.434	4820
852.569	4740
852.703	4778
852.838	4839
852.973	4942
853.107	4911
853.242	4740
853.376	4725
853.511	4565
853.645	4664
853.78	4793
853.914	4691
854.048	4660
854.183	4672
854.317	4733
854.451	4866
854.585	4687
854.72	4634
854.854	4759
854.988	4660
855.122	4660
855.256	4516
855.39	4660
855.524	4752
855.658	4725
855.792	4736
855.926	4725
856.06	4786
856.194	4843
856.327	4694
856.461	4634
856.595	4618
856.729	4626
856.862	4797
856.996	4736
857.13	4672
857.263	4759
857.397	4786
857.53	4672
857.664	4725
857.797	4771
857.931	4782
858.064	4645
858.197	4782
858.331	4664
858.464	4675
858.597	4516
858.731	4599
858.864	4660
858.997	4645
859.13	4668
859.263	4733
859.396	4691
859.529	4596
859.662	4550
859.795	4550
859.928	4675
860.061	4767
860.194	4790
860.327	4596
860.46	4573
860.592	4710
860.725	4729
860.858	4748
860.99	4599
861.123	4531
861.256	4531
861.388	4626
861.521	5402
861.653	4474
861.786	4455
861.918	4462
862.05	4523
862.183	4531
862.315	4641
862.447	4679
862.58	4569
862.712	4394
862.844	4375
862.976	4455
863.108	4451
863.24	4885
863.372	4352
863.504	4512
863.636	4421
863.768	4516
863.9	4424
864.032	4379
864.164	4394
864.296	4470
864.428	4558
864.559	4565
864.691	4558
864.823	4542
864.954	4504
865.086	4531
865.217	4466
865.349	4440
865.48	4481
865.612	4527
865.743	4607
865.875	4497
866.006	4455
866.137	4527
866.269	4485
866.4	4478
866.531	4443
866.662	4436
866.793	4432
866.924	4440
867.055	4478
867.186	4470
867.317	4432
867.448	4383
867.579	4398
867.71	4383
867.841	4322
867.972	4451
868.103	4481
868.233	4481
868.364	4432
868.495	4516
868.625	4649
868.756	4782
868.886	4580
869.017	4580
869.147	4740
869.278	4786
869.408	4630
869.539	4675
869.669	4733
869.799	4653
869.929	4824
870.06	4763
870.19	4980
870.32	4930
870.45	4930
870.58	5003
870.71	5056
870.84	5113
870.97	4972
871.1	4938
871.23	5109
871.36	5151
871.489	5010
871.619	5090
871.749	5117
871.879	5094
872.008	5155
872.138	5113
872.267	5025
872.397	4828
872.526	4847
872.656	4763
872.785	4801
872.915	4987
873.044	5052
873.173	4961
873.303	5006
873.432	4953
873.561	5003
873.69	4908
873.819	4870
873.948	4938
874.077	4790
874.206	4771
874.335	4778
874.464	4934
874.593	5090
874.722	4965
874.851	5113
874.979	5056
875.108	5067
875.237	4957
875.365	4923
875.494	4896
875.623	5006
875.751	4877
875.88	4858
876.008	4991
876.136	4984
876.265	5185
876.393	5383
876.521	5246
876.65	5261
876.778	5170
876.906	5083
877.034	5025
877.162	5029
877.29	5037
877.418	5033
877.546	5064
877.674	5079
877.802	5033
877.93	4995
878.058	4934
878.185	4889
878.313	4953
878.441	4949
878.568	4828
878.696	4870
878.824	4949
878.951	5014
879.079	5212
879.206	5357
879.333	5113
879.461	4995
879.588	5052
879.715	5178
879.842	5185
879.97	5010
880.097	4820
880.224	4797
880.351	4847
880.478	4835
880.605	4812
880.732	4793
880.859	5090
880.986	4908
881.112	4930
881.239	4797
881.366	4714
881.493	4630
881.619	4592
881.746	4687
881.872	4691
881.999	4660
882.125	4694
882.252	4805
882.378	4828
882.505	4984
882.631	4797
882.757	4725
882.883	4725
883.01	4668
883.136	4706
883.262	4630
883.388	4622
883.514	4828
883.64	4873
883.766	4835
883.892	4706
884.018	4744
884.143	4881
884.269	5048
884.395	4679
884.52	4672
884.646	4618
884.772	4603
884.897	4546
885.023	4675
885.148	4805
885.274	4885
885.399	4767
885.524	4714
885.65	4748
885.775	4771
885.9	4679
886.025	4877
886.15	4801
886.275	4729
886.4	4653
886.525	4733
886.65	4687
886.775	4679
886.9	4911
887.025	5037
887.149	4866
887.274	4675
887.399	4596
887.523	4660
887.648	4569
887.773	4565
887.897	4797
888.021	4835
888.146	4683
888.27	4752
888.395	4900
888.519	4809
888.643	4843
888.767	4843
888.891	4683
889.015	4656
889.139	4691
889.263	4592
889.387	4771
889.511	4885
889.635	4786
889.759	4664
889.883	4653
890.006	4767
890.13	4812
890.254	4630
890.377	4641
890.501	4550
890.624	4584
890.748	4607
890.871	4523
890.995	4493
891.118	4409
891.241	4478
891.364	4550
891.488	4603
891.611	4519
891.734	4569
891.857	4592
891.98	4637
892.103	4645
892.226	4630
892.349	4538
892.471	4409
892.594	4554
892.717	4580
892.839	4565
892.962	4672
893.085	4653
893.207	4599
893.33	4485
893.452	4508
893.575	4664
893.697	4588
893.819	4812
893.941	4812
894.064	4797
894.186	4580
894.308	4603
894.43	4714
894.552	4809
894.674	4797
894.796	4558
894.918	4584
895.04	4584
895.161	4725
895.283	4721
895.405	4577
895.526	4656
895.648	4725
895.769	4706
895.891	4744
896.012	4782
896.134	4706
896.255	4702
896.376	4641
896.498	4645
896.619	4668
896.74	4630
896.861	4714
896.982	4919
897.103	5098
897.224	4831
897.345	4744
897.466	4618
897.587	4763
897.708	4831
897.828	4797
897.949	4729
898.07	4569
898.19	4653
898.311	4839
898.431	4702
898.552	4801
898.672	4820
898.792	4805
898.913	4774
899.033	4656
899.153	4497
899.273	4474
899.393	4527
899.513	4580
899.633	4523
899.753	4554
899.873	4535
899.993	4565
900.113	4577
900.232	4538
900.352	4550
900.472	4497
900.591	4398
900.711	4504
900.83	4447
900.95	4637
901.069	4721
901.189	4584
901.308	4405
901.427	4329
901.546	4363
901.665	4508
901.784	4489
901.904	4421
902.023	4299
902.141	4196
902.26	4215
902.379	4299
902.498	4257
902.617	4227
902.735	4386
902.854	4394
902.973	4398
903.091	4234
903.21	4230
903.328	4314
903.446	4265
903.565	4280
903.683	4356
903.801	4268
903.919	4413
904.038	4436
904.156	4333
904.274	4481
904.392	4390
904.51	4451
904.627	4478
904.745	4558
904.863	4656
904.981	4432
905.098	4348
905.216	4383
905.334	4421
905.451	4436
905.569	4428
905.686	4611
905.803	4546
905.921	4409
906.038	4577
906.155	4474
906.272	4402
906.389	4459
906.506	4398
906.623	4375
906.74	4443
906.857	4322
906.974	4375
907.091	4569
907.208	4672
907.324	4637
907.441	4497
907.557	4341
907.674	4360
907.79	4390
907.907	4417
908.023	4481
908.139	4500
908.256	4451
908.372	4489
908.488	4462
908.604	4356
908.72	4329
908.836	4371
908.952	4409
909.068	4462
909.184	4588
909.3	4497
909.415	4550
909.531	4558
909.647	4390
909.762	4424
909.878	4383
909.993	4459
910.108	4440
910.224	4436
910.339	4535
910.454	4440
910.57	4390
910.685	4299
910.8	4626
910.915	4618
911.03	4519
911.145	4379
911.259	4333
911.374	4413
911.489	4306
911.604	4287
911.718	4150
911.833	4207
911.947	4090
912.062	4040
912.176	4223
912.291	4242
912.405	4261
912.519	4459
912.633	4538
912.748	4398
912.862	4352
912.976	4246
913.09	4135
913.204	4181
913.318	4265
913.431	4337
913.545	4390
913.659	4455
913.772	4436
913.886	4276
914	4215
914.113	4428
914.226	4459
914.34	4409
914.453	4295
914.566	4466
914.68	4310
914.793	4352
914.906	4166
915.019	4124
915.132	4120
915.245	4162
915.358	4238
915.47	4230
915.583	4291
915.696	4318
915.809	4432
915.921	4424
916.034	4284
916.146	4295
916.259	4246
916.371	4390
916.483	4348
916.595	4249
916.708	4322
916.82	4356
916.932	4367
917.044	4348
917.156	4314
917.268	4242
917.38	4295
917.491	4280
917.603	4314
917.715	4436
917.826	4417
917.938	4402
918.049	4230
918.161	4413
918.272	4584
918.384	4573
918.495	4504
918.606	4295
918.717	4265
918.828	4318
918.939	4421
919.05	4253
919.161	4322
919.272	4128
919.383	4268
919.494	4470
919.604	4660
919.715	4417
919.826	4379
919.936	4417
920.047	4554
920.157	4470
920.267	4736
920.378	4599
920.488	4554
920.598	4721
920.708	4930
920.818	4801
920.928	4790
921.038	4953
921.148	4942
921.258	4687
921.368	4584
921.477	4481
921.587	4500
921.697	4413
921.806	4516
921.916	4455
922.025	4287
922.134	4295
922.244	4188
922.353	4386
922.462	4143
922.571	4173
922.68	3991
922.789	4006
922.898	4029
923.007	4006
923.116	4135
923.224	4078
923.333	4116
923.442	4036
923.55	4013
923.659	4063
923.767	4147
923.876	3987
923.984	4135
924.092	4040
924.201	4086
924.309	4116
924.417	4128
924.525	4093
924.633	4097
924.741	4923
924.849	3941
924.956	4162
925.064	3968
925.172	3972
925.279	3972
925.387	4074
925.494	4101
925.602	4200
925.709	4204
925.816	4025
925.924	4112
926.031	4238
926.138	4173
926.245	4257
926.352	4128
926.459	4268
926.566	4341
926.673	4196
926.779	4128
926.886	4097
926.993	4002
927.099	3979
927.206	3945
927.312	3991
927.419	4036
927.525	4059
927.631	4093
927.737	3968
927.843	3953
927.95	3846
928.056	3994
928.162	4006
928.267	4044
928.373	4675
928.479	4139
928.585	3880
928.69	4017
928.796	4105
928.901	3994
929.007	3831
929.112	4017
929.218	4021
929.323	3960
929.428	3922
929.533	4147
929.638	3922
929.743	3998
929.848	4097
929.953	4063
930.058	3975
930.163	3785
930.267	3812
930.372	3998
930.477	3857
930.581	4105
930.685	3941
930.79	3827
930.894	3930
930.998	3857
931.103	3987
931.207	3720
931.311	3717
931.415	3713
931.519	3564
931.623	3526
