Data from test_V78500241_222.txt Node
Date: Fri Mar 25 16:50:32 CST 2022
User: usil
Spectrometer: V785-0024
Trigger mode: 0
Integration Time (sec): 4.000000E-1
Scans to average: 1
Nonlinearity correction enabled: false
Boxcar width: 0
Storing dark spectrum: false
XAxis mode: Wavelengths
Number of Pixels in Spectrum: 1024
>>>>>Begin Spectral Data<<<<<
801.071	8111
801.214	8081
801.356	7940
801.499	7841
801.641	7849
801.783	7864
801.926	8039
802.068	8020
802.211	8024
802.353	8050
802.496	7864
802.638	7970
802.78	7898
802.923	7970
803.065	7860
803.208	7875
803.35	8043
803.492	8069
803.635	8202
803.777	7989
803.919	8157
804.061	8400
804.204	8103
804.346	7993
804.488	7944
804.63	8031
804.773	7967
804.915	8119
805.057	8317
805.199	8187
805.341	8153
805.483	8221
805.626	8149
805.768	8103
805.91	8229
806.052	8240
806.194	8065
806.336	8328
806.478	8081
806.62	8020
806.762	8123
806.904	8256
807.046	8423
807.188	8286
807.33	8317
807.472	8267
807.614	8081
807.756	8096
807.898	7986
808.04	7898
808.182	7902
808.324	7909
808.465	7993
808.607	8065
808.749	8149
808.891	8195
809.033	8320
809.174	8282
809.316	8111
809.458	8035
809.6	8107
809.741	8031
809.883	8039
810.025	8069
810.166	8012
810.308	7970
810.45	8054
810.591	7868
810.733	7769
810.875	7639
811.016	7533
811.158	7521
811.299	7582
811.441	7700
811.582	7700
811.724	7578
811.865	7632
812.007	7605
812.148	7594
812.29	7628
812.431	7761
812.573	7894
812.714	8031
812.855	8244
812.997	8256
813.138	8347
813.279	8172
813.421	8202
813.562	8027
813.703	7849
813.845	7826
813.986	7449
814.127	7312
814.268	7244
814.41	7228
814.551	7240
814.692	7190
814.833	7126
814.974	7122
815.115	7168
815.256	7027
815.397	6939
815.539	6951
815.68	6814
815.821	6810
815.962	6863
816.103	6810
816.244	6730
816.385	6627
816.526	6585
816.666	6544
816.807	6391
816.948	6456
817.089	6426
817.23	6422
817.371	6357
817.512	6380
817.653	6384
817.793	6384
817.934	6388
818.075	6498
818.216	6452
818.356	6410
818.497	6251
818.638	6091
818.778	6125
818.919	6136
819.06	6190
819.2	6270
819.341	6361
819.481	6380
819.622	6566
819.762	6654
819.903	6665
820.043	6578
820.184	6532
820.324	6525
820.465	6669
820.605	6696
820.746	6658
820.886	6494
821.026	6582
821.167	6700
821.307	6760
821.447	6772
821.588	6700
821.728	6559
821.868	6494
822.008	6334
822.149	6346
822.289	6342
822.429	6167
822.569	6163
822.709	6064
822.849	5950
822.99	5916
823.13	5961
823.27	5916
823.41	5859
823.55	5809
823.69	5745
823.83	5760
823.97	5684
824.11	5512
824.25	5501
824.389	5543
824.529	5627
824.669	5547
824.809	5619
824.949	5722
825.089	5684
825.228	5554
825.368	5379
825.508	5303
825.648	5349
825.787	5364
825.927	5357
826.067	5296
826.206	5315
826.346	5383
826.485	5395
826.625	5452
826.765	5634
826.904	5509
827.044	5307
827.183	5220
827.323	5086
827.462	5235
827.601	5155
827.741	5227
827.88	5239
828.02	5124
828.159	5269
828.298	5311
828.437	5372
828.577	5318
828.716	5497
828.855	5387
828.994	5193
829.134	5220
829.273	5189
829.412	5140
829.551	5121
829.69	5204
829.829	5231
829.968	5368
830.107	5265
830.246	5265
830.385	5185
830.524	5128
830.663	5056
830.802	4976
830.941	4889
831.08	4900
831.219	4961
831.357	4980
831.496	5132
831.635	4938
831.774	4896
831.913	4847
832.051	4786
832.19	4740
832.329	4858
832.467	4721
832.606	4626
832.744	4706
832.883	4782
833.022	4767
833.16	4816
833.299	4847
833.437	4805
833.576	4858
833.714	4843
833.852	4896
833.991	4904
834.129	4934
834.267	4953
834.406	4961
834.544	5006
834.682	4995
834.821	4938
834.959	5128
835.097	4953
835.235	5155
835.373	5094
835.511	5109
835.65	5022
835.788	5029
835.926	4961
836.064	4900
836.202	4911
836.34	5162
836.478	5223
836.615	5140
836.753	5246
836.891	5299
837.029	5227
837.167	5246
837.305	5197
837.443	5212
837.58	5071
837.718	5273
837.856	5193
837.993	5181
838.131	5273
838.269	5208
838.406	5193
838.544	5239
838.681	5010
838.819	5079
838.956	4927
839.094	4915
839.231	4991
839.369	5079
839.506	5395
839.643	5235
839.781	5124
839.918	5006
840.055	5109
840.193	5147
840.33	5121
840.467	5121
840.604	5189
840.742	5493
840.879	5143
841.016	5102
841.153	5124
841.29	5379
841.427	5337
841.564	5357
841.701	5376
841.838	5288
841.975	5197
842.112	5292
842.249	5166
842.385	5045
842.522	5364
842.659	5155
842.796	5155
842.933	5223
843.069	5098
843.206	5185
843.343	5334
843.479	5239
843.616	5265
843.752	4999
843.889	5006
844.025	5220
844.162	4991
844.298	5220
844.435	5113
844.571	5056
844.708	5231
844.844	5307
844.98	5334
845.117	5303
845.253	5162
845.389	5098
845.525	5185
845.661	5178
845.798	5094
845.934	5124
846.07	5014
846.206	5155
846.342	5254
846.478	5178
846.614	5071
846.75	4946
846.886	4927
847.022	5121
847.158	5041
847.294	5079
847.429	5071
847.565	5048
847.701	5349
847.837	4911
847.972	4755
848.108	4953
848.244	4961
848.379	4790
848.515	4736
848.65	4702
848.786	4786
848.921	4774
849.057	4889
849.192	4911
849.328	4862
849.463	4862
849.598	4790
849.734	4736
849.869	4694
850.004	4672
850.14	4668
850.275	4622
850.41	4508
850.545	4546
850.68	4523
850.815	4653
850.95	4565
851.085	4892
851.22	4771
851.355	4687
851.49	4580
851.625	4675
851.76	4687
851.895	4558
852.03	4516
852.165	4615
852.299	4717
852.434	4797
852.569	4755
852.703	4793
852.838	4843
852.973	4938
853.107	4934
853.242	4714
853.376	4649
853.511	4569
853.645	4626
853.78	4809
853.914	4668
854.048	4675
854.183	4656
854.317	4740
854.451	4854
854.585	4725
854.72	4660
854.854	4729
854.988	4584
855.122	4645
855.256	4596
855.39	4679
855.524	4816
855.658	4717
855.792	4717
855.926	4740
856.06	4740
856.194	4797
856.327	4706
856.461	4599
856.595	4672
856.729	4634
856.862	4721
856.996	4706
857.13	4774
857.263	4714
857.397	4797
857.53	4664
857.664	4744
857.797	4782
857.931	4793
858.064	4691
858.197	4759
858.331	4656
858.464	4645
858.597	4535
858.731	4611
858.864	4672
858.997	4611
859.13	4664
859.263	4660
859.396	4740
859.529	4618
859.662	4561
859.795	4519
859.928	4668
860.061	4744
860.194	4771
860.327	4603
860.46	4584
860.592	4740
860.725	4736
860.858	4748
860.99	4588
861.123	4516
861.256	4508
861.388	4599
861.521	5269
861.653	4493
861.786	4466
861.918	4519
862.05	4512
862.183	4565
862.315	4603
862.447	4664
862.58	4588
862.712	4440
862.844	4367
862.976	4459
863.108	4466
863.24	4858
863.372	4394
863.504	4443
863.636	4440
863.768	4489
863.9	4428
864.032	4386
864.164	4421
864.296	4523
864.428	4550
864.559	4603
864.691	4504
864.823	4527
864.954	4485
865.086	4516
865.217	4485
865.349	4451
865.48	4447
865.612	4470
865.743	4634
865.875	4489
866.006	4409
866.137	4504
866.269	4474
866.4	4470
866.531	4432
866.662	4424
866.793	4455
866.924	4474
867.055	4519
867.186	4451
867.317	4386
867.448	4356
867.579	4394
867.71	4421
867.841	4367
867.972	4451
868.103	4462
868.233	4493
868.364	4440
868.495	4478
868.625	4664
868.756	4790
868.886	4550
869.017	4615
869.147	4763
869.278	4809
869.408	4630
869.539	4622
869.669	4755
869.799	4649
869.929	4740
870.06	4740
870.19	4953
870.32	4919
870.45	4938
870.58	5029
870.71	5102
870.84	5162
870.97	4930
871.1	4946
871.23	5102
871.36	5121
871.489	5102
871.619	5098
871.749	5121
871.879	5124
872.008	5151
872.138	5102
872.267	4927
872.397	4873
872.526	4820
872.656	4748
872.785	4816
872.915	4892
873.044	5060
873.173	4965
873.303	4953
873.432	4995
873.561	4991
873.69	4858
873.819	4866
873.948	4904
874.077	4870
874.206	4805
874.335	4778
874.464	4942
874.593	5109
874.722	4972
874.851	5037
874.979	5048
875.108	5056
875.237	4911
875.365	4873
875.494	4911
875.623	5025
875.751	4850
875.88	4892
876.008	4999
876.136	5029
876.265	5201
876.393	5360
876.521	5223
876.65	5220
876.778	5162
876.906	5067
877.034	5022
877.162	5006
877.29	5025
877.418	5003
877.546	5022
877.674	5037
877.802	5010
877.93	5060
878.058	4946
878.185	4911
878.313	4965
878.441	4949
878.568	4858
878.696	4858
878.824	4957
878.951	4968
879.079	5124
879.206	5337
879.333	5143
879.461	4965
879.588	4984
879.715	5117
879.842	5231
879.97	4991
880.097	4831
880.224	4725
880.351	4767
880.478	4862
880.605	4790
880.732	4801
880.859	5086
880.986	4900
881.112	4858
881.239	4778
881.366	4668
881.493	4672
881.619	4573
881.746	4634
881.872	4649
881.999	4675
882.125	4675
882.252	4748
882.378	4877
882.505	4965
882.631	4793
882.757	4675
882.883	4733
883.01	4729
883.136	4668
883.262	4569
883.388	4653
883.514	4850
883.64	4881
883.766	4831
883.892	4634
884.018	4744
884.143	4930
884.269	5010
884.395	4698
884.52	4691
884.646	4641
884.772	4542
884.897	4546
885.023	4660
885.148	4759
885.274	4850
885.399	4816
885.524	4691
885.65	4679
885.775	4721
885.9	4710
886.025	4816
886.15	4850
886.275	4725
886.4	4683
886.525	4736
886.65	4691
886.775	4687
886.9	4820
887.025	5037
887.149	4790
887.274	4691
887.399	4584
887.523	4592
887.648	4596
887.773	4588
887.897	4736
888.021	4721
888.146	4691
888.27	4793
888.395	4938
888.519	4805
888.643	4812
888.767	4828
888.891	4698
889.015	4588
889.139	4630
889.263	4538
889.387	4801
889.511	4877
889.635	4862
889.759	4645
889.883	4664
890.006	4706
890.13	4850
890.254	4622
890.377	4687
890.501	4535
890.624	4531
890.748	4687
890.871	4481
890.995	4424
891.118	4394
891.241	4519
891.364	4538
891.488	4618
891.611	4516
891.734	4577
891.857	4558
891.98	4573
892.103	4618
892.226	4569
892.349	4512
892.471	4440
892.594	4527
892.717	4607
892.839	4577
892.962	4615
893.085	4714
893.207	4607
893.33	4413
893.452	4535
893.575	4653
893.697	4603
893.819	4805
893.941	4805
894.064	4812
894.186	4569
894.308	4588
894.43	4748
894.552	4809
894.674	4748
894.796	4531
894.918	4645
895.04	4584
895.161	4710
895.283	4668
895.405	4592
895.526	4660
895.648	4683
895.769	4729
895.891	4725
896.012	4782
896.134	4729
896.255	4733
896.376	4634
896.498	4626
896.619	4694
896.74	4618
896.861	4664
896.982	4934
897.103	5140
897.224	4820
897.345	4740
897.466	4630
897.587	4774
897.708	4862
897.828	4831
897.949	4675
898.07	4596
898.19	4717
898.311	4870
898.431	4691
898.552	4744
898.672	4816
898.792	4809
898.913	4752
899.033	4626
899.153	4519
899.273	4443
899.393	4481
899.513	4523
899.633	4538
899.753	4531
899.873	4459
899.993	4573
900.113	4531
900.232	4615
900.352	4573
900.472	4497
900.591	4432
900.711	4481
900.83	4432
900.95	4611
901.069	4702
901.189	4527
901.308	4341
901.427	4310
901.546	4367
901.665	4478
901.784	4531
901.904	4417
902.023	4325
902.141	4200
902.26	4173
902.379	4352
902.498	4246
902.617	4249
902.735	4413
902.854	4375
902.973	4383
903.091	4265
903.21	4234
903.328	4276
903.446	4261
903.565	4268
903.683	4386
903.801	4291
903.919	4424
904.038	4447
904.156	4303
904.274	4409
904.392	4375
904.51	4424
904.627	4481
904.745	4626
904.863	4637
904.981	4398
905.098	4329
905.216	4356
905.334	4405
905.451	4409
905.569	4474
905.686	4527
905.803	4569
905.921	4383
906.038	4546
906.155	4558
906.272	4363
906.389	4451
906.506	4337
906.623	4386
906.74	4409
906.857	4295
906.974	4375
907.091	4573
907.208	4660
907.324	4535
907.441	4542
907.557	4394
907.674	4352
907.79	4322
907.907	4379
908.023	4497
908.139	4478
908.256	4440
908.372	4489
908.488	4485
908.604	4329
908.72	4341
908.836	4363
908.952	4409
909.068	4485
909.184	4569
909.3	4466
909.415	4577
909.531	4546
909.647	4394
909.762	4371
909.878	4337
909.993	4413
910.108	4417
910.224	4413
910.339	4519
910.454	4436
910.57	4329
910.685	4295
910.8	4672
910.915	4611
911.03	4531
911.145	4310
911.259	4352
911.374	4405
911.489	4272
911.604	4257
911.718	4192
911.833	4192
911.947	4109
912.062	4021
912.176	4227
912.291	4230
912.405	4257
912.519	4489
912.633	4485
912.748	4383
912.862	4280
912.976	4246
913.09	4093
913.204	4173
913.318	4219
913.431	4337
913.545	4348
913.659	4424
913.772	4344
913.886	4272
914	4227
914.113	4409
914.226	4398
914.34	4413
914.453	4265
914.566	4447
914.68	4299
914.793	4363
914.906	4169
915.019	4120
915.132	4105
915.245	4215
915.358	4173
915.47	4207
915.583	4280
915.696	4299
915.809	4394
915.921	4421
916.034	4299
916.146	4257
916.259	4242
916.371	4352
916.483	4379
916.595	4234
916.708	4360
916.82	4310
916.932	4337
917.044	4310
917.156	4329
917.268	4238
917.38	4329
917.491	4261
917.603	4314
917.715	4440
917.826	4462
917.938	4356
918.049	4238
918.161	4402
918.272	4565
918.384	4558
918.495	4481
918.606	4322
918.717	4246
918.828	4318
918.939	4367
919.05	4291
919.161	4306
919.272	4166
919.383	4219
919.494	4428
919.604	4637
919.715	4428
919.826	4363
919.936	4383
920.047	4550
920.157	4519
920.267	4736
920.378	4550
920.488	4542
920.598	4755
920.708	4870
920.818	4774
920.928	4767
921.038	4980
921.148	4881
921.258	4653
921.368	4550
921.477	4489
921.587	4394
921.697	4386
921.806	4535
921.916	4421
922.025	4265
922.134	4280
922.244	4287
922.353	4360
922.462	4230
922.571	4116
922.68	3994
922.789	3937
922.898	4086
923.007	4006
923.116	4143
923.224	4093
923.333	4093
923.442	4006
923.55	3972
923.659	4067
923.767	4093
923.876	4021
923.984	4116
924.092	3994
924.201	4055
924.309	4143
924.417	4078
924.525	4040
924.633	4143
924.741	5033
924.849	3926
924.956	4128
925.064	3975
925.172	3945
925.279	4021
925.387	4093
925.494	4048
925.602	4219
925.709	4162
925.816	4109
925.924	4169
926.031	4223
926.138	4211
926.245	4242
926.352	4128
926.459	4249
926.566	4341
926.673	4135
926.779	4116
926.886	4097
926.993	4013
927.099	3945
927.206	3953
927.312	3911
927.419	4051
927.525	4048
927.631	4074
927.737	3972
927.843	3956
927.95	3831
928.056	3960
928.162	4021
928.267	4032
928.373	4538
928.479	4090
928.585	3930
928.69	4025
928.796	4097
928.901	4013
929.007	3850
929.112	4013
929.218	3998
929.323	3972
929.428	3949
929.533	4139
929.638	3915
929.743	3975
929.848	4036
929.953	4040
930.058	3945
930.163	3800
930.267	3850
930.372	3968
930.477	3812
930.581	4139
930.685	3964
930.79	3846
930.894	3903
930.998	3850
931.103	4059
931.207	3713
931.311	3713
931.415	3682
931.519	3549
931.623	3587
