Data from test_V78500241_2638.txt Node
Date: Fri Mar 25 17:07:20 CST 2022
User: usil
Spectrometer: V785-0024
Trigger mode: 0
Integration Time (sec): 4.000000E-1
Scans to average: 1
Nonlinearity correction enabled: false
Boxcar width: 0
Storing dark spectrum: false
XAxis mode: Wavelengths
Number of Pixels in Spectrum: 1024
>>>>>Begin Spectral Data<<<<<
801.071	8077
801.214	8012
801.356	7917
801.499	7864
801.641	7822
801.783	7822
801.926	7993
802.068	7970
802.211	8027
802.353	8001
802.496	7955
802.638	7868
802.78	8001
802.923	7894
803.065	7970
803.208	7928
803.35	8077
803.492	8176
803.635	8233
803.777	8035
803.919	8084
804.061	8476
804.204	8161
804.346	8081
804.488	8027
804.63	8126
804.773	8088
804.915	8123
805.057	8324
805.199	8138
805.341	8187
805.483	8271
805.626	8282
805.768	8180
805.91	8214
806.052	8180
806.194	8214
806.336	8294
806.478	8115
806.62	8103
806.762	8123
806.904	8244
807.046	8488
807.188	8290
807.33	8396
807.472	8286
807.614	8199
807.756	8145
807.898	8035
808.04	7898
808.182	7928
808.324	7803
808.465	7890
808.607	8054
808.749	8134
808.891	8225
809.033	8381
809.174	8267
809.316	8084
809.458	8031
809.6	7982
809.741	8020
809.883	8065
810.025	8119
810.166	8073
810.308	8062
810.45	7959
810.591	7879
810.733	7734
810.875	7746
811.016	7518
811.158	7525
811.299	7571
811.441	7761
811.582	7734
811.724	7552
811.865	7582
812.007	7643
812.148	7632
812.29	7632
812.431	7776
812.573	7936
812.714	8062
812.855	8119
812.997	8233
813.138	8298
813.279	8248
813.421	8081
813.562	7974
813.703	7932
813.845	7807
813.986	7495
814.127	7343
814.268	7270
814.41	7285
814.551	7190
814.692	7289
814.833	7110
814.974	7118
815.115	7145
815.256	6989
815.397	6943
815.539	6966
815.68	6859
815.821	6806
815.962	6875
816.103	6852
816.244	6715
816.385	6604
816.526	6665
816.666	6528
816.807	6319
816.948	6528
817.089	6475
817.23	6498
817.371	6414
817.512	6361
817.653	6445
817.793	6353
817.934	6380
818.075	6483
818.216	6471
818.356	6441
818.497	6262
818.638	6205
818.778	6159
818.919	6129
819.06	6239
819.2	6380
819.341	6292
819.481	6376
819.622	6540
819.762	6795
819.903	6738
820.043	6555
820.184	6646
820.324	6654
820.465	6783
820.605	6722
820.746	6665
820.886	6570
821.026	6646
821.167	6768
821.307	6840
821.447	6852
821.588	6707
821.728	6585
821.868	6574
822.008	6350
822.149	6391
822.289	6403
822.429	6228
822.569	6148
822.709	6144
822.849	5980
822.99	5897
823.13	5939
823.27	5999
823.41	5809
823.55	5817
823.69	5859
823.83	5828
823.97	5726
824.11	5528
824.25	5539
824.389	5604
824.529	5589
824.669	5512
824.809	5619
824.949	5707
825.089	5577
825.228	5604
825.368	5379
825.508	5376
825.648	5379
825.787	5357
825.927	5364
826.067	5307
826.206	5341
826.346	5406
826.485	5410
826.625	5402
826.765	5539
826.904	5467
827.044	5326
827.183	5208
827.323	5132
827.462	5246
827.601	5189
827.741	5227
827.88	5197
828.02	5086
828.159	5254
828.298	5337
828.437	5376
828.577	5322
828.716	5486
828.855	5357
828.994	5216
829.134	5197
829.273	5201
829.412	5181
829.551	5155
829.69	5220
829.829	5307
829.968	5360
830.107	5254
830.246	5337
830.385	5193
830.524	5189
830.663	5132
830.802	5041
830.941	4930
831.08	4904
831.219	4968
831.357	4949
831.496	5178
831.635	4987
831.774	4885
831.913	4927
832.051	4755
832.19	4729
832.329	4866
832.467	4672
832.606	4672
832.744	4702
832.883	4763
833.022	4710
833.16	4839
833.299	4835
833.437	4908
833.576	4885
833.714	4881
833.852	4892
833.991	4934
834.129	5022
834.267	4957
834.406	4927
834.544	4968
834.682	5022
834.821	4957
834.959	5201
835.097	5025
835.235	5189
835.373	5124
835.511	5083
835.65	5045
835.788	5003
835.926	4927
836.064	4900
836.202	4987
836.34	5121
836.478	5235
836.615	5162
836.753	5223
836.891	5303
837.029	5277
837.167	5223
837.305	5128
837.443	5162
837.58	5090
837.718	5303
837.856	5181
837.993	5220
838.131	5246
838.269	5239
838.406	5239
838.544	5193
838.681	5029
838.819	5018
838.956	4915
839.094	4896
839.231	5025
839.369	5132
839.506	5459
839.643	5303
839.781	5132
839.918	5014
840.055	5098
840.193	5102
840.33	5121
840.467	5086
840.604	5162
840.742	5452
840.879	5121
841.016	5075
841.153	5231
841.29	5425
841.427	5345
841.564	5322
841.701	5376
841.838	5303
841.975	5246
842.112	5288
842.249	5136
842.385	5124
842.522	5357
842.659	5143
842.796	5159
842.933	5223
843.069	5136
843.206	5170
843.343	5296
843.479	5181
843.616	5261
843.752	5037
843.889	5033
844.025	5216
844.162	5006
844.298	5193
844.435	5113
844.571	5064
844.708	5212
844.844	5273
844.98	5391
845.117	5334
845.253	5185
845.389	5105
845.525	5178
845.661	5174
845.798	5079
845.934	5147
846.07	5067
846.206	5231
846.342	5292
846.478	5151
846.614	4995
846.75	4965
846.886	4927
847.022	5155
847.158	5090
847.294	5102
847.429	5105
847.565	5029
847.701	5330
847.837	4870
847.972	4816
848.108	4961
848.244	5018
848.379	4805
848.515	4763
848.65	4767
848.786	4774
848.921	4835
849.057	4843
849.192	4915
849.328	4873
849.463	4866
849.598	4805
849.734	4812
849.869	4694
850.004	4691
850.14	4668
850.275	4592
850.41	4554
850.545	4618
850.68	4603
850.815	4611
850.95	4649
851.085	4820
851.22	4721
851.355	4691
851.49	4649
851.625	4637
851.76	4656
851.895	4607
852.03	4558
852.165	4634
852.299	4740
852.434	4793
852.569	4809
852.703	4801
852.838	4858
852.973	4953
853.107	4915
853.242	4752
853.376	4664
853.511	4588
853.645	4630
853.78	4824
853.914	4725
854.048	4683
854.183	4599
854.317	4675
854.451	4839
854.585	4679
854.72	4618
854.854	4790
854.988	4588
855.122	4649
855.256	4596
855.39	4687
855.524	4835
855.658	4733
855.792	4729
855.926	4740
856.06	4767
856.194	4850
856.327	4683
856.461	4626
856.595	4630
856.729	4622
856.862	4706
856.996	4694
857.13	4717
857.263	4771
857.397	4790
857.53	4691
857.664	4740
857.797	4725
857.931	4790
858.064	4714
858.197	4717
858.331	4672
858.464	4660
858.597	4523
858.731	4615
858.864	4634
858.997	4569
859.13	4637
859.263	4630
859.396	4748
859.529	4569
859.662	4531
859.795	4592
859.928	4660
860.061	4736
860.194	4778
860.327	4649
860.46	4603
860.592	4725
860.725	4664
860.858	4736
860.99	4626
861.123	4538
861.256	4497
861.388	4634
861.521	5455
861.653	4466
861.786	4432
861.918	4478
862.05	4561
862.183	4546
862.315	4580
862.447	4656
862.58	4577
862.712	4432
862.844	4310
862.976	4512
863.108	4417
863.24	4790
863.372	4394
863.504	4409
863.636	4421
863.768	4440
863.9	4459
864.032	4386
864.164	4398
864.296	4504
864.428	4542
864.559	4569
864.691	4573
864.823	4500
864.954	4538
865.086	4478
865.217	4485
865.349	4432
865.48	4413
865.612	4493
865.743	4653
865.875	4447
866.006	4470
866.137	4478
866.269	4413
866.4	4485
866.531	4451
866.662	4398
866.793	4409
866.924	4443
867.055	4489
867.186	4489
867.317	4386
867.448	4363
867.579	4413
867.71	4413
867.841	4356
867.972	4478
868.103	4500
868.233	4436
868.364	4443
868.495	4558
868.625	4672
868.756	4755
868.886	4573
869.017	4603
869.147	4812
869.278	4805
869.408	4656
869.539	4641
869.669	4714
869.799	4653
869.929	4767
870.06	4725
870.19	4968
870.32	4904
870.45	4957
870.58	5045
870.71	5136
870.84	5147
870.97	4953
871.1	4908
871.23	5166
871.36	5117
871.489	4968
871.619	5113
871.749	5128
871.879	5143
872.008	5174
872.138	5056
872.267	4980
872.397	4839
872.526	4820
872.656	4706
872.785	4774
872.915	4965
873.044	4995
873.173	4972
873.303	5003
873.432	4957
873.561	4946
873.69	4915
873.819	4877
873.948	4946
874.077	4824
874.206	4771
874.335	4801
874.464	4934
874.593	5064
874.722	4984
874.851	5132
874.979	5075
875.108	5067
875.237	4915
875.365	4915
875.494	4930
875.623	4968
875.751	4839
875.88	4870
876.008	4949
876.136	5064
876.265	5201
876.393	5299
876.521	5227
876.65	5254
876.778	5170
876.906	5048
877.034	5037
877.162	5083
877.29	4999
877.418	5056
877.546	5052
877.674	5041
877.802	5086
877.93	5060
878.058	4972
878.185	4854
878.313	4919
878.441	4991
878.568	4850
878.696	4862
878.824	4957
878.951	5022
879.079	5174
879.206	5292
879.333	5056
879.461	4991
879.588	5045
879.715	5124
879.842	5166
879.97	4934
880.097	4717
880.224	4717
880.351	4828
880.478	4809
880.605	4790
880.732	4782
880.859	5117
880.986	4938
881.112	4934
881.239	4805
881.366	4706
881.493	4565
881.619	4596
881.746	4710
881.872	4679
881.999	4656
882.125	4702
882.252	4805
882.378	4797
882.505	4976
882.631	4774
882.757	4698
882.883	4740
883.01	4698
883.136	4679
883.262	4611
883.388	4596
883.514	4820
883.64	4801
883.766	4771
883.892	4660
884.018	4672
884.143	4873
884.269	4999
884.395	4664
884.52	4626
884.646	4573
884.772	4573
884.897	4519
885.023	4679
885.148	4782
885.274	4873
885.399	4831
885.524	4725
885.65	4691
885.775	4774
885.9	4694
886.025	4854
886.15	4797
886.275	4721
886.4	4645
886.525	4740
886.65	4729
886.775	4698
886.9	4900
887.025	5048
887.149	4809
887.274	4645
887.399	4626
887.523	4584
887.648	4599
887.773	4577
887.897	4778
888.021	4786
888.146	4664
888.27	4824
888.395	4900
888.519	4793
888.643	4812
888.767	4885
888.891	4706
889.015	4630
889.139	4660
889.263	4603
889.387	4744
889.511	4889
889.635	4809
889.759	4653
889.883	4672
890.006	4717
890.13	4820
890.254	4618
890.377	4729
890.501	4519
890.624	4546
890.748	4664
890.871	4459
890.995	4440
891.118	4409
891.241	4500
891.364	4523
891.488	4660
891.611	4519
891.734	4527
891.857	4641
891.98	4535
892.103	4637
892.226	4558
892.349	4519
892.471	4447
892.594	4523
892.717	4596
892.839	4573
892.962	4561
893.085	4656
893.207	4569
893.33	4485
893.452	4516
893.575	4675
893.697	4554
893.819	4767
893.941	4809
894.064	4752
894.186	4554
894.308	4523
894.43	4706
894.552	4835
894.674	4752
894.796	4542
894.918	4573
895.04	4596
895.161	4710
895.283	4691
895.405	4561
895.526	4607
895.648	4656
895.769	4672
895.891	4721
896.012	4774
896.134	4740
896.255	4694
896.376	4611
896.498	4622
896.619	4679
896.74	4596
896.861	4603
896.982	4934
897.103	5071
897.224	4847
897.345	4771
897.466	4641
897.587	4744
897.708	4782
897.828	4801
897.949	4641
898.07	4584
898.19	4615
898.311	4797
898.431	4702
898.552	4797
898.672	4854
898.792	4805
898.913	4736
899.033	4649
899.153	4516
899.273	4459
899.393	4447
899.513	4580
899.633	4531
899.753	4573
899.873	4550
899.993	4588
900.113	4508
900.232	4565
900.352	4554
900.472	4462
900.591	4436
900.711	4538
900.83	4443
900.95	4596
901.069	4679
901.189	4531
901.308	4341
901.427	4325
901.546	4402
901.665	4424
901.784	4474
901.904	4379
902.023	4352
902.141	4242
902.26	4158
902.379	4303
902.498	4242
902.617	4207
902.735	4390
902.854	4409
902.973	4379
903.091	4234
903.21	4234
903.328	4310
903.446	4265
903.565	4257
903.683	4371
903.801	4268
903.919	4428
904.038	4424
904.156	4284
904.274	4424
904.392	4409
904.51	4447
904.627	4428
904.745	4538
904.863	4603
904.981	4405
905.098	4306
905.216	4386
905.334	4455
905.451	4504
905.569	4424
905.686	4550
905.803	4569
905.921	4409
906.038	4516
906.155	4527
906.272	4394
906.389	4447
906.506	4356
906.623	4371
906.74	4421
906.857	4325
906.974	4360
907.091	4588
907.208	4672
907.324	4603
907.441	4493
907.557	4314
907.674	4356
907.79	4337
907.907	4371
908.023	4455
908.139	4516
908.256	4443
908.372	4409
908.488	4417
908.604	4344
908.72	4303
908.836	4344
908.952	4379
909.068	4413
909.184	4558
909.3	4462
909.415	4569
909.531	4531
909.647	4367
909.762	4333
909.878	4322
909.993	4455
910.108	4409
910.224	4375
910.339	4481
910.454	4379
910.57	4333
910.685	4352
910.8	4630
910.915	4607
911.03	4470
911.145	4329
911.259	4284
911.374	4375
911.489	4295
911.604	4310
911.718	4150
911.833	4200
911.947	4074
912.062	4036
912.176	4223
912.291	4246
912.405	4249
912.519	4470
912.633	4481
912.748	4375
912.862	4329
912.976	4185
913.09	4112
913.204	4173
913.318	4230
913.431	4383
913.545	4356
913.659	4409
913.772	4356
913.886	4246
914	4219
914.113	4383
914.226	4447
914.34	4398
914.453	4211
914.566	4394
914.68	4329
914.793	4352
914.906	4169
915.019	4120
915.132	4101
915.245	4166
915.358	4223
915.47	4253
915.583	4234
915.696	4287
915.809	4466
915.921	4447
916.034	4272
916.146	4276
916.259	4207
916.371	4375
916.483	4386
916.595	4261
916.708	4333
916.82	4329
916.932	4325
917.044	4337
917.156	4322
917.268	4211
917.38	4299
917.491	4314
917.603	4360
917.715	4413
917.826	4409
917.938	4314
918.049	4211
918.161	4390
918.272	4554
918.384	4538
918.495	4432
918.606	4265
918.717	4204
918.828	4352
918.939	4276
919.05	4223
919.161	4356
919.272	4120
919.383	4257
919.494	4405
919.604	4653
919.715	4394
919.826	4375
919.936	4390
920.047	4527
920.157	4459
920.267	4694
920.378	4577
920.488	4512
920.598	4702
920.708	4892
920.818	4755
920.928	4809
921.038	4965
921.148	4915
921.258	4649
921.368	4603
921.477	4466
921.587	4485
921.697	4421
921.806	4512
921.916	4455
922.025	4272
922.134	4268
922.244	4257
922.353	4344
922.462	4196
922.571	4135
922.68	4010
922.789	3979
922.898	4029
923.007	3964
923.116	4097
923.224	4048
923.333	4093
923.442	3953
923.55	4010
923.659	4036
923.767	4128
923.876	3975
923.984	4109
924.092	3979
924.201	4040
924.309	4082
924.417	4162
924.525	4048
924.633	4116
924.741	5033
924.849	3903
924.956	4109
925.064	3945
925.172	3880
925.279	3960
925.387	4093
925.494	4002
925.602	4158
925.709	4177
925.816	4006
925.924	4082
926.031	4230
926.138	4177
926.245	4207
926.352	4074
926.459	4246
926.566	4299
926.673	4200
926.779	4063
926.886	4044
926.993	3964
927.099	3892
927.206	3960
927.312	3918
927.419	4017
927.525	4086
927.631	4109
927.737	3949
927.843	3953
927.95	3842
928.056	3911
928.162	3994
928.267	4063
928.373	4603
928.479	4120
928.585	3873
928.69	3983
928.796	4071
928.901	3960
929.007	3827
929.112	3987
929.218	3987
929.323	3956
929.428	3896
929.533	4093
929.638	3915
929.743	3991
929.848	4048
929.953	3983
930.058	3934
930.163	3770
930.267	3869
930.372	4021
930.477	3804
930.581	4082
930.685	3949
930.79	3800
930.894	3869
930.998	3854
931.103	4025
931.207	3732
931.311	3671
931.415	3641
931.519	3530
931.623	3591
