Data from test_V78500241_1318.txt Node
Date: Fri Mar 25 16:58:09 CST 2022
User: usil
Spectrometer: V785-0024
Trigger mode: 0
Integration Time (sec): 4.000000E-1
Scans to average: 1
Nonlinearity correction enabled: false
Boxcar width: 0
Storing dark spectrum: false
XAxis mode: Wavelengths
Number of Pixels in Spectrum: 1024
>>>>>Begin Spectral Data<<<<<
801.071	8024
801.214	8024
801.356	7818
801.499	7811
801.641	7723
801.783	7753
801.926	7902
802.068	7879
802.211	7944
802.353	7959
802.496	7860
802.638	7906
802.78	7917
802.923	7955
803.065	7875
803.208	7860
803.35	7986
803.492	8103
803.635	8138
803.777	7993
803.919	8119
804.061	8480
804.204	8157
804.346	8050
804.488	7932
804.63	8161
804.773	8016
804.915	8077
805.057	8282
805.199	8183
805.341	8172
805.483	8294
805.626	8183
805.768	8157
805.91	8142
806.052	8195
806.194	8145
806.336	8244
806.478	8031
806.62	8103
806.762	8153
806.904	8229
807.046	8492
807.188	8351
807.33	8195
807.472	8347
807.614	8172
807.756	8172
807.898	8054
808.04	7906
808.182	7883
808.324	7898
808.465	7970
808.607	8039
808.749	8065
808.891	8180
809.033	8317
809.174	8130
809.316	8008
809.458	8088
809.6	8001
809.741	8005
809.883	8088
810.025	8134
810.166	8073
810.308	8084
810.45	7974
810.591	7913
810.733	7734
810.875	7666
811.016	7548
811.158	7518
811.299	7636
811.441	7731
811.582	7677
811.724	7537
811.865	7521
812.007	7586
812.148	7582
812.29	7544
812.431	7708
812.573	7887
812.714	7932
812.855	8092
812.997	8214
813.138	8343
813.279	8225
813.421	8054
813.562	8005
813.703	7856
813.845	7742
813.986	7453
814.127	7202
814.268	7209
814.41	7221
814.551	7129
814.692	7164
814.833	7053
814.974	7061
815.115	7084
815.256	6932
815.397	6962
815.539	6928
815.68	6757
815.821	6818
815.962	6802
816.103	6829
816.244	6688
816.385	6593
816.526	6578
816.666	6467
816.807	6258
816.948	6422
817.089	6467
817.23	6407
817.371	6361
817.512	6365
817.653	6388
817.793	6342
817.934	6372
818.075	6517
818.216	6418
818.356	6399
818.497	6121
818.638	6072
818.778	6239
818.919	6068
819.06	6110
819.2	6300
819.341	6350
819.481	6323
819.622	6479
819.762	6745
819.903	6738
820.043	6563
820.184	6551
820.324	6601
820.465	6711
820.605	6677
820.746	6597
820.886	6506
821.026	6627
821.167	6654
821.307	6791
821.447	6711
821.588	6616
821.728	6525
821.868	6483
822.008	6365
822.149	6399
822.289	6365
822.429	6197
822.569	6076
822.709	6117
822.849	5992
822.99	5874
823.13	5946
823.27	5927
823.41	5866
823.55	5809
823.69	5741
823.83	5828
823.97	5676
824.11	5596
824.25	5562
824.389	5551
824.529	5566
824.669	5547
824.809	5615
824.949	5722
825.089	5699
825.228	5592
825.368	5372
825.508	5383
825.648	5383
825.787	5425
825.927	5345
826.067	5337
826.206	5303
826.346	5448
826.485	5421
826.625	5440
826.765	5524
826.904	5497
827.044	5258
827.183	5299
827.323	5170
827.462	5269
827.601	5189
827.741	5303
827.88	5254
828.02	5113
828.159	5326
828.298	5383
828.437	5345
828.577	5296
828.716	5501
828.855	5330
828.994	5201
829.134	5155
829.273	5208
829.412	5143
829.551	5193
829.69	5189
829.829	5280
829.968	5360
830.107	5296
830.246	5299
830.385	5235
830.524	5140
830.663	5090
830.802	5003
830.941	4919
831.08	4896
831.219	5003
831.357	4984
831.496	5181
831.635	4949
831.774	4892
831.913	4870
832.051	4778
832.19	4752
832.329	4847
832.467	4714
832.606	4683
832.744	4782
832.883	4763
833.022	4744
833.16	4786
833.299	4797
833.437	4809
833.576	4824
833.714	4847
833.852	4839
833.991	4911
834.129	4949
834.267	4942
834.406	4938
834.544	5037
834.682	4991
834.821	5075
834.959	5159
835.097	5006
835.235	5189
835.373	5121
835.511	5098
835.65	5037
835.788	5048
835.926	4923
836.064	4934
836.202	4946
836.34	5174
836.478	5299
836.615	5124
836.753	5250
836.891	5254
837.029	5303
837.167	5277
837.305	5197
837.443	5185
837.58	5045
837.718	5307
837.856	5242
837.993	5162
838.131	5239
838.269	5265
838.406	5227
838.544	5216
838.681	5083
838.819	5079
838.956	4930
839.094	4934
839.231	5018
839.369	5094
839.506	5440
839.643	5299
839.781	5102
839.918	5086
840.055	5124
840.193	5109
840.33	5151
840.467	5132
840.604	5212
840.742	5414
840.879	5102
841.016	5048
841.153	5197
841.29	5402
841.427	5330
841.564	5360
841.701	5372
841.838	5303
841.975	5227
842.112	5273
842.249	5170
842.385	5132
842.522	5398
842.659	5174
842.796	5174
842.933	5193
843.069	5151
843.206	5143
843.343	5330
843.479	5284
843.616	5322
843.752	5056
843.889	5052
844.025	5280
844.162	5018
844.298	5265
844.435	5147
844.571	5094
844.708	5231
844.844	5322
844.98	5353
845.117	5288
845.253	5124
845.389	5128
845.525	5159
845.661	5143
845.798	5041
845.934	5124
846.07	5060
846.206	5181
846.342	5277
846.478	5201
846.614	5045
846.75	4980
846.886	4930
847.022	5201
847.158	5048
847.294	5105
847.429	5090
847.565	5128
847.701	5368
847.837	4896
847.972	4805
848.108	4911
848.244	4961
848.379	4812
848.515	4733
848.65	4687
848.786	4755
848.921	4812
849.057	4934
849.192	4942
849.328	4828
849.463	4847
849.598	4752
849.734	4778
849.869	4729
850.004	4634
850.14	4687
850.275	4656
850.41	4573
850.545	4599
850.68	4622
850.815	4596
850.95	4653
851.085	4873
851.22	4771
851.355	4679
851.49	4641
851.625	4698
851.76	4683
851.895	4546
852.03	4569
852.165	4637
852.299	4755
852.434	4816
852.569	4740
852.703	4816
852.838	4862
852.973	4972
853.107	4934
853.242	4733
853.376	4668
853.511	4542
853.645	4592
853.78	4820
853.914	4771
854.048	4649
854.183	4641
854.317	4725
854.451	4828
854.585	4691
854.72	4649
854.854	4759
854.988	4626
855.122	4668
855.256	4558
855.39	4736
855.524	4793
855.658	4706
855.792	4687
855.926	4767
856.06	4820
856.194	4828
856.327	4744
856.461	4653
856.595	4668
856.729	4637
856.862	4774
856.996	4740
857.13	4744
857.263	4717
857.397	4809
857.53	4653
857.664	4759
857.797	4805
857.931	4809
858.064	4694
858.197	4771
858.331	4687
858.464	4634
858.597	4504
858.731	4622
858.864	4649
858.997	4664
859.13	4656
859.263	4683
859.396	4687
859.529	4611
859.662	4554
859.795	4550
859.928	4656
860.061	4748
860.194	4774
860.327	4653
860.46	4588
860.592	4736
860.725	4771
860.858	4759
860.99	4637
861.123	4512
861.256	4527
861.388	4599
861.521	5147
861.653	4497
861.786	4424
861.918	4504
862.05	4512
862.183	4554
862.315	4637
862.447	4664
862.58	4554
862.712	4451
862.844	4348
862.976	4470
863.108	4474
863.24	4915
863.372	4398
863.504	4413
863.636	4443
863.768	4561
863.9	4451
864.032	4390
864.164	4421
864.296	4447
864.428	4596
864.559	4550
864.691	4508
864.823	4512
864.954	4558
865.086	4542
865.217	4493
865.349	4443
865.48	4504
865.612	4455
865.743	4637
865.875	4478
866.006	4417
866.137	4413
866.269	4436
866.4	4481
866.531	4405
866.662	4402
866.793	4443
866.924	4428
867.055	4485
867.186	4474
867.317	4405
867.448	4394
867.579	4383
867.71	4402
867.841	4402
867.972	4466
868.103	4470
868.233	4462
868.364	4455
868.495	4512
868.625	4702
868.756	4759
868.886	4615
869.017	4615
869.147	4820
869.278	4778
869.408	4714
869.539	4641
869.669	4744
869.799	4626
869.929	4702
870.06	4774
870.19	4980
870.32	4904
870.45	4965
870.58	5010
870.71	5151
870.84	5071
870.97	4968
871.1	4930
871.23	5121
871.36	5147
871.489	5029
871.619	5048
871.749	5060
871.879	5159
872.008	5181
872.138	5083
872.267	4987
872.397	4870
872.526	4805
872.656	4683
872.785	4847
872.915	4957
873.044	5052
873.173	4976
873.303	4938
873.432	4946
873.561	4942
873.69	4930
873.819	4877
873.948	4923
874.077	4801
874.206	4793
874.335	4847
874.464	4968
874.593	5102
874.722	4930
874.851	5121
874.979	5067
875.108	5083
875.237	4930
875.365	4858
875.494	4850
875.623	4930
875.751	4816
875.88	4885
876.008	5014
876.136	5064
876.265	5162
876.393	5364
876.521	5246
876.65	5254
876.778	5181
876.906	5060
877.034	4999
877.162	5113
877.29	5010
877.418	5014
877.546	5060
877.674	4984
877.802	5025
877.93	4999
878.058	4938
878.185	4862
878.313	4980
878.441	4953
878.568	4812
878.696	4900
878.824	4949
878.951	5048
879.079	5147
879.206	5322
879.333	5140
879.461	4995
879.588	4980
879.715	5109
879.842	5246
879.97	4968
880.097	4858
880.224	4759
880.351	4858
880.478	4755
880.605	4820
880.732	4778
880.859	5128
880.986	4873
881.112	4949
881.239	4755
881.366	4672
881.493	4622
881.619	4569
881.746	4672
881.872	4672
881.999	4660
882.125	4710
882.252	4790
882.378	4839
882.505	4965
882.631	4831
882.757	4653
882.883	4706
883.01	4778
883.136	4649
883.262	4683
883.388	4653
883.514	4809
883.64	4843
883.766	4809
883.892	4675
884.018	4740
884.143	4866
884.269	5033
884.395	4672
884.52	4615
884.646	4691
884.772	4611
884.897	4599
885.023	4637
885.148	4805
885.274	4854
885.399	4828
885.524	4763
885.65	4736
885.775	4748
885.9	4683
886.025	4889
886.15	4801
886.275	4714
886.4	4717
886.525	4733
886.65	4710
886.775	4736
886.9	4930
887.025	5086
887.149	4831
887.274	4634
887.399	4592
887.523	4599
887.648	4626
887.773	4561
887.897	4771
888.021	4793
888.146	4675
888.27	4786
888.395	4911
888.519	4820
888.643	4858
888.767	4797
888.891	4668
889.015	4626
889.139	4622
889.263	4603
889.387	4721
889.511	4839
889.635	4774
889.759	4653
889.883	4656
890.006	4702
890.13	4843
890.254	4634
890.377	4702
890.501	4508
890.624	4569
890.748	4641
890.871	4538
890.995	4455
891.118	4405
891.241	4508
891.364	4550
891.488	4596
891.611	4474
891.734	4550
891.857	4611
891.98	4531
892.103	4653
892.226	4561
892.349	4558
892.471	4421
892.594	4588
892.717	4577
892.839	4573
892.962	4588
893.085	4660
893.207	4584
893.33	4474
893.452	4519
893.575	4603
893.697	4588
893.819	4809
893.941	4812
894.064	4733
894.186	4580
894.308	4592
894.43	4748
894.552	4854
894.674	4733
894.796	4584
894.918	4558
895.04	4584
895.161	4702
895.283	4672
895.405	4531
895.526	4622
895.648	4675
895.769	4653
895.891	4744
896.012	4755
896.134	4752
896.255	4698
896.376	4664
896.498	4626
896.619	4679
896.74	4634
896.861	4675
896.982	4889
897.103	5064
897.224	4854
897.345	4729
897.466	4664
897.587	4721
897.708	4862
897.828	4816
897.949	4691
898.07	4554
898.19	4656
898.311	4793
898.431	4706
898.552	4691
898.672	4805
898.792	4721
898.913	4797
899.033	4592
899.153	4508
899.273	4478
899.393	4596
899.513	4531
899.633	4546
899.753	4558
899.873	4493
899.993	4611
900.113	4546
900.232	4577
900.352	4538
900.472	4500
900.591	4398
900.711	4485
900.83	4363
900.95	4592
901.069	4672
901.189	4519
901.308	4375
901.427	4360
901.546	4371
901.665	4546
901.784	4523
901.904	4386
902.023	4306
902.141	4139
902.26	4215
902.379	4379
902.498	4268
902.617	4215
902.735	4375
902.854	4443
902.973	4344
903.091	4242
903.21	4215
903.328	4310
903.446	4310
903.565	4268
903.683	4363
903.801	4265
903.919	4371
904.038	4436
904.156	4287
904.274	4432
904.392	4405
904.51	4409
904.627	4455
904.745	4599
904.863	4630
904.981	4405
905.098	4306
905.216	4322
905.334	4405
905.451	4379
905.569	4451
905.686	4569
905.803	4569
905.921	4390
906.038	4554
906.155	4478
906.272	4443
906.389	4428
906.506	4402
906.623	4386
906.74	4379
906.857	4329
906.974	4352
907.091	4546
907.208	4656
907.324	4546
907.441	4489
907.557	4337
907.674	4322
907.79	4314
907.907	4367
908.023	4481
908.139	4500
908.256	4424
908.372	4447
908.488	4474
908.604	4348
908.72	4325
908.836	4398
908.952	4394
909.068	4440
909.184	4550
909.3	4459
909.415	4542
909.531	4554
909.647	4356
909.762	4371
909.878	4322
909.993	4470
910.108	4417
910.224	4409
910.339	4489
910.454	4402
910.57	4360
910.685	4303
910.8	4622
910.915	4596
911.03	4497
911.145	4363
911.259	4314
911.374	4379
911.489	4325
911.604	4291
911.718	4162
911.833	4177
911.947	4124
912.062	4021
912.176	4196
912.291	4261
912.405	4310
912.519	4413
912.633	4542
912.748	4383
912.862	4348
912.976	4181
913.09	4116
913.204	4173
913.318	4230
913.431	4360
913.545	4360
913.659	4432
913.772	4375
913.886	4246
914	4215
914.113	4421
914.226	4398
914.34	4424
914.453	4253
914.566	4402
914.68	4299
914.793	4314
914.906	4169
915.019	4105
915.132	4086
915.245	4196
915.358	4204
915.47	4177
915.583	4253
915.696	4314
915.809	4424
915.921	4383
916.034	4257
916.146	4299
916.259	4215
916.371	4375
916.483	4379
916.595	4265
916.708	4303
916.82	4299
916.932	4329
917.044	4337
917.156	4333
917.268	4238
917.38	4249
917.491	4246
917.603	4360
917.715	4440
917.826	4462
917.938	4371
918.049	4246
918.161	4367
918.272	4508
918.384	4542
918.495	4493
918.606	4322
918.717	4230
918.828	4322
918.939	4394
919.05	4238
919.161	4322
919.272	4124
919.383	4253
919.494	4447
919.604	4577
919.715	4417
919.826	4306
919.936	4375
920.047	4527
920.157	4519
920.267	4698
920.378	4542
920.488	4519
920.598	4691
920.708	4877
920.818	4740
920.928	4710
921.038	4892
921.148	4885
921.258	4607
921.368	4554
921.477	4470
921.587	4413
921.697	4367
921.806	4493
921.916	4375
922.025	4219
922.134	4230
922.244	4219
922.353	4310
922.462	4196
922.571	4154
922.68	3994
922.789	3960
922.898	4036
923.007	3998
923.116	4139
923.224	4055
923.333	4048
923.442	3991
923.55	3983
923.659	4021
923.767	4086
923.876	4051
923.984	4143
924.092	3945
924.201	4074
924.309	4093
924.417	4101
924.525	4071
924.633	4078
924.741	4923
924.849	3918
924.956	4101
925.064	3960
925.172	3899
925.279	3926
925.387	4032
925.494	4101
925.602	4177
925.709	4173
925.816	4051
925.924	4147
926.031	4265
926.138	4188
926.245	4173
926.352	4059
926.459	4238
926.566	4287
926.673	4082
926.779	4078
926.886	4067
926.993	3911
927.099	3956
927.206	3945
927.312	3899
927.419	4055
927.525	4006
927.631	4105
927.737	3930
927.843	3934
927.95	3854
928.056	3983
928.162	3949
928.267	4010
928.373	4721
928.479	4105
928.585	3846
928.69	3964
928.796	4109
928.901	3960
929.007	3823
929.112	4017
929.218	3945
929.323	3922
929.428	3956
929.533	4074
929.638	3915
929.743	3964
929.848	4036
929.953	4021
930.058	3930
930.163	3774
930.267	3838
930.372	3983
930.477	3819
930.581	4109
930.685	3941
930.79	3812
930.894	3915
930.998	3827
931.103	4017
931.207	3751
931.311	3728
931.415	3698
931.519	3481
931.623	3568
