Data from test_V78500241_2222.txt Node
Date: Fri Mar 25 17:04:27 CST 2022
User: usil
Spectrometer: V785-0024
Trigger mode: 0
Integration Time (sec): 4.000000E-1
Scans to average: 1
Nonlinearity correction enabled: false
Boxcar width: 0
Storing dark spectrum: false
XAxis mode: Wavelengths
Number of Pixels in Spectrum: 1024
>>>>>Begin Spectral Data<<<<<
801.071	8016
801.214	7986
801.356	7799
801.499	7887
801.641	7700
801.783	7792
801.926	7959
802.068	7879
802.211	7959
802.353	7989
802.496	7860
802.638	7871
802.78	7837
802.923	7830
803.065	7826
803.208	7879
803.35	7909
803.492	8096
803.635	8130
803.777	8046
803.919	8123
804.061	8389
804.204	8218
804.346	8069
804.488	7955
804.63	8107
804.773	7989
804.915	8134
805.057	8286
805.199	8149
805.341	8229
805.483	8248
805.626	8259
805.768	8088
805.91	8248
806.052	8229
806.194	8077
806.336	8313
806.478	8043
806.62	8027
806.762	8145
806.904	8271
807.046	8404
807.188	8320
807.33	8286
807.472	8377
807.614	8199
807.756	8153
807.898	8024
808.04	7860
808.182	7818
808.324	7890
808.465	7894
808.607	8088
808.749	8107
808.891	8214
809.033	8237
809.174	8195
809.316	8103
809.458	8054
809.6	7932
809.741	8084
809.883	8039
810.025	8043
810.166	8058
810.308	8005
810.45	8016
810.591	7894
810.733	7761
810.875	7647
811.016	7491
811.158	7464
811.299	7487
811.441	7647
811.582	7670
811.724	7552
811.865	7556
812.007	7632
812.148	7601
812.29	7647
812.431	7693
812.573	7898
812.714	7959
812.855	8164
812.997	8183
813.138	8317
813.279	8134
813.421	7974
813.562	7917
813.703	7841
813.845	7734
813.986	7453
814.127	7247
814.268	7145
814.41	7107
814.551	7152
814.692	7244
814.833	7145
814.974	7152
815.115	7133
815.256	6966
815.397	6935
815.539	6947
815.68	6776
815.821	6722
815.962	6810
816.103	6795
816.244	6741
816.385	6574
816.526	6566
816.666	6498
816.807	6319
816.948	6433
817.089	6494
817.23	6426
817.371	6327
817.512	6384
817.653	6399
817.793	6331
817.934	6429
818.075	6456
818.216	6410
818.356	6448
818.497	6262
818.638	6140
818.778	6117
818.919	6098
819.06	6121
819.2	6327
819.341	6296
819.481	6372
819.622	6513
819.762	6719
819.903	6692
820.043	6574
820.184	6566
820.324	6616
820.465	6654
820.605	6741
820.746	6673
820.886	6528
821.026	6688
821.167	6654
821.307	6844
821.447	6715
821.588	6696
821.728	6525
821.868	6456
822.008	6281
822.149	6433
822.289	6346
822.429	6133
822.569	6083
822.709	6148
822.849	5923
822.99	5916
823.13	5923
823.27	5931
823.41	5752
823.55	5805
823.69	5775
823.83	5779
823.97	5661
824.11	5554
824.25	5535
824.389	5630
824.529	5543
824.669	5524
824.809	5608
824.949	5642
825.089	5592
825.228	5486
825.368	5417
825.508	5376
825.648	5337
825.787	5349
825.927	5341
826.067	5330
826.206	5269
826.346	5299
826.485	5398
826.625	5398
826.765	5535
826.904	5516
827.044	5239
827.183	5178
827.323	5166
827.462	5227
827.601	5185
827.741	5143
827.88	5197
828.02	5098
828.159	5296
828.298	5261
828.437	5330
828.577	5235
828.716	5459
828.855	5296
828.994	5197
829.134	5162
829.273	5216
829.412	5128
829.551	5155
829.69	5147
829.829	5246
829.968	5406
830.107	5265
830.246	5269
830.385	5189
830.524	5079
830.663	5067
830.802	5014
830.941	4831
831.08	4839
831.219	4999
831.357	4942
831.496	5216
831.635	4919
831.774	4824
831.913	4801
832.051	4744
832.19	4744
832.329	4877
832.467	4702
832.606	4580
832.744	4763
832.883	4725
833.022	4717
833.16	4820
833.299	4820
833.437	4816
833.576	4805
833.714	4858
833.852	4858
833.991	4919
834.129	5037
834.267	4980
834.406	4911
834.544	4957
834.682	4972
834.821	4961
834.959	5162
835.097	5037
835.235	5181
835.373	5056
835.511	5113
835.65	5029
835.788	5018
835.926	4904
836.064	4816
836.202	4885
836.34	5178
836.478	5258
836.615	5140
836.753	5178
836.891	5299
837.029	5231
837.167	5185
837.305	5174
837.443	5086
837.58	5071
837.718	5239
837.856	5189
837.993	5124
838.131	5231
838.269	5201
838.406	5197
838.544	5140
838.681	5029
838.819	5041
838.956	4862
839.094	4934
839.231	4953
839.369	5105
839.506	5402
839.643	5189
839.781	5029
839.918	4991
840.055	5079
840.193	5102
840.33	5140
840.467	5136
840.604	5201
840.742	5436
840.879	5052
841.016	5056
841.153	5132
841.29	5353
841.427	5284
841.564	5299
841.701	5345
841.838	5277
841.975	5258
842.112	5239
842.249	5140
842.385	5105
842.522	5330
842.659	5140
842.796	5128
842.933	5193
843.069	5178
843.206	5147
843.343	5277
843.479	5193
843.616	5258
843.752	5025
843.889	4968
844.025	5208
844.162	5006
844.298	5258
844.435	5060
844.571	5113
844.708	5166
844.844	5299
844.98	5353
845.117	5322
845.253	5159
845.389	5083
845.525	5102
845.661	5166
845.798	5037
845.934	5128
846.07	5041
846.206	5166
846.342	5307
846.478	5178
846.614	5003
846.75	4919
846.886	4919
847.022	5147
847.158	5075
847.294	5010
847.429	5143
847.565	5037
847.701	5284
847.837	4835
847.972	4805
848.108	4930
848.244	4908
848.379	4763
848.515	4748
848.65	4740
848.786	4729
848.921	4759
849.057	4885
849.192	4904
849.328	4809
849.463	4828
849.598	4771
849.734	4771
849.869	4691
850.004	4630
850.14	4683
850.275	4584
850.41	4508
850.545	4546
850.68	4599
850.815	4622
850.95	4653
851.085	4824
851.22	4774
851.355	4645
851.49	4607
851.625	4615
851.76	4637
851.895	4554
852.03	4531
852.165	4675
852.299	4717
852.434	4767
852.569	4793
852.703	4767
852.838	4843
852.973	4957
853.107	4900
853.242	4656
853.376	4592
853.511	4535
853.645	4664
853.78	4797
853.914	4679
854.048	4634
854.183	4573
854.317	4698
854.451	4793
854.585	4706
854.72	4656
854.854	4748
854.988	4554
855.122	4603
855.256	4531
855.39	4649
855.524	4710
855.658	4733
855.792	4668
855.926	4721
856.06	4778
856.194	4790
856.327	4702
856.461	4569
856.595	4622
856.729	4668
856.862	4710
856.996	4687
857.13	4740
857.263	4759
857.397	4786
857.53	4645
857.664	4698
857.797	4744
857.931	4755
858.064	4675
858.197	4694
858.331	4672
858.464	4599
858.597	4542
858.731	4565
858.864	4599
858.997	4573
859.13	4664
859.263	4649
859.396	4679
859.529	4596
859.662	4584
859.795	4535
859.928	4596
860.061	4778
860.194	4763
860.327	4603
860.46	4569
860.592	4725
860.725	4721
860.858	4672
860.99	4554
861.123	4516
861.256	4519
861.388	4599
861.521	5303
861.653	4470
861.786	4409
861.918	4455
862.05	4519
862.183	4550
862.315	4561
862.447	4626
862.58	4577
862.712	4432
862.844	4333
862.976	4421
863.108	4489
863.24	4843
863.372	4322
863.504	4394
863.636	4405
863.768	4466
863.9	4447
864.032	4363
864.164	4432
864.296	4459
864.428	4516
864.559	4546
864.691	4531
864.823	4508
864.954	4523
865.086	4481
865.217	4470
865.349	4413
865.48	4428
865.612	4470
865.743	4618
865.875	4459
866.006	4440
866.137	4493
866.269	4459
866.4	4443
866.531	4402
866.662	4402
866.793	4356
866.924	4375
867.055	4504
867.186	4440
867.317	4394
867.448	4375
867.579	4390
867.71	4417
867.841	4386
867.972	4443
868.103	4462
868.233	4455
868.364	4432
868.495	4428
868.625	4656
868.756	4729
868.886	4596
869.017	4622
869.147	4721
869.278	4755
869.408	4603
869.539	4645
869.669	4744
869.799	4649
869.929	4755
870.06	4717
870.19	4980
870.32	4942
870.45	4995
870.58	4968
870.71	5090
870.84	5075
870.97	4942
871.1	4877
871.23	5124
871.36	5090
871.489	5018
871.619	5102
871.749	5075
871.879	5143
872.008	5181
872.138	5048
872.267	4965
872.397	4835
872.526	4824
872.656	4744
872.785	4805
872.915	5010
873.044	5045
873.173	4915
873.303	4953
873.432	4984
873.561	4938
873.69	4892
873.819	4877
873.948	4870
874.077	4828
874.206	4714
874.335	4790
874.464	4911
874.593	5003
874.722	4957
874.851	5086
874.979	5052
875.108	5025
875.237	4866
875.365	4892
875.494	4904
875.623	4968
875.751	4805
875.88	4885
876.008	4965
876.136	4976
876.265	5201
876.393	5341
876.521	5273
876.65	5201
876.778	5185
876.906	5064
877.034	5060
877.162	5010
877.29	5006
877.418	5067
877.546	5010
877.674	5045
877.802	5079
877.93	5037
878.058	4892
878.185	4870
878.313	4991
878.441	4961
878.568	4831
878.696	4866
878.824	4934
878.951	4999
879.079	5105
879.206	5223
879.333	5083
879.461	4877
879.588	4987
879.715	5090
879.842	5258
879.97	4984
880.097	4812
880.224	4786
880.351	4820
880.478	4831
880.605	4767
880.732	4801
880.859	5086
880.986	4854
881.112	4892
881.239	4793
881.366	4626
881.493	4603
881.619	4630
881.746	4622
881.872	4603
881.999	4599
882.125	4641
882.252	4790
882.378	4847
882.505	4972
882.631	4797
882.757	4698
882.883	4706
883.01	4729
883.136	4679
883.262	4611
883.388	4615
883.514	4816
883.64	4873
883.766	4805
883.892	4664
884.018	4786
884.143	4881
884.269	5029
884.395	4660
884.52	4573
884.646	4596
884.772	4546
884.897	4531
885.023	4668
885.148	4824
885.274	4828
885.399	4828
885.524	4755
885.65	4672
885.775	4778
885.9	4744
886.025	4782
886.15	4809
886.275	4744
886.4	4607
886.525	4729
886.65	4694
886.775	4630
886.9	4881
887.025	5025
887.149	4805
887.274	4668
887.399	4611
887.523	4561
887.648	4607
887.773	4645
887.897	4774
888.021	4774
888.146	4694
888.27	4774
888.395	4889
888.519	4797
888.643	4767
888.767	4847
888.891	4656
889.015	4565
889.139	4656
889.263	4615
889.387	4763
889.511	4911
889.635	4801
889.759	4603
889.883	4649
890.006	4740
890.13	4816
890.254	4618
890.377	4645
890.501	4523
890.624	4519
890.748	4656
890.871	4500
890.995	4421
891.118	4367
891.241	4466
891.364	4542
891.488	4622
891.611	4481
891.734	4516
891.857	4588
891.98	4523
892.103	4634
892.226	4599
892.349	4459
892.471	4432
892.594	4497
892.717	4561
892.839	4580
892.962	4565
893.085	4664
893.207	4542
893.33	4440
893.452	4512
893.575	4653
893.697	4550
893.819	4774
893.941	4805
894.064	4759
894.186	4538
894.308	4508
894.43	4683
894.552	4778
894.674	4736
894.796	4569
894.918	4599
895.04	4538
895.161	4675
895.283	4622
895.405	4603
895.526	4603
895.648	4679
895.769	4672
895.891	4679
896.012	4698
896.134	4691
896.255	4618
896.376	4584
896.498	4618
896.619	4668
896.74	4611
896.861	4622
896.982	4911
897.103	5037
897.224	4812
897.345	4755
897.466	4668
897.587	4694
897.708	4877
897.828	4778
897.949	4698
898.07	4603
898.19	4611
898.311	4858
898.431	4675
898.552	4748
898.672	4812
898.792	4767
898.913	4740
899.033	4622
899.153	4497
899.273	4500
899.393	4516
899.513	4527
899.633	4512
899.753	4569
899.873	4516
899.993	4561
900.113	4599
900.232	4584
900.352	4531
900.472	4481
900.591	4432
900.711	4523
900.83	4443
900.95	4637
901.069	4687
901.189	4535
901.308	4402
901.427	4329
901.546	4398
901.665	4478
901.784	4538
901.904	4413
902.023	4363
902.141	4185
902.26	4188
902.379	4356
902.498	4287
902.617	4291
902.735	4405
902.854	4474
902.973	4367
903.091	4257
903.21	4253
903.328	4344
903.446	4310
903.565	4360
903.683	4402
903.801	4325
903.919	4432
904.038	4474
904.156	4337
904.274	4470
904.392	4413
904.51	4504
904.627	4527
904.745	4653
904.863	4675
904.981	4409
905.098	4341
905.216	4432
905.334	4481
905.451	4466
905.569	4462
905.686	4611
905.803	4592
905.921	4462
906.038	4519
906.155	4512
906.272	4462
906.389	4478
906.506	4390
906.623	4405
906.74	4451
906.857	4367
906.974	4383
907.091	4626
907.208	4736
907.324	4615
907.441	4550
907.557	4383
907.674	4383
907.79	4348
907.907	4402
908.023	4538
908.139	4504
908.256	4478
908.372	4478
908.488	4447
908.604	4417
908.72	4367
908.836	4417
908.952	4383
909.068	4428
909.184	4607
909.3	4504
909.415	4599
909.531	4573
909.647	4443
909.762	4386
909.878	4383
909.993	4459
910.108	4436
910.224	4470
910.339	4554
910.454	4424
910.57	4421
910.685	4333
910.8	4672
910.915	4687
911.03	4512
911.145	4325
911.259	4367
911.374	4394
911.489	4322
911.604	4306
911.718	4230
911.833	4238
911.947	4097
912.062	4025
912.176	4223
912.291	4261
912.405	4325
912.519	4493
912.633	4523
912.748	4413
912.862	4325
912.976	4249
913.09	4135
913.204	4185
913.318	4333
913.431	4394
913.545	4409
913.659	4500
913.772	4424
913.886	4249
914	4295
914.113	4379
914.226	4451
914.34	4409
914.453	4295
914.566	4436
914.68	4325
914.793	4390
914.906	4150
915.019	4143
915.132	4135
915.245	4169
915.358	4207
915.47	4299
915.583	4322
915.696	4325
915.809	4375
915.921	4405
916.034	4291
916.146	4261
916.259	4227
916.371	4421
916.483	4390
916.595	4284
916.708	4314
916.82	4325
916.932	4337
917.044	4360
917.156	4348
917.268	4268
917.38	4295
917.491	4291
917.603	4402
917.715	4432
917.826	4474
917.938	4344
918.049	4291
918.161	4394
918.272	4527
918.384	4561
918.495	4485
918.606	4337
918.717	4276
918.828	4360
918.939	4383
919.05	4253
919.161	4341
919.272	4177
919.383	4268
919.494	4466
919.604	4641
919.715	4428
919.826	4386
919.936	4440
920.047	4569
920.157	4561
920.267	4717
920.378	4618
920.488	4535
920.598	4748
920.708	4968
920.818	4774
920.928	4755
921.038	4968
921.148	4911
921.258	4660
921.368	4584
921.477	4504
921.587	4474
921.697	4459
921.806	4577
921.916	4485
922.025	4314
922.134	4303
922.244	4223
922.353	4337
922.462	4219
922.571	4188
922.68	4048
922.789	3979
922.898	4040
923.007	4017
923.116	4124
923.224	4101
923.333	4143
923.442	4013
923.55	4032
923.659	4078
923.767	4188
923.876	4032
923.984	4143
924.092	4048
924.201	4067
924.309	4158
924.417	4105
924.525	4105
924.633	4109
924.741	5025
924.849	3945
924.956	4158
925.064	4010
925.172	3918
925.279	3972
925.387	4105
925.494	4063
925.602	4234
925.709	4177
925.816	4093
925.924	4124
926.031	4246
926.138	4196
926.245	4211
926.352	4109
926.459	4310
926.566	4333
926.673	4173
926.779	4101
926.886	4112
926.993	4017
927.099	3953
927.206	3972
927.312	3975
927.419	4109
927.525	4063
927.631	4097
927.737	3991
927.843	3994
927.95	3842
928.056	3937
928.162	3975
928.267	4109
928.373	4706
928.479	4139
928.585	3865
928.69	4010
928.796	4097
928.901	4002
929.007	3937
929.112	4021
929.218	3991
929.323	3930
929.428	3979
929.533	4162
929.638	3915
929.743	4025
929.848	4109
929.953	4040
930.058	3956
930.163	3804
930.267	3846
930.372	3964
930.477	3819
930.581	4105
930.685	3941
930.79	3854
930.894	3888
930.998	3884
931.103	4055
931.207	3770
931.311	3732
931.415	3679
931.519	3519
931.623	3603
