Data from test_V78500241_1326.txt Node
Date: Fri Mar 25 16:58:13 CST 2022
User: usil
Spectrometer: V785-0024
Trigger mode: 0
Integration Time (sec): 4.000000E-1
Scans to average: 1
Nonlinearity correction enabled: false
Boxcar width: 0
Storing dark spectrum: false
XAxis mode: Wavelengths
Number of Pixels in Spectrum: 1024
>>>>>Begin Spectral Data<<<<<
801.071	7974
801.214	8027
801.356	7917
801.499	7822
801.641	7792
801.783	7769
801.926	7967
802.068	7932
802.211	7955
802.353	7932
802.496	7871
802.638	7887
802.78	7875
802.923	7928
803.065	7894
803.208	7875
803.35	7913
803.492	8100
803.635	8195
803.777	8031
803.919	8168
804.061	8473
804.204	8199
804.346	8065
804.488	7963
804.63	8153
804.773	8012
804.915	8130
805.057	8328
805.199	8164
805.341	8271
805.483	8248
805.626	8229
805.768	8183
805.91	8172
806.052	8195
806.194	8119
806.336	8328
806.478	8016
806.62	7982
806.762	8183
806.904	8256
807.046	8473
807.188	8343
807.33	8271
807.472	8336
807.614	8050
807.756	8107
807.898	8035
808.04	7864
808.182	7925
808.324	7955
808.465	7925
808.607	8145
808.749	8161
808.891	8218
809.033	8286
809.174	8214
809.316	8065
809.458	8016
809.6	7970
809.741	8027
809.883	7989
810.025	8077
810.166	8069
810.308	7986
810.45	7997
810.591	7902
810.733	7727
810.875	7632
811.016	7525
811.158	7422
811.299	7601
811.441	7734
811.582	7655
811.724	7567
811.865	7518
812.007	7616
812.148	7575
812.29	7559
812.431	7719
812.573	7925
812.714	7963
812.855	8035
812.997	8164
813.138	8305
813.279	8195
813.421	8138
813.562	7978
813.703	7833
813.845	7681
813.986	7415
814.127	7232
814.268	7209
814.41	7171
814.551	7149
814.692	7183
814.833	7076
814.974	7034
815.115	7118
815.256	6958
815.397	6939
815.539	6905
815.68	6837
815.821	6806
815.962	6882
816.103	6776
816.244	6760
816.385	6559
816.526	6620
816.666	6547
816.807	6331
816.948	6391
817.089	6506
817.23	6380
817.371	6361
817.512	6365
817.653	6372
817.793	6350
817.934	6395
818.075	6410
818.216	6456
818.356	6384
818.497	6251
818.638	6133
818.778	6136
818.919	6148
819.06	6167
819.2	6338
819.341	6285
819.481	6323
819.622	6460
819.762	6700
819.903	6749
820.043	6608
820.184	6536
820.324	6612
820.465	6631
820.605	6654
820.746	6635
820.886	6513
821.026	6563
821.167	6700
821.307	6802
821.447	6753
821.588	6650
821.728	6532
821.868	6471
822.008	6292
822.149	6300
822.289	6353
822.429	6175
822.569	5999
822.709	6076
822.849	5931
822.99	5916
823.13	5942
823.27	5920
823.41	5836
823.55	5802
823.69	5775
823.83	5786
823.97	5665
824.11	5543
824.25	5490
824.389	5566
824.529	5543
824.669	5535
824.809	5573
824.949	5657
825.089	5611
825.228	5524
825.368	5315
825.508	5334
825.648	5383
825.787	5368
825.927	5379
826.067	5246
826.206	5273
826.346	5349
826.485	5360
826.625	5391
826.765	5539
826.904	5478
827.044	5235
827.183	5212
827.323	5147
827.462	5193
827.601	5155
827.741	5117
827.88	5193
828.02	5071
828.159	5246
828.298	5296
828.437	5296
828.577	5288
828.716	5471
828.855	5322
828.994	5166
829.134	5113
829.273	5174
829.412	5128
829.551	5132
829.69	5124
829.829	5246
829.968	5318
830.107	5208
830.246	5261
830.385	5128
830.524	5124
830.663	5048
830.802	4953
830.941	4881
831.08	4850
831.219	4965
831.357	4915
831.496	5121
831.635	4896
831.774	4839
831.913	4923
832.051	4721
832.19	4725
832.329	4831
832.467	4668
832.606	4630
832.744	4691
832.883	4706
833.022	4698
833.16	4778
833.299	4767
833.437	4839
833.576	4820
833.714	4839
833.852	4828
833.991	4881
834.129	4968
834.267	4949
834.406	4858
834.544	4934
834.682	4938
834.821	4930
834.959	5201
835.097	5033
835.235	5143
835.373	5071
835.511	5098
835.65	5010
835.788	5006
835.926	4847
836.064	4870
836.202	4911
836.34	5071
836.478	5235
836.615	5143
836.753	5178
836.891	5303
837.029	5212
837.167	5132
837.305	5143
837.443	5147
837.58	4995
837.718	5162
837.856	5220
837.993	5193
838.131	5227
838.269	5227
838.406	5216
838.544	5239
838.681	5010
838.819	5010
838.956	4854
839.094	4942
839.231	4934
839.369	5060
839.506	5417
839.643	5288
839.781	5052
839.918	4995
840.055	5083
840.193	5071
840.33	5121
840.467	5124
840.604	5162
840.742	5372
840.879	5067
841.016	5090
841.153	5155
841.29	5379
841.427	5318
841.564	5254
841.701	5337
841.838	5242
841.975	5178
842.112	5239
842.249	5086
842.385	5090
842.522	5292
842.659	5121
842.796	5132
842.933	5147
843.069	5094
843.206	5128
843.343	5261
843.479	5250
843.616	5277
843.752	5025
843.889	5029
844.025	5239
844.162	5006
844.298	5201
844.435	5056
844.571	5109
844.708	5170
844.844	5269
844.98	5288
845.117	5269
845.253	5102
845.389	5056
845.525	5132
845.661	5128
845.798	5048
845.934	5121
846.07	5018
846.206	5166
846.342	5261
846.478	5159
846.614	4965
846.75	4972
846.886	4927
847.022	5109
847.158	4995
847.294	5056
847.429	5086
847.565	5037
847.701	5345
847.837	4828
847.972	4767
848.108	4968
848.244	4934
848.379	4759
848.515	4710
848.65	4706
848.786	4725
848.921	4797
849.057	4843
849.192	4843
849.328	4797
849.463	4847
849.598	4774
849.734	4752
849.869	4744
850.004	4603
850.14	4645
850.275	4611
850.41	4500
850.545	4554
850.68	4584
850.815	4588
850.95	4645
851.085	4862
851.22	4763
851.355	4637
851.49	4573
851.625	4596
851.76	4626
851.895	4527
852.03	4512
852.165	4599
852.299	4683
852.434	4797
852.569	4759
852.703	4778
852.838	4835
852.973	4908
853.107	4900
853.242	4694
853.376	4660
853.511	4542
853.645	4550
853.78	4782
853.914	4637
854.048	4679
854.183	4653
854.317	4717
854.451	4858
854.585	4675
854.72	4694
854.854	4752
854.988	4611
855.122	4618
855.256	4508
855.39	4656
855.524	4771
855.658	4744
855.792	4668
855.926	4740
856.06	4771
856.194	4816
856.327	4660
856.461	4584
856.595	4618
856.729	4656
856.862	4755
856.996	4710
857.13	4706
857.263	4725
857.397	4797
857.53	4611
857.664	4725
857.797	4702
857.931	4771
858.064	4717
858.197	4752
858.331	4664
858.464	4603
858.597	4516
858.731	4603
858.864	4615
858.997	4584
859.13	4698
859.263	4687
859.396	4710
859.529	4561
859.662	4573
859.795	4497
859.928	4607
860.061	4755
860.194	4740
860.327	4611
860.46	4641
860.592	4721
860.725	4744
860.858	4725
860.99	4523
861.123	4519
861.256	4478
861.388	4603
861.521	5159
861.653	4493
861.786	4432
861.918	4409
862.05	4512
862.183	4516
862.315	4584
862.447	4634
862.58	4497
862.712	4383
862.844	4325
862.976	4455
863.108	4459
863.24	4831
863.372	4291
863.504	4436
863.636	4390
863.768	4462
863.9	4424
864.032	4398
864.164	4371
864.296	4432
864.428	4531
864.559	4538
864.691	4493
864.823	4531
864.954	4497
865.086	4527
865.217	4455
865.349	4371
865.48	4443
865.612	4527
865.743	4611
865.875	4466
866.006	4440
866.137	4424
866.269	4466
866.4	4394
866.531	4455
866.662	4386
866.793	4360
866.924	4428
867.055	4489
867.186	4451
867.317	4379
867.448	4424
867.579	4409
867.71	4379
867.841	4379
867.972	4474
868.103	4459
868.233	4398
868.364	4424
868.495	4474
868.625	4622
868.756	4694
868.886	4523
869.017	4615
869.147	4797
869.278	4801
869.408	4637
869.539	4675
869.669	4698
869.799	4607
869.929	4767
870.06	4721
870.19	4968
870.32	4889
870.45	4908
870.58	4972
870.71	5086
870.84	5079
870.97	4991
871.1	4881
871.23	5105
871.36	5052
871.489	4953
871.619	5140
871.749	5109
871.879	5079
872.008	5162
872.138	4999
872.267	4999
872.397	4809
872.526	4805
872.656	4691
872.785	4767
872.915	4942
873.044	4991
873.173	4923
873.303	4938
873.432	4904
873.561	4961
873.69	4889
873.819	4889
873.948	4904
874.077	4831
874.206	4774
874.335	4755
874.464	4934
874.593	5079
874.722	4961
874.851	5056
874.979	5056
875.108	5067
875.237	4892
875.365	4877
875.494	4843
875.623	4923
875.751	4763
875.88	4831
876.008	5014
876.136	4987
876.265	5170
876.393	5311
876.521	5280
876.65	5231
876.778	5181
876.906	5075
877.034	4999
877.162	5010
877.29	5010
877.418	5010
877.546	5014
877.674	5033
877.802	5018
877.93	5022
878.058	4908
878.185	4854
878.313	4946
878.441	4930
878.568	4809
878.696	4850
878.824	4976
878.951	4991
879.079	5086
879.206	5265
879.333	5025
879.461	4961
879.588	5003
879.715	5064
879.842	5208
879.97	4968
880.097	4816
880.224	4759
880.351	4752
880.478	4809
880.605	4771
880.732	4774
880.859	5029
880.986	4866
881.112	4957
881.239	4767
881.366	4634
881.493	4603
881.619	4569
881.746	4626
881.872	4607
881.999	4653
882.125	4679
882.252	4725
882.378	4824
882.505	4946
882.631	4809
882.757	4698
882.883	4729
883.01	4687
883.136	4622
883.262	4611
883.388	4554
883.514	4786
883.64	4793
883.766	4786
883.892	4664
884.018	4740
884.143	4850
884.269	5014
884.395	4649
884.52	4592
884.646	4615
884.772	4550
884.897	4588
885.023	4683
885.148	4778
885.274	4835
885.399	4771
885.524	4710
885.65	4733
885.775	4748
885.9	4691
886.025	4839
886.15	4771
886.275	4721
886.4	4634
886.525	4691
886.65	4687
886.775	4694
886.9	4873
887.025	5048
887.149	4782
887.274	4645
887.399	4599
887.523	4573
887.648	4554
887.773	4599
887.897	4752
888.021	4755
888.146	4649
888.27	4831
888.395	4873
888.519	4790
888.643	4790
888.767	4790
888.891	4691
889.015	4558
889.139	4584
889.263	4653
889.387	4698
889.511	4847
889.635	4714
889.759	4683
889.883	4660
890.006	4736
890.13	4828
890.254	4580
890.377	4675
890.501	4561
890.624	4493
890.748	4630
890.871	4554
890.995	4447
891.118	4421
891.241	4459
891.364	4527
891.488	4584
891.611	4497
891.734	4500
891.857	4554
891.98	4554
892.103	4630
892.226	4607
892.349	4459
892.471	4402
892.594	4535
892.717	4542
892.839	4569
892.962	4584
893.085	4645
893.207	4615
893.33	4459
893.452	4504
893.575	4656
893.697	4493
893.819	4733
893.941	4820
894.064	4771
894.186	4569
894.308	4546
894.43	4748
894.552	4801
894.674	4714
894.796	4561
894.918	4531
895.04	4577
895.161	4691
895.283	4664
895.405	4592
895.526	4660
895.648	4649
895.769	4675
895.891	4668
896.012	4702
896.134	4729
896.255	4634
896.376	4599
896.498	4588
896.619	4675
896.74	4554
896.861	4622
896.982	4900
897.103	5064
897.224	4752
897.345	4759
897.466	4573
897.587	4691
897.708	4820
897.828	4755
897.949	4679
898.07	4527
898.19	4672
898.311	4759
898.431	4733
898.552	4729
898.672	4816
898.792	4831
898.913	4748
899.033	4649
899.153	4538
899.273	4440
899.393	4538
899.513	4535
899.633	4512
899.753	4554
899.873	4504
899.993	4584
900.113	4535
900.232	4611
900.352	4538
900.472	4497
900.591	4421
900.711	4550
900.83	4459
900.95	4596
901.069	4710
901.189	4580
901.308	4402
901.427	4303
901.546	4348
901.665	4485
901.784	4512
901.904	4417
902.023	4356
902.141	4200
902.26	4207
902.379	4306
902.498	4249
902.617	4249
902.735	4363
902.854	4447
902.973	4386
903.091	4253
903.21	4280
903.328	4337
903.446	4329
903.565	4242
903.683	4405
903.801	4348
903.919	4485
904.038	4424
904.156	4375
904.274	4466
904.392	4447
904.51	4455
904.627	4523
904.745	4596
904.863	4653
904.981	4386
905.098	4318
905.216	4398
905.334	4489
905.451	4485
905.569	4519
905.686	4592
905.803	4588
905.921	4478
906.038	4599
906.155	4504
906.272	4413
906.389	4504
906.506	4333
906.623	4386
906.74	4443
906.857	4367
906.974	4383
907.091	4649
907.208	4706
907.324	4596
907.441	4519
907.557	4440
907.674	4417
907.79	4348
907.907	4451
908.023	4546
908.139	4481
908.256	4440
908.372	4440
908.488	4474
908.604	4333
908.72	4348
908.836	4386
908.952	4413
909.068	4478
909.184	4622
909.3	4485
909.415	4554
909.531	4569
909.647	4383
909.762	4421
909.878	4409
909.993	4481
910.108	4474
910.224	4432
910.339	4519
910.454	4417
910.57	4405
910.685	4341
910.8	4698
910.915	4618
911.03	4542
911.145	4398
911.259	4390
911.374	4386
911.489	4322
911.604	4276
911.718	4192
911.833	4242
911.947	4101
912.062	4071
912.176	4215
912.291	4295
912.405	4295
912.519	4485
912.633	4504
912.748	4383
912.862	4280
912.976	4265
913.09	4135
913.204	4188
913.318	4287
913.431	4405
913.545	4402
913.659	4489
913.772	4363
913.886	4253
914	4227
914.113	4405
914.226	4523
914.34	4363
914.453	4268
914.566	4455
914.68	4329
914.793	4348
914.906	4204
915.019	4188
915.132	4128
915.245	4143
915.358	4242
915.47	4265
915.583	4276
915.696	4284
915.809	4424
915.921	4440
916.034	4284
916.146	4276
916.259	4261
916.371	4398
916.483	4405
916.595	4367
916.708	4367
916.82	4363
916.932	4417
917.044	4341
917.156	4356
917.268	4253
917.38	4261
917.491	4303
917.603	4322
917.715	4459
917.826	4413
917.938	4421
918.049	4261
918.161	4398
918.272	4527
918.384	4584
918.495	4481
918.606	4291
918.717	4284
918.828	4409
918.939	4413
919.05	4287
919.161	4329
919.272	4173
919.383	4284
919.494	4462
919.604	4584
919.715	4481
919.826	4367
919.936	4432
920.047	4603
920.157	4519
920.267	4706
920.378	4558
920.488	4512
920.598	4748
920.708	4934
920.818	4759
920.928	4755
921.038	4968
921.148	4984
921.258	4649
921.368	4580
921.477	4474
921.587	4538
921.697	4390
921.806	4558
921.916	4519
922.025	4272
922.134	4280
922.244	4238
922.353	4306
922.462	4188
922.571	4128
922.68	4017
922.789	4032
922.898	4074
923.007	4029
923.116	4143
923.224	4139
923.333	4109
923.442	4025
923.55	4086
923.659	4032
923.767	4101
923.876	4067
923.984	4200
924.092	4017
924.201	4086
924.309	4124
924.417	4192
924.525	4097
924.633	4093
924.741	5041
924.849	3941
924.956	4135
925.064	3991
925.172	3968
925.279	3960
925.387	4093
925.494	4101
925.602	4246
925.709	4154
925.816	4032
925.924	4169
926.031	4215
926.138	4185
926.245	4261
926.352	4101
926.459	4265
926.566	4325
926.673	4230
926.779	4086
926.886	4139
926.993	4002
927.099	3934
927.206	3983
927.312	3964
927.419	4082
927.525	4048
927.631	4078
927.737	3998
927.843	3979
927.95	3911
928.056	3972
928.162	4036
928.267	4051
928.373	4694
928.479	4131
928.585	3892
928.69	4048
928.796	4139
928.901	4032
929.007	3865
929.112	3998
929.218	3998
929.323	3991
929.428	3983
929.533	4147
929.638	3941
929.743	4010
929.848	4010
929.953	3991
930.058	3937
930.163	3797
930.267	3842
930.372	4025
930.477	3831
930.581	4135
930.685	3968
930.79	3819
930.894	3945
930.998	3911
931.103	4067
931.207	3759
931.311	3717
931.415	3690
931.519	3591
931.623	3576
