Data from test_V78500241_1424.txt Node
Date: Fri Mar 25 16:58:54 CST 2022
User: usil
Spectrometer: V785-0024
Trigger mode: 0
Integration Time (sec): 4.000000E-1
Scans to average: 1
Nonlinearity correction enabled: false
Boxcar width: 0
Storing dark spectrum: false
XAxis mode: Wavelengths
Number of Pixels in Spectrum: 1024
>>>>>Begin Spectral Data<<<<<
801.071	7978
801.214	7974
801.356	7871
801.499	7814
801.641	7742
801.783	7750
801.926	7947
802.068	7822
802.211	7936
802.353	7967
802.496	7856
802.638	7841
802.78	7913
802.923	7871
803.065	7898
803.208	7894
803.35	7936
803.492	8107
803.635	8050
803.777	8027
803.919	8176
804.061	8442
804.204	8187
804.346	8005
804.488	8016
804.63	8130
804.773	8005
804.915	8065
805.057	8301
805.199	8187
805.341	8191
805.483	8279
805.626	8180
805.768	8191
805.91	8187
806.052	8263
806.194	8103
806.336	8301
806.478	8058
806.62	8031
806.762	8161
806.904	8328
807.046	8514
807.188	8324
807.33	8317
807.472	8351
807.614	8168
807.756	8164
807.898	7993
808.04	7909
808.182	7890
808.324	7902
808.465	7989
808.607	8142
808.749	8134
808.891	8240
809.033	8271
809.174	8237
809.316	8103
809.458	8126
809.6	8069
809.741	8043
809.883	8027
810.025	8058
810.166	8138
810.308	8058
810.45	8035
810.591	7837
810.733	7799
810.875	7731
811.016	7632
811.158	7540
811.299	7567
811.441	7757
811.582	7666
811.724	7636
811.865	7559
812.007	7567
812.148	7559
812.29	7639
812.431	7772
812.573	7940
812.714	8005
812.855	8161
812.997	8229
813.138	8328
813.279	8195
813.421	8183
813.562	8008
813.703	7837
813.845	7795
813.986	7426
814.127	7266
814.268	7274
814.41	7282
814.551	7168
814.692	7213
814.833	7072
814.974	7183
815.115	7141
815.256	6996
815.397	6897
815.539	6996
815.68	6844
815.821	6772
815.962	6916
816.103	6783
816.244	6749
816.385	6601
816.526	6703
816.666	6486
816.807	6334
816.948	6471
817.089	6525
817.23	6426
817.371	6391
817.512	6407
817.653	6407
817.793	6422
817.934	6429
818.075	6486
818.216	6395
818.356	6486
818.497	6266
818.638	6114
818.778	6121
818.919	6209
819.06	6178
819.2	6342
819.341	6376
819.481	6361
819.622	6574
819.762	6677
819.903	6783
820.043	6688
820.184	6597
820.324	6635
820.465	6654
820.605	6715
820.746	6665
820.886	6563
821.026	6665
821.167	6738
821.307	6852
821.447	6848
821.588	6673
821.728	6604
821.868	6467
822.008	6338
822.149	6361
822.289	6369
822.429	6171
822.569	6079
822.709	6098
822.849	5916
822.99	5920
823.13	5942
823.27	5946
823.41	5756
823.55	5790
823.69	5714
823.83	5745
823.97	5688
824.11	5505
824.25	5547
824.389	5539
824.529	5604
824.669	5524
824.809	5608
824.949	5741
825.089	5657
825.228	5604
825.368	5414
825.508	5326
825.648	5368
825.787	5391
825.927	5421
826.067	5326
826.206	5337
826.346	5406
826.485	5444
826.625	5395
826.765	5573
826.904	5490
827.044	5231
827.183	5204
827.323	5147
827.462	5303
827.601	5189
827.741	5204
827.88	5277
828.02	5178
828.159	5250
828.298	5334
828.437	5353
828.577	5292
828.716	5467
828.855	5345
828.994	5197
829.134	5181
829.273	5220
829.412	5132
829.551	5159
829.69	5193
829.829	5231
829.968	5414
830.107	5242
830.246	5284
830.385	5181
830.524	5159
830.663	5045
830.802	4968
830.941	4870
831.08	4938
831.219	5003
831.357	4987
831.496	5185
831.635	4946
831.774	4870
831.913	4854
832.051	4733
832.19	4717
832.329	4805
832.467	4736
832.606	4637
832.744	4752
832.883	4778
833.022	4755
833.16	4858
833.299	4854
833.437	4847
833.576	4835
833.714	4927
833.852	4908
833.991	4919
834.129	4976
834.267	4999
834.406	4923
834.544	4949
834.682	4980
834.821	4976
834.959	5159
835.097	5003
835.235	5170
835.373	5033
835.511	5094
835.65	5124
835.788	5090
835.926	4934
836.064	4930
836.202	4930
836.34	5113
836.478	5235
836.615	5147
836.753	5204
836.891	5277
837.029	5212
837.167	5197
837.305	5132
837.443	5254
837.58	5083
837.718	5242
837.856	5250
837.993	5181
838.131	5231
838.269	5231
838.406	5231
838.544	5185
838.681	5060
838.819	5025
838.956	4934
839.094	4870
839.231	4980
839.369	5083
839.506	5459
839.643	5284
839.781	5079
839.918	5018
840.055	5033
840.193	5048
840.33	5109
840.467	5189
840.604	5208
840.742	5452
840.879	5060
841.016	5056
841.153	5140
841.29	5368
841.427	5341
841.564	5341
841.701	5391
841.838	5273
841.975	5258
842.112	5288
842.249	5204
842.385	5121
842.522	5360
842.659	5189
842.796	5147
842.933	5227
843.069	5155
843.206	5170
843.343	5353
843.479	5242
843.616	5284
843.752	5067
843.889	5006
844.025	5261
844.162	5018
844.298	5242
844.435	5075
844.571	5079
844.708	5261
844.844	5269
844.98	5296
845.117	5284
845.253	5189
845.389	5086
845.525	5162
845.661	5212
845.798	5029
845.934	5140
846.07	5048
846.206	5197
846.342	5273
846.478	5189
846.614	5052
846.75	4991
846.886	4984
847.022	5189
847.158	5064
847.294	5029
847.429	5136
847.565	5083
847.701	5288
847.837	4904
847.972	4801
848.108	4991
848.244	4927
848.379	4793
848.515	4790
848.65	4759
848.786	4729
848.921	4786
849.057	4896
849.192	4927
849.328	4828
849.463	4847
849.598	4847
849.734	4793
849.869	4740
850.004	4656
850.14	4653
850.275	4611
850.41	4508
850.545	4592
850.68	4592
850.815	4626
850.95	4653
851.085	4812
851.22	4774
851.355	4710
851.49	4660
851.625	4611
851.76	4664
851.895	4565
852.03	4542
852.165	4721
852.299	4721
852.434	4759
852.569	4755
852.703	4778
852.838	4847
852.973	4961
853.107	4980
853.242	4694
853.376	4729
853.511	4565
853.645	4645
853.78	4755
853.914	4675
854.048	4706
854.183	4645
854.317	4683
854.451	4847
854.585	4698
854.72	4660
854.854	4771
854.988	4615
855.122	4698
855.256	4550
855.39	4698
855.524	4805
855.658	4721
855.792	4729
855.926	4706
856.06	4771
856.194	4828
856.327	4714
856.461	4561
856.595	4596
856.729	4630
856.862	4763
856.996	4725
857.13	4752
857.263	4717
857.397	4812
857.53	4649
857.664	4752
857.797	4786
857.931	4801
858.064	4714
858.197	4729
858.331	4702
858.464	4634
858.597	4516
858.731	4599
858.864	4641
858.997	4618
859.13	4672
859.263	4710
859.396	4748
859.529	4599
859.662	4603
859.795	4519
859.928	4599
860.061	4771
860.194	4771
860.327	4656
860.46	4550
860.592	4740
860.725	4717
860.858	4755
860.99	4596
861.123	4508
861.256	4527
861.388	4683
861.521	5395
861.653	4531
861.786	4466
861.918	4466
862.05	4516
862.183	4531
862.315	4596
862.447	4698
862.58	4569
862.712	4432
862.844	4356
862.976	4504
863.108	4421
863.24	4850
863.372	4363
863.504	4443
863.636	4455
863.768	4504
863.9	4436
864.032	4367
864.164	4421
864.296	4459
864.428	4584
864.559	4531
864.691	4569
864.823	4512
864.954	4478
865.086	4516
865.217	4447
865.349	4447
865.48	4504
865.612	4508
865.743	4634
865.875	4493
866.006	4474
866.137	4508
866.269	4466
866.4	4451
866.531	4436
866.662	4398
866.793	4383
866.924	4398
867.055	4500
867.186	4485
867.317	4421
867.448	4421
867.579	4394
867.71	4466
867.841	4390
867.972	4470
868.103	4466
868.233	4459
868.364	4424
868.495	4497
868.625	4645
868.756	4755
868.886	4554
869.017	4622
869.147	4721
869.278	4782
869.408	4672
869.539	4668
869.669	4740
869.799	4668
869.929	4767
870.06	4740
870.19	4923
870.32	4908
870.45	4919
870.58	5022
870.71	5105
870.84	5045
870.97	4915
871.1	4862
871.23	5132
871.36	5124
871.489	5010
871.619	5102
871.749	5117
871.879	5086
872.008	5132
872.138	5052
872.267	5003
872.397	4839
872.526	4790
872.656	4729
872.785	4797
872.915	4972
873.044	5014
873.173	4965
873.303	4995
873.432	4949
873.561	4987
873.69	4911
873.819	4881
873.948	4911
874.077	4809
874.206	4714
874.335	4774
874.464	4934
874.593	5056
874.722	4915
874.851	5155
874.979	5060
875.108	5045
875.237	4873
875.365	4862
875.494	4847
875.623	5033
875.751	4862
875.88	4862
876.008	4976
876.136	5052
876.265	5220
876.393	5299
876.521	5296
876.65	5231
876.778	5178
876.906	5083
877.034	4965
877.162	5010
877.29	5029
877.418	5022
877.546	5003
877.674	5052
877.802	5033
877.93	4995
878.058	4946
878.185	4911
878.313	4953
878.441	4953
878.568	4786
878.696	4873
878.824	4923
878.951	5014
879.079	5136
879.206	5330
879.333	5121
879.461	5022
879.588	5041
879.715	5136
879.842	5235
879.97	5045
880.097	4790
880.224	4736
880.351	4870
880.478	4862
880.605	4847
880.732	4862
880.859	5117
880.986	4889
881.112	4908
881.239	4839
881.366	4672
881.493	4664
881.619	4599
881.746	4717
881.872	4694
881.999	4687
882.125	4702
882.252	4816
882.378	4850
882.505	4965
882.631	4831
882.757	4729
882.883	4706
883.01	4733
883.136	4679
883.262	4641
883.388	4656
883.514	4873
883.64	4911
883.766	4820
883.892	4717
884.018	4782
884.143	4881
884.269	4999
884.395	4672
884.52	4660
884.646	4710
884.772	4618
884.897	4584
885.023	4733
885.148	4797
885.274	4866
885.399	4854
885.524	4797
885.65	4763
885.775	4763
885.9	4797
886.025	4930
886.15	4801
886.275	4717
886.4	4637
886.525	4763
886.65	4740
886.775	4778
886.9	4953
887.025	5083
887.149	4839
887.274	4714
887.399	4611
887.523	4656
887.648	4630
887.773	4634
887.897	4793
888.021	4793
888.146	4752
888.27	4870
888.395	4953
888.519	4873
888.643	4847
888.767	4873
888.891	4702
889.015	4637
889.139	4660
889.263	4664
889.387	4752
889.511	4953
889.635	4835
889.759	4675
889.883	4637
890.006	4744
890.13	4873
890.254	4634
890.377	4691
890.501	4535
890.624	4535
890.748	4702
890.871	4519
890.995	4474
891.118	4417
891.241	4588
891.364	4618
891.488	4634
891.611	4523
891.734	4607
891.857	4672
891.98	4569
892.103	4694
892.226	4630
892.349	4584
892.471	4478
892.594	4569
892.717	4596
892.839	4626
892.962	4634
893.085	4710
893.207	4634
893.33	4516
893.452	4561
893.575	4626
893.697	4599
893.819	4824
893.941	4900
894.064	4805
894.186	4626
894.308	4577
894.43	4706
894.552	4892
894.674	4809
894.796	4592
894.918	4622
895.04	4535
895.161	4744
895.283	4691
895.405	4630
895.526	4672
895.648	4752
895.769	4691
895.891	4721
896.012	4748
896.134	4763
896.255	4710
896.376	4653
896.498	4683
896.619	4714
896.74	4618
896.861	4672
896.982	4942
897.103	5113
897.224	4854
897.345	4771
897.466	4668
897.587	4809
897.708	4866
897.828	4778
897.949	4694
898.07	4573
898.19	4668
898.311	4831
898.431	4725
898.552	4778
898.672	4843
898.792	4900
898.913	4774
899.033	4645
899.153	4512
899.273	4428
899.393	4512
899.513	4512
899.633	4546
899.753	4577
899.873	4519
899.993	4603
900.113	4561
900.232	4664
900.352	4577
900.472	4519
900.591	4455
900.711	4527
900.83	4447
900.95	4653
901.069	4710
901.189	4569
901.308	4394
901.427	4344
901.546	4421
901.665	4512
901.784	4546
901.904	4417
902.023	4337
902.141	4227
902.26	4219
902.379	4352
902.498	4299
902.617	4227
902.735	4394
902.854	4409
902.973	4417
903.091	4181
903.21	4253
903.328	4352
903.446	4295
903.565	4284
903.683	4413
903.801	4291
903.919	4443
904.038	4424
904.156	4356
904.274	4424
904.392	4390
904.51	4516
904.627	4516
904.745	4580
904.863	4611
904.981	4417
905.098	4306
905.216	4428
905.334	4436
905.451	4474
905.569	4474
905.686	4561
905.803	4588
905.921	4462
906.038	4554
906.155	4481
906.272	4417
906.389	4478
906.506	4398
906.623	4428
906.74	4413
906.857	4341
906.974	4402
907.091	4565
907.208	4683
907.324	4550
907.441	4542
907.557	4405
907.674	4344
907.79	4295
907.907	4394
908.023	4561
908.139	4531
908.256	4485
908.372	4504
908.488	4462
908.604	4398
908.72	4299
908.836	4390
908.952	4402
909.068	4440
909.184	4584
909.3	4462
909.415	4634
909.531	4550
909.647	4402
909.762	4409
909.878	4333
909.993	4455
910.108	4462
910.224	4424
910.339	4478
910.454	4394
910.57	4360
910.685	4291
910.8	4645
910.915	4641
911.03	4527
911.145	4394
911.259	4428
911.374	4383
911.489	4322
911.604	4322
911.718	4204
911.833	4230
911.947	4093
912.062	4059
912.176	4200
912.291	4265
912.405	4265
912.519	4500
912.633	4546
912.748	4436
912.862	4329
912.976	4238
913.09	4154
913.204	4185
913.318	4276
913.431	4360
913.545	4375
913.659	4424
913.772	4383
913.886	4276
914	4242
914.113	4371
914.226	4474
914.34	4409
914.453	4238
914.566	4428
914.68	4341
914.793	4318
914.906	4166
915.019	4166
915.132	4120
915.245	4204
915.358	4219
915.47	4246
915.583	4272
915.696	4303
915.809	4462
915.921	4478
916.034	4325
916.146	4280
916.259	4223
916.371	4390
916.483	4352
916.595	4272
916.708	4352
916.82	4379
916.932	4295
917.044	4337
917.156	4325
917.268	4268
917.38	4329
917.491	4246
917.603	4371
917.715	4424
917.826	4424
917.938	4371
918.049	4234
918.161	4405
918.272	4565
918.384	4588
918.495	4466
918.606	4348
918.717	4219
918.828	4333
918.939	4394
919.05	4261
919.161	4337
919.272	4154
919.383	4230
919.494	4481
919.604	4622
919.715	4500
919.826	4367
919.936	4405
920.047	4554
920.157	4497
920.267	4691
920.378	4519
920.488	4554
920.598	4744
920.708	4908
920.818	4721
920.928	4759
921.038	4961
921.148	4927
921.258	4679
921.368	4596
921.477	4500
921.587	4497
921.697	4402
921.806	4577
921.916	4470
922.025	4249
922.134	4276
922.244	4238
922.353	4329
922.462	4219
922.571	4150
922.68	4006
922.789	3964
922.898	4040
923.007	3983
923.116	4135
923.224	4074
923.333	4120
923.442	4010
923.55	4025
923.659	4036
923.767	4093
923.876	4067
923.984	4162
924.092	4006
924.201	4074
924.309	4105
924.417	4101
924.525	4051
924.633	4116
924.741	5037
924.849	3972
924.956	4173
925.064	3972
925.172	3941
925.279	3949
925.387	4040
925.494	4101
925.602	4219
925.709	4238
925.816	4078
925.924	4154
926.031	4265
926.138	4207
926.245	4192
926.352	4105
926.459	4253
926.566	4337
926.673	4204
926.779	4143
926.886	4101
926.993	3983
927.099	3979
927.206	3972
927.312	3922
927.419	4097
927.525	4025
927.631	4128
927.737	3991
927.843	3945
927.95	3823
928.056	3949
928.162	4017
928.267	4105
928.373	4592
928.479	4150
928.585	3922
928.69	4006
928.796	4097
928.901	3983
929.007	3831
929.112	4021
929.218	4006
929.323	3960
929.428	3956
929.533	4154
929.638	3934
929.743	3968
929.848	4055
929.953	4013
930.058	3937
930.163	3808
930.267	3846
930.372	3983
930.477	3827
930.581	4074
930.685	3953
930.79	3819
930.894	3907
930.998	3869
931.103	4002
931.207	3736
931.311	3701
931.415	3705
931.519	3511
931.623	3545
