Data from test_V78500241_2804.txt Node
Date: Fri Mar 25 17:08:29 CST 2022
User: usil
Spectrometer: V785-0024
Trigger mode: 0
Integration Time (sec): 4.000000E-1
Scans to average: 1
Nonlinearity correction enabled: false
Boxcar width: 0
Storing dark spectrum: false
XAxis mode: Wavelengths
Number of Pixels in Spectrum: 1024
>>>>>Begin Spectral Data<<<<<
801.071	8012
801.214	7963
801.356	7944
801.499	7856
801.641	7826
801.783	7833
801.926	8024
802.068	7936
802.211	8012
802.353	7970
802.496	7887
802.638	7906
802.78	7925
802.923	7982
803.065	7890
803.208	7833
803.35	7978
803.492	8065
803.635	8164
803.777	8092
803.919	8134
804.061	8484
804.204	8145
804.346	8005
804.488	7932
804.63	8130
804.773	8092
804.915	8115
805.057	8294
805.199	8202
805.341	8176
805.483	8320
805.626	8256
805.768	8229
805.91	8240
806.052	8282
806.194	8138
806.336	8336
806.478	8092
806.62	8100
806.762	8195
806.904	8301
807.046	8499
807.188	8385
807.33	8366
807.472	8332
807.614	8221
807.756	8180
807.898	8035
808.04	7917
808.182	7928
808.324	7974
808.465	8005
808.607	8111
808.749	8210
808.891	8237
809.033	8347
809.174	8176
809.316	8126
809.458	8054
809.6	8020
809.741	8054
809.883	8073
810.025	8084
810.166	8130
810.308	8027
810.45	8054
810.591	7849
810.733	7708
810.875	7655
811.016	7544
811.158	7525
811.299	7658
811.441	7727
811.582	7723
811.724	7548
811.865	7556
812.007	7609
812.148	7632
812.29	7639
812.431	7708
812.573	7902
812.714	8027
812.855	8138
812.997	8305
813.138	8317
813.279	8164
813.421	8229
813.562	8024
813.703	7887
813.845	7814
813.986	7426
814.127	7320
814.268	7190
814.41	7293
814.551	7152
814.692	7190
814.833	7061
814.974	7129
815.115	7145
815.256	6977
815.397	6932
815.539	6905
815.68	6856
815.821	6856
815.962	6890
816.103	6818
816.244	6711
816.385	6665
816.526	6646
816.666	6551
816.807	6361
816.948	6445
817.089	6467
817.23	6429
817.371	6323
817.512	6380
817.653	6372
817.793	6346
817.934	6429
818.075	6490
818.216	6498
818.356	6464
818.497	6235
818.638	6167
818.778	6133
818.919	6163
819.06	6163
819.2	6308
819.341	6334
819.481	6323
819.622	6513
819.762	6722
819.903	6734
820.043	6601
820.184	6585
820.324	6589
820.465	6757
820.605	6612
820.746	6669
820.886	6528
821.026	6707
821.167	6684
821.307	6734
821.447	6757
821.588	6642
821.728	6608
821.868	6525
822.008	6361
822.149	6399
822.289	6388
822.429	6106
822.569	6136
822.709	6152
822.849	5897
822.99	5897
823.13	5904
823.27	5977
823.41	5855
823.55	5737
823.69	5817
823.83	5805
823.97	5718
824.11	5516
824.25	5543
824.389	5596
824.529	5611
824.669	5547
824.809	5646
824.949	5661
825.089	5638
825.228	5539
825.368	5376
825.508	5414
825.648	5345
825.787	5357
825.927	5372
826.067	5368
826.206	5292
826.346	5360
826.485	5402
826.625	5433
826.765	5497
826.904	5482
827.044	5254
827.183	5197
827.323	5086
827.462	5303
827.601	5155
827.741	5208
827.88	5254
828.02	5124
828.159	5239
828.298	5315
828.437	5353
828.577	5231
828.716	5474
828.855	5337
828.994	5174
829.134	5166
829.273	5204
829.412	5140
829.551	5094
829.69	5178
829.829	5227
829.968	5326
830.107	5227
830.246	5311
830.385	5193
830.524	5170
830.663	5079
830.802	4984
830.941	4892
831.08	4900
831.219	4991
831.357	5003
831.496	5193
831.635	4911
831.774	4873
831.913	4843
832.051	4710
832.19	4710
832.329	4835
832.467	4698
832.606	4615
832.744	4721
832.883	4710
833.022	4744
833.16	4755
833.299	4831
833.437	4835
833.576	4809
833.714	4866
833.852	4835
833.991	4873
834.129	4961
834.267	4927
834.406	4858
834.544	5018
834.682	4961
834.821	4987
834.959	5220
835.097	4995
835.235	5197
835.373	5109
835.511	5128
835.65	5033
835.788	5022
835.926	4870
836.064	4889
836.202	4927
836.34	5197
836.478	5223
836.615	5056
836.753	5162
836.891	5330
837.029	5220
837.167	5197
837.305	5159
837.443	5132
837.58	5052
837.718	5269
837.856	5143
837.993	5105
838.131	5261
838.269	5223
838.406	5250
838.544	5174
838.681	5041
838.819	4968
838.956	4946
839.094	4930
839.231	4949
839.369	5075
839.506	5455
839.643	5246
839.781	5037
839.918	5022
840.055	5071
840.193	5151
840.33	5121
840.467	5124
840.604	5212
840.742	5436
840.879	5075
841.016	5124
841.153	5189
841.29	5372
841.427	5326
841.564	5265
841.701	5383
841.838	5280
841.975	5288
842.112	5227
842.249	5121
842.385	5094
842.522	5341
842.659	5128
842.796	5178
842.933	5170
843.069	5170
843.206	5143
843.343	5318
843.479	5223
843.616	5288
843.752	4972
843.889	5041
844.025	5185
844.162	4999
844.298	5201
844.435	5064
844.571	4980
844.708	5189
844.844	5307
844.98	5318
845.117	5315
845.253	5147
845.389	5113
845.525	5162
845.661	5113
845.798	4995
845.934	5098
846.07	5083
846.206	5235
846.342	5258
846.478	5185
846.614	5029
846.75	4968
846.886	4946
847.022	5132
847.158	5018
847.294	5029
847.429	5113
847.565	5079
847.701	5345
847.837	4854
847.972	4801
848.108	4991
848.244	4934
848.379	4782
848.515	4729
848.65	4710
848.786	4740
848.921	4771
849.057	4885
849.192	4877
849.328	4782
849.463	4866
849.598	4831
849.734	4729
849.869	4702
850.004	4656
850.14	4622
850.275	4626
850.41	4504
850.545	4596
850.68	4580
850.815	4641
850.95	4599
851.085	4854
851.22	4790
851.355	4725
851.49	4618
851.625	4637
851.76	4618
851.895	4500
852.03	4535
852.165	4656
852.299	4744
852.434	4759
852.569	4763
852.703	4767
852.838	4847
852.973	4934
853.107	4953
853.242	4767
853.376	4687
853.511	4538
853.645	4649
853.78	4805
853.914	4664
854.048	4660
854.183	4649
854.317	4725
854.451	4816
854.585	4672
854.72	4596
854.854	4744
854.988	4577
855.122	4626
855.256	4542
855.39	4615
855.524	4774
855.658	4714
855.792	4702
855.926	4740
856.06	4725
856.194	4797
856.327	4725
856.461	4618
856.595	4615
856.729	4630
856.862	4790
856.996	4725
857.13	4748
857.263	4755
857.397	4767
857.53	4698
857.664	4748
857.797	4748
857.931	4748
858.064	4668
858.197	4782
858.331	4683
858.464	4634
858.597	4508
858.731	4615
858.864	4599
858.997	4596
859.13	4599
859.263	4653
859.396	4691
859.529	4603
859.662	4577
859.795	4538
859.928	4618
860.061	4774
860.194	4767
860.327	4577
860.46	4618
860.592	4664
860.725	4687
860.858	4740
860.99	4596
861.123	4550
861.256	4523
861.388	4596
861.521	5337
861.653	4516
861.786	4474
861.918	4455
862.05	4535
862.183	4588
862.315	4569
862.447	4672
862.58	4554
862.712	4394
862.844	4363
862.976	4489
863.108	4455
863.24	4778
863.372	4371
863.504	4421
863.636	4386
863.768	4470
863.9	4424
864.032	4348
864.164	4409
864.296	4459
864.428	4561
864.559	4546
864.691	4550
864.823	4538
864.954	4508
865.086	4489
865.217	4512
865.349	4470
865.48	4455
865.612	4519
865.743	4675
865.875	4440
866.006	4451
866.137	4466
866.269	4447
866.4	4379
866.531	4455
866.662	4352
866.793	4398
866.924	4390
867.055	4542
867.186	4489
867.317	4500
867.448	4383
867.579	4405
867.71	4383
867.841	4344
867.972	4500
868.103	4459
868.233	4466
868.364	4500
868.495	4504
868.625	4702
868.756	4740
868.886	4577
869.017	4660
869.147	4782
869.278	4782
869.408	4645
869.539	4592
869.669	4694
869.799	4656
869.929	4759
870.06	4736
870.19	4991
870.32	4904
870.45	4934
870.58	5029
870.71	5155
870.84	5094
870.97	4938
871.1	4908
871.23	5181
871.36	5151
871.489	5025
871.619	5094
871.749	5109
871.879	5121
872.008	5212
872.138	5056
872.267	4946
872.397	4801
872.526	4786
872.656	4706
872.785	4763
872.915	4987
873.044	5056
873.173	4904
873.303	5003
873.432	4972
873.561	4961
873.69	4896
873.819	4896
873.948	4938
874.077	4820
874.206	4782
874.335	4828
874.464	4953
874.593	5029
874.722	4972
874.851	5071
874.979	5064
875.108	5052
875.237	4919
875.365	4885
875.494	4885
875.623	5037
875.751	4809
875.88	4873
876.008	5006
876.136	5022
876.265	5223
876.393	5364
876.521	5204
876.65	5220
876.778	5140
876.906	5140
877.034	5079
877.162	5018
877.29	4980
877.418	4976
877.546	5048
877.674	5041
877.802	5048
877.93	5018
878.058	4957
878.185	4889
878.313	4995
878.441	4949
878.568	4793
878.696	4881
878.824	4991
878.951	4987
879.079	5105
879.206	5242
879.333	5143
879.461	4965
879.588	5064
879.715	5143
879.842	5204
879.97	4987
880.097	4809
880.224	4748
880.351	4850
880.478	4866
880.605	4755
880.732	4805
880.859	5109
880.986	4911
881.112	4908
881.239	4790
881.366	4641
881.493	4611
881.619	4573
881.746	4668
881.872	4706
881.999	4637
882.125	4714
882.252	4778
882.378	4816
882.505	4949
882.631	4805
882.757	4656
882.883	4744
883.01	4706
883.136	4672
883.262	4561
883.388	4653
883.514	4820
883.64	4889
883.766	4774
883.892	4660
884.018	4733
884.143	4965
884.269	5064
884.395	4668
884.52	4634
884.646	4596
884.772	4569
884.897	4611
885.023	4668
885.148	4782
885.274	4870
885.399	4786
885.524	4698
885.65	4729
885.775	4736
885.9	4687
886.025	4889
886.15	4790
886.275	4748
886.4	4691
886.525	4740
886.65	4687
886.775	4702
886.9	4896
887.025	5010
887.149	4831
887.274	4656
887.399	4596
887.523	4618
887.648	4565
887.773	4546
887.897	4736
888.021	4763
888.146	4645
888.27	4759
888.395	4919
888.519	4828
888.643	4801
888.767	4824
888.891	4641
889.015	4584
889.139	4683
889.263	4618
889.387	4725
889.511	4873
889.635	4771
889.759	4607
889.883	4668
890.006	4660
890.13	4831
890.254	4622
890.377	4675
890.501	4565
890.624	4512
890.748	4656
890.871	4542
890.995	4462
891.118	4352
891.241	4535
891.364	4523
891.488	4603
891.611	4485
891.734	4516
891.857	4645
891.98	4573
892.103	4607
892.226	4626
892.349	4474
892.471	4405
892.594	4561
892.717	4584
892.839	4569
892.962	4588
893.085	4653
893.207	4630
893.33	4440
893.452	4470
893.575	4668
893.697	4561
893.819	4809
893.941	4782
894.064	4752
894.186	4592
894.308	4596
894.43	4717
894.552	4801
894.674	4748
894.796	4508
894.918	4596
895.04	4573
895.161	4656
895.283	4653
895.405	4554
895.526	4641
895.648	4630
895.769	4752
895.891	4702
896.012	4729
896.134	4748
896.255	4656
896.376	4615
896.498	4603
896.619	4630
896.74	4596
896.861	4645
896.982	4942
897.103	5105
897.224	4809
897.345	4771
897.466	4679
897.587	4725
897.708	4850
897.828	4816
897.949	4656
898.07	4546
898.19	4656
898.311	4782
898.431	4702
898.552	4759
898.672	4801
898.792	4820
898.913	4698
899.033	4611
899.153	4535
899.273	4417
899.393	4531
899.513	4489
899.633	4497
899.753	4550
899.873	4500
899.993	4565
900.113	4497
900.232	4592
900.352	4565
900.472	4462
900.591	4417
900.711	4405
900.83	4459
900.95	4611
901.069	4702
901.189	4542
901.308	4341
901.427	4322
901.546	4367
901.665	4447
901.784	4508
901.904	4379
902.023	4306
902.141	4169
902.26	4185
902.379	4322
902.498	4253
902.617	4211
902.735	4383
902.854	4394
902.973	4356
903.091	4219
903.21	4253
903.328	4310
903.446	4246
903.565	4257
903.683	4325
903.801	4295
903.919	4421
904.038	4409
904.156	4280
904.274	4478
904.392	4432
904.51	4474
904.627	4474
904.745	4554
904.863	4615
904.981	4409
905.098	4272
905.216	4413
905.334	4428
905.451	4516
905.569	4436
905.686	4603
905.803	4542
905.921	4363
906.038	4558
906.155	4497
906.272	4367
906.389	4500
906.506	4360
906.623	4329
906.74	4413
906.857	4310
906.974	4394
907.091	4550
907.208	4634
907.324	4569
907.441	4508
907.557	4352
907.674	4329
907.79	4287
907.907	4356
908.023	4447
908.139	4508
908.256	4417
908.372	4478
908.488	4489
908.604	4352
908.72	4249
908.836	4348
908.952	4386
909.068	4398
909.184	4527
909.3	4504
909.415	4577
909.531	4550
909.647	4356
909.762	4390
909.878	4352
909.993	4455
910.108	4440
910.224	4436
910.339	4508
910.454	4447
910.57	4386
910.685	4344
910.8	4607
910.915	4603
911.03	4516
911.145	4329
911.259	4314
911.374	4383
911.489	4325
911.604	4299
911.718	4200
911.833	4173
911.947	4082
912.062	3998
912.176	4211
912.291	4261
912.405	4227
912.519	4478
912.633	4493
912.748	4394
912.862	4291
912.976	4219
913.09	4112
913.204	4169
913.318	4257
913.431	4333
913.545	4337
913.659	4440
913.772	4413
913.886	4242
914	4253
914.113	4356
914.226	4398
914.34	4405
914.453	4230
914.566	4432
914.68	4325
914.793	4333
914.906	4124
915.019	4101
915.132	4086
915.245	4158
915.358	4219
915.47	4234
915.583	4310
915.696	4265
915.809	4443
915.921	4413
916.034	4242
916.146	4215
916.259	4211
916.371	4405
916.483	4344
916.595	4249
916.708	4291
916.82	4352
916.932	4287
917.044	4367
917.156	4367
917.268	4242
917.38	4299
917.491	4268
917.603	4337
917.715	4402
917.826	4413
917.938	4398
918.049	4291
918.161	4363
918.272	4550
918.384	4531
918.495	4474
918.606	4314
918.717	4238
918.828	4314
918.939	4386
919.05	4287
919.161	4310
919.272	4135
919.383	4238
919.494	4443
919.604	4599
919.715	4432
919.826	4371
919.936	4409
920.047	4462
920.157	4500
920.267	4679
920.378	4561
920.488	4527
920.598	4694
920.708	4854
920.818	4797
920.928	4736
921.038	4965
921.148	4904
921.258	4607
921.368	4500
921.477	4497
921.587	4462
921.697	4360
921.806	4554
921.916	4413
922.025	4295
922.134	4261
922.244	4211
922.353	4337
922.462	4139
922.571	4158
922.68	4006
922.789	4006
922.898	4025
923.007	3975
923.116	4086
923.224	4120
923.333	4112
923.442	4025
923.55	4032
923.659	4010
923.767	4090
923.876	4051
923.984	4093
924.092	3956
924.201	4048
924.309	4101
924.417	4124
924.525	4097
924.633	4086
924.741	4850
924.849	3926
924.956	4143
925.064	3987
925.172	3922
925.279	3964
925.387	4086
925.494	4090
925.602	4257
925.709	4147
925.816	4051
925.924	4135
926.031	4249
926.138	4177
926.245	4215
926.352	4051
926.459	4234
926.566	4295
926.673	4131
926.779	4078
926.886	4097
926.993	3979
927.099	4002
927.206	3911
927.312	3953
927.419	4074
927.525	4032
927.631	4093
927.737	3972
927.843	3953
927.95	3797
928.056	3945
928.162	4010
928.267	4071
928.373	4679
928.479	4154
928.585	3899
928.69	3998
928.796	4071
928.901	3979
929.007	3861
929.112	4017
929.218	3987
929.323	3896
929.428	3956
929.533	4143
929.638	3884
929.743	4006
929.848	4036
929.953	3994
930.058	3930
930.163	3755
930.267	3827
930.372	3941
930.477	3793
930.581	4074
930.685	3930
930.79	3823
930.894	3903
930.998	3842
931.103	4010
931.207	3705
931.311	3682
931.415	3656
931.519	3511
931.623	3538
