Data from test_V78500241_2663.txt Node
Date: Fri Mar 25 17:07:31 CST 2022
User: usil
Spectrometer: V785-0024
Trigger mode: 0
Integration Time (sec): 4.000000E-1
Scans to average: 1
Nonlinearity correction enabled: false
Boxcar width: 0
Storing dark spectrum: false
XAxis mode: Wavelengths
Number of Pixels in Spectrum: 1024
>>>>>Begin Spectral Data<<<<<
801.071	8008
801.214	8069
801.356	7830
801.499	7803
801.641	7818
801.783	7864
801.926	8008
802.068	8001
802.211	8016
802.353	7997
802.496	7868
802.638	7875
802.78	7932
802.923	7944
803.065	7807
803.208	7822
803.35	7959
803.492	8111
803.635	8210
803.777	8084
803.919	8157
804.061	8469
804.204	8115
804.346	8126
804.488	7967
804.63	8111
804.773	8039
804.915	8096
805.057	8324
805.199	8221
805.341	8225
805.483	8263
805.626	8267
805.768	8202
805.91	8176
806.052	8210
806.194	8168
806.336	8370
806.478	8046
806.62	8134
806.762	8126
806.904	8301
807.046	8495
807.188	8347
807.33	8336
807.472	8366
807.614	8271
807.756	8142
807.898	8084
808.04	7944
808.182	7902
808.324	7955
808.465	8008
808.607	8115
808.749	8199
808.891	8164
809.033	8370
809.174	8240
809.316	8035
809.458	8088
809.6	8020
809.741	8096
809.883	8100
810.025	8221
810.166	8107
810.308	8020
810.45	7978
810.591	7883
810.733	7727
810.875	7723
811.016	7540
811.158	7525
811.299	7624
811.441	7750
811.582	7727
811.724	7552
811.865	7681
812.007	7693
812.148	7639
812.29	7643
812.431	7803
812.573	7864
812.714	8020
812.855	8161
812.997	8206
813.138	8343
813.279	8191
813.421	8096
813.562	8092
813.703	7959
813.845	7765
813.986	7491
814.127	7285
814.268	7274
814.41	7247
814.551	7198
814.692	7263
814.833	7099
814.974	7152
815.115	7190
815.256	6966
815.397	6985
815.539	6954
815.68	6871
815.821	6825
815.962	6867
816.103	6913
816.244	6760
816.385	6608
816.526	6677
816.666	6559
816.807	6350
816.948	6517
817.089	6498
817.23	6441
817.371	6376
817.512	6448
817.653	6410
817.793	6429
817.934	6448
818.075	6502
818.216	6433
818.356	6456
818.497	6304
818.638	6159
818.778	6209
818.919	6209
819.06	6182
819.2	6395
819.341	6399
819.481	6331
819.622	6551
819.762	6802
819.903	6753
820.043	6658
820.184	6639
820.324	6642
820.465	6760
820.605	6715
820.746	6681
820.886	6589
821.026	6696
821.167	6787
821.307	6844
821.447	6833
821.588	6665
821.728	6623
821.868	6540
822.008	6334
822.149	6426
822.289	6399
822.429	6213
822.569	6148
822.709	6247
822.849	5977
822.99	5923
823.13	6011
823.27	5916
823.41	5847
823.55	5824
823.69	5767
823.83	5817
823.97	5680
824.11	5566
824.25	5570
824.389	5615
824.529	5604
824.669	5573
824.809	5638
824.949	5707
825.089	5668
825.228	5600
825.368	5467
825.508	5391
825.648	5315
825.787	5429
825.927	5414
826.067	5330
826.206	5292
826.346	5406
826.485	5467
826.625	5452
826.765	5600
826.904	5505
827.044	5254
827.183	5235
827.323	5140
827.462	5299
827.601	5162
827.741	5227
827.88	5254
828.02	5117
828.159	5273
828.298	5303
828.437	5395
828.577	5258
828.716	5520
828.855	5379
828.994	5216
829.134	5136
829.273	5223
829.412	5147
829.551	5143
829.69	5178
829.829	5231
829.968	5398
830.107	5307
830.246	5299
830.385	5250
830.524	5132
830.663	5102
830.802	5003
830.941	4923
831.08	4930
831.219	4987
831.357	5056
831.496	5121
831.635	4923
831.774	4854
831.913	4892
832.051	4755
832.19	4786
832.329	4877
832.467	4710
832.606	4672
832.744	4778
832.883	4725
833.022	4714
833.16	4786
833.299	4881
833.437	4809
833.576	4850
833.714	4908
833.852	4877
833.991	4968
834.129	4972
834.267	5010
834.406	4900
834.544	4995
834.682	5018
834.821	4976
834.959	5170
835.097	4995
835.235	5166
835.373	5166
835.511	5056
835.65	5006
835.788	5045
835.926	4946
836.064	4934
836.202	4938
836.34	5117
836.478	5277
836.615	5132
836.753	5292
836.891	5326
837.029	5273
837.167	5273
837.305	5197
837.443	5189
837.58	5162
837.718	5246
837.856	5208
837.993	5197
838.131	5261
838.269	5189
838.406	5212
838.544	5223
838.681	5086
838.819	5037
838.956	4930
839.094	4900
839.231	5018
839.369	5086
839.506	5421
839.643	5326
839.781	5098
839.918	5083
840.055	5086
840.193	5090
840.33	5090
840.467	5155
840.604	5185
840.742	5463
840.879	5121
841.016	5132
841.153	5181
841.29	5406
841.427	5345
841.564	5341
841.701	5337
841.838	5307
841.975	5250
842.112	5277
842.249	5178
842.385	5155
842.522	5334
842.659	5216
842.796	5155
842.933	5189
843.069	5174
843.206	5201
843.343	5349
843.479	5204
843.616	5265
843.752	5064
843.889	5029
844.025	5239
844.162	5102
844.298	5261
844.435	5105
844.571	5014
844.708	5227
844.844	5299
844.98	5330
845.117	5284
845.253	5147
845.389	5113
845.525	5197
845.661	5201
845.798	5052
845.934	5121
846.07	5048
846.206	5246
846.342	5258
846.478	5185
846.614	5041
846.75	4995
846.886	4938
847.022	5117
847.158	5033
847.294	5098
847.429	5075
847.565	5060
847.701	5337
847.837	4892
847.972	4854
848.108	4949
848.244	4934
848.379	4805
848.515	4714
848.65	4778
848.786	4736
848.921	4820
849.057	4908
849.192	4972
849.328	4835
849.463	4919
849.598	4809
849.734	4782
849.869	4698
850.004	4668
850.14	4691
850.275	4626
850.41	4580
850.545	4573
850.68	4660
850.815	4634
850.95	4698
851.085	4862
851.22	4763
851.355	4656
851.49	4603
851.625	4679
851.76	4675
851.895	4561
852.03	4573
852.165	4630
852.299	4702
852.434	4805
852.569	4721
852.703	4778
852.838	4870
852.973	4953
853.107	4942
853.242	4782
853.376	4736
853.511	4550
853.645	4615
853.78	4828
853.914	4748
854.048	4729
854.183	4634
854.317	4763
854.451	4873
854.585	4691
854.72	4649
854.854	4782
854.988	4618
855.122	4656
855.256	4546
855.39	4725
855.524	4824
855.658	4694
855.792	4675
855.926	4759
856.06	4824
856.194	4809
856.327	4710
856.461	4630
856.595	4630
856.729	4679
856.862	4771
856.996	4714
857.13	4801
857.263	4782
857.397	4850
857.53	4645
857.664	4721
857.797	4828
857.931	4816
858.064	4767
858.197	4774
858.331	4664
858.464	4573
858.597	4527
858.731	4660
858.864	4626
858.997	4634
859.13	4672
859.263	4698
859.396	4721
859.529	4561
859.662	4573
859.795	4577
859.928	4653
860.061	4774
860.194	4797
860.327	4675
860.46	4550
860.592	4763
860.725	4717
860.858	4763
860.99	4607
861.123	4493
861.256	4500
861.388	4649
861.521	5425
861.653	4519
861.786	4508
861.918	4481
862.05	4531
862.183	4588
862.315	4634
862.447	4694
862.58	4565
862.712	4421
862.844	4363
862.976	4531
863.108	4489
863.24	4835
863.372	4333
863.504	4424
863.636	4424
863.768	4519
863.9	4440
864.032	4394
864.164	4443
864.296	4481
864.428	4546
864.559	4596
864.691	4569
864.823	4531
864.954	4504
865.086	4542
865.217	4440
865.349	4379
865.48	4466
865.612	4527
865.743	4599
865.875	4478
866.006	4440
866.137	4493
866.269	4493
866.4	4451
866.531	4459
866.662	4466
866.793	4443
866.924	4398
867.055	4531
867.186	4462
867.317	4405
867.448	4325
867.579	4413
867.71	4451
867.841	4379
867.972	4497
868.103	4504
868.233	4432
868.364	4485
868.495	4493
868.625	4687
868.756	4755
868.886	4596
869.017	4618
869.147	4755
869.278	4801
869.408	4668
869.539	4694
869.669	4714
869.799	4687
869.929	4778
870.06	4736
870.19	4923
870.32	4946
870.45	4968
870.58	5041
870.71	5083
870.84	5090
870.97	4919
871.1	4930
871.23	5178
871.36	5109
871.489	5025
871.619	5029
871.749	5155
871.879	5136
872.008	5216
872.138	5037
872.267	5018
872.397	4870
872.526	4774
872.656	4736
872.785	4816
872.915	5003
873.044	5022
873.173	4896
873.303	4942
873.432	4946
873.561	4984
873.69	4854
873.819	4831
873.948	4930
874.077	4835
874.206	4763
874.335	4843
874.464	4904
874.593	5071
874.722	4946
874.851	5147
874.979	5045
875.108	5109
875.237	4957
875.365	4900
875.494	4904
875.623	4972
875.751	4885
875.88	4828
876.008	4980
876.136	4968
876.265	5220
876.393	5307
876.521	5242
876.65	5284
876.778	5201
876.906	5060
877.034	5048
877.162	5022
877.29	5006
877.418	5067
877.546	5056
877.674	5052
877.802	5022
877.93	5010
878.058	4927
878.185	4881
878.313	4938
878.441	4984
878.568	4790
878.696	4866
878.824	4942
878.951	5018
879.079	5132
879.206	5337
879.333	5109
879.461	4980
879.588	5003
879.715	5109
879.842	5231
879.97	5052
880.097	4812
880.224	4736
880.351	4809
880.478	4805
880.605	4816
880.732	4820
880.859	5056
880.986	4862
881.112	4900
881.239	4790
881.366	4698
881.493	4649
881.619	4611
881.746	4683
881.872	4675
881.999	4637
882.125	4729
882.252	4797
882.378	4828
882.505	5018
882.631	4831
882.757	4691
882.883	4694
883.01	4733
883.136	4729
883.262	4630
883.388	4634
883.514	4862
883.64	4881
883.766	4790
883.892	4687
884.018	4733
884.143	4915
884.269	4995
884.395	4706
884.52	4634
884.646	4672
884.772	4531
884.897	4558
885.023	4660
885.148	4778
885.274	4881
885.399	4805
885.524	4725
885.65	4702
885.775	4706
885.9	4717
886.025	4812
886.15	4748
886.275	4767
886.4	4679
886.525	4717
886.65	4721
886.775	4710
886.9	4885
887.025	4995
887.149	4801
887.274	4679
887.399	4615
887.523	4565
887.648	4580
887.773	4584
887.897	4786
888.021	4767
888.146	4679
888.27	4881
888.395	4919
888.519	4812
888.643	4801
888.767	4820
888.891	4683
889.015	4630
889.139	4645
889.263	4607
889.387	4710
889.511	4843
889.635	4835
889.759	4679
889.883	4634
890.006	4774
890.13	4850
890.254	4561
890.377	4687
890.501	4569
890.624	4500
890.748	4622
890.871	4523
890.995	4432
891.118	4398
891.241	4527
891.364	4516
891.488	4618
891.611	4493
891.734	4523
891.857	4622
891.98	4569
892.103	4675
892.226	4573
892.349	4550
892.471	4443
892.594	4554
892.717	4550
892.839	4550
892.962	4615
893.085	4668
893.207	4580
893.33	4462
893.452	4523
893.575	4698
893.697	4569
893.819	4752
893.941	4828
894.064	4744
894.186	4554
894.308	4516
894.43	4755
894.552	4809
894.674	4706
894.796	4535
894.918	4630
895.04	4573
895.161	4672
895.283	4637
895.405	4596
895.526	4603
895.648	4664
895.769	4672
895.891	4744
896.012	4721
896.134	4736
896.255	4668
896.376	4637
896.498	4618
896.619	4645
896.74	4618
896.861	4645
896.982	4885
897.103	5109
897.224	4870
897.345	4782
897.466	4656
897.587	4729
897.708	4862
897.828	4774
897.949	4687
898.07	4607
898.19	4622
898.311	4797
898.431	4694
898.552	4755
898.672	4778
898.792	4797
898.913	4733
899.033	4641
899.153	4512
899.273	4413
899.393	4485
899.513	4546
899.633	4558
899.753	4550
899.873	4481
899.993	4558
900.113	4546
900.232	4542
900.352	4546
900.472	4493
900.591	4394
900.711	4508
900.83	4417
900.95	4611
901.069	4691
901.189	4485
901.308	4367
901.427	4314
901.546	4356
901.665	4519
901.784	4523
901.904	4417
902.023	4344
902.141	4200
902.26	4116
902.379	4310
902.498	4253
902.617	4246
902.735	4337
902.854	4371
902.973	4356
903.091	4242
903.21	4253
903.328	4257
903.446	4299
903.565	4272
903.683	4367
903.801	4253
903.919	4417
904.038	4443
904.156	4341
904.274	4443
904.392	4405
904.51	4428
904.627	4459
904.745	4588
904.863	4630
904.981	4421
905.098	4303
905.216	4375
905.334	4402
905.451	4470
905.569	4417
905.686	4550
905.803	4588
905.921	4481
906.038	4561
906.155	4481
906.272	4386
906.389	4485
906.506	4352
906.623	4344
906.74	4424
906.857	4333
906.974	4356
907.091	4577
907.208	4664
907.324	4561
907.441	4523
907.557	4337
907.674	4314
907.79	4352
907.907	4421
908.023	4466
908.139	4470
908.256	4459
908.372	4432
908.488	4455
908.604	4371
908.72	4352
908.836	4421
908.952	4363
909.068	4402
909.184	4596
909.3	4485
909.415	4561
909.531	4550
909.647	4383
909.762	4360
909.878	4341
909.993	4424
910.108	4417
910.224	4398
910.339	4493
910.454	4402
910.57	4363
910.685	4261
910.8	4622
910.915	4618
911.03	4519
911.145	4371
911.259	4341
911.374	4398
911.489	4268
911.604	4341
911.718	4154
911.833	4185
911.947	4124
912.062	4021
912.176	4207
912.291	4234
912.405	4246
912.519	4478
912.633	4538
912.748	4371
912.862	4325
912.976	4196
913.09	4109
913.204	4177
913.318	4284
913.431	4375
913.545	4402
913.659	4432
913.772	4329
913.886	4276
914	4188
914.113	4390
914.226	4447
914.34	4348
914.453	4242
914.566	4436
914.68	4352
914.793	4341
914.906	4188
915.019	4097
915.132	4074
915.245	4207
915.358	4215
915.47	4200
915.583	4261
915.696	4333
915.809	4383
915.921	4409
916.034	4253
916.146	4287
916.259	4211
916.371	4352
916.483	4337
916.595	4219
916.708	4287
916.82	4299
916.932	4325
917.044	4356
917.156	4314
917.268	4227
917.38	4287
917.491	4287
917.603	4356
917.715	4417
917.826	4402
917.938	4295
918.049	4242
918.161	4398
918.272	4485
918.384	4523
918.495	4470
918.606	4291
918.717	4242
918.828	4356
918.939	4363
919.05	4325
919.161	4310
919.272	4162
919.383	4211
919.494	4459
919.604	4660
919.715	4421
919.826	4363
919.936	4405
920.047	4493
920.157	4447
920.267	4698
920.378	4527
920.488	4512
920.598	4717
920.708	4877
920.818	4740
920.928	4782
921.038	4934
921.148	4889
921.258	4626
921.368	4558
921.477	4462
921.587	4443
921.697	4333
921.806	4580
921.916	4466
922.025	4268
922.134	4287
922.244	4230
922.353	4344
922.462	4169
922.571	4105
922.68	4006
922.789	3983
922.898	4013
923.007	3998
923.116	4101
923.224	4051
923.333	4063
923.442	4017
923.55	4013
923.659	4055
923.767	4105
923.876	3998
923.984	4090
924.092	3991
924.201	4093
924.309	4093
924.417	4128
924.525	4067
924.633	4112
924.741	5098
924.849	3922
924.956	4169
925.064	3968
925.172	3899
925.279	3949
925.387	4029
925.494	4059
925.602	4177
925.709	4223
925.816	4063
925.924	4109
926.031	4219
926.138	4177
926.245	4200
926.352	4112
926.459	4219
926.566	4287
926.673	4154
926.779	4116
926.886	4093
926.993	3979
927.099	3960
927.206	3922
927.312	3945
927.419	4002
927.525	4036
927.631	4116
927.737	3964
927.843	3934
927.95	3842
928.056	3930
928.162	3994
928.267	4071
928.373	4622
928.479	4082
928.585	3812
928.69	4021
928.796	4063
928.901	3972
929.007	3835
929.112	4017
929.218	4013
929.323	3899
929.428	3903
929.533	4124
929.638	3907
929.743	3983
929.848	4082
929.953	4002
930.058	3907
930.163	3774
930.267	3812
930.372	3979
930.477	3781
930.581	4078
930.685	3979
930.79	3800
930.894	3850
930.998	3888
931.103	4040
931.207	3713
931.311	3717
931.415	3679
931.519	3526
931.623	3538
