Data from test_V78500241_47.txt Node
Date: Fri Mar 25 16:49:19 CST 2022
User: usil
Spectrometer: V785-0024
Trigger mode: 0
Integration Time (sec): 4.000000E-1
Scans to average: 1
Nonlinearity correction enabled: false
Boxcar width: 0
Storing dark spectrum: false
XAxis mode: Wavelengths
Number of Pixels in Spectrum: 1024
>>>>>Begin Spectral Data<<<<<
801.071	8046
801.214	8134
801.356	7993
801.499	7921
801.641	7852
801.783	7894
801.926	8027
802.068	7917
802.211	8077
802.353	8092
802.496	7955
802.638	7959
802.78	7963
802.923	8005
803.065	7947
803.208	7822
803.35	8035
803.492	8183
803.635	8195
803.777	7974
803.919	8100
804.061	8442
804.204	8168
804.346	8115
804.488	7963
804.63	8119
804.773	8020
804.915	8138
805.057	8244
805.199	8229
805.341	8271
805.483	8248
805.626	8282
805.768	8191
805.91	8176
806.052	8229
806.194	8039
806.336	8320
806.478	8202
806.62	8172
806.762	8267
806.904	8298
807.046	8492
807.188	8427
807.33	8305
807.472	8381
807.614	8225
807.756	8183
807.898	8062
808.04	7963
808.182	7894
808.324	7921
808.465	7947
808.607	8100
808.749	8016
808.891	8225
809.033	8290
809.174	8214
809.316	8027
809.458	8050
809.6	7940
809.741	8031
809.883	8039
810.025	8039
810.166	7974
810.308	8084
810.45	8084
810.591	7967
810.733	7761
810.875	7643
811.016	7552
811.158	7525
811.299	7636
811.441	7807
811.582	7769
811.724	7639
811.865	7609
812.007	7609
812.148	7613
812.29	7670
812.431	7811
812.573	7967
812.714	8031
812.855	8176
812.997	8290
813.138	8343
813.279	8221
813.421	8081
813.562	8024
813.703	7913
813.845	7818
813.986	7502
814.127	7301
814.268	7270
814.41	7213
814.551	7194
814.692	7270
814.833	7179
814.974	7141
815.115	7179
815.256	6970
815.397	7008
815.539	6954
815.68	6886
815.821	6795
815.962	6916
816.103	6890
816.244	6798
816.385	6658
816.526	6673
816.666	6517
816.807	6350
816.948	6471
817.089	6460
817.23	6418
817.371	6410
817.512	6407
817.653	6388
817.793	6361
817.934	6467
818.075	6460
818.216	6513
818.356	6490
818.497	6304
818.638	6144
818.778	6201
818.919	6182
819.06	6224
819.2	6369
819.341	6342
819.481	6422
819.622	6566
819.762	6757
819.903	6749
820.043	6654
820.184	6620
820.324	6608
820.465	6753
820.605	6696
820.746	6684
820.886	6570
821.026	6711
821.167	6722
821.307	6806
821.447	6715
821.588	6726
821.728	6566
821.868	6544
822.008	6308
822.149	6414
822.289	6365
822.429	6190
822.569	6148
822.709	6125
822.849	5984
822.99	5950
823.13	5901
823.27	5893
823.41	5897
823.55	5783
823.69	5786
823.83	5764
823.97	5714
824.11	5600
824.25	5528
824.389	5642
824.529	5638
824.669	5524
824.809	5714
824.949	5680
825.089	5570
825.228	5577
825.368	5436
825.508	5364
825.648	5410
825.787	5448
825.927	5444
826.067	5357
826.206	5337
826.346	5433
826.485	5433
826.625	5391
826.765	5535
826.904	5535
827.044	5318
827.183	5239
827.323	5140
827.462	5292
827.601	5174
827.741	5254
827.88	5296
828.02	5124
828.159	5280
828.298	5345
828.437	5440
828.577	5315
828.716	5497
828.855	5406
828.994	5265
829.134	5159
829.273	5258
829.412	5193
829.551	5216
829.69	5235
829.829	5280
829.968	5444
830.107	5322
830.246	5315
830.385	5254
830.524	5227
830.663	5136
830.802	5033
830.941	4957
831.08	4946
831.219	5083
831.357	5079
831.496	5242
831.635	5025
831.774	4900
831.913	4908
832.051	4793
832.19	4831
832.329	4885
832.467	4759
832.606	4752
832.744	4809
832.883	4786
833.022	4755
833.16	4873
833.299	4877
833.437	4896
833.576	4904
833.714	4957
833.852	4961
833.991	4999
834.129	5079
834.267	5083
834.406	5018
834.544	5064
834.682	5056
834.821	5022
834.959	5246
835.097	5083
835.235	5227
835.373	5197
835.511	5155
835.65	5094
835.788	5086
835.926	4980
836.064	4915
836.202	5018
836.34	5193
836.478	5265
836.615	5197
836.753	5299
836.891	5353
837.029	5337
837.167	5273
837.305	5261
837.443	5204
837.58	5166
837.718	5341
837.856	5269
837.993	5197
838.131	5299
838.269	5322
838.406	5258
838.544	5254
838.681	5166
838.819	5117
838.956	4965
839.094	5025
839.231	5079
839.369	5094
839.506	5482
839.643	5330
839.781	5143
839.918	5105
840.055	5121
840.193	5143
840.33	5151
840.467	5178
840.604	5250
840.742	5570
840.879	5181
841.016	5189
841.153	5204
841.29	5455
841.427	5471
841.564	5387
841.701	5440
841.838	5360
841.975	5303
842.112	5315
842.249	5197
842.385	5147
842.522	5402
842.659	5265
842.796	5170
842.933	5250
843.069	5269
843.206	5269
843.343	5402
843.479	5334
843.616	5318
843.752	5086
843.889	5109
844.025	5284
844.162	5113
844.298	5299
844.435	5143
844.571	5124
844.708	5254
844.844	5322
844.98	5406
845.117	5353
845.253	5181
845.389	5174
845.525	5212
845.661	5220
845.798	5064
845.934	5178
846.07	5143
846.206	5231
846.342	5395
846.478	5288
846.614	5079
846.75	5022
846.886	5010
847.022	5220
847.158	5079
847.294	5151
847.429	5170
847.565	5178
847.701	5357
847.837	4995
847.972	4904
848.108	5086
848.244	5037
848.379	4866
848.515	4797
848.65	4782
848.786	4801
848.921	4870
849.057	4900
849.192	4976
849.328	4816
849.463	4896
849.598	4866
849.734	4805
849.869	4782
850.004	4714
850.14	4717
850.275	4706
850.41	4630
850.545	4641
850.68	4694
850.815	4725
850.95	4687
851.085	4870
851.22	4839
851.355	4683
851.49	4687
851.625	4733
851.76	4736
851.895	4634
852.03	4577
852.165	4706
852.299	4843
852.434	4873
852.569	4790
852.703	4881
852.838	4881
852.973	4999
853.107	4957
853.242	4831
853.376	4755
853.511	4649
853.645	4698
853.78	4889
853.914	4771
854.048	4736
854.183	4679
854.317	4809
854.451	4889
854.585	4752
854.72	4729
854.854	4831
854.988	4634
855.122	4679
855.256	4596
855.39	4771
855.524	4858
855.658	4839
855.792	4801
855.926	4847
856.06	4782
856.194	4790
856.327	4744
856.461	4672
856.595	4691
856.729	4698
856.862	4812
856.996	4778
857.13	4778
857.263	4805
857.397	4870
857.53	4721
857.664	4778
857.797	4870
857.931	4835
858.064	4782
858.197	4801
858.331	4694
858.464	4694
858.597	4607
858.731	4683
858.864	4679
858.997	4660
859.13	4740
859.263	4740
859.396	4714
859.529	4637
859.662	4634
859.795	4618
859.928	4736
860.061	4820
860.194	4828
860.327	4729
860.46	4649
860.592	4774
860.725	4816
860.858	4797
860.99	4656
861.123	4588
861.256	4592
861.388	4683
861.521	5307
861.653	4554
861.786	4538
861.918	4531
862.05	4580
862.183	4615
862.315	4660
862.447	4729
862.58	4607
862.712	4440
862.844	4379
862.976	4588
863.108	4535
863.24	4980
863.372	4432
863.504	4519
863.636	4508
863.768	4580
863.9	4508
864.032	4432
864.164	4455
864.296	4519
864.428	4611
864.559	4626
864.691	4565
864.823	4588
864.954	4573
865.086	4569
865.217	4531
865.349	4489
865.48	4550
865.612	4584
865.743	4694
865.875	4546
866.006	4478
866.137	4523
866.269	4481
866.4	4577
866.531	4485
866.662	4474
866.793	4462
866.924	4527
867.055	4588
867.186	4558
867.317	4508
867.448	4417
867.579	4443
867.71	4474
867.841	4417
867.972	4516
868.103	4489
868.233	4519
868.364	4470
868.495	4516
868.625	4691
868.756	4831
868.886	4660
869.017	4729
869.147	4854
869.278	4816
869.408	4694
869.539	4729
869.669	4767
869.799	4714
869.929	4809
870.06	4824
870.19	5003
870.32	4949
870.45	5025
870.58	5067
870.71	5132
870.84	5136
870.97	4980
871.1	4972
871.23	5185
871.36	5185
871.489	5109
871.619	5166
871.749	5117
871.879	5208
872.008	5193
872.138	5147
872.267	5018
872.397	4938
872.526	4889
872.656	4767
872.785	4805
872.915	4984
873.044	5121
873.173	5025
873.303	4991
873.432	5045
873.561	5022
873.69	4896
873.819	4946
873.948	4980
874.077	4835
874.206	4835
874.335	4843
874.464	5022
874.593	5170
874.722	5025
874.851	5174
874.979	5174
875.108	5060
875.237	5014
875.365	4984
875.494	4972
875.623	5014
875.751	4908
875.88	4919
876.008	5056
876.136	5090
876.265	5269
876.393	5387
876.521	5337
876.65	5330
876.778	5162
876.906	5124
877.034	5098
877.162	5132
877.29	5071
877.418	5098
877.546	5140
877.674	5098
877.802	5102
877.93	5067
878.058	4953
878.185	4953
878.313	4968
878.441	4976
878.568	4824
878.696	4919
878.824	5045
878.951	5056
879.079	5246
879.206	5364
879.333	5227
879.461	5041
879.588	5037
879.715	5166
879.842	5326
879.97	5090
880.097	4786
880.224	4809
880.351	4873
880.478	4911
880.605	4854
880.732	4843
880.859	5143
880.986	4965
881.112	4991
881.239	4824
881.366	4736
881.493	4683
881.619	4645
881.746	4706
881.872	4706
881.999	4733
882.125	4733
882.252	4896
882.378	4847
882.505	5006
882.631	4896
882.757	4729
882.883	4790
883.01	4816
883.136	4759
883.262	4679
883.388	4679
883.514	4854
883.64	4934
883.766	4866
883.892	4706
884.018	4778
884.143	4972
884.269	5083
884.395	4771
884.52	4656
884.646	4683
884.772	4641
884.897	4615
885.023	4729
885.148	4839
885.274	4930
885.399	4911
885.524	4759
885.65	4790
885.775	4816
885.9	4774
886.025	4900
886.15	4870
886.275	4752
886.4	4710
886.525	4771
886.65	4744
886.775	4736
886.9	4972
887.025	5064
887.149	4915
887.274	4694
887.399	4611
887.523	4668
887.648	4675
887.773	4607
887.897	4805
888.021	4828
888.146	4759
888.27	4892
888.395	4942
888.519	4892
888.643	4835
888.767	4847
888.891	4774
889.015	4637
889.139	4740
889.263	4714
889.387	4835
889.511	4942
889.635	4862
889.759	4725
889.883	4664
890.006	4752
890.13	4866
890.254	4672
890.377	4805
890.501	4580
890.624	4561
890.748	4675
890.871	4618
890.995	4455
891.118	4455
891.241	4577
891.364	4607
891.488	4675
891.611	4535
891.734	4630
891.857	4698
891.98	4596
892.103	4691
892.226	4615
892.349	4561
892.471	4485
892.594	4656
892.717	4618
892.839	4607
892.962	4672
893.085	4774
893.207	4634
893.33	4485
893.452	4588
893.575	4717
893.697	4641
893.819	4854
893.941	4885
894.064	4805
894.186	4672
894.308	4599
894.43	4771
894.552	4892
894.674	4828
894.796	4615
894.918	4630
895.04	4603
895.161	4733
895.283	4752
895.405	4622
895.526	4706
895.648	4771
895.769	4748
895.891	4740
896.012	4767
896.134	4771
896.255	4717
896.376	4729
896.498	4672
896.619	4729
896.74	4615
896.861	4675
896.982	4953
897.103	5193
897.224	4900
897.345	4824
897.466	4717
897.587	4793
897.708	4908
897.828	4858
897.949	4744
898.07	4580
898.19	4675
898.311	4881
898.431	4721
898.552	4801
898.672	4877
898.792	4889
898.913	4812
899.033	4717
899.153	4516
899.273	4497
899.393	4546
899.513	4592
899.633	4618
899.753	4603
899.873	4596
899.993	4603
900.113	4580
900.232	4649
900.352	4561
900.472	4508
900.591	4470
900.711	4516
900.83	4493
900.95	4626
901.069	4733
901.189	4599
901.308	4432
901.427	4379
901.546	4447
901.665	4500
901.784	4596
901.904	4432
902.023	4402
902.141	4234
902.26	4246
902.379	4310
902.498	4333
902.617	4303
902.735	4398
902.854	4428
902.973	4405
903.091	4280
903.21	4310
903.328	4306
903.446	4299
903.565	4284
903.683	4394
903.801	4344
903.919	4405
904.038	4489
904.156	4379
904.274	4504
904.392	4436
904.51	4478
904.627	4516
904.745	4637
904.863	4706
904.981	4481
905.098	4386
905.216	4402
905.334	4474
905.451	4470
905.569	4451
905.686	4603
905.803	4634
905.921	4459
906.038	4580
906.155	4558
906.272	4398
906.389	4512
906.506	4386
906.623	4478
906.74	4470
906.857	4379
906.974	4432
907.091	4622
907.208	4702
907.324	4653
907.441	4512
907.557	4394
907.674	4436
907.79	4375
907.907	4421
908.023	4573
908.139	4523
908.256	4485
908.372	4535
908.488	4493
908.604	4413
908.72	4352
908.836	4478
908.952	4398
909.068	4417
909.184	4649
909.3	4565
909.415	4618
909.531	4599
909.647	4394
909.762	4360
909.878	4390
909.993	4432
910.108	4424
910.224	4504
910.339	4538
910.454	4455
910.57	4398
910.685	4379
910.8	4679
910.915	4653
911.03	4527
911.145	4363
911.259	4390
911.374	4417
911.489	4287
911.604	4348
911.718	4196
911.833	4249
911.947	4173
912.062	4032
912.176	4238
912.291	4268
912.405	4295
912.519	4519
912.633	4531
912.748	4459
912.862	4356
912.976	4238
913.09	4173
913.204	4219
913.318	4325
913.431	4413
913.545	4409
913.659	4481
913.772	4436
913.886	4303
914	4284
914.113	4413
914.226	4466
914.34	4413
914.453	4291
914.566	4447
914.68	4348
914.793	4386
914.906	4223
915.019	4131
915.132	4120
915.245	4234
915.358	4238
915.47	4261
915.583	4306
915.696	4344
915.809	4436
915.921	4402
916.034	4299
916.146	4344
916.259	4257
916.371	4459
916.483	4405
916.595	4333
916.708	4348
916.82	4367
916.932	4341
917.044	4398
917.156	4424
917.268	4238
917.38	4337
917.491	4318
917.603	4383
917.715	4462
917.826	4474
917.938	4402
918.049	4284
918.161	4447
918.272	4573
918.384	4592
918.495	4447
918.606	4306
918.717	4295
918.828	4409
918.939	4428
919.05	4344
919.161	4363
919.272	4188
919.383	4322
919.494	4478
919.604	4698
919.715	4474
919.826	4390
919.936	4440
920.047	4577
920.157	4500
920.267	4736
920.378	4596
920.488	4497
920.598	4786
920.708	4934
920.818	4809
920.928	4759
921.038	4999
921.148	4968
921.258	4664
921.368	4596
921.477	4523
921.587	4489
921.697	4440
921.806	4599
921.916	4459
922.025	4314
922.134	4314
922.244	4272
922.353	4360
922.462	4188
922.571	4147
922.68	4067
922.789	4010
922.898	4067
923.007	4017
923.116	4139
923.224	4086
923.333	4105
923.442	4029
923.55	4048
923.659	4097
923.767	4158
923.876	4040
923.984	4158
924.092	4021
924.201	4097
924.309	4150
924.417	4173
924.525	4086
924.633	4181
924.741	5067
924.849	3956
924.956	4135
925.064	4051
925.172	3915
925.279	4036
925.387	4112
925.494	4048
925.602	4242
925.709	4200
925.816	4067
925.924	4135
926.031	4291
926.138	4219
926.245	4280
926.352	4143
926.459	4295
926.566	4352
926.673	4223
926.779	4124
926.886	4139
926.993	4032
927.099	4025
927.206	3953
927.312	3964
927.419	4063
927.525	4029
927.631	4086
927.737	4017
927.843	3968
927.95	3873
928.056	3994
928.162	4044
928.267	4143
928.373	4649
928.479	4154
928.585	3876
928.69	4051
928.796	4097
928.901	4025
929.007	3903
929.112	4040
929.218	4013
929.323	3994
929.428	3949
929.533	4128
929.638	3953
929.743	4017
929.848	4074
929.953	4044
930.058	3918
930.163	3789
930.267	3876
930.372	4006
930.477	3857
930.581	4185
930.685	4025
930.79	3899
930.894	3937
930.998	3915
931.103	4055
931.207	3732
931.311	3740
931.415	3701
931.519	3584
931.623	3553
