Data from test_V78500241_1210.txt Node
Date: Fri Mar 25 16:57:24 CST 2022
User: usil
Spectrometer: V785-0024
Trigger mode: 0
Integration Time (sec): 4.000000E-1
Scans to average: 1
Nonlinearity correction enabled: false
Boxcar width: 0
Storing dark spectrum: false
XAxis mode: Wavelengths
Number of Pixels in Spectrum: 1024
>>>>>Begin Spectral Data<<<<<
801.071	8035
801.214	7974
801.356	7906
801.499	7826
801.641	7723
801.783	7833
801.926	7993
802.068	7936
802.211	7913
802.353	7974
802.496	7761
802.638	7909
802.78	7936
802.923	7925
803.065	7982
803.208	7833
803.35	8008
803.492	8077
803.635	8130
803.777	8024
803.919	8092
804.061	8495
804.204	8168
804.346	8054
804.488	7989
804.63	8088
804.773	8096
804.915	8123
805.057	8263
805.199	8145
805.341	8202
805.483	8328
805.626	8221
805.768	8054
805.91	8218
806.052	8214
806.194	8119
806.336	8256
806.478	8111
806.62	8031
806.762	8187
806.904	8244
807.046	8522
807.188	8347
807.33	8320
807.472	8343
807.614	8103
807.756	8119
807.898	7967
808.04	7917
808.182	7940
808.324	7921
808.465	7928
808.607	8077
808.749	8031
808.891	8168
809.033	8279
809.174	8172
809.316	8081
809.458	8100
809.6	7989
809.741	8031
809.883	8039
810.025	8081
810.166	8043
810.308	7970
810.45	7993
810.591	7868
810.733	7776
810.875	7647
811.016	7518
811.158	7460
811.299	7613
811.441	7647
811.582	7643
811.724	7567
811.865	7491
812.007	7582
812.148	7502
812.29	7597
812.431	7761
812.573	7913
812.714	8008
812.855	8103
812.997	8233
813.138	8362
813.279	8153
813.421	8100
813.562	7951
813.703	7845
813.845	7784
813.986	7487
814.127	7259
814.268	7209
814.41	7149
814.551	7137
814.692	7209
814.833	7133
814.974	7091
815.115	7110
815.256	6932
815.397	6954
815.539	7000
815.68	6840
815.821	6825
815.962	6867
816.103	6818
816.244	6738
816.385	6642
816.526	6597
816.666	6490
816.807	6311
816.948	6403
817.089	6429
817.23	6448
817.371	6361
817.512	6380
817.653	6410
817.793	6376
817.934	6399
818.075	6426
818.216	6464
818.356	6437
818.497	6254
818.638	6106
818.778	6178
818.919	6068
819.06	6152
819.2	6346
819.341	6273
819.481	6365
819.622	6483
819.762	6730
819.903	6646
820.043	6616
820.184	6623
820.324	6563
820.465	6696
820.605	6662
820.746	6547
820.886	6433
821.026	6639
821.167	6711
821.307	6783
821.447	6764
821.588	6681
821.728	6521
821.868	6456
822.008	6323
822.149	6399
822.289	6289
822.429	6171
822.569	6068
822.709	6152
822.849	5901
822.99	5874
823.13	5958
823.27	5984
823.41	5836
823.55	5714
823.69	5764
823.83	5783
823.97	5668
824.11	5474
824.25	5497
824.389	5589
824.529	5596
824.669	5509
824.809	5657
824.949	5611
825.089	5634
825.228	5543
825.368	5406
825.508	5337
825.648	5368
825.787	5341
825.927	5406
826.067	5261
826.206	5265
826.346	5364
826.485	5417
826.625	5406
826.765	5547
826.904	5478
827.044	5273
827.183	5227
827.323	5151
827.462	5204
827.601	5140
827.741	5155
827.88	5239
828.02	5117
828.159	5250
828.298	5235
828.437	5383
828.577	5292
828.716	5501
828.855	5292
828.994	5151
829.134	5155
829.273	5185
829.412	5117
829.551	5185
829.69	5216
829.829	5220
829.968	5334
830.107	5258
830.246	5284
830.385	5197
830.524	5185
830.663	5064
830.802	4961
830.941	4881
831.08	4824
831.219	4942
831.357	4965
831.496	5136
831.635	4923
831.774	4847
831.913	4797
832.051	4702
832.19	4828
832.329	4835
832.467	4668
832.606	4656
832.744	4683
832.883	4729
833.022	4736
833.16	4767
833.299	4790
833.437	4786
833.576	4820
833.714	4839
833.852	4870
833.991	4858
834.129	4949
834.267	4934
834.406	4908
834.544	4995
834.682	4976
834.821	4911
834.959	5147
835.097	5014
835.235	5098
835.373	5071
835.511	5086
835.65	5045
835.788	5025
835.926	4904
836.064	4843
836.202	4904
836.34	5193
836.478	5220
836.615	5136
836.753	5185
836.891	5231
837.029	5273
837.167	5216
837.305	5155
837.443	5166
837.58	5067
837.718	5235
837.856	5193
837.993	5086
838.131	5239
838.269	5239
838.406	5239
838.544	5193
838.681	5041
838.819	5075
838.956	4877
839.094	4911
839.231	4942
839.369	5052
839.506	5455
839.643	5292
839.781	5003
839.918	4976
840.055	5121
840.193	5052
840.33	5075
840.467	5109
840.604	5201
840.742	5410
840.879	5094
841.016	5075
841.153	5105
841.29	5440
841.427	5284
841.564	5315
841.701	5383
841.838	5227
841.975	5178
842.112	5269
842.249	5124
842.385	5064
842.522	5318
842.659	5124
842.796	5159
842.933	5178
843.069	5132
843.206	5143
843.343	5277
843.479	5235
843.616	5265
843.752	5033
843.889	5041
844.025	5181
844.162	5029
844.298	5231
844.435	5079
844.571	5025
844.708	5162
844.844	5292
844.98	5277
845.117	5258
845.253	5079
845.389	5083
845.525	5132
845.661	5128
845.798	5048
845.934	5105
846.07	5067
846.206	5159
846.342	5311
846.478	5204
846.614	5041
846.75	4999
846.886	4915
847.022	5094
847.158	4976
847.294	5052
847.429	5140
847.565	5048
847.701	5341
847.837	4900
847.972	4843
848.108	4934
848.244	4942
848.379	4748
848.515	4698
848.65	4729
848.786	4729
848.921	4752
849.057	4831
849.192	4911
849.328	4812
849.463	4862
849.598	4755
849.734	4717
849.869	4702
850.004	4615
850.14	4637
850.275	4615
850.41	4481
850.545	4573
850.68	4611
850.815	4611
850.95	4611
851.085	4835
851.22	4729
851.355	4706
851.49	4580
851.625	4580
851.76	4630
851.895	4569
852.03	4558
852.165	4645
852.299	4694
852.434	4744
852.569	4725
852.703	4721
852.838	4850
852.973	4938
853.107	4915
853.242	4759
853.376	4649
853.511	4611
853.645	4599
853.78	4835
853.914	4653
854.048	4645
854.183	4645
854.317	4714
854.451	4854
854.585	4683
854.72	4645
854.854	4744
854.988	4599
855.122	4607
855.256	4550
855.39	4664
855.524	4752
855.658	4729
855.792	4660
855.926	4752
856.06	4717
856.194	4763
856.327	4675
856.461	4637
856.595	4641
856.729	4615
856.862	4710
856.996	4710
857.13	4698
857.263	4793
857.397	4763
857.53	4656
857.664	4660
857.797	4790
857.931	4744
858.064	4694
858.197	4721
858.331	4664
858.464	4596
858.597	4538
858.731	4668
858.864	4626
858.997	4653
859.13	4634
859.263	4641
859.396	4702
859.529	4569
859.662	4577
859.795	4569
859.928	4565
860.061	4736
860.194	4744
860.327	4630
860.46	4588
860.592	4729
860.725	4752
860.858	4717
860.99	4558
861.123	4554
861.256	4497
861.388	4649
861.521	5273
861.653	4466
861.786	4466
861.918	4489
862.05	4497
862.183	4523
862.315	4538
862.447	4603
862.58	4561
862.712	4428
862.844	4299
862.976	4447
863.108	4474
863.24	4866
863.372	4314
863.504	4390
863.636	4402
863.768	4462
863.9	4417
864.032	4386
864.164	4394
864.296	4447
864.428	4500
864.559	4546
864.691	4516
864.823	4565
864.954	4493
865.086	4459
865.217	4474
865.349	4398
865.48	4402
865.612	4478
865.743	4607
865.875	4447
866.006	4443
866.137	4466
866.269	4447
866.4	4417
866.531	4459
866.662	4394
866.793	4386
866.924	4405
867.055	4512
867.186	4470
867.317	4363
867.448	4386
867.579	4398
867.71	4394
867.841	4363
867.972	4474
868.103	4459
868.233	4428
868.364	4489
868.495	4466
868.625	4691
868.756	4736
868.886	4577
869.017	4599
869.147	4748
869.278	4801
869.408	4622
869.539	4683
869.669	4725
869.799	4645
869.929	4694
870.06	4687
870.19	4965
870.32	4877
870.45	4942
870.58	5014
870.71	5086
870.84	5048
870.97	4915
871.1	4843
871.23	5124
871.36	5098
871.489	5022
871.619	5060
871.749	5098
871.879	5064
872.008	5147
872.138	5014
872.267	4930
872.397	4820
872.526	4820
872.656	4729
872.785	4793
872.915	4961
873.044	5041
873.173	4923
873.303	4968
873.432	4968
873.561	4938
873.69	4923
873.819	4862
873.948	4961
874.077	4755
874.206	4740
874.335	4786
874.464	4881
874.593	5071
874.722	4957
874.851	5060
874.979	5048
875.108	4999
875.237	4938
875.365	4877
875.494	4881
875.623	4984
875.751	4870
875.88	4877
876.008	5006
876.136	4965
876.265	5193
876.393	5322
876.521	5223
876.65	5181
876.778	5174
876.906	5060
877.034	5003
877.162	4999
877.29	4965
877.418	4949
877.546	5090
877.674	4999
877.802	5010
877.93	4987
878.058	4942
878.185	4881
878.313	4908
878.441	4919
878.568	4767
878.696	4870
878.824	4976
878.951	4976
879.079	5102
879.206	5242
879.333	5086
879.461	4934
879.588	5022
879.715	5121
879.842	5189
879.97	5010
880.097	4729
880.224	4683
880.351	4801
880.478	4820
880.605	4778
880.732	4744
880.859	5052
880.986	4858
881.112	4889
881.239	4801
881.366	4649
881.493	4634
881.619	4580
881.746	4615
881.872	4694
881.999	4618
882.125	4752
882.252	4812
882.378	4839
882.505	4984
882.631	4820
882.757	4656
882.883	4759
883.01	4725
883.136	4679
883.262	4584
883.388	4561
883.514	4805
883.64	4862
883.766	4786
883.892	4641
884.018	4717
884.143	4858
884.269	4991
884.395	4672
884.52	4622
884.646	4637
884.772	4588
884.897	4542
885.023	4607
885.148	4774
885.274	4896
885.399	4824
885.524	4672
885.65	4694
885.775	4733
885.9	4733
886.025	4828
886.15	4843
886.275	4702
886.4	4660
886.525	4763
886.65	4691
886.775	4687
886.9	4885
887.025	4995
887.149	4801
887.274	4580
887.399	4535
887.523	4626
887.648	4535
887.773	4561
887.897	4778
888.021	4797
888.146	4660
888.27	4809
888.395	4889
888.519	4786
888.643	4816
888.767	4835
888.891	4645
889.015	4607
889.139	4653
889.263	4588
889.387	4717
889.511	4870
889.635	4820
889.759	4637
889.883	4615
890.006	4702
890.13	4809
890.254	4596
890.377	4668
890.501	4527
890.624	4535
890.748	4626
890.871	4508
890.995	4436
891.118	4371
891.241	4527
891.364	4523
891.488	4637
891.611	4527
891.734	4542
891.857	4615
891.98	4542
892.103	4653
892.226	4596
892.349	4535
892.471	4413
892.594	4538
892.717	4554
892.839	4611
892.962	4607
893.085	4660
893.207	4626
893.33	4424
893.452	4546
893.575	4641
893.697	4603
893.819	4790
893.941	4809
894.064	4782
894.186	4519
894.308	4573
894.43	4744
894.552	4839
894.674	4687
894.796	4531
894.918	4596
895.04	4615
895.161	4687
895.283	4645
895.405	4569
895.526	4603
895.648	4675
895.769	4687
895.891	4721
896.012	4687
896.134	4714
896.255	4641
896.376	4603
896.498	4573
896.619	4641
896.74	4580
896.861	4637
896.982	4911
897.103	5083
897.224	4828
897.345	4744
897.466	4645
897.587	4702
897.708	4870
897.828	4774
897.949	4641
898.07	4519
898.19	4607
898.311	4862
898.431	4641
898.552	4710
898.672	4801
898.792	4812
898.913	4687
899.033	4596
899.153	4466
899.273	4428
899.393	4489
899.513	4519
899.633	4538
899.753	4542
899.873	4535
899.993	4542
900.113	4519
900.232	4588
900.352	4489
900.472	4489
900.591	4371
900.711	4462
900.83	4409
900.95	4565
901.069	4653
901.189	4546
901.308	4360
901.427	4280
901.546	4379
901.665	4474
901.784	4512
901.904	4405
902.023	4303
902.141	4192
902.26	4207
902.379	4280
902.498	4230
902.617	4223
902.735	4344
902.854	4383
902.973	4325
903.091	4223
903.21	4200
903.328	4249
903.446	4295
903.565	4230
903.683	4318
903.801	4253
903.919	4379
904.038	4417
904.156	4322
904.274	4394
904.392	4363
904.51	4432
904.627	4424
904.745	4512
904.863	4626
904.981	4383
905.098	4310
905.216	4390
905.334	4443
905.451	4402
905.569	4485
905.686	4531
905.803	4550
905.921	4405
906.038	4554
906.155	4485
906.272	4394
906.389	4459
906.506	4348
906.623	4348
906.74	4409
906.857	4299
906.974	4337
907.091	4558
907.208	4664
907.324	4588
907.441	4512
907.557	4386
907.674	4344
907.79	4295
907.907	4375
908.023	4474
908.139	4440
908.256	4398
908.372	4436
908.488	4424
908.604	4333
908.72	4318
908.836	4386
908.952	4337
909.068	4421
909.184	4554
909.3	4493
909.415	4607
909.531	4573
909.647	4356
909.762	4356
909.878	4341
909.993	4443
910.108	4394
910.224	4417
910.339	4481
910.454	4348
910.57	4341
910.685	4303
910.8	4645
910.915	4596
911.03	4493
911.145	4272
911.259	4329
911.374	4337
911.489	4265
911.604	4215
911.718	4177
911.833	4219
911.947	4048
912.062	4002
912.176	4200
912.291	4265
912.405	4196
912.519	4459
912.633	4519
912.748	4360
912.862	4322
912.976	4230
913.09	4029
913.204	4158
913.318	4257
913.431	4386
913.545	4352
913.659	4405
913.772	4360
913.886	4204
914	4207
914.113	4379
914.226	4455
914.34	4421
914.453	4207
914.566	4413
914.68	4337
914.793	4299
914.906	4158
915.019	4067
915.132	4097
915.245	4181
915.358	4204
915.47	4253
915.583	4265
915.696	4280
915.809	4383
915.921	4402
916.034	4257
916.146	4265
916.259	4150
916.371	4352
916.483	4383
916.595	4272
916.708	4329
916.82	4306
916.932	4314
917.044	4322
917.156	4303
917.268	4272
917.38	4242
917.491	4253
917.603	4337
917.715	4363
917.826	4451
917.938	4356
918.049	4223
918.161	4341
918.272	4516
918.384	4493
918.495	4409
918.606	4284
918.717	4234
918.828	4371
918.939	4375
919.05	4257
919.161	4314
919.272	4143
919.383	4227
919.494	4466
919.604	4599
919.715	4402
919.826	4341
919.936	4413
920.047	4504
920.157	4462
920.267	4672
920.378	4535
920.488	4508
920.598	4694
920.708	4908
920.818	4755
920.928	4778
921.038	4889
921.148	4904
921.258	4622
921.368	4561
921.477	4523
921.587	4451
921.697	4348
921.806	4489
921.916	4447
922.025	4291
922.134	4299
922.244	4207
922.353	4287
922.462	4192
922.571	4093
922.68	3964
922.789	3960
922.898	4086
923.007	3983
923.116	4109
923.224	4071
923.333	4025
923.442	3964
923.55	3987
923.659	4032
923.767	4097
923.876	4010
923.984	4090
924.092	3987
924.201	4097
924.309	4051
924.417	4120
924.525	4067
924.633	4101
924.741	5037
924.849	3945
924.956	4158
925.064	3953
925.172	3896
925.279	3945
925.387	4086
925.494	4059
925.602	4207
925.709	4169
925.816	4032
925.924	4101
926.031	4227
926.138	4181
926.245	4207
926.352	4082
926.459	4261
926.566	4299
926.673	4128
926.779	4063
926.886	4109
926.993	3972
927.099	3945
927.206	3918
927.312	3930
927.419	4051
927.525	3998
927.631	4063
927.737	3968
927.843	3949
927.95	3816
928.056	3956
928.162	3941
928.267	4051
928.373	4694
928.479	4124
928.585	3842
928.69	3991
928.796	4086
928.901	3934
929.007	3812
929.112	3968
929.218	3972
929.323	3934
929.428	3956
929.533	4128
929.638	3915
929.743	3979
929.848	4036
929.953	3983
930.058	3941
930.163	3778
930.267	3819
930.372	3930
930.477	3816
930.581	4128
930.685	4006
930.79	3869
930.894	3876
930.998	3873
931.103	4021
931.207	3728
931.311	3713
931.415	3682
931.519	3477
931.623	3530
