Data from test_V78500241_663.txt Node
Date: Fri Mar 25 16:53:36 CST 2022
User: usil
Spectrometer: V785-0024
Trigger mode: 0
Integration Time (sec): 4.000000E-1
Scans to average: 1
Nonlinearity correction enabled: false
Boxcar width: 0
Storing dark spectrum: false
XAxis mode: Wavelengths
Number of Pixels in Spectrum: 1024
>>>>>Begin Spectral Data<<<<<
801.071	7967
801.214	7978
801.356	7811
801.499	7875
801.641	7772
801.783	7803
801.926	8031
802.068	8001
802.211	7997
802.353	7947
802.496	7902
802.638	7925
802.78	7890
802.923	7917
803.065	7788
803.208	7807
803.35	7970
803.492	8092
803.635	8199
803.777	7997
803.919	8096
804.061	8389
804.204	8024
804.346	8069
804.488	7902
804.63	8046
804.773	8065
804.915	8024
805.057	8279
805.199	8100
805.341	8240
805.483	8286
805.626	8271
805.768	8119
805.91	8145
806.052	8180
806.194	8100
806.336	8294
806.478	8088
806.62	7986
806.762	8138
806.904	8259
807.046	8480
807.188	8301
807.33	8313
807.472	8317
807.614	8123
807.756	8107
807.898	7936
808.04	7856
808.182	7883
808.324	7845
808.465	7868
808.607	8069
808.749	8123
808.891	8172
809.033	8248
809.174	8176
809.316	8069
809.458	7989
809.6	8012
809.741	7951
809.883	8005
810.025	8024
810.166	8008
810.308	8084
810.45	8077
810.591	7788
810.733	7689
810.875	7651
811.016	7510
811.158	7430
811.299	7636
811.441	7689
811.582	7609
811.724	7521
811.865	7483
812.007	7571
812.148	7533
812.29	7594
812.431	7742
812.573	7795
812.714	7955
812.855	8119
812.997	8153
813.138	8339
813.279	8168
813.421	8107
813.562	7997
813.703	7947
813.845	7746
813.986	7468
814.127	7305
814.268	7266
814.41	7213
814.551	7057
814.692	7145
814.833	7031
814.974	7084
815.115	7160
815.256	6951
815.397	6935
815.539	6951
815.68	6757
815.821	6768
815.962	6848
816.103	6802
816.244	6730
816.385	6620
816.526	6684
816.666	6460
816.807	6289
816.948	6403
817.089	6486
817.23	6399
817.371	6414
817.512	6399
817.653	6441
817.793	6350
817.934	6380
818.075	6452
818.216	6407
818.356	6399
818.497	6175
818.638	6110
818.778	6110
818.919	6121
819.06	6136
819.2	6300
819.341	6273
819.481	6327
819.622	6540
819.762	6703
819.903	6681
820.043	6547
820.184	6525
820.324	6582
820.465	6585
820.605	6612
820.746	6490
820.886	6437
821.026	6646
821.167	6700
821.307	6776
821.447	6707
821.588	6650
821.728	6479
821.868	6407
822.008	6254
822.149	6350
822.289	6331
822.429	6114
822.569	6114
822.709	6072
822.849	5847
822.99	5897
823.13	5897
823.27	5859
823.41	5752
823.55	5764
823.69	5699
823.83	5756
823.97	5646
824.11	5493
824.25	5490
824.389	5573
824.529	5493
824.669	5463
824.809	5661
824.949	5684
825.089	5573
825.228	5604
825.368	5383
825.508	5334
825.648	5303
825.787	5414
825.927	5368
826.067	5311
826.206	5337
826.346	5410
826.485	5341
826.625	5402
826.765	5505
826.904	5459
827.044	5277
827.183	5197
827.323	5113
827.462	5246
827.601	5178
827.741	5185
827.88	5174
828.02	5132
828.159	5246
828.298	5307
828.437	5357
828.577	5284
828.716	5486
828.855	5349
828.994	5193
829.134	5121
829.273	5147
829.412	5124
829.551	5162
829.69	5136
829.829	5273
829.968	5345
830.107	5284
830.246	5269
830.385	5197
830.524	5147
830.663	5086
830.802	5003
830.941	4938
831.08	4889
831.219	4968
831.357	5025
831.496	5159
831.635	4972
831.774	4908
831.913	4854
832.051	4744
832.19	4816
832.329	4900
832.467	4702
832.606	4683
832.744	4797
832.883	4733
833.022	4752
833.16	4839
833.299	4801
833.437	4839
833.576	4862
833.714	4889
833.852	4904
833.991	4877
834.129	4987
834.267	4991
834.406	4949
834.544	5010
834.682	5041
834.821	5041
834.959	5254
835.097	5033
835.235	5189
835.373	5102
835.511	5140
835.65	5064
835.788	5056
835.926	4942
836.064	4877
836.202	4965
836.34	5208
836.478	5258
836.615	5128
836.753	5201
836.891	5349
837.029	5326
837.167	5250
837.305	5159
837.443	5147
837.58	5083
837.718	5307
837.856	5242
837.993	5197
838.131	5250
838.269	5246
838.406	5212
838.544	5220
838.681	5056
838.819	4991
838.956	4957
839.094	4927
839.231	4980
839.369	5064
839.506	5444
839.643	5277
839.781	5105
839.918	5086
840.055	5136
840.193	5090
840.33	5140
840.467	5159
840.604	5242
840.742	5471
840.879	5117
841.016	5117
841.153	5147
841.29	5436
841.427	5341
841.564	5307
841.701	5349
841.838	5303
841.975	5269
842.112	5231
842.249	5159
842.385	5155
842.522	5322
842.659	5204
842.796	5178
842.933	5193
843.069	5242
843.206	5197
843.343	5364
843.479	5269
843.616	5292
843.752	5090
843.889	5064
844.025	5197
844.162	5075
844.298	5216
844.435	5086
844.571	5060
844.708	5204
844.844	5315
844.98	5303
845.117	5341
845.253	5155
845.389	5109
845.525	5181
845.661	5204
845.798	5029
845.934	5147
846.07	5098
846.206	5239
846.342	5288
846.478	5227
846.614	5083
846.75	5018
846.886	4972
847.022	5136
847.158	5071
847.294	5166
847.429	5109
847.565	5029
847.701	5402
847.837	4904
847.972	4835
848.108	4995
848.244	4965
848.379	4774
848.515	4752
848.65	4721
848.786	4790
848.921	4824
849.057	4870
849.192	4904
849.328	4797
849.463	4892
849.598	4793
849.734	4839
849.869	4717
850.004	4656
850.14	4714
850.275	4603
850.41	4542
850.545	4577
850.68	4687
850.815	4607
850.95	4706
851.085	4850
851.22	4801
851.355	4672
851.49	4615
851.625	4634
851.76	4683
851.895	4588
852.03	4603
852.165	4687
852.299	4752
852.434	4790
852.569	4790
852.703	4771
852.838	4858
852.973	4961
853.107	4919
853.242	4771
853.376	4694
853.511	4599
853.645	4634
853.78	4881
853.914	4729
854.048	4710
854.183	4698
854.317	4714
854.451	4885
854.585	4675
854.72	4691
854.854	4820
854.988	4702
855.122	4668
855.256	4550
855.39	4683
855.524	4778
855.658	4831
855.792	4710
855.926	4710
856.06	4801
856.194	4801
856.327	4717
856.461	4622
856.595	4637
856.729	4687
856.862	4801
856.996	4637
857.13	4736
857.263	4771
857.397	4828
857.53	4717
857.664	4736
857.797	4805
857.931	4812
858.064	4714
858.197	4816
858.331	4577
858.464	4584
858.597	4535
858.731	4679
858.864	4714
858.997	4603
859.13	4694
859.263	4714
859.396	4710
859.529	4653
859.662	4618
859.795	4573
859.928	4637
860.061	4809
860.194	4835
860.327	4607
860.46	4561
860.592	4763
860.725	4767
860.858	4710
860.99	4611
861.123	4531
861.256	4561
861.388	4577
861.521	5349
861.653	4459
861.786	4489
861.918	4443
862.05	4531
862.183	4615
862.315	4634
862.447	4691
862.58	4592
862.712	4432
862.844	4360
862.976	4481
863.108	4451
863.24	4946
863.372	4356
863.504	4462
863.636	4428
863.768	4500
863.9	4451
864.032	4443
864.164	4466
864.296	4519
864.428	4546
864.559	4630
864.691	4573
864.823	4596
864.954	4527
865.086	4531
865.217	4493
865.349	4451
865.48	4478
865.612	4489
865.743	4630
865.875	4432
866.006	4440
866.137	4493
866.269	4462
866.4	4432
866.531	4462
866.662	4402
866.793	4436
866.924	4424
867.055	4538
867.186	4516
867.317	4440
867.448	4436
867.579	4493
867.71	4424
867.841	4409
867.972	4478
868.103	4512
868.233	4508
868.364	4466
868.495	4542
868.625	4687
868.756	4767
868.886	4596
869.017	4660
869.147	4778
869.278	4847
869.408	4683
869.539	4698
869.669	4740
869.799	4698
869.929	4820
870.06	4809
870.19	4976
870.32	4961
870.45	4965
870.58	5067
870.71	5090
870.84	5147
870.97	4999
871.1	4957
871.23	5128
871.36	5185
871.489	5064
871.619	5121
871.749	5102
871.879	5147
872.008	5151
872.138	5048
872.267	5006
872.397	4812
872.526	4835
872.656	4740
872.785	4828
872.915	4976
873.044	5094
873.173	5010
873.303	4972
873.432	4968
873.561	4927
873.69	4942
873.819	4843
873.948	4923
874.077	4820
874.206	4801
874.335	4877
874.464	4953
874.593	5105
874.722	5022
874.851	5121
874.979	5037
875.108	5079
875.237	4930
875.365	4881
875.494	4942
875.623	4965
875.751	4850
875.88	4896
876.008	5006
876.136	5060
876.265	5193
876.393	5364
876.521	5239
876.65	5231
876.778	5212
876.906	5121
877.034	5033
877.162	5071
877.29	4972
877.418	5109
877.546	5025
877.674	5033
877.802	5037
877.93	4999
878.058	4980
878.185	4949
878.313	4995
878.441	4946
878.568	4793
878.696	4930
878.824	4972
878.951	5052
879.079	5147
879.206	5277
879.333	5121
879.461	4987
879.588	5014
879.715	5193
879.842	5204
879.97	5060
880.097	4816
880.224	4774
880.351	4801
880.478	4828
880.605	4774
880.732	4809
880.859	5071
880.986	4877
881.112	4946
881.239	4790
881.366	4687
881.493	4618
881.619	4565
881.746	4637
881.872	4653
881.999	4691
882.125	4702
882.252	4752
882.378	4858
882.505	4984
882.631	4835
882.757	4694
882.883	4736
883.01	4759
883.136	4679
883.262	4634
883.388	4599
883.514	4835
883.64	4866
883.766	4801
883.892	4618
884.018	4733
884.143	4923
884.269	5029
884.395	4740
884.52	4672
884.646	4645
884.772	4634
884.897	4580
885.023	4653
885.148	4847
885.274	4896
885.399	4858
885.524	4744
885.65	4698
885.775	4778
885.9	4733
886.025	4908
886.15	4786
886.275	4771
886.4	4641
886.525	4748
886.65	4675
886.775	4683
886.9	4911
887.025	5067
887.149	4824
887.274	4660
887.399	4596
887.523	4618
887.648	4603
887.773	4622
887.897	4755
888.021	4774
888.146	4748
888.27	4843
888.395	4930
888.519	4801
888.643	4831
888.767	4858
888.891	4702
889.015	4637
889.139	4653
889.263	4679
889.387	4805
889.511	4839
889.635	4816
889.759	4664
889.883	4675
890.006	4729
890.13	4828
890.254	4615
890.377	4710
890.501	4558
890.624	4504
890.748	4649
890.871	4519
890.995	4459
891.118	4443
891.241	4443
891.364	4554
891.488	4630
891.611	4500
891.734	4603
891.857	4615
891.98	4588
892.103	4675
892.226	4599
892.349	4519
892.471	4413
892.594	4500
892.717	4626
892.839	4554
892.962	4611
893.085	4672
893.207	4588
893.33	4489
893.452	4535
893.575	4672
893.697	4588
893.819	4824
893.941	4797
894.064	4790
894.186	4558
894.308	4622
894.43	4714
894.552	4790
894.674	4755
894.796	4588
894.918	4618
895.04	4630
895.161	4687
895.283	4679
895.405	4611
895.526	4641
895.648	4683
895.769	4710
895.891	4710
896.012	4729
896.134	4710
896.255	4717
896.376	4641
896.498	4626
896.619	4706
896.74	4637
896.861	4615
896.982	4915
897.103	5098
897.224	4896
897.345	4736
897.466	4691
897.587	4755
897.708	4839
897.828	4790
897.949	4675
898.07	4584
898.19	4679
898.311	4801
898.431	4653
898.552	4733
898.672	4831
898.792	4786
898.913	4782
899.033	4649
899.153	4512
899.273	4455
899.393	4489
899.513	4497
899.633	4577
899.753	4527
899.873	4523
899.993	4611
900.113	4573
900.232	4592
900.352	4561
900.472	4466
900.591	4409
900.711	4478
900.83	4398
900.95	4592
901.069	4672
901.189	4527
901.308	4398
901.427	4341
901.546	4436
901.665	4489
901.784	4542
901.904	4398
902.023	4322
902.141	4200
902.26	4154
902.379	4314
902.498	4272
902.617	4215
902.735	4363
902.854	4440
902.973	4398
903.091	4249
903.21	4238
903.328	4344
903.446	4314
903.565	4272
903.683	4394
903.801	4348
903.919	4386
904.038	4478
904.156	4356
904.274	4459
904.392	4455
904.51	4417
904.627	4508
904.745	4565
904.863	4668
904.981	4451
905.098	4318
905.216	4436
905.334	4459
905.451	4474
905.569	4504
905.686	4607
905.803	4626
905.921	4432
906.038	4584
906.155	4512
906.272	4409
906.389	4478
906.506	4428
906.623	4424
906.74	4447
906.857	4360
906.974	4417
907.091	4592
907.208	4736
907.324	4573
907.441	4535
907.557	4455
907.674	4375
907.79	4348
907.907	4413
908.023	4565
908.139	4580
908.256	4504
908.372	4493
908.488	4485
908.604	4360
908.72	4371
908.836	4428
908.952	4421
909.068	4443
909.184	4573
909.3	4546
909.415	4634
909.531	4611
909.647	4443
909.762	4379
909.878	4386
909.993	4462
910.108	4443
910.224	4474
910.339	4508
910.454	4535
910.57	4383
910.685	4398
910.8	4698
910.915	4618
911.03	4493
911.145	4462
911.259	4363
911.374	4413
911.489	4348
911.604	4280
911.718	4234
911.833	4242
911.947	4124
912.062	4074
912.176	4265
912.291	4310
912.405	4314
912.519	4512
912.633	4569
912.748	4436
912.862	4390
912.976	4280
913.09	4135
913.204	4196
913.318	4280
913.431	4337
913.545	4443
913.659	4459
913.772	4405
913.886	4306
914	4261
914.113	4375
914.226	4424
914.34	4440
914.453	4272
914.566	4440
914.68	4379
914.793	4375
914.906	4192
915.019	4181
915.132	4143
915.245	4196
915.358	4219
915.47	4318
915.583	4280
915.696	4333
915.809	4443
915.921	4459
916.034	4295
916.146	4333
916.259	4272
916.371	4402
916.483	4394
916.595	4299
916.708	4375
916.82	4360
916.932	4398
917.044	4348
917.156	4341
917.268	4303
917.38	4287
917.491	4303
917.603	4402
917.715	4428
917.826	4516
917.938	4421
918.049	4295
918.161	4451
918.272	4577
918.384	4618
918.495	4474
918.606	4341
918.717	4295
918.828	4398
918.939	4409
919.05	4280
919.161	4367
919.272	4147
919.383	4253
919.494	4478
919.604	4649
919.715	4497
919.826	4348
919.936	4443
920.047	4558
920.157	4512
920.267	4733
920.378	4573
920.488	4523
920.598	4748
920.708	4892
920.818	4805
920.928	4820
921.038	4949
921.148	4953
921.258	4675
921.368	4603
921.477	4527
921.587	4470
921.697	4451
921.806	4607
921.916	4428
922.025	4310
922.134	4272
922.244	4257
922.353	4314
922.462	4219
922.571	4166
922.68	4029
922.789	3979
922.898	4086
923.007	3994
923.116	4135
923.224	4112
923.333	4093
923.442	4036
923.55	4048
923.659	4071
923.767	4177
923.876	4025
923.984	4101
924.092	4010
924.201	4112
924.309	4112
924.417	4204
924.525	4078
924.633	4139
924.741	5067
924.849	3949
924.956	4177
925.064	3953
925.172	3922
925.279	4029
925.387	4109
925.494	4093
925.602	4238
925.709	4188
925.816	4086
925.924	4185
926.031	4306
926.138	4158
926.245	4242
926.352	4101
926.459	4318
926.566	4318
926.673	4177
926.779	4147
926.886	4112
926.993	4002
927.099	3975
927.206	3968
927.312	3987
927.419	4055
927.525	4071
927.631	4173
927.737	4017
927.843	3991
927.95	3876
928.056	4002
928.162	4017
928.267	4078
928.373	4729
928.479	4143
928.585	3892
928.69	4017
928.796	4082
928.901	3975
929.007	3873
929.112	4025
929.218	3998
929.323	3972
929.428	4013
929.533	4169
929.638	3960
929.743	3987
929.848	4086
929.953	4010
930.058	3979
930.163	3800
930.267	3838
930.372	4010
930.477	3846
930.581	4093
930.685	4002
930.79	3911
930.894	3903
930.998	3876
931.103	4082
931.207	3755
931.311	3713
931.415	3728
931.519	3553
931.623	3545
