Data from test_V78500241_820.txt Node
Date: Fri Mar 25 16:54:42 CST 2022
User: usil
Spectrometer: V785-0024
Trigger mode: 0
Integration Time (sec): 4.000000E-1
Scans to average: 1
Nonlinearity correction enabled: false
Boxcar width: 0
Storing dark spectrum: false
XAxis mode: Wavelengths
Number of Pixels in Spectrum: 1024
>>>>>Begin Spectral Data<<<<<
801.071	7986
801.214	8020
801.356	7928
801.499	7898
801.641	7727
801.783	7807
801.926	8008
802.068	7879
802.211	7982
802.353	7989
802.496	7921
802.638	7902
802.78	7902
802.923	7864
803.065	7864
803.208	7833
803.35	7974
803.492	8149
803.635	8183
803.777	8020
803.919	8092
804.061	8404
804.204	8119
804.346	8039
804.488	7913
804.63	8126
804.773	8046
804.915	8084
805.057	8195
805.199	8134
805.341	8214
805.483	8252
805.626	8092
805.768	8115
805.91	8157
806.052	8199
806.194	8020
806.336	8332
806.478	8077
806.62	8035
806.762	8107
806.904	8202
807.046	8442
807.188	8336
807.33	8244
807.472	8298
807.614	8164
807.756	8073
807.898	8005
808.04	7925
808.182	7871
808.324	7841
808.465	7845
808.607	8062
808.749	8100
808.891	8130
809.033	8275
809.174	8218
809.316	8073
809.458	8035
809.6	7928
809.741	7989
809.883	7959
810.025	8081
810.166	8027
810.308	8027
810.45	8054
810.591	7811
810.733	7700
810.875	7685
811.016	7487
811.158	7441
811.299	7525
811.441	7769
811.582	7670
811.724	7529
811.865	7563
812.007	7582
812.148	7571
812.29	7655
812.431	7643
812.573	7814
812.714	8024
812.855	8046
812.997	8199
813.138	8221
813.279	8157
813.421	8084
813.562	7997
813.703	7860
813.845	7795
813.986	7468
814.127	7232
814.268	7270
814.41	7202
814.551	7084
814.692	7152
814.833	7076
814.974	7065
815.115	7103
815.256	6993
815.397	6935
815.539	6920
815.68	6818
815.821	6757
815.962	6867
816.103	6810
816.244	6760
816.385	6654
816.526	6551
816.666	6517
816.807	6289
816.948	6422
817.089	6429
817.23	6445
817.371	6399
817.512	6399
817.653	6323
817.793	6338
817.934	6388
818.075	6410
818.216	6403
818.356	6399
818.497	6220
818.638	6095
818.778	6091
818.919	6175
819.06	6125
819.2	6292
819.341	6315
819.481	6418
819.622	6460
819.762	6738
819.903	6753
820.043	6582
820.184	6566
820.324	6593
820.465	6715
820.605	6604
820.746	6589
820.886	6494
821.026	6639
821.167	6673
821.307	6757
821.447	6745
821.588	6593
821.728	6528
821.868	6479
822.008	6308
822.149	6395
822.289	6357
822.429	6076
822.569	6041
822.709	6045
822.849	5931
822.99	5889
823.13	5863
823.27	5897
823.41	5745
823.55	5733
823.69	5775
823.83	5817
823.97	5668
824.11	5539
824.25	5467
824.389	5554
824.529	5585
824.669	5455
824.809	5608
824.949	5611
825.089	5596
825.228	5547
825.368	5395
825.508	5303
825.648	5311
825.787	5353
825.927	5315
826.067	5258
826.206	5322
826.346	5395
826.485	5387
826.625	5425
826.765	5589
826.904	5516
827.044	5197
827.183	5178
827.323	5109
827.462	5277
827.601	5178
827.741	5136
827.88	5246
828.02	5094
828.159	5242
828.298	5273
828.437	5288
828.577	5242
828.716	5440
828.855	5307
828.994	5140
829.134	5155
829.273	5181
829.412	5143
829.551	5113
829.69	5140
829.829	5250
829.968	5334
830.107	5185
830.246	5235
830.385	5124
830.524	5117
830.663	5045
830.802	4949
830.941	4877
831.08	4885
831.219	4980
831.357	4915
831.496	5197
831.635	4942
831.774	4900
831.913	4862
832.051	4694
832.19	4797
832.329	4839
832.467	4668
832.606	4664
832.744	4687
832.883	4717
833.022	4702
833.16	4771
833.299	4839
833.437	4809
833.576	4809
833.714	4847
833.852	4831
833.991	4877
834.129	4949
834.267	4889
834.406	4915
834.544	4991
834.682	4934
834.821	4976
834.959	5174
835.097	4984
835.235	5121
835.373	5048
835.511	5121
835.65	5041
835.788	5045
835.926	4873
836.064	4866
836.202	4908
836.34	5098
836.478	5204
836.615	5136
836.753	5261
836.891	5296
837.029	5246
837.167	5159
837.305	5181
837.443	5147
837.58	5048
837.718	5277
837.856	5197
837.993	5086
838.131	5185
838.269	5227
838.406	5208
838.544	5124
838.681	5029
838.819	4987
838.956	4858
839.094	4927
839.231	4987
839.369	5075
839.506	5410
839.643	5235
839.781	5014
839.918	5037
840.055	5071
840.193	5109
840.33	5098
840.467	5151
840.604	5174
840.742	5421
840.879	5086
841.016	5098
841.153	5174
841.29	5334
841.427	5311
841.564	5288
841.701	5357
841.838	5326
841.975	5212
842.112	5193
842.249	5121
842.385	5117
842.522	5330
842.659	5121
842.796	5178
842.933	5212
843.069	5208
843.206	5174
843.343	5349
843.479	5216
843.616	5261
843.752	4984
843.889	4953
844.025	5246
844.162	4999
844.298	5181
844.435	5090
844.571	5056
844.708	5162
844.844	5273
844.98	5345
845.117	5254
845.253	5143
845.389	5056
845.525	5102
845.661	5166
845.798	5037
845.934	5105
846.07	5056
846.206	5239
846.342	5220
846.478	5086
846.614	4991
846.75	4984
846.886	4908
847.022	5151
847.158	4995
847.294	5086
847.429	5086
847.565	5083
847.701	5261
847.837	4809
847.972	4812
848.108	4946
848.244	4934
848.379	4755
848.515	4721
848.65	4687
848.786	4774
848.921	4778
849.057	4828
849.192	4923
849.328	4816
849.463	4835
849.598	4816
849.734	4736
849.869	4660
850.004	4615
850.14	4607
850.275	4615
850.41	4527
850.545	4550
850.68	4603
850.815	4607
850.95	4649
851.085	4831
851.22	4710
851.355	4698
851.49	4561
851.625	4611
851.76	4645
851.895	4569
852.03	4512
852.165	4618
852.299	4755
852.434	4771
852.569	4710
852.703	4721
852.838	4847
852.973	4968
853.107	4881
853.242	4653
853.376	4664
853.511	4596
853.645	4584
853.78	4790
853.914	4634
854.048	4607
854.183	4672
854.317	4714
854.451	4820
854.585	4653
854.72	4630
854.854	4714
854.988	4550
855.122	4618
855.256	4523
855.39	4668
855.524	4717
855.658	4740
855.792	4691
855.926	4683
856.06	4778
856.194	4782
856.327	4668
856.461	4622
856.595	4634
856.729	4622
856.862	4721
856.996	4698
857.13	4733
857.263	4710
857.397	4797
857.53	4649
857.664	4710
857.797	4797
857.931	4778
858.064	4694
858.197	4744
858.331	4698
858.464	4634
858.597	4497
858.731	4668
858.864	4641
858.997	4573
859.13	4672
859.263	4641
859.396	4721
859.529	4577
859.662	4550
859.795	4535
859.928	4592
860.061	4748
860.194	4752
860.327	4607
860.46	4546
860.592	4672
860.725	4675
860.858	4725
860.99	4588
861.123	4512
861.256	4500
861.388	4599
861.521	5296
861.653	4466
861.786	4474
861.918	4432
862.05	4523
862.183	4523
862.315	4622
862.447	4588
862.58	4516
862.712	4367
862.844	4322
862.976	4478
863.108	4500
863.24	4915
863.372	4348
863.504	4405
863.636	4379
863.768	4451
863.9	4398
864.032	4333
864.164	4367
864.296	4447
864.428	4546
864.559	4561
864.691	4512
864.823	4519
864.954	4489
865.086	4470
865.217	4462
865.349	4417
865.48	4455
865.612	4493
865.743	4607
865.875	4485
866.006	4379
866.137	4516
866.269	4447
866.4	4440
866.531	4356
866.662	4386
866.793	4360
866.924	4447
867.055	4542
867.186	4466
867.317	4398
867.448	4325
867.579	4363
867.71	4394
867.841	4360
867.972	4485
868.103	4424
868.233	4417
868.364	4443
868.495	4497
868.625	4641
868.756	4793
868.886	4546
869.017	4618
869.147	4706
869.278	4763
869.408	4630
869.539	4641
869.669	4683
869.799	4691
869.929	4725
870.06	4717
870.19	4892
870.32	4911
870.45	4968
870.58	5022
870.71	5067
870.84	5079
870.97	4927
871.1	4881
871.23	5170
871.36	5113
871.489	5010
871.619	5033
871.749	5102
871.879	5143
872.008	5159
872.138	5071
872.267	4911
872.397	4831
872.526	4854
872.656	4748
872.785	4786
872.915	4938
873.044	5018
873.173	4968
873.303	4949
873.432	4953
873.561	4984
873.69	4847
873.819	4835
873.948	4889
874.077	4816
874.206	4774
874.335	4793
874.464	4923
874.593	5067
874.722	4980
874.851	5105
874.979	5048
875.108	4995
875.237	4881
875.365	4877
875.494	4839
875.623	4953
875.751	4763
875.88	4870
876.008	4938
876.136	5045
876.265	5208
876.393	5326
876.521	5284
876.65	5166
876.778	5124
876.906	5094
877.034	5018
877.162	5022
877.29	4965
877.418	5025
877.546	5014
877.674	5033
877.802	5037
877.93	4968
878.058	4919
878.185	4809
878.313	4957
878.441	4934
878.568	4774
878.696	4870
878.824	4927
878.951	4991
879.079	5155
879.206	5204
879.333	5010
879.461	5010
879.588	5018
879.715	5090
879.842	5189
879.97	5006
880.097	4797
880.224	4729
880.351	4820
880.478	4847
880.605	4763
880.732	4778
880.859	5033
880.986	4847
881.112	4873
881.239	4782
881.366	4687
881.493	4577
881.619	4615
881.746	4637
881.872	4698
881.999	4580
882.125	4691
882.252	4771
882.378	4824
882.505	4942
882.631	4790
882.757	4637
882.883	4729
883.01	4736
883.136	4649
883.262	4641
883.388	4618
883.514	4782
883.64	4877
883.766	4774
883.892	4626
884.018	4717
884.143	4885
884.269	4995
884.395	4694
884.52	4580
884.646	4611
884.772	4569
884.897	4538
885.023	4615
885.148	4771
885.274	4820
885.399	4774
885.524	4736
885.65	4694
885.775	4721
885.9	4729
886.025	4847
886.15	4782
886.275	4736
886.4	4611
886.525	4710
886.65	4653
886.775	4710
886.9	4908
887.025	5037
887.149	4790
887.274	4592
887.399	4535
887.523	4592
887.648	4584
887.773	4603
887.897	4767
888.021	4759
888.146	4622
888.27	4767
888.395	4908
888.519	4812
888.643	4725
888.767	4843
888.891	4714
889.015	4626
889.139	4668
889.263	4592
889.387	4740
889.511	4858
889.635	4828
889.759	4596
889.883	4641
890.006	4736
890.13	4824
890.254	4645
890.377	4599
890.501	4538
890.624	4485
890.748	4611
890.871	4493
890.995	4443
891.118	4344
891.241	4527
891.364	4519
891.488	4630
891.611	4470
891.734	4497
891.857	4656
891.98	4580
892.103	4630
892.226	4588
892.349	4508
892.471	4443
892.594	4538
892.717	4588
892.839	4599
892.962	4626
893.085	4649
893.207	4580
893.33	4409
893.452	4497
893.575	4630
893.697	4569
893.819	4755
893.941	4835
894.064	4778
894.186	4531
894.308	4542
894.43	4725
894.552	4828
894.674	4771
894.796	4550
894.918	4558
895.04	4584
895.161	4729
895.283	4660
895.405	4584
895.526	4675
895.648	4668
895.769	4664
895.891	4710
896.012	4763
896.134	4744
896.255	4660
896.376	4611
896.498	4611
896.619	4660
896.74	4569
896.861	4668
896.982	4904
897.103	5079
897.224	4820
897.345	4725
897.466	4653
897.587	4733
897.708	4812
897.828	4755
897.949	4626
898.07	4508
898.19	4634
898.311	4782
898.431	4653
898.552	4717
898.672	4839
898.792	4797
898.913	4748
899.033	4615
899.153	4512
899.273	4428
899.393	4489
899.513	4519
899.633	4516
899.753	4493
899.873	4500
899.993	4558
900.113	4500
900.232	4569
900.352	4493
900.472	4447
900.591	4367
900.711	4500
900.83	4379
900.95	4584
901.069	4645
901.189	4497
901.308	4386
901.427	4329
901.546	4390
901.665	4512
901.784	4508
901.904	4348
902.023	4352
902.141	4200
902.26	4169
902.379	4280
902.498	4227
902.617	4200
902.735	4375
902.854	4386
902.973	4268
903.091	4215
903.21	4200
903.328	4246
903.446	4276
903.565	4253
903.683	4310
903.801	4257
903.919	4379
904.038	4466
904.156	4268
904.274	4386
904.392	4390
904.51	4398
904.627	4451
904.745	4596
904.863	4577
904.981	4371
905.098	4291
905.216	4341
905.334	4451
905.451	4417
905.569	4421
905.686	4550
905.803	4561
905.921	4405
906.038	4523
906.155	4413
906.272	4344
906.389	4413
906.506	4299
906.623	4371
906.74	4344
906.857	4306
906.974	4329
907.091	4588
907.208	4656
907.324	4554
907.441	4489
907.557	4287
907.674	4367
907.79	4314
907.907	4379
908.023	4508
908.139	4447
908.256	4459
908.372	4500
908.488	4413
908.604	4344
908.72	4284
908.836	4337
908.952	4348
909.068	4440
909.184	4607
909.3	4504
909.415	4569
909.531	4546
909.647	4284
909.762	4363
909.878	4337
909.993	4462
910.108	4428
910.224	4405
910.339	4474
910.454	4424
910.57	4360
910.685	4291
910.8	4649
910.915	4637
911.03	4497
911.145	4337
911.259	4310
911.374	4394
911.489	4314
911.604	4257
911.718	4185
911.833	4177
911.947	4086
912.062	4040
912.176	4207
912.291	4242
912.405	4280
912.519	4462
912.633	4500
912.748	4394
912.862	4306
912.976	4207
913.09	4112
913.204	4166
913.318	4242
913.431	4409
913.545	4394
913.659	4481
913.772	4386
913.886	4295
914	4227
914.113	4413
914.226	4459
914.34	4417
914.453	4223
914.566	4455
914.68	4352
914.793	4383
914.906	4162
915.019	4173
915.132	4101
915.245	4219
915.358	4272
915.47	4211
915.583	4329
915.696	4329
915.809	4428
915.921	4478
916.034	4287
916.146	4287
916.259	4230
916.371	4432
916.483	4405
916.595	4299
916.708	4337
916.82	4348
916.932	4363
917.044	4417
917.156	4383
917.268	4227
917.38	4310
917.491	4295
917.603	4341
917.715	4466
917.826	4459
917.938	4379
918.049	4329
918.161	4455
918.272	4584
918.384	4561
918.495	4497
918.606	4318
918.717	4249
918.828	4375
918.939	4440
919.05	4303
919.161	4341
919.272	4204
919.383	4268
919.494	4485
919.604	4641
919.715	4447
919.826	4447
919.936	4493
920.047	4519
920.157	4493
920.267	4736
920.378	4538
920.488	4523
920.598	4763
920.708	4896
920.818	4786
920.928	4759
921.038	4942
921.148	4999
921.258	4660
921.368	4599
921.477	4554
921.587	4504
921.697	4436
921.806	4603
921.916	4459
922.025	4341
922.134	4314
922.244	4265
922.353	4379
922.462	4211
922.571	4181
922.68	4051
922.789	4021
922.898	4090
923.007	4036
923.116	4124
923.224	4082
923.333	4124
923.442	4067
923.55	4006
923.659	4032
923.767	4139
923.876	4036
923.984	4135
924.092	4029
924.201	4082
924.309	4131
924.417	4185
924.525	4139
924.633	4101
924.741	4915
924.849	3960
924.956	4162
925.064	4029
925.172	3915
925.279	3979
925.387	4063
925.494	4059
925.602	4219
925.709	4253
925.816	4078
925.924	4169
926.031	4242
926.138	4158
926.245	4242
926.352	4116
926.459	4291
926.566	4303
926.673	4211
926.779	4131
926.886	4109
926.993	3994
927.099	4013
927.206	3968
927.312	3987
927.419	4074
927.525	4078
927.631	4078
927.737	3987
927.843	3975
927.95	3808
928.056	4010
928.162	4048
928.267	4109
928.373	4755
928.479	4147
928.585	3907
928.69	4051
928.796	4097
928.901	3979
929.007	3846
929.112	4044
929.218	3975
929.323	3941
929.428	3979
929.533	4166
929.638	3945
929.743	3983
929.848	4071
929.953	4025
930.058	3991
930.163	3816
930.267	3876
930.372	3991
930.477	3808
930.581	4131
930.685	3983
930.79	3865
930.894	3937
930.998	3915
931.103	4040
931.207	3701
931.311	3724
931.415	3747
931.519	3568
931.623	3584
