Data from test_V78500241_1667.txt Node
Date: Fri Mar 25 17:00:35 CST 2022
User: usil
Spectrometer: V785-0024
Trigger mode: 0
Integration Time (sec): 4.000000E-1
Scans to average: 1
Nonlinearity correction enabled: false
Boxcar width: 0
Storing dark spectrum: false
XAxis mode: Wavelengths
Number of Pixels in Spectrum: 1024
>>>>>Begin Spectral Data<<<<<
801.071	8005
801.214	8008
801.356	7871
801.499	7803
801.641	7757
801.783	7799
801.926	7932
802.068	7944
802.211	7947
802.353	7978
802.496	7841
802.638	7883
802.78	7879
802.923	7887
803.065	7902
803.208	7890
803.35	7978
803.492	8069
803.635	8100
803.777	8065
803.919	8206
804.061	8465
804.204	8119
804.346	8039
804.488	7955
804.63	8111
804.773	7989
804.915	8126
805.057	8332
805.199	8164
805.341	8233
805.483	8218
805.626	8145
805.768	8138
805.91	8202
806.052	8267
806.194	8096
806.336	8332
806.478	8065
806.62	8043
806.762	8119
806.904	8286
807.046	8503
807.188	8332
807.33	8279
807.472	8332
807.614	8180
807.756	8180
807.898	8016
808.04	7963
808.182	7868
808.324	7909
808.465	7967
808.607	8081
808.749	8145
808.891	8130
809.033	8244
809.174	8206
809.316	8115
809.458	8046
809.6	7997
809.741	8027
809.883	8069
810.025	8126
810.166	8107
810.308	8035
810.45	7967
810.591	7841
810.733	7643
810.875	7578
811.016	7537
811.158	7472
811.299	7620
811.441	7750
811.582	7700
811.724	7597
811.865	7499
812.007	7575
812.148	7605
812.29	7605
812.431	7742
812.573	7902
812.714	7974
812.855	8168
812.997	8259
813.138	8351
813.279	8271
813.421	8100
813.562	8001
813.703	7826
813.845	7700
813.986	7396
814.127	7274
814.268	7209
814.41	7259
814.551	7141
814.692	7221
814.833	7076
814.974	7103
815.115	7171
815.256	6932
815.397	6970
815.539	6977
815.68	6833
815.821	6783
815.962	6829
816.103	6875
816.244	6715
816.385	6559
816.526	6646
816.666	6460
816.807	6342
816.948	6471
817.089	6483
817.23	6429
817.371	6369
817.512	6331
817.653	6395
817.793	6361
817.934	6479
818.075	6418
818.216	6414
818.356	6429
818.497	6262
818.638	6163
818.778	6121
818.919	6167
819.06	6167
819.2	6311
819.341	6292
819.481	6433
819.622	6566
819.762	6776
819.903	6665
820.043	6623
820.184	6623
820.324	6585
820.465	6673
820.605	6662
820.746	6608
820.886	6570
821.026	6684
821.167	6719
821.307	6795
821.447	6730
821.588	6620
821.728	6540
821.868	6509
822.008	6300
822.149	6311
822.289	6357
822.429	6087
822.569	6083
822.709	6095
822.849	5901
822.99	5885
823.13	5916
823.27	5916
823.41	5775
823.55	5756
823.69	5794
823.83	5764
823.97	5608
824.11	5532
824.25	5482
824.389	5554
824.529	5558
824.669	5543
824.809	5646
824.949	5653
825.089	5573
825.228	5547
825.368	5357
825.508	5337
825.648	5345
825.787	5372
825.927	5387
826.067	5330
826.206	5265
826.346	5368
826.485	5395
826.625	5440
826.765	5585
826.904	5512
827.044	5254
827.183	5250
827.323	5147
827.462	5212
827.601	5147
827.741	5121
827.88	5212
828.02	5117
828.159	5181
828.298	5277
828.437	5349
828.577	5231
828.716	5444
828.855	5360
828.994	5132
829.134	5117
829.273	5155
829.412	5117
829.551	5151
829.69	5178
829.829	5246
829.968	5395
830.107	5261
830.246	5223
830.385	5174
830.524	5121
830.663	5067
830.802	4957
830.941	4820
831.08	4881
831.219	5003
831.357	4957
831.496	5185
831.635	4919
831.774	4850
831.913	4835
832.051	4717
832.19	4782
832.329	4801
832.467	4740
832.606	4607
832.744	4725
832.883	4740
833.022	4714
833.16	4725
833.299	4786
833.437	4797
833.576	4824
833.714	4843
833.852	4816
833.991	4854
834.129	4927
834.267	4953
834.406	4896
834.544	4942
834.682	5003
834.821	4953
834.959	5094
835.097	4980
835.235	5098
835.373	5060
835.511	5117
835.65	5060
835.788	4995
835.926	4831
836.064	4885
836.202	4900
836.34	5140
836.478	5136
836.615	5109
836.753	5178
836.891	5242
837.029	5242
837.167	5189
837.305	5204
837.443	5117
837.58	5071
837.718	5261
837.856	5189
837.993	5121
838.131	5265
838.269	5136
838.406	5189
838.544	5193
838.681	4984
838.819	4995
838.956	4824
839.094	4911
839.231	5010
839.369	5083
839.506	5433
839.643	5269
839.781	5010
839.918	5003
840.055	5079
840.193	5033
840.33	5056
840.467	5128
840.604	5151
840.742	5444
840.879	5090
841.016	5083
841.153	5132
841.29	5402
841.427	5326
841.564	5292
841.701	5349
841.838	5318
841.975	5250
842.112	5269
842.249	5090
842.385	5071
842.522	5311
842.659	5162
842.796	5128
842.933	5223
843.069	5185
843.206	5159
843.343	5345
843.479	5216
843.616	5235
843.752	5060
843.889	4946
844.025	5197
844.162	4987
844.298	5178
844.435	5067
844.571	5018
844.708	5124
844.844	5307
844.98	5337
845.117	5239
845.253	5147
845.389	5105
845.525	5109
845.661	5105
845.798	5064
845.934	5105
846.07	5109
846.206	5189
846.342	5318
846.478	5174
846.614	4999
846.75	4965
846.886	4949
847.022	5124
847.158	4984
847.294	5056
847.429	5079
847.565	5075
847.701	5273
847.837	4809
847.972	4839
848.108	4968
848.244	4949
848.379	4733
848.515	4721
848.65	4675
848.786	4763
848.921	4820
849.057	4862
849.192	4934
849.328	4767
849.463	4843
849.598	4774
849.734	4771
849.869	4698
850.004	4626
850.14	4626
850.275	4542
850.41	4527
850.545	4569
850.68	4569
850.815	4634
850.95	4577
851.085	4828
851.22	4691
851.355	4660
851.49	4607
851.625	4599
851.76	4649
851.895	4527
852.03	4519
852.165	4615
852.299	4668
852.434	4782
852.569	4755
852.703	4797
852.838	4831
852.973	4934
853.107	4835
853.242	4736
853.376	4660
853.511	4535
853.645	4603
853.78	4763
853.914	4683
854.048	4721
854.183	4653
854.317	4694
854.451	4850
854.585	4702
854.72	4645
854.854	4778
854.988	4592
855.122	4630
855.256	4558
855.39	4694
855.524	4801
855.658	4721
855.792	4649
855.926	4721
856.06	4771
856.194	4805
856.327	4691
856.461	4615
856.595	4603
856.729	4630
856.862	4763
856.996	4717
857.13	4721
857.263	4740
857.397	4771
857.53	4615
857.664	4698
857.797	4763
857.931	4793
858.064	4649
858.197	4725
858.331	4649
858.464	4584
858.597	4478
858.731	4641
858.864	4615
858.997	4573
859.13	4634
859.263	4672
859.396	4672
859.529	4535
859.662	4535
859.795	4504
859.928	4679
860.061	4786
860.194	4759
860.327	4588
860.46	4546
860.592	4774
860.725	4733
860.858	4687
860.99	4561
861.123	4538
861.256	4538
861.388	4577
861.521	5296
861.653	4466
861.786	4443
861.918	4474
862.05	4584
862.183	4516
862.315	4596
862.447	4641
862.58	4531
862.712	4440
862.844	4306
862.976	4485
863.108	4451
863.24	4763
863.372	4284
863.504	4390
863.636	4394
863.768	4478
863.9	4417
864.032	4367
864.164	4402
864.296	4478
864.428	4531
864.559	4554
864.691	4512
864.823	4512
864.954	4485
865.086	4485
865.217	4447
865.349	4428
865.48	4485
865.612	4462
865.743	4580
865.875	4447
866.006	4421
866.137	4459
866.269	4451
866.4	4466
866.531	4394
866.662	4402
866.793	4394
866.924	4363
867.055	4466
867.186	4421
867.317	4424
867.448	4394
867.579	4371
867.71	4451
867.841	4367
867.972	4440
868.103	4489
868.233	4440
868.364	4417
868.495	4462
868.625	4683
868.756	4706
868.886	4546
869.017	4622
869.147	4752
869.278	4755
869.408	4653
869.539	4630
869.669	4698
869.799	4664
869.929	4717
870.06	4714
870.19	4949
870.32	4877
870.45	4892
870.58	5018
870.71	5033
870.84	5090
870.97	4930
871.1	4930
871.23	5132
871.36	5136
871.489	5003
871.619	5086
871.749	5060
871.879	5113
872.008	5136
872.138	5075
872.267	5025
872.397	4831
872.526	4782
872.656	4702
872.785	4793
872.915	4915
873.044	5029
873.173	4923
873.303	4946
873.432	4938
873.561	4953
873.69	4847
873.819	4900
873.948	4930
874.077	4854
874.206	4759
874.335	4793
874.464	4946
874.593	5064
874.722	4984
874.851	5117
874.979	5033
875.108	5041
875.237	4923
875.365	4885
875.494	4858
875.623	4991
875.751	4835
875.88	4850
876.008	4991
876.136	5086
876.265	5147
876.393	5292
876.521	5231
876.65	5166
876.778	5151
876.906	5098
877.034	5022
877.162	5022
877.29	4923
877.418	5056
877.546	5041
877.674	5041
877.802	5018
877.93	5018
878.058	4965
878.185	4866
878.313	4934
878.441	4930
878.568	4755
878.696	4892
878.824	4923
878.951	4999
879.079	5102
879.206	5258
879.333	5140
879.461	4965
879.588	4972
879.715	5098
879.842	5193
879.97	5025
880.097	4759
880.224	4774
880.351	4812
880.478	4824
880.605	4797
880.732	4801
880.859	5094
880.986	4892
881.112	4900
881.239	4755
881.366	4634
881.493	4565
881.619	4550
881.746	4679
881.872	4622
881.999	4675
882.125	4672
882.252	4771
882.378	4839
882.505	4938
882.631	4786
882.757	4675
882.883	4729
883.01	4721
883.136	4679
883.262	4607
883.388	4596
883.514	4782
883.64	4820
883.766	4805
883.892	4660
884.018	4717
884.143	4889
884.269	5010
884.395	4679
884.52	4675
884.646	4660
884.772	4577
884.897	4580
885.023	4691
885.148	4790
885.274	4862
885.399	4797
885.524	4694
885.65	4664
885.775	4736
885.9	4721
886.025	4850
886.15	4748
886.275	4725
886.4	4694
886.525	4675
886.65	4683
886.775	4691
886.9	4991
887.025	5006
887.149	4824
887.274	4687
887.399	4561
887.523	4615
887.648	4603
887.773	4588
887.897	4721
888.021	4759
888.146	4637
888.27	4839
888.395	4831
888.519	4755
888.643	4790
888.767	4824
888.891	4656
889.015	4580
889.139	4603
889.263	4618
889.387	4729
889.511	4820
889.635	4782
889.759	4649
889.883	4645
890.006	4763
890.13	4843
890.254	4615
890.377	4668
890.501	4516
890.624	4504
890.748	4618
890.871	4470
890.995	4428
891.118	4398
891.241	4500
891.364	4531
891.488	4622
891.611	4504
891.734	4523
891.857	4603
891.98	4527
892.103	4649
892.226	4630
892.349	4561
892.471	4485
892.594	4558
892.717	4599
892.839	4542
892.962	4527
893.085	4630
893.207	4618
893.33	4478
893.452	4535
893.575	4672
893.697	4561
893.819	4774
893.941	4774
894.064	4774
894.186	4607
894.308	4565
894.43	4668
894.552	4782
894.674	4744
894.796	4573
894.918	4558
895.04	4565
895.161	4702
895.283	4679
895.405	4577
895.526	4615
895.648	4668
895.769	4656
895.891	4691
896.012	4736
896.134	4714
896.255	4656
896.376	4599
896.498	4573
896.619	4706
896.74	4611
896.861	4698
896.982	4892
897.103	5048
897.224	4828
897.345	4782
897.466	4649
897.587	4752
897.708	4820
897.828	4816
897.949	4653
898.07	4573
898.19	4603
898.311	4809
898.431	4691
898.552	4729
898.672	4824
898.792	4778
898.913	4755
899.033	4683
899.153	4504
899.273	4424
899.393	4493
899.513	4497
899.633	4538
899.753	4554
899.873	4447
899.993	4558
900.113	4535
900.232	4569
900.352	4466
900.472	4500
900.591	4383
900.711	4478
900.83	4409
900.95	4611
901.069	4660
901.189	4527
901.308	4329
901.427	4344
901.546	4360
901.665	4428
901.784	4523
901.904	4363
902.023	4371
902.141	4227
902.26	4169
902.379	4322
902.498	4242
902.617	4211
902.735	4348
902.854	4413
902.973	4337
903.091	4169
903.21	4238
903.328	4314
903.446	4253
903.565	4261
903.683	4394
903.801	4265
903.919	4409
904.038	4421
904.156	4344
904.274	4485
904.392	4417
904.51	4451
904.627	4493
904.745	4577
904.863	4626
904.981	4386
905.098	4303
905.216	4356
905.334	4428
905.451	4432
905.569	4424
905.686	4565
905.803	4611
905.921	4390
906.038	4519
906.155	4481
906.272	4360
906.389	4443
906.506	4375
906.623	4314
906.74	4394
906.857	4303
906.974	4295
907.091	4542
907.208	4691
907.324	4542
907.441	4531
907.557	4344
907.674	4314
907.79	4325
907.907	4417
908.023	4519
908.139	4459
908.256	4428
908.372	4481
908.488	4459
908.604	4360
908.72	4363
908.836	4371
908.952	4360
909.068	4417
909.184	4558
909.3	4527
909.415	4573
909.531	4550
909.647	4337
909.762	4428
909.878	4375
909.993	4428
910.108	4402
910.224	4417
910.339	4459
910.454	4409
910.57	4333
910.685	4322
910.8	4626
910.915	4584
911.03	4504
911.145	4318
911.259	4341
911.374	4409
911.489	4257
911.604	4291
911.718	4135
911.833	4158
911.947	4051
912.062	4044
912.176	4169
912.291	4242
912.405	4230
912.519	4451
912.633	4523
912.748	4424
912.862	4329
912.976	4211
913.09	4097
913.204	4162
913.318	4265
913.431	4341
913.545	4337
913.659	4436
913.772	4394
913.886	4265
914	4227
914.113	4383
914.226	4409
914.34	4371
914.453	4200
914.566	4413
914.68	4306
914.793	4314
914.906	4166
915.019	4116
915.132	4059
915.245	4200
915.358	4207
915.47	4207
915.583	4284
915.696	4261
915.809	4402
915.921	4443
916.034	4261
916.146	4257
916.259	4169
916.371	4402
916.483	4329
916.595	4249
916.708	4348
916.82	4322
916.932	4329
917.044	4314
917.156	4329
917.268	4227
917.38	4287
917.491	4280
917.603	4284
917.715	4379
917.826	4432
917.938	4322
918.049	4211
918.161	4379
918.272	4599
918.384	4523
918.495	4455
918.606	4230
918.717	4238
918.828	4344
918.939	4363
919.05	4303
919.161	4333
919.272	4116
919.383	4215
919.494	4432
919.604	4603
919.715	4398
919.826	4314
919.936	4402
920.047	4508
920.157	4527
920.267	4675
920.378	4538
920.488	4512
920.598	4740
920.708	4847
920.818	4774
920.928	4736
921.038	4892
921.148	4911
921.258	4649
921.368	4554
921.477	4466
921.587	4421
921.697	4375
921.806	4519
921.916	4417
922.025	4310
922.134	4257
922.244	4204
922.353	4322
922.462	4173
922.571	4109
922.68	4013
922.789	3994
922.898	4010
923.007	4025
923.116	4090
923.224	4051
923.333	4051
923.442	3964
923.55	3987
923.659	4013
923.767	4105
923.876	4013
923.984	4131
924.092	4029
924.201	4074
924.309	4090
924.417	4139
924.525	4040
924.633	4086
924.741	4892
924.849	3941
924.956	4162
925.064	3956
925.172	3869
925.279	3937
925.387	4002
925.494	4078
925.602	4234
925.709	4196
925.816	4040
925.924	4093
926.031	4230
926.138	4200
926.245	4215
926.352	4116
926.459	4238
926.566	4322
926.673	4158
926.779	4067
926.886	4105
926.993	3964
927.099	3953
927.206	3949
927.312	3888
927.419	4059
927.525	4029
927.631	4074
927.737	4021
927.843	3915
927.95	3838
928.056	3945
928.162	4021
928.267	4071
928.373	4588
928.479	4105
928.585	3865
928.69	4025
928.796	4055
928.901	3953
929.007	3854
929.112	4013
929.218	3960
929.323	3926
929.428	3907
929.533	4093
929.638	3903
929.743	3941
929.848	4059
929.953	3998
930.058	3918
930.163	3766
930.267	3823
930.372	3983
930.477	3793
930.581	4090
930.685	3964
930.79	3800
930.894	3896
930.998	3884
931.103	4055
931.207	3736
931.311	3690
931.415	3637
931.519	3564
931.623	3561
