Data from test_V78500241_2684.txt Node
Date: Fri Mar 25 17:07:39 CST 2022
User: usil
Spectrometer: V785-0024
Trigger mode: 0
Integration Time (sec): 4.000000E-1
Scans to average: 1
Nonlinearity correction enabled: false
Boxcar width: 0
Storing dark spectrum: false
XAxis mode: Wavelengths
Number of Pixels in Spectrum: 1024
>>>>>Begin Spectral Data<<<<<
801.071	8027
801.214	8020
801.356	7917
801.499	7795
801.641	7799
801.783	7917
801.926	7978
802.068	7925
802.211	7978
802.353	7986
802.496	7913
802.638	7852
802.78	7932
802.923	7967
803.065	7902
803.208	7890
803.35	8027
803.492	8145
803.635	8183
803.777	7997
803.919	8164
804.061	8434
804.204	8206
804.346	8081
804.488	8039
804.63	8119
804.773	7978
804.915	8077
805.057	8305
805.199	8111
805.341	8172
805.483	8267
805.626	8282
805.768	8252
805.91	8256
806.052	8252
806.194	8123
806.336	8309
806.478	8073
806.62	8077
806.762	8157
806.904	8275
807.046	8450
807.188	8355
807.33	8355
807.472	8374
807.614	8149
807.756	8248
807.898	8084
808.04	7826
808.182	7917
808.324	7879
808.465	8024
808.607	8100
808.749	8161
808.891	8301
809.033	8301
809.174	8267
809.316	8134
809.458	8119
809.6	7978
809.741	8046
809.883	8138
810.025	8164
810.166	8092
810.308	8103
810.45	8035
810.591	7909
810.733	7807
810.875	7674
811.016	7582
811.158	7533
811.299	7681
811.441	7792
811.582	7750
811.724	7643
811.865	7582
812.007	7666
812.148	7616
812.29	7734
812.431	7780
812.573	7944
812.714	8039
812.855	8134
812.997	8286
813.138	8336
813.279	8298
813.421	8138
813.562	8043
813.703	7890
813.845	7799
813.986	7457
814.127	7297
814.268	7266
814.41	7236
814.551	7217
814.692	7221
814.833	7107
814.974	7107
815.115	7129
815.256	6985
815.397	6958
815.539	6970
815.68	6856
815.821	6818
815.962	6833
816.103	6890
816.244	6764
816.385	6700
816.526	6692
816.666	6506
816.807	6323
816.948	6467
817.089	6502
817.23	6445
817.371	6418
817.512	6429
817.653	6429
817.793	6429
817.934	6448
818.075	6528
818.216	6471
818.356	6414
818.497	6266
818.638	6136
818.778	6167
818.919	6209
819.06	6175
819.2	6323
819.341	6395
819.481	6357
819.622	6555
819.762	6825
819.903	6738
820.043	6715
820.184	6623
820.324	6642
820.465	6757
820.605	6715
820.746	6608
820.886	6536
821.026	6654
821.167	6806
821.307	6810
821.447	6768
821.588	6696
821.728	6608
821.868	6563
822.008	6395
822.149	6342
822.289	6372
822.429	6213
822.569	6117
822.709	6110
822.849	5927
822.99	5954
823.13	5923
823.27	5992
823.41	5874
823.55	5844
823.69	5817
823.83	5851
823.97	5691
824.11	5566
824.25	5532
824.389	5581
824.529	5646
824.669	5520
824.809	5653
824.949	5737
825.089	5668
825.228	5615
825.368	5452
825.508	5402
825.648	5288
825.787	5383
825.927	5425
826.067	5387
826.206	5303
826.346	5383
826.485	5425
826.625	5421
826.765	5562
826.904	5493
827.044	5250
827.183	5242
827.323	5181
827.462	5303
827.601	5189
827.741	5242
827.88	5242
828.02	5159
828.159	5250
828.298	5284
828.437	5330
828.577	5273
828.716	5482
828.855	5368
828.994	5265
829.134	5162
829.273	5189
829.412	5121
829.551	5178
829.69	5162
829.829	5216
829.968	5368
830.107	5284
830.246	5357
830.385	5227
830.524	5181
830.663	5132
830.802	4991
830.941	4957
831.08	4885
831.219	4987
831.357	5029
831.496	5204
831.635	4942
831.774	4885
831.913	4919
832.051	4774
832.19	4805
832.329	4889
832.467	4774
832.606	4679
832.744	4774
832.883	4805
833.022	4778
833.16	4831
833.299	4843
833.437	4835
833.576	4809
833.714	4854
833.852	4908
833.991	4904
834.129	4995
834.267	4991
834.406	4942
834.544	5006
834.682	4987
834.821	4934
834.959	5181
835.097	5025
835.235	5193
835.373	5071
835.511	5121
835.65	5071
835.788	4957
835.926	4930
836.064	4862
836.202	4965
836.34	5174
836.478	5280
836.615	5143
836.753	5208
836.891	5299
837.029	5261
837.167	5181
837.305	5185
837.443	5162
837.58	5094
837.718	5311
837.856	5178
837.993	5132
838.131	5178
838.269	5258
838.406	5208
838.544	5239
838.681	5075
838.819	5037
838.956	4915
839.094	4934
839.231	4972
839.369	5109
839.506	5459
839.643	5261
839.781	5045
839.918	5041
840.055	5109
840.193	5140
840.33	5094
840.467	5181
840.604	5189
840.742	5463
840.879	5109
841.016	5128
841.153	5147
841.29	5417
841.427	5353
841.564	5337
841.701	5379
841.838	5269
841.975	5239
842.112	5311
842.249	5132
842.385	5128
842.522	5372
842.659	5155
842.796	5181
842.933	5204
843.069	5155
843.206	5181
843.343	5307
843.479	5231
843.616	5235
843.752	5060
843.889	5018
844.025	5269
844.162	5083
844.298	5265
844.435	5132
844.571	5079
844.708	5208
844.844	5383
844.98	5357
845.117	5284
845.253	5159
845.389	5113
845.525	5220
845.661	5143
845.798	5090
845.934	5185
846.07	5056
846.206	5216
846.342	5360
846.478	5201
846.614	5083
846.75	5022
846.886	4976
847.022	5159
847.158	5067
847.294	5041
847.429	5170
847.565	5045
847.701	5353
847.837	4839
847.972	4858
848.108	4946
848.244	4946
848.379	4824
848.515	4759
848.65	4729
848.786	4778
848.921	4828
849.057	4847
849.192	4946
849.328	4858
849.463	4870
849.598	4820
849.734	4805
849.869	4691
850.004	4618
850.14	4675
850.275	4664
850.41	4554
850.545	4592
850.68	4634
850.815	4603
850.95	4664
851.085	4843
851.22	4755
851.355	4687
851.49	4615
851.625	4611
851.76	4702
851.895	4603
852.03	4519
852.165	4641
852.299	4729
852.434	4858
852.569	4774
852.703	4816
852.838	4843
852.973	4942
853.107	4919
853.242	4733
853.376	4717
853.511	4527
853.645	4618
853.78	4831
853.914	4725
854.048	4683
854.183	4664
854.317	4729
854.451	4862
854.585	4698
854.72	4645
854.854	4816
854.988	4592
855.122	4660
855.256	4542
855.39	4721
855.524	4805
855.658	4698
855.792	4748
855.926	4763
856.06	4759
856.194	4850
856.327	4717
856.461	4611
856.595	4634
856.729	4630
856.862	4809
856.996	4698
857.13	4717
857.263	4774
857.397	4786
857.53	4691
857.664	4717
857.797	4809
857.931	4771
858.064	4714
858.197	4755
858.331	4668
858.464	4615
858.597	4531
858.731	4714
858.864	4645
858.997	4618
859.13	4645
859.263	4637
859.396	4683
859.529	4565
859.662	4561
859.795	4500
859.928	4641
860.061	4774
860.194	4782
860.327	4626
860.46	4577
860.592	4717
860.725	4736
860.858	4748
860.99	4592
861.123	4538
861.256	4569
861.388	4615
861.521	5318
861.653	4478
861.786	4459
861.918	4512
862.05	4504
862.183	4550
862.315	4596
862.447	4641
862.58	4558
862.712	4417
862.844	4322
862.976	4478
863.108	4436
863.24	4816
863.372	4314
863.504	4421
863.636	4451
863.768	4508
863.9	4394
864.032	4390
864.164	4386
864.296	4478
864.428	4569
864.559	4584
864.691	4508
864.823	4588
864.954	4489
865.086	4519
865.217	4440
865.349	4455
865.48	4440
865.612	4474
865.743	4641
865.875	4516
866.006	4489
866.137	4470
866.269	4474
866.4	4428
866.531	4447
866.662	4402
866.793	4409
866.924	4421
867.055	4535
867.186	4428
867.317	4470
867.448	4428
867.579	4424
867.71	4436
867.841	4398
867.972	4459
868.103	4409
868.233	4436
868.364	4432
868.495	4497
868.625	4672
868.756	4767
868.886	4599
869.017	4626
869.147	4790
869.278	4740
869.408	4664
869.539	4634
869.669	4721
869.799	4694
869.929	4809
870.06	4755
870.19	4999
870.32	4953
870.45	4923
870.58	5010
870.71	5083
870.84	5041
870.97	4957
871.1	4900
871.23	5102
871.36	5098
871.489	4980
871.619	5067
871.749	5117
871.879	5132
872.008	5197
872.138	5098
872.267	4976
872.397	4896
872.526	4831
872.656	4691
872.785	4824
872.915	4972
873.044	5079
873.173	4949
873.303	4999
873.432	4976
873.561	4980
873.69	4877
873.819	4809
873.948	4847
874.077	4885
874.206	4752
874.335	4831
874.464	4919
874.593	5102
874.722	5003
874.851	5041
874.979	5056
875.108	5048
875.237	4923
875.365	4904
875.494	4930
875.623	4965
875.751	4877
875.88	4923
876.008	4972
876.136	5014
876.265	5216
876.393	5360
876.521	5227
876.65	5235
876.778	5117
876.906	5098
877.034	5025
877.162	5029
877.29	5018
877.418	5071
877.546	5048
877.674	5075
877.802	5048
877.93	5018
878.058	4984
878.185	4843
878.313	5018
878.441	4980
878.568	4782
878.696	4881
878.824	4953
878.951	5003
879.079	5151
879.206	5337
879.333	5079
879.461	4961
879.588	5003
879.715	5102
879.842	5258
879.97	5029
880.097	4793
880.224	4801
880.351	4809
880.478	4885
880.605	4831
880.732	4740
880.859	5124
880.986	4930
881.112	4949
881.239	4790
881.366	4675
881.493	4573
881.619	4584
881.746	4664
881.872	4672
881.999	4694
882.125	4691
882.252	4801
882.378	4782
882.505	4980
882.631	4812
882.757	4687
882.883	4744
883.01	4767
883.136	4710
883.262	4588
883.388	4618
883.514	4797
883.64	4904
883.766	4843
883.892	4653
884.018	4759
884.143	4927
884.269	5003
884.395	4687
884.52	4679
884.646	4634
884.772	4554
884.897	4584
885.023	4675
885.148	4824
885.274	4843
885.399	4850
885.524	4736
885.65	4725
885.775	4778
885.9	4714
886.025	4873
886.15	4862
886.275	4683
886.4	4649
886.525	4729
886.65	4717
886.775	4729
886.9	4961
887.025	5083
887.149	4774
887.274	4668
887.399	4611
887.523	4679
887.648	4603
887.773	4580
887.897	4752
888.021	4767
888.146	4672
888.27	4816
888.395	4889
888.519	4809
888.643	4816
888.767	4847
888.891	4717
889.015	4599
889.139	4656
889.263	4656
889.387	4748
889.511	4850
889.635	4809
889.759	4664
889.883	4641
890.006	4752
890.13	4870
890.254	4653
890.377	4675
890.501	4550
890.624	4519
890.748	4550
890.871	4508
890.995	4402
891.118	4421
891.241	4523
891.364	4512
891.488	4611
891.611	4523
891.734	4561
891.857	4653
891.98	4516
892.103	4634
892.226	4630
892.349	4516
892.471	4443
892.594	4558
892.717	4558
892.839	4573
892.962	4592
893.085	4683
893.207	4611
893.33	4485
893.452	4500
893.575	4618
893.697	4599
893.819	4752
893.941	4858
894.064	4767
894.186	4580
894.308	4580
894.43	4744
894.552	4835
894.674	4740
894.796	4580
894.918	4550
895.04	4596
895.161	4672
895.283	4649
895.405	4626
895.526	4637
895.648	4679
895.769	4698
895.891	4744
896.012	4771
896.134	4717
896.255	4694
896.376	4645
896.498	4596
896.619	4679
896.74	4641
896.861	4645
896.982	4896
897.103	5102
897.224	4862
897.345	4740
897.466	4717
897.587	4698
897.708	4828
897.828	4771
897.949	4664
898.07	4550
898.19	4618
898.311	4847
898.431	4653
898.552	4786
898.672	4809
898.792	4839
898.913	4767
899.033	4645
899.153	4508
899.273	4508
899.393	4523
899.513	4531
899.633	4550
899.753	4531
899.873	4527
899.993	4603
900.113	4500
900.232	4580
900.352	4538
900.472	4497
900.591	4421
900.711	4535
900.83	4451
900.95	4558
901.069	4717
901.189	4535
901.308	4341
901.427	4314
901.546	4424
901.665	4436
901.784	4516
901.904	4451
902.023	4344
902.141	4219
902.26	4166
902.379	4333
902.498	4249
902.617	4204
902.735	4363
902.854	4390
902.973	4379
903.091	4230
903.21	4276
903.328	4310
903.446	4306
903.565	4230
903.683	4352
903.801	4306
903.919	4394
904.038	4409
904.156	4310
904.274	4424
904.392	4360
904.51	4466
904.627	4474
904.745	4565
904.863	4630
904.981	4394
905.098	4344
905.216	4409
905.334	4478
905.451	4424
905.569	4481
905.686	4558
905.803	4550
905.921	4436
906.038	4546
906.155	4485
906.272	4424
906.389	4436
906.506	4375
906.623	4394
906.74	4421
906.857	4303
906.974	4352
907.091	4573
907.208	4683
907.324	4596
907.441	4542
907.557	4341
907.674	4363
907.79	4341
907.907	4398
908.023	4512
908.139	4481
908.256	4432
908.372	4428
908.488	4481
908.604	4306
908.72	4303
908.836	4413
908.952	4352
909.068	4481
909.184	4527
909.3	4504
909.415	4519
909.531	4569
909.647	4333
909.762	4405
909.878	4360
909.993	4417
910.108	4409
910.224	4417
910.339	4462
910.454	4424
910.57	4383
910.685	4356
910.8	4664
910.915	4626
911.03	4527
911.145	4303
911.259	4363
911.374	4341
911.489	4303
911.604	4280
911.718	4185
911.833	4124
911.947	4135
912.062	4040
912.176	4230
912.291	4268
912.405	4200
912.519	4462
912.633	4504
912.748	4379
912.862	4337
912.976	4185
913.09	4090
913.204	4177
913.318	4295
913.431	4367
913.545	4383
913.659	4409
913.772	4337
913.886	4227
914	4246
914.113	4360
914.226	4424
914.34	4390
914.453	4253
914.566	4417
914.68	4314
914.793	4329
914.906	4166
915.019	4128
915.132	4090
915.245	4196
915.358	4207
915.47	4223
915.583	4223
915.696	4314
915.809	4432
915.921	4402
916.034	4253
916.146	4238
916.259	4268
916.371	4337
916.483	4329
916.595	4257
916.708	4325
916.82	4325
916.932	4333
917.044	4291
917.156	4390
917.268	4246
917.38	4276
917.491	4268
917.603	4394
917.715	4402
917.826	4402
917.938	4344
918.049	4253
918.161	4383
918.272	4497
918.384	4470
918.495	4440
918.606	4272
918.717	4219
918.828	4314
918.939	4333
919.05	4276
919.161	4310
919.272	4112
919.383	4219
919.494	4474
919.604	4649
919.715	4363
919.826	4405
919.936	4386
920.047	4500
920.157	4485
920.267	4714
920.378	4558
920.488	4489
920.598	4752
920.708	4850
920.818	4733
920.928	4744
921.038	4938
921.148	4927
921.258	4615
921.368	4603
921.477	4462
921.587	4481
921.697	4386
921.806	4546
921.916	4424
922.025	4227
922.134	4287
922.244	4257
922.353	4325
922.462	4200
922.571	4116
922.68	3987
922.789	3964
922.898	4036
923.007	4013
923.116	4082
923.224	4063
923.333	4112
923.442	4010
923.55	3937
923.659	3994
923.767	4059
923.876	4032
923.984	4082
924.092	4006
924.201	4074
924.309	4112
924.417	4120
924.525	4006
924.633	4101
924.741	5102
924.849	3934
924.956	4101
925.064	3945
925.172	3896
925.279	3960
925.387	4036
925.494	4029
925.602	4200
925.709	4124
925.816	4048
925.924	4135
926.031	4227
926.138	4169
926.245	4143
926.352	4086
926.459	4234
926.566	4287
926.673	4093
926.779	4112
926.886	4105
926.993	3975
927.099	3930
927.206	3937
927.312	3934
927.419	4048
927.525	4013
927.631	4128
927.737	3960
927.843	3926
927.95	3865
928.056	3941
928.162	3964
928.267	4036
928.373	4561
928.479	4139
928.585	3861
928.69	4032
928.796	4067
928.901	3998
929.007	3896
929.112	4021
929.218	3968
929.323	3975
929.428	3922
929.533	4082
929.638	3926
929.743	3918
929.848	4074
929.953	3991
930.058	3918
930.163	3766
930.267	3850
930.372	3979
930.477	3789
930.581	4071
930.685	3945
930.79	3854
930.894	3937
930.998	3857
931.103	4002
931.207	3671
931.311	3701
931.415	3709
931.519	3515
931.623	3572
