Data from test_V78500241_1637.txt Node
Date: Fri Mar 25 17:00:23 CST 2022
User: usil
Spectrometer: V785-0024
Trigger mode: 0
Integration Time (sec): 4.000000E-1
Scans to average: 1
Nonlinearity correction enabled: false
Boxcar width: 0
Storing dark spectrum: false
XAxis mode: Wavelengths
Number of Pixels in Spectrum: 1024
>>>>>Begin Spectral Data<<<<<
801.071	8092
801.214	8058
801.356	7849
801.499	7940
801.641	7826
801.783	7826
801.926	7974
802.068	7963
802.211	7997
802.353	7978
802.496	7807
802.638	7913
802.78	7928
802.923	7959
803.065	7849
803.208	7822
803.35	7936
803.492	8065
803.635	8301
803.777	8062
803.919	8077
804.061	8511
804.204	8176
804.346	8054
804.488	7989
804.63	8031
804.773	8092
804.915	8145
805.057	8214
805.199	8168
805.341	8218
805.483	8294
805.626	8237
805.768	8115
805.91	8237
806.052	8256
806.194	8111
806.336	8267
806.478	8111
806.62	8039
806.762	8210
806.904	8282
807.046	8450
807.188	8408
807.33	8267
807.472	8271
807.614	8225
807.756	8176
807.898	8027
808.04	7928
808.182	7871
808.324	7864
808.465	7887
808.607	8073
808.749	8088
808.891	8164
809.033	8305
809.174	8180
809.316	8035
809.458	8050
809.6	8115
809.741	8050
809.883	8043
810.025	8138
810.166	8050
810.308	7993
810.45	7986
810.591	7841
810.733	7670
810.875	7597
811.016	7453
811.158	7358
811.299	7639
811.441	7643
811.582	7734
811.724	7609
811.865	7487
812.007	7533
812.148	7521
812.29	7639
812.431	7746
812.573	7887
812.714	7925
812.855	8084
812.997	8210
813.138	8271
813.279	8248
813.421	8100
813.562	7963
813.703	7765
813.845	7731
813.986	7407
814.127	7263
814.268	7213
814.41	7198
814.551	7160
814.692	7168
814.833	7137
814.974	7095
815.115	7118
815.256	6954
815.397	6897
815.539	6909
815.68	6833
815.821	6818
815.962	6856
816.103	6818
816.244	6730
816.385	6582
816.526	6589
816.666	6475
816.807	6327
816.948	6445
817.089	6460
817.23	6429
817.371	6369
817.512	6399
817.653	6437
817.793	6331
817.934	6395
818.075	6490
818.216	6380
818.356	6422
818.497	6270
818.638	6136
818.778	6182
818.919	6106
819.06	6159
819.2	6319
819.341	6357
819.481	6388
819.622	6555
819.762	6764
819.903	6692
820.043	6597
820.184	6601
820.324	6601
820.465	6734
820.605	6654
820.746	6616
820.886	6506
821.026	6642
821.167	6684
821.307	6768
821.447	6768
821.588	6692
821.728	6582
821.868	6456
822.008	6323
822.149	6353
822.289	6342
822.429	6163
822.569	6155
822.709	6072
822.849	5939
822.99	5866
823.13	5942
823.27	5920
823.41	5767
823.55	5813
823.69	5786
823.83	5809
823.97	5592
824.11	5524
824.25	5467
824.389	5547
824.529	5570
824.669	5539
824.809	5657
824.949	5619
825.089	5547
825.228	5539
825.368	5379
825.508	5379
825.648	5391
825.787	5387
825.927	5357
826.067	5303
826.206	5303
826.346	5364
826.485	5429
826.625	5440
826.765	5490
826.904	5417
827.044	5265
827.183	5239
827.323	5102
827.462	5265
827.601	5170
827.741	5155
827.88	5178
828.02	5098
828.159	5201
828.298	5326
828.437	5326
828.577	5273
828.716	5535
828.855	5330
828.994	5170
829.134	5178
829.273	5193
829.412	5102
829.551	5113
829.69	5178
829.829	5284
829.968	5360
830.107	5246
830.246	5246
830.385	5185
830.524	5117
830.663	5083
830.802	4961
830.941	4870
831.08	4858
831.219	4968
831.357	4980
831.496	5140
831.635	4923
831.774	4862
831.913	4866
832.051	4702
832.19	4744
832.329	4771
832.467	4725
832.606	4618
832.744	4702
832.883	4717
833.022	4725
833.16	4733
833.299	4820
833.437	4816
833.576	4828
833.714	4839
833.852	4870
833.991	4873
834.129	4934
834.267	4919
834.406	4904
834.544	4965
834.682	4938
834.821	4984
834.959	5227
835.097	5006
835.235	5166
835.373	5121
835.511	5178
835.65	4995
835.788	5006
835.926	4885
836.064	4877
836.202	4927
836.34	5170
836.478	5201
836.615	5105
836.753	5193
836.891	5326
837.029	5284
837.167	5185
837.305	5208
837.443	5124
837.58	5121
837.718	5250
837.856	5170
837.993	5143
838.131	5201
838.269	5212
838.406	5216
838.544	5204
838.681	5067
838.819	4968
838.956	4831
839.094	4877
839.231	4991
839.369	5128
839.506	5452
839.643	5261
839.781	5022
839.918	5006
840.055	5098
840.193	5128
840.33	5124
840.467	5079
840.604	5189
840.742	5395
840.879	5064
841.016	5075
841.153	5159
841.29	5376
841.427	5337
841.564	5326
841.701	5311
841.838	5250
841.975	5212
842.112	5265
842.249	5147
842.385	5086
842.522	5349
842.659	5136
842.796	5189
842.933	5216
843.069	5143
843.206	5159
843.343	5341
843.479	5239
843.616	5280
843.752	5010
843.889	4965
844.025	5201
844.162	4972
844.298	5178
844.435	5045
844.571	5029
844.708	5193
844.844	5280
844.98	5353
845.117	5265
845.253	5143
845.389	5090
845.525	5162
845.661	5121
845.798	5048
845.934	5102
846.07	5075
846.206	5121
846.342	5299
846.478	5189
846.614	4953
846.75	4957
846.886	4904
847.022	5147
847.158	5006
847.294	5079
847.429	5045
847.565	4991
847.701	5292
847.837	4809
847.972	4801
848.108	4999
848.244	4949
848.379	4790
848.515	4740
848.65	4736
848.786	4763
848.921	4786
849.057	4870
849.192	4877
849.328	4763
849.463	4793
849.598	4831
849.734	4778
849.869	4649
850.004	4607
850.14	4717
850.275	4599
850.41	4550
850.545	4565
850.68	4596
850.815	4531
850.95	4565
851.085	4831
851.22	4763
851.355	4679
851.49	4645
851.625	4630
851.76	4596
851.895	4542
852.03	4569
852.165	4649
852.299	4736
852.434	4816
852.569	4687
852.703	4771
852.838	4763
852.973	4885
853.107	4908
853.242	4710
853.376	4710
853.511	4550
853.645	4630
853.78	4790
853.914	4664
854.048	4664
854.183	4603
854.317	4694
854.451	4847
854.585	4660
854.72	4618
854.854	4755
854.988	4611
855.122	4645
855.256	4489
855.39	4660
855.524	4752
855.658	4721
855.792	4660
855.926	4687
856.06	4771
856.194	4767
856.327	4683
856.461	4596
856.595	4622
856.729	4611
856.862	4748
856.996	4668
857.13	4767
857.263	4748
857.397	4801
857.53	4630
857.664	4733
857.797	4786
857.931	4786
858.064	4698
858.197	4721
858.331	4653
858.464	4615
858.597	4519
858.731	4649
858.864	4649
858.997	4558
859.13	4645
859.263	4675
859.396	4653
859.529	4596
859.662	4550
859.795	4538
859.928	4630
860.061	4759
860.194	4725
860.327	4569
860.46	4561
860.592	4672
860.725	4706
860.858	4675
860.99	4573
861.123	4504
861.256	4508
861.388	4599
861.521	5189
861.653	4470
861.786	4447
861.918	4462
862.05	4527
862.183	4527
862.315	4615
862.447	4634
862.58	4561
862.712	4367
862.844	4341
862.976	4428
863.108	4421
863.24	4752
863.372	4337
863.504	4413
863.636	4360
863.768	4500
863.9	4421
864.032	4375
864.164	4432
864.296	4466
864.428	4489
864.559	4580
864.691	4523
864.823	4516
864.954	4432
865.086	4546
865.217	4485
865.349	4428
865.48	4462
865.612	4470
865.743	4653
865.875	4409
866.006	4409
866.137	4447
866.269	4436
866.4	4413
866.531	4413
866.662	4421
866.793	4394
866.924	4390
867.055	4493
867.186	4462
867.317	4363
867.448	4337
867.579	4405
867.71	4390
867.841	4360
867.972	4443
868.103	4451
868.233	4470
868.364	4409
868.495	4485
868.625	4653
868.756	4771
868.886	4596
869.017	4588
869.147	4736
869.278	4691
869.408	4649
869.539	4580
869.669	4672
869.799	4607
869.929	4797
870.06	4778
870.19	4908
870.32	4915
870.45	4942
870.58	4999
870.71	5105
870.84	5079
870.97	4961
871.1	4889
871.23	5124
871.36	5071
871.489	5033
871.619	5045
871.749	5083
871.879	5102
872.008	5201
872.138	5041
872.267	4961
872.397	4835
872.526	4820
872.656	4694
872.785	4771
872.915	4942
873.044	5022
873.173	4919
873.303	5025
873.432	4942
873.561	4942
873.69	4892
873.819	4839
873.948	4923
874.077	4778
874.206	4748
874.335	4812
874.464	4911
874.593	5041
874.722	4927
874.851	5048
874.979	5124
875.108	5056
875.237	4911
875.365	4904
875.494	4870
875.623	5003
875.751	4854
875.88	4885
876.008	4961
876.136	5064
876.265	5147
876.393	5303
876.521	5197
876.65	5246
876.778	5143
876.906	5048
877.034	5060
877.162	4999
877.29	4942
877.418	5037
877.546	5033
877.674	5045
877.802	5022
877.93	4968
878.058	4908
878.185	4934
878.313	4957
878.441	4934
878.568	4790
878.696	4862
878.824	4927
878.951	4991
879.079	5174
879.206	5273
879.333	5064
879.461	4965
879.588	4965
879.715	5086
879.842	5193
879.97	4972
880.097	4854
880.224	4748
880.351	4774
880.478	4820
880.605	4759
880.732	4771
880.859	5071
880.986	4843
881.112	4881
881.239	4786
881.366	4637
881.493	4611
881.619	4523
881.746	4622
881.872	4645
881.999	4637
882.125	4691
882.252	4809
882.378	4820
882.505	4949
882.631	4755
882.757	4649
882.883	4733
883.01	4767
883.136	4645
883.262	4542
883.388	4558
883.514	4763
883.64	4877
883.766	4778
883.892	4653
884.018	4702
884.143	4904
884.269	5033
884.395	4622
884.52	4599
884.646	4626
884.772	4554
884.897	4508
885.023	4645
885.148	4786
885.274	4843
885.399	4831
885.524	4691
885.65	4706
885.775	4763
885.9	4714
886.025	4847
886.15	4790
886.275	4645
886.4	4664
886.525	4752
886.65	4698
886.775	4672
886.9	4923
887.025	5060
887.149	4786
887.274	4649
887.399	4592
887.523	4618
887.648	4611
887.773	4538
887.897	4740
888.021	4774
888.146	4698
888.27	4782
888.395	4889
888.519	4790
888.643	4812
888.767	4843
888.891	4679
889.015	4580
889.139	4649
889.263	4538
889.387	4710
889.511	4854
889.635	4782
889.759	4615
889.883	4664
890.006	4702
890.13	4812
890.254	4637
890.377	4714
890.501	4573
890.624	4554
890.748	4615
890.871	4500
890.995	4455
891.118	4383
891.241	4504
891.364	4531
891.488	4599
891.611	4512
891.734	4550
891.857	4645
891.98	4523
892.103	4626
892.226	4599
892.349	4546
892.471	4402
892.594	4573
892.717	4641
892.839	4538
892.962	4615
893.085	4660
893.207	4622
893.33	4481
893.452	4478
893.575	4717
893.697	4580
893.819	4797
893.941	4790
894.064	4740
894.186	4573
894.308	4599
894.43	4733
894.552	4778
894.674	4763
894.796	4561
894.918	4577
895.04	4569
895.161	4683
895.283	4702
895.405	4519
895.526	4611
895.648	4649
895.769	4691
895.891	4710
896.012	4744
896.134	4656
896.255	4649
896.376	4634
896.498	4622
896.619	4634
896.74	4561
896.861	4679
896.982	4900
897.103	5071
897.224	4847
897.345	4710
897.466	4634
897.587	4729
897.708	4885
897.828	4801
897.949	4660
898.07	4573
898.19	4668
898.311	4828
898.431	4698
898.552	4694
898.672	4801
898.792	4786
898.913	4740
899.033	4634
899.153	4485
899.273	4394
899.393	4443
899.513	4527
899.633	4500
899.753	4523
899.873	4462
899.993	4554
900.113	4516
900.232	4580
900.352	4535
900.472	4455
900.591	4386
900.711	4481
900.83	4417
900.95	4584
901.069	4660
901.189	4542
901.308	4329
901.427	4284
901.546	4386
901.665	4451
901.784	4474
901.904	4402
902.023	4299
902.141	4158
902.26	4120
902.379	4249
902.498	4215
902.617	4204
902.735	4390
902.854	4371
902.973	4348
903.091	4192
903.21	4219
903.328	4287
903.446	4230
903.565	4261
903.683	4310
903.801	4314
903.919	4417
904.038	4451
904.156	4291
904.274	4432
904.392	4394
904.51	4440
904.627	4428
904.745	4519
904.863	4660
904.981	4375
905.098	4272
905.216	4394
905.334	4451
905.451	4402
905.569	4489
905.686	4550
905.803	4523
905.921	4413
906.038	4596
906.155	4455
906.272	4405
906.389	4470
906.506	4356
906.623	4360
906.74	4360
906.857	4303
906.974	4299
907.091	4538
907.208	4656
907.324	4584
907.441	4512
907.557	4344
907.674	4375
907.79	4299
907.907	4371
908.023	4478
908.139	4481
908.256	4455
908.372	4485
908.488	4462
908.604	4394
908.72	4284
908.836	4344
908.952	4383
909.068	4451
909.184	4596
909.3	4455
909.415	4607
909.531	4580
909.647	4371
909.762	4356
909.878	4344
909.993	4417
910.108	4398
910.224	4409
910.339	4516
910.454	4390
910.57	4367
910.685	4272
910.8	4683
910.915	4588
911.03	4504
911.145	4352
911.259	4318
911.374	4386
911.489	4276
911.604	4246
911.718	4200
911.833	4188
911.947	4112
912.062	3994
912.176	4242
912.291	4238
912.405	4268
912.519	4512
912.633	4493
912.748	4375
912.862	4310
912.976	4230
913.09	4116
913.204	4177
913.318	4234
913.431	4367
913.545	4363
913.659	4417
913.772	4356
913.886	4257
914	4188
914.113	4432
914.226	4405
914.34	4390
914.453	4268
914.566	4398
914.68	4276
914.793	4329
914.906	4169
915.019	4135
915.132	4067
915.245	4143
915.358	4185
915.47	4219
915.583	4257
915.696	4337
915.809	4409
915.921	4421
916.034	4234
916.146	4230
916.259	4192
916.371	4356
916.483	4352
916.595	4284
916.708	4291
916.82	4322
916.932	4322
917.044	4325
917.156	4303
917.268	4223
917.38	4284
917.491	4310
917.603	4363
917.715	4436
917.826	4451
917.938	4367
918.049	4215
918.161	4367
918.272	4474
918.384	4554
918.495	4440
918.606	4287
918.717	4181
918.828	4344
918.939	4314
919.05	4261
919.161	4333
919.272	4135
919.383	4185
919.494	4443
919.604	4626
919.715	4436
919.826	4287
919.936	4424
920.047	4546
920.157	4531
920.267	4698
920.378	4565
920.488	4542
920.598	4736
920.708	4892
920.818	4721
920.928	4759
921.038	4938
921.148	4885
921.258	4626
921.368	4561
921.477	4470
921.587	4428
921.697	4337
921.806	4519
921.916	4455
922.025	4303
922.134	4249
922.244	4215
922.353	4341
922.462	4143
922.571	4093
922.68	4044
922.789	3956
922.898	4032
923.007	3994
923.116	4074
923.224	4067
923.333	4071
923.442	4006
923.55	3979
923.659	4051
923.767	4082
923.876	3998
923.984	4173
924.092	3964
924.201	4078
924.309	4071
924.417	4143
924.525	4017
924.633	4082
924.741	4858
924.849	3903
924.956	4112
925.064	3953
925.172	3884
925.279	3945
925.387	4010
925.494	4090
925.602	4162
925.709	4234
925.816	4067
925.924	4131
926.031	4207
926.138	4162
926.245	4169
926.352	4135
926.459	4268
926.566	4246
926.673	4154
926.779	4071
926.886	4082
926.993	3964
927.099	3975
927.206	4002
927.312	3975
927.419	4036
927.525	4059
927.631	4067
927.737	3964
927.843	3934
927.95	3831
928.056	3968
928.162	3987
928.267	4082
928.373	4618
928.479	4131
928.585	3884
928.69	4025
928.796	4051
928.901	3956
929.007	3838
929.112	3991
929.218	3934
929.323	3960
929.428	3926
929.533	4074
929.638	3876
929.743	3953
929.848	4029
929.953	3987
930.058	3926
930.163	3778
930.267	3838
930.372	3968
930.477	3827
930.581	4078
930.685	3922
930.79	3838
930.894	3888
930.998	3869
931.103	4006
931.207	3732
931.311	3694
931.415	3663
931.519	3504
931.623	3545
