Data from test_V78500241_2439.txt Node
Date: Fri Mar 25 17:05:57 CST 2022
User: usil
Spectrometer: V785-0024
Trigger mode: 0
Integration Time (sec): 4.000000E-1
Scans to average: 1
Nonlinearity correction enabled: false
Boxcar width: 0
Storing dark spectrum: false
XAxis mode: Wavelengths
Number of Pixels in Spectrum: 1024
>>>>>Begin Spectral Data<<<<<
801.071	7970
801.214	8039
801.356	7890
801.499	7845
801.641	7868
801.783	7822
801.926	8024
802.068	7944
802.211	8001
802.353	7986
802.496	7936
802.638	7928
802.78	7898
802.923	7944
803.065	7925
803.208	7852
803.35	7986
803.492	8134
803.635	8176
803.777	8005
803.919	8069
804.061	8511
804.204	8244
804.346	8096
804.488	7944
804.63	8107
804.773	7982
804.915	8218
805.057	8271
805.199	8199
805.341	8126
805.483	8290
805.626	8237
805.768	8111
805.91	8225
806.052	8240
806.194	8073
806.336	8263
806.478	8149
806.62	8058
806.762	8073
806.904	8252
807.046	8446
807.188	8362
807.33	8301
807.472	8290
807.614	8191
807.756	8240
807.898	8016
808.04	7833
808.182	7913
808.324	7936
808.465	7925
808.607	8016
808.749	8039
808.891	8221
809.033	8404
809.174	8210
809.316	8145
809.458	8035
809.6	8073
809.741	8077
809.883	8005
810.025	8084
810.166	8119
810.308	8020
810.45	8069
810.591	7913
810.733	7765
810.875	7693
811.016	7525
811.158	7491
811.299	7578
811.441	7727
811.582	7666
811.724	7586
811.865	7533
812.007	7597
812.148	7632
812.29	7696
812.431	7727
812.573	7909
812.714	7989
812.855	8199
812.997	8233
813.138	8313
813.279	8199
813.421	8077
813.562	7944
813.703	7852
813.845	7746
813.986	7392
814.127	7259
814.268	7171
814.41	7209
814.551	7244
814.692	7324
814.833	7099
814.974	7171
815.115	7232
815.256	6977
815.397	6901
815.539	6951
815.68	6810
815.821	6806
815.962	6905
816.103	6878
816.244	6700
816.385	6635
816.526	6696
816.666	6544
816.807	6338
816.948	6513
817.089	6521
817.23	6448
817.371	6433
817.512	6433
817.653	6353
817.793	6342
817.934	6399
818.075	6471
818.216	6464
818.356	6388
818.497	6266
818.638	6110
818.778	6140
818.919	6201
819.06	6144
819.2	6380
819.341	6380
819.481	6407
819.622	6540
819.762	6764
819.903	6696
820.043	6589
820.184	6559
820.324	6578
820.465	6722
820.605	6681
820.746	6631
820.886	6570
821.026	6635
821.167	6749
821.307	6821
821.447	6772
821.588	6662
821.728	6654
821.868	6525
822.008	6399
822.149	6422
822.289	6407
822.429	6194
822.569	6125
822.709	6178
822.849	5897
822.99	5923
823.13	5927
823.27	5977
823.41	5836
823.55	5817
823.69	5794
823.83	5809
823.97	5684
824.11	5570
824.25	5535
824.389	5543
824.529	5619
824.669	5532
824.809	5676
824.949	5676
825.089	5703
825.228	5592
825.368	5486
825.508	5337
825.648	5334
825.787	5436
825.927	5387
826.067	5280
826.206	5383
826.346	5395
826.485	5391
826.625	5372
826.765	5585
826.904	5528
827.044	5273
827.183	5201
827.323	5162
827.462	5231
827.601	5155
827.741	5185
827.88	5212
828.02	5132
828.159	5284
828.298	5315
828.437	5368
828.577	5318
828.716	5497
828.855	5376
828.994	5121
829.134	5128
829.273	5170
829.412	5155
829.551	5166
829.69	5166
829.829	5258
829.968	5425
830.107	5273
830.246	5292
830.385	5189
830.524	5113
830.663	5025
830.802	5010
830.941	4908
831.08	4896
831.219	5014
831.357	4968
831.496	5170
831.635	4930
831.774	4866
831.913	4839
832.051	4767
832.19	4782
832.329	4866
832.467	4653
832.606	4653
832.744	4748
832.883	4698
833.022	4736
833.16	4809
833.299	4774
833.437	4809
833.576	4831
833.714	4873
833.852	4866
833.991	4938
834.129	4957
834.267	4919
834.406	4896
834.544	4987
834.682	4976
834.821	4987
834.959	5185
835.097	4995
835.235	5128
835.373	5109
835.511	5113
835.65	5083
835.788	5056
835.926	4904
836.064	4896
836.202	4889
836.34	5181
836.478	5254
836.615	5086
836.753	5216
836.891	5197
837.029	5246
837.167	5216
837.305	5143
837.443	5083
837.58	5064
837.718	5322
837.856	5231
837.993	5185
838.131	5254
838.269	5216
838.406	5170
838.544	5197
838.681	5056
838.819	5025
838.956	4953
839.094	4927
839.231	5006
839.369	5010
839.506	5444
839.643	5273
839.781	5048
839.918	5022
840.055	5105
840.193	5128
840.33	5185
840.467	5109
840.604	5239
840.742	5433
840.879	5094
841.016	5090
841.153	5155
841.29	5398
841.427	5360
841.564	5296
841.701	5303
841.838	5307
841.975	5239
842.112	5258
842.249	5132
842.385	5113
842.522	5326
842.659	5170
842.796	5155
842.933	5151
843.069	5159
843.206	5147
843.343	5261
843.479	5269
843.616	5250
843.752	5075
843.889	5067
844.025	5201
844.162	5033
844.298	5204
844.435	5048
844.571	4987
844.708	5159
844.844	5303
844.98	5410
845.117	5337
845.253	5132
845.389	5056
845.525	5208
845.661	5170
845.798	5048
845.934	5132
846.07	5033
846.206	5204
846.342	5204
846.478	5155
846.614	5022
846.75	4930
846.886	4972
847.022	5143
847.158	5048
847.294	5105
847.429	5067
847.565	5037
847.701	5326
847.837	4835
847.972	4843
848.108	4995
848.244	4968
848.379	4790
848.515	4748
848.65	4706
848.786	4782
848.921	4805
849.057	4854
849.192	4938
849.328	4828
849.463	4839
849.598	4793
849.734	4759
849.869	4687
850.004	4714
850.14	4645
850.275	4634
850.41	4558
850.545	4580
850.68	4618
850.815	4634
850.95	4641
851.085	4850
851.22	4717
851.355	4618
851.49	4622
851.625	4645
851.76	4615
851.895	4596
852.03	4588
852.165	4630
852.299	4774
852.434	4801
852.569	4782
852.703	4736
852.838	4801
852.973	4927
853.107	4953
853.242	4729
853.376	4645
853.511	4527
853.645	4580
853.78	4820
853.914	4687
854.048	4717
854.183	4668
854.317	4675
854.451	4850
854.585	4664
854.72	4596
854.854	4755
854.988	4584
855.122	4664
855.256	4558
855.39	4656
855.524	4755
855.658	4702
855.792	4706
855.926	4733
856.06	4744
856.194	4793
856.327	4698
856.461	4622
856.595	4592
856.729	4630
856.862	4733
856.996	4710
857.13	4717
857.263	4755
857.397	4839
857.53	4637
857.664	4710
857.797	4778
857.931	4744
858.064	4634
858.197	4767
858.331	4660
858.464	4626
858.597	4481
858.731	4634
858.864	4675
858.997	4592
859.13	4649
859.263	4660
859.396	4691
859.529	4542
859.662	4565
859.795	4508
859.928	4618
860.061	4793
860.194	4797
860.327	4599
860.46	4531
860.592	4755
860.725	4694
860.858	4691
860.99	4573
861.123	4519
861.256	4535
861.388	4653
861.521	5322
861.653	4481
861.786	4447
861.918	4436
862.05	4493
862.183	4569
862.315	4592
862.447	4630
862.58	4512
862.712	4402
862.844	4375
862.976	4489
863.108	4428
863.24	4759
863.372	4299
863.504	4417
863.636	4375
863.768	4462
863.9	4424
864.032	4390
864.164	4417
864.296	4474
864.428	4554
864.559	4558
864.691	4523
864.823	4474
864.954	4474
865.086	4447
865.217	4462
865.349	4402
865.48	4489
865.612	4516
865.743	4611
865.875	4462
866.006	4451
866.137	4440
866.269	4432
866.4	4409
866.531	4417
866.662	4398
866.793	4428
866.924	4440
867.055	4519
867.186	4421
867.317	4443
867.448	4390
867.579	4405
867.71	4386
867.841	4348
867.972	4440
868.103	4489
868.233	4459
868.364	4409
868.495	4459
868.625	4679
868.756	4793
868.886	4554
869.017	4637
869.147	4759
869.278	4752
869.408	4649
869.539	4615
869.669	4683
869.799	4679
869.929	4702
870.06	4748
870.19	4942
870.32	4915
870.45	4946
870.58	5006
870.71	5105
870.84	5136
870.97	4900
871.1	4881
871.23	5140
871.36	5056
871.489	5029
871.619	5064
871.749	5094
871.879	5128
872.008	5204
872.138	5071
872.267	4991
872.397	4820
872.526	4793
872.656	4740
872.785	4797
872.915	4999
873.044	5086
873.173	4949
873.303	5010
873.432	4961
873.561	4965
873.69	4923
873.819	4900
873.948	4885
874.077	4790
874.206	4782
874.335	4797
874.464	4949
874.593	5102
874.722	4968
874.851	5124
874.979	5086
875.108	4991
875.237	4904
875.365	4843
875.494	4873
875.623	4968
875.751	4824
875.88	4923
876.008	4984
876.136	5105
876.265	5204
876.393	5345
876.521	5269
876.65	5277
876.778	5193
876.906	5060
877.034	5045
877.162	5052
877.29	4999
877.418	5029
877.546	5045
877.674	5079
877.802	5071
877.93	5022
878.058	4949
878.185	4877
878.313	4946
878.441	4991
878.568	4809
878.696	4850
878.824	4927
878.951	4987
879.079	5117
879.206	5254
879.333	5113
879.461	4987
879.588	5014
879.715	5132
879.842	5216
879.97	4976
880.097	4793
880.224	4744
880.351	4801
880.478	4809
880.605	4790
880.732	4801
880.859	5060
880.986	4946
881.112	4877
881.239	4820
881.366	4675
881.493	4584
881.619	4622
881.746	4599
881.872	4645
881.999	4664
882.125	4687
882.252	4744
882.378	4835
882.505	5006
882.631	4774
882.757	4634
882.883	4755
883.01	4752
883.136	4630
883.262	4607
883.388	4622
883.514	4839
883.64	4828
883.766	4805
883.892	4675
884.018	4717
884.143	4885
884.269	5060
884.395	4683
884.52	4607
884.646	4664
884.772	4599
884.897	4618
885.023	4714
885.148	4805
885.274	4854
885.399	4774
885.524	4748
885.65	4691
885.775	4786
885.9	4710
886.025	4820
886.15	4793
886.275	4725
886.4	4645
886.525	4763
886.65	4660
886.775	4702
886.9	4889
887.025	5079
887.149	4786
887.274	4675
887.399	4630
887.523	4546
887.648	4550
887.773	4611
887.897	4774
888.021	4786
888.146	4694
888.27	4816
888.395	4930
888.519	4782
888.643	4748
888.767	4839
888.891	4675
889.015	4596
889.139	4618
889.263	4558
889.387	4812
889.511	4877
889.635	4809
889.759	4656
889.883	4645
890.006	4679
890.13	4839
890.254	4649
890.377	4683
890.501	4550
890.624	4489
890.748	4637
890.871	4512
890.995	4493
891.118	4379
891.241	4508
891.364	4516
891.488	4645
891.611	4508
891.734	4554
891.857	4615
891.98	4573
892.103	4603
892.226	4584
892.349	4512
892.471	4466
892.594	4535
892.717	4592
892.839	4573
892.962	4577
893.085	4637
893.207	4592
893.33	4478
893.452	4523
893.575	4675
893.697	4577
893.819	4763
893.941	4812
894.064	4782
894.186	4596
894.308	4523
894.43	4740
894.552	4778
894.674	4782
894.796	4481
894.918	4584
895.04	4561
895.161	4717
895.283	4664
895.405	4565
895.526	4615
895.648	4653
895.769	4729
895.891	4710
896.012	4767
896.134	4714
896.255	4668
896.376	4641
896.498	4603
896.619	4664
896.74	4588
896.861	4615
896.982	4930
897.103	5041
897.224	4889
897.345	4774
897.466	4634
897.587	4752
897.708	4839
897.828	4736
897.949	4675
898.07	4622
898.19	4580
898.311	4847
898.431	4710
898.552	4702
898.672	4850
898.792	4729
898.913	4717
899.033	4584
899.153	4504
899.273	4436
899.393	4451
899.513	4493
899.633	4592
899.753	4519
899.873	4500
899.993	4527
900.113	4546
900.232	4592
900.352	4535
900.472	4478
900.591	4386
900.711	4508
900.83	4481
900.95	4603
901.069	4694
901.189	4527
901.308	4356
901.427	4272
901.546	4409
901.665	4535
901.784	4485
901.904	4413
902.023	4341
902.141	4158
902.26	4169
902.379	4306
902.498	4306
902.617	4207
902.735	4424
902.854	4371
902.973	4344
903.091	4211
903.21	4234
903.328	4272
903.446	4261
903.565	4246
903.683	4356
903.801	4280
903.919	4417
904.038	4383
904.156	4291
904.274	4428
904.392	4352
904.51	4394
904.627	4459
904.745	4584
904.863	4634
904.981	4417
905.098	4287
905.216	4375
905.334	4394
905.451	4432
905.569	4443
905.686	4535
905.803	4542
905.921	4405
906.038	4508
906.155	4493
906.272	4371
906.389	4443
906.506	4390
906.623	4360
906.74	4383
906.857	4287
906.974	4379
907.091	4538
907.208	4668
907.324	4561
907.441	4523
907.557	4360
907.674	4337
907.79	4322
907.907	4363
908.023	4489
908.139	4489
908.256	4455
908.372	4462
908.488	4424
908.604	4394
908.72	4314
908.836	4375
908.952	4348
909.068	4432
909.184	4569
909.3	4455
909.415	4596
909.531	4615
909.647	4360
909.762	4325
909.878	4322
909.993	4443
910.108	4383
910.224	4398
910.339	4459
910.454	4405
910.57	4360
910.685	4325
910.8	4634
910.915	4618
911.03	4440
911.145	4337
911.259	4375
911.374	4333
911.489	4318
911.604	4272
911.718	4135
911.833	4185
911.947	4078
912.062	4051
912.176	4234
912.291	4242
912.405	4253
912.519	4474
912.633	4485
912.748	4318
912.862	4303
912.976	4200
913.09	4067
913.204	4131
913.318	4261
913.431	4363
913.545	4402
913.659	4417
913.772	4344
913.886	4211
914	4215
914.113	4371
914.226	4478
914.34	4398
914.453	4181
914.566	4409
914.68	4295
914.793	4322
914.906	4181
915.019	4185
915.132	4093
915.245	4207
915.358	4253
915.47	4204
915.583	4280
915.696	4299
915.809	4356
915.921	4375
916.034	4249
916.146	4257
916.259	4196
916.371	4409
916.483	4314
916.595	4295
916.708	4348
916.82	4367
916.932	4333
917.044	4287
917.156	4329
917.268	4196
917.38	4299
917.491	4310
917.603	4371
917.715	4436
917.826	4447
917.938	4402
918.049	4246
918.161	4424
918.272	4523
918.384	4538
918.495	4519
918.606	4337
918.717	4227
918.828	4333
918.939	4356
919.05	4211
919.161	4306
919.272	4131
919.383	4211
919.494	4443
919.604	4592
919.715	4348
919.826	4344
919.936	4402
920.047	4478
920.157	4516
920.267	4687
920.378	4546
920.488	4519
920.598	4717
920.708	4908
920.818	4725
920.928	4740
921.038	4938
921.148	4923
921.258	4683
921.368	4531
921.477	4508
921.587	4519
921.697	4383
921.806	4550
921.916	4405
922.025	4268
922.134	4272
922.244	4257
922.353	4322
922.462	4166
922.571	4116
922.68	3998
922.789	4025
922.898	4074
923.007	3998
923.116	4101
923.224	4071
923.333	4044
923.442	3987
923.55	3998
923.659	4029
923.767	4063
923.876	4044
923.984	4128
924.092	4017
924.201	4063
924.309	4120
924.417	4124
924.525	4093
924.633	4112
924.741	4984
924.849	3930
924.956	4086
925.064	3979
925.172	3884
925.279	3941
925.387	4059
925.494	4029
925.602	4215
925.709	4215
925.816	4029
925.924	4120
926.031	4284
926.138	4139
926.245	4204
926.352	4090
926.459	4268
926.566	4276
926.673	4188
926.779	4090
926.886	4090
926.993	3964
927.099	3945
927.206	3945
927.312	3964
927.419	4032
927.525	4071
927.631	4071
927.737	3972
927.843	3972
927.95	3850
928.056	3934
928.162	4032
928.267	4074
928.373	4683
928.479	4120
928.585	3857
928.69	4017
928.796	4074
928.901	3964
929.007	3808
929.112	4036
929.218	3994
929.323	3915
929.428	3930
929.533	4090
929.638	3922
929.743	3975
929.848	3998
929.953	3983
930.058	3930
930.163	3793
930.267	3838
930.372	3998
930.477	3800
930.581	4090
930.685	3930
930.79	3797
930.894	3869
930.998	3865
931.103	4021
931.207	3698
931.311	3667
931.415	3671
931.519	3515
931.623	3564
