Data from test_V78500241_558.txt Node
Date: Fri Mar 25 16:52:52 CST 2022
User: usil
Spectrometer: V785-0024
Trigger mode: 0
Integration Time (sec): 4.000000E-1
Scans to average: 1
Nonlinearity correction enabled: false
Boxcar width: 0
Storing dark spectrum: false
XAxis mode: Wavelengths
Number of Pixels in Spectrum: 1024
>>>>>Begin Spectral Data<<<<<
801.071	8081
801.214	8008
801.356	7875
801.499	7894
801.641	7769
801.783	7947
801.926	8027
802.068	8012
802.211	7986
802.353	8024
802.496	7868
802.638	7986
802.78	7902
802.923	7974
803.065	7871
803.208	7852
803.35	7940
803.492	8134
803.635	8123
803.777	8043
803.919	8119
804.061	8442
804.204	8145
804.346	8024
804.488	7936
804.63	8107
804.773	8039
804.915	8115
805.057	8252
805.199	8199
805.341	8176
805.483	8282
805.626	8180
805.768	8100
805.91	8199
806.052	8164
806.194	8126
806.336	8282
806.478	8062
806.62	8008
806.762	8115
806.904	8248
807.046	8438
807.188	8351
807.33	8237
807.472	8271
807.614	8195
807.756	8149
807.898	7906
808.04	7875
808.182	7925
808.324	7917
808.465	7909
808.607	8073
808.749	8138
808.891	8210
809.033	8374
809.174	8225
809.316	8016
809.458	8039
809.6	8005
809.741	8073
809.883	8103
810.025	8100
810.166	8035
810.308	8020
810.45	8092
810.591	7833
810.733	7757
810.875	7696
811.016	7552
811.158	7506
811.299	7666
811.441	7772
811.582	7772
811.724	7556
811.865	7571
812.007	7636
812.148	7674
812.29	7590
812.431	7757
812.573	7944
812.714	8005
812.855	8199
812.997	8313
813.138	8442
813.279	8286
813.421	8157
813.562	8062
813.703	7928
813.845	7852
813.986	7559
814.127	7392
814.268	7335
814.41	7297
814.551	7198
814.692	7221
814.833	7091
814.974	7088
815.115	7084
815.256	6989
815.397	6932
815.539	7012
815.68	6875
815.821	6814
815.962	6859
816.103	6848
816.244	6844
816.385	6707
816.526	6631
816.666	6582
816.807	6304
816.948	6445
817.089	6441
817.23	6410
817.371	6403
817.512	6391
817.653	6395
817.793	6323
817.934	6502
818.075	6506
818.216	6433
818.356	6395
818.497	6258
818.638	6110
818.778	6182
818.919	6194
819.06	6155
819.2	6342
819.341	6323
819.481	6410
819.622	6536
819.762	6764
819.903	6681
820.043	6608
820.184	6578
820.324	6574
820.465	6681
820.605	6658
820.746	6601
820.886	6540
821.026	6681
821.167	6669
821.307	6757
821.447	6760
821.588	6639
821.728	6578
821.868	6452
822.008	6350
822.149	6346
822.289	6342
822.429	6079
822.569	6087
822.709	6144
822.849	5893
822.99	5882
823.13	5939
823.27	5920
823.41	5817
823.55	5771
823.69	5798
823.83	5783
823.97	5691
824.11	5520
824.25	5528
824.389	5581
824.529	5642
824.669	5501
824.809	5665
824.949	5657
825.089	5630
825.228	5581
825.368	5372
825.508	5372
825.648	5322
825.787	5307
825.927	5414
826.067	5288
826.206	5303
826.346	5398
826.485	5357
826.625	5440
826.765	5604
826.904	5490
827.044	5288
827.183	5181
827.323	5151
827.462	5269
827.601	5220
827.741	5166
827.88	5265
828.02	5094
828.159	5212
828.298	5292
828.437	5383
828.577	5265
828.716	5532
828.855	5330
828.994	5147
829.134	5151
829.273	5162
829.412	5155
829.551	5124
829.69	5151
829.829	5246
829.968	5368
830.107	5231
830.246	5250
830.385	5235
830.524	5128
830.663	5045
830.802	5022
830.941	4870
831.08	4892
831.219	4999
831.357	5029
831.496	5166
831.635	4953
831.774	4843
831.913	4839
832.051	4714
832.19	4733
832.329	4847
832.467	4691
832.606	4641
832.744	4714
832.883	4736
833.022	4714
833.16	4805
833.299	4812
833.437	4839
833.576	4911
833.714	4870
833.852	4927
833.991	4862
834.129	4980
834.267	4938
834.406	4927
834.544	5010
834.682	4972
834.821	4984
834.959	5193
835.097	4984
835.235	5117
835.373	5121
835.511	5090
835.65	5033
835.788	5052
835.926	4900
836.064	4911
836.202	4908
836.34	5147
836.478	5231
836.615	5098
836.753	5185
836.891	5318
837.029	5280
837.167	5170
837.305	5166
837.443	5155
837.58	5102
837.718	5242
837.856	5185
837.993	5193
838.131	5280
838.269	5239
838.406	5273
838.544	5201
838.681	5056
838.819	4991
838.956	4934
839.094	4942
839.231	4957
839.369	5056
839.506	5421
839.643	5258
839.781	5056
839.918	4999
840.055	5079
840.193	5128
840.33	5147
840.467	5151
840.604	5162
840.742	5455
840.879	5064
841.016	5056
841.153	5132
841.29	5353
841.427	5337
841.564	5334
841.701	5357
841.838	5299
841.975	5261
842.112	5265
842.249	5197
842.385	5064
842.522	5353
842.659	5212
842.796	5174
842.933	5258
843.069	5121
843.206	5147
843.343	5311
843.479	5227
843.616	5330
843.752	5052
843.889	5022
844.025	5212
844.162	5071
844.298	5223
844.435	5102
844.571	5098
844.708	5185
844.844	5303
844.98	5376
845.117	5296
845.253	5143
845.389	5064
845.525	5117
845.661	5132
845.798	5037
845.934	5159
846.07	5075
846.206	5216
846.342	5254
846.478	5212
846.614	5037
846.75	4984
846.886	4972
847.022	5132
847.158	5010
847.294	5079
847.429	5098
847.565	5064
847.701	5391
847.837	4820
847.972	4820
848.108	4976
848.244	4908
848.379	4774
848.515	4717
848.65	4710
848.786	4736
848.921	4816
849.057	4824
849.192	4862
849.328	4831
849.463	4831
849.598	4824
849.734	4767
849.869	4687
850.004	4611
850.14	4668
850.275	4584
850.41	4470
850.545	4546
850.68	4634
850.815	4618
850.95	4691
851.085	4873
851.22	4755
851.355	4691
851.49	4626
851.625	4626
851.76	4630
851.895	4535
852.03	4504
852.165	4706
852.299	4793
852.434	4873
852.569	4752
852.703	4778
852.838	4892
852.973	4957
853.107	4900
853.242	4714
853.376	4664
853.511	4577
853.645	4596
853.78	4824
853.914	4698
854.048	4691
854.183	4660
854.317	4717
854.451	4812
854.585	4656
854.72	4637
854.854	4771
854.988	4569
855.122	4649
855.256	4523
855.39	4649
855.524	4778
855.658	4691
855.792	4698
855.926	4763
856.06	4759
856.194	4831
856.327	4759
856.461	4596
856.595	4641
856.729	4641
856.862	4774
856.996	4721
857.13	4790
857.263	4790
857.397	4870
857.53	4687
857.664	4733
857.797	4850
857.931	4797
858.064	4710
858.197	4752
858.331	4694
858.464	4645
858.597	4573
858.731	4683
858.864	4694
858.997	4702
859.13	4725
859.263	4691
859.396	4721
859.529	4615
859.662	4649
859.795	4618
859.928	4679
860.061	4767
860.194	4809
860.327	4641
860.46	4634
860.592	4771
860.725	4771
860.858	4725
860.99	4641
861.123	4599
861.256	4596
861.388	4672
861.521	5524
861.653	4474
861.786	4500
861.918	4455
862.05	4546
862.183	4580
862.315	4603
862.447	4687
862.58	4596
862.712	4455
862.844	4367
862.976	4558
863.108	4519
863.24	4854
863.372	4375
863.504	4447
863.636	4432
863.768	4531
863.9	4512
864.032	4405
864.164	4440
864.296	4538
864.428	4588
864.559	4618
864.691	4584
864.823	4569
864.954	4550
865.086	4554
865.217	4538
865.349	4462
865.48	4500
865.612	4519
865.743	4649
865.875	4519
866.006	4455
866.137	4470
866.269	4440
866.4	4504
866.531	4413
866.662	4428
866.793	4474
866.924	4459
867.055	4512
867.186	4470
867.317	4481
867.448	4405
867.579	4405
867.71	4424
867.841	4451
867.972	4535
868.103	4440
868.233	4455
868.364	4508
868.495	4508
868.625	4687
868.756	4812
868.886	4618
869.017	4653
869.147	4797
869.278	4797
869.408	4694
869.539	4694
869.669	4725
869.799	4714
869.929	4782
870.06	4755
870.19	4991
870.32	4965
870.45	4976
870.58	5041
870.71	5140
870.84	5147
870.97	4961
871.1	4976
871.23	5162
871.36	5193
871.489	5052
871.619	5113
871.749	5117
871.879	5208
872.008	5220
872.138	5117
872.267	5010
872.397	4850
872.526	4866
872.656	4733
872.785	4854
872.915	5025
873.044	5075
873.173	4961
873.303	4972
873.432	4946
873.561	4991
873.69	4896
873.819	4889
873.948	4965
874.077	4847
874.206	4771
874.335	4835
874.464	4953
874.593	5113
874.722	4999
874.851	5132
874.979	5094
875.108	5105
875.237	4957
875.365	4930
875.494	4919
875.623	5006
875.751	4870
875.88	4938
876.008	5006
876.136	5029
876.265	5258
876.393	5326
876.521	5288
876.65	5235
876.778	5189
876.906	5109
877.034	5083
877.162	5060
877.29	4995
877.418	5064
877.546	5140
877.674	5079
877.802	5060
877.93	5067
878.058	4968
878.185	4858
878.313	4968
878.441	4965
878.568	4828
878.696	4900
878.824	4972
878.951	5029
879.079	5193
879.206	5376
879.333	5090
879.461	5037
879.588	5071
879.715	5128
879.842	5273
879.97	5067
880.097	4858
880.224	4809
880.351	4858
880.478	4877
880.605	4850
880.732	4870
880.859	5136
880.986	4919
881.112	4938
881.239	4801
881.366	4725
881.493	4679
881.619	4611
881.746	4706
881.872	4733
881.999	4675
882.125	4702
882.252	4824
882.378	4896
882.505	4972
882.631	4767
882.757	4740
882.883	4786
883.01	4755
883.136	4675
883.262	4645
883.388	4649
883.514	4862
883.64	4850
883.766	4801
883.892	4672
884.018	4717
884.143	4927
884.269	4987
884.395	4782
884.52	4653
884.646	4653
884.772	4577
884.897	4584
885.023	4664
885.148	4828
885.274	4900
885.399	4862
885.524	4744
885.65	4790
885.775	4809
885.9	4740
886.025	4873
886.15	4812
886.275	4733
886.4	4641
886.525	4767
886.65	4767
886.775	4717
886.9	4930
887.025	5060
887.149	4858
887.274	4691
887.399	4584
887.523	4615
887.648	4634
887.773	4603
887.897	4824
888.021	4854
888.146	4672
888.27	4809
888.395	4892
888.519	4797
888.643	4870
888.767	4820
888.891	4702
889.015	4626
889.139	4714
889.263	4603
889.387	4786
889.511	4904
889.635	4782
889.759	4649
889.883	4645
890.006	4767
890.13	4816
890.254	4607
890.377	4687
890.501	4558
890.624	4512
890.748	4641
890.871	4554
890.995	4440
891.118	4451
891.241	4569
891.364	4573
891.488	4634
891.611	4523
891.734	4527
891.857	4672
891.98	4588
892.103	4675
892.226	4618
892.349	4550
892.471	4409
892.594	4592
892.717	4645
892.839	4592
892.962	4645
893.085	4679
893.207	4596
893.33	4459
893.452	4573
893.575	4675
893.697	4584
893.819	4816
893.941	4873
894.064	4790
894.186	4596
894.308	4618
894.43	4790
894.552	4812
894.674	4729
894.796	4565
894.918	4626
895.04	4615
895.161	4714
895.283	4679
895.405	4626
895.526	4653
895.648	4714
895.769	4717
895.891	4710
896.012	4736
896.134	4774
896.255	4660
896.376	4691
896.498	4672
896.619	4721
896.74	4668
896.861	4679
896.982	4953
897.103	5094
897.224	4854
897.345	4771
897.466	4626
897.587	4733
897.708	4923
897.828	4771
897.949	4683
898.07	4565
898.19	4706
898.311	4839
898.431	4645
898.552	4733
898.672	4866
898.792	4831
898.913	4778
899.033	4694
899.153	4519
899.273	4455
899.393	4478
899.513	4558
899.633	4542
899.753	4580
899.873	4588
899.993	4615
900.113	4565
900.232	4603
900.352	4577
900.472	4504
900.591	4440
900.711	4516
900.83	4447
900.95	4645
901.069	4706
901.189	4634
901.308	4421
901.427	4314
901.546	4436
901.665	4500
901.784	4527
901.904	4402
902.023	4344
902.141	4211
902.26	4204
902.379	4398
902.498	4211
902.617	4265
902.735	4424
902.854	4413
902.973	4428
903.091	4230
903.21	4219
903.328	4299
903.446	4291
903.565	4318
903.683	4356
903.801	4333
903.919	4428
904.038	4443
904.156	4363
904.274	4436
904.392	4455
904.51	4443
904.627	4497
904.745	4615
904.863	4634
904.981	4451
905.098	4306
905.216	4413
905.334	4405
905.451	4451
905.569	4474
905.686	4596
905.803	4588
905.921	4436
906.038	4550
906.155	4478
906.272	4424
906.389	4485
906.506	4383
906.623	4402
906.74	4341
906.857	4318
906.974	4363
907.091	4558
907.208	4683
907.324	4554
907.441	4497
907.557	4417
907.674	4394
907.79	4329
907.907	4451
908.023	4481
908.139	4500
908.256	4489
908.372	4455
908.488	4485
908.604	4344
908.72	4310
908.836	4371
908.952	4375
909.068	4417
909.184	4558
909.3	4462
909.415	4653
909.531	4584
909.647	4390
909.762	4375
909.878	4379
909.993	4424
910.108	4436
910.224	4478
910.339	4519
910.454	4398
910.57	4413
910.685	4341
910.8	4694
910.915	4630
911.03	4535
911.145	4303
911.259	4390
911.374	4386
911.489	4337
911.604	4333
911.718	4162
911.833	4211
911.947	4067
912.062	4101
912.176	4223
912.291	4230
912.405	4249
912.519	4455
912.633	4577
912.748	4398
912.862	4371
912.976	4295
913.09	4154
913.204	4135
913.318	4238
913.431	4341
913.545	4394
913.659	4409
913.772	4367
913.886	4295
914	4303
914.113	4398
914.226	4474
914.34	4402
914.453	4257
914.566	4447
914.68	4284
914.793	4360
914.906	4181
915.019	4116
915.132	4074
915.245	4223
915.358	4230
915.47	4265
915.583	4261
915.696	4333
915.809	4421
915.921	4447
916.034	4280
916.146	4249
916.259	4234
916.371	4390
916.483	4386
916.595	4299
916.708	4314
916.82	4325
916.932	4363
917.044	4352
917.156	4360
917.268	4299
917.38	4352
917.491	4329
917.603	4447
917.715	4417
917.826	4428
917.938	4341
918.049	4265
918.161	4424
918.272	4622
918.384	4523
918.495	4489
918.606	4329
918.717	4295
918.828	4333
918.939	4375
919.05	4284
919.161	4352
919.272	4154
919.383	4272
919.494	4436
919.604	4656
919.715	4417
919.826	4394
919.936	4466
920.047	4573
920.157	4428
920.267	4691
920.378	4596
920.488	4489
920.598	4771
920.708	4889
920.818	4778
920.928	4793
921.038	4961
921.148	4889
921.258	4626
921.368	4535
921.477	4451
921.587	4470
921.697	4405
921.806	4542
921.916	4413
922.025	4280
922.134	4265
922.244	4242
922.353	4329
922.462	4169
922.571	4154
922.68	4002
922.789	4025
922.898	4074
923.007	4071
923.116	4086
923.224	4071
923.333	4143
923.442	4029
923.55	3987
923.659	4013
923.767	4120
923.876	3975
923.984	4147
924.092	3960
924.201	4059
924.309	4093
924.417	4147
924.525	4063
924.633	4055
924.741	5128
924.849	3960
924.956	4177
925.064	3972
925.172	3918
925.279	3975
925.387	4059
925.494	4090
925.602	4204
925.709	4215
925.816	4048
925.924	4120
926.031	4204
926.138	4181
926.245	4166
926.352	4074
926.459	4230
926.566	4291
926.673	4169
926.779	4059
926.886	4090
926.993	3994
927.099	3994
927.206	3941
927.312	3968
927.419	4029
927.525	4044
927.631	4097
927.737	4006
927.843	3972
927.95	3831
928.056	3968
928.162	4002
928.267	4097
928.373	4675
928.479	4116
928.585	3884
928.69	4071
928.796	4131
928.901	3983
929.007	3846
929.112	4021
929.218	4017
929.323	3953
929.428	3903
929.533	4120
929.638	3945
929.743	3956
929.848	4025
929.953	3979
930.058	3937
930.163	3789
930.267	3884
930.372	4002
930.477	3789
930.581	4067
930.685	3956
930.79	3876
930.894	3949
930.998	3835
931.103	4017
931.207	3759
931.311	3679
931.415	3648
931.519	3549
931.623	3530
