Data from test_V78500241_1546.txt Node
Date: Fri Mar 25 16:59:45 CST 2022
User: usil
Spectrometer: V785-0024
Trigger mode: 0
Integration Time (sec): 4.000000E-1
Scans to average: 1
Nonlinearity correction enabled: false
Boxcar width: 0
Storing dark spectrum: false
XAxis mode: Wavelengths
Number of Pixels in Spectrum: 1024
>>>>>Begin Spectral Data<<<<<
801.071	8043
801.214	8005
801.356	7868
801.499	7784
801.641	7795
801.783	7765
801.926	7932
802.068	7890
802.211	8005
802.353	7944
802.496	7776
802.638	7776
802.78	7887
802.923	7879
803.065	7894
803.208	7902
803.35	7955
803.492	8134
803.635	8172
803.777	7989
803.919	8168
804.061	8374
804.204	8218
804.346	8092
804.488	7982
804.63	8138
804.773	8020
804.915	8073
805.057	8221
805.199	8107
805.341	8191
805.483	8202
805.626	8176
805.768	8115
805.91	8119
806.052	8145
806.194	8111
806.336	8271
806.478	8115
806.62	8039
806.762	8130
806.904	8229
807.046	8438
807.188	8358
807.33	8294
807.472	8343
807.614	8153
807.756	8134
807.898	7963
808.04	7921
808.182	7898
808.324	7864
808.465	7883
808.607	8065
808.749	8077
808.891	8164
809.033	8279
809.174	8202
809.316	8058
809.458	8058
809.6	7963
809.741	8001
809.883	7989
810.025	8058
810.166	8043
810.308	7932
810.45	7978
810.591	7856
810.733	7666
810.875	7674
811.016	7460
811.158	7499
811.299	7563
811.441	7693
811.582	7704
811.724	7586
811.865	7552
812.007	7525
812.148	7575
812.29	7525
812.431	7803
812.573	7814
812.714	7940
812.855	8123
812.997	8168
813.138	8313
813.279	8218
813.421	8077
813.562	7986
813.703	7792
813.845	7803
813.986	7415
814.127	7202
814.268	7171
814.41	7183
814.551	7065
814.692	7225
814.833	7095
814.974	7126
815.115	7149
815.256	6947
815.397	6901
815.539	6897
815.68	6810
815.821	6776
815.962	6791
816.103	6875
816.244	6665
816.385	6589
816.526	6597
816.666	6502
816.807	6304
816.948	6464
817.089	6441
817.23	6414
817.371	6319
817.512	6376
817.653	6357
817.793	6281
817.934	6338
818.075	6418
818.216	6407
818.356	6365
818.497	6243
818.638	6098
818.778	6152
818.919	6129
819.06	6148
819.2	6304
819.341	6292
819.481	6315
819.622	6570
819.762	6757
819.903	6745
820.043	6658
820.184	6631
820.324	6585
820.465	6745
820.605	6692
820.746	6593
820.886	6448
821.026	6669
821.167	6681
821.307	6783
821.447	6825
821.588	6616
821.728	6631
821.868	6494
822.008	6277
822.149	6315
822.289	6376
822.429	6155
822.569	6057
822.709	6121
822.849	5942
822.99	5901
823.13	5878
823.27	5882
823.41	5813
823.55	5790
823.69	5733
823.83	5760
823.97	5672
824.11	5524
824.25	5467
824.389	5501
824.529	5573
824.669	5547
824.809	5581
824.949	5680
825.089	5615
825.228	5524
825.368	5353
825.508	5345
825.648	5318
825.787	5398
825.927	5357
826.067	5330
826.206	5227
826.346	5379
826.485	5406
826.625	5387
826.765	5562
826.904	5486
827.044	5212
827.183	5220
827.323	5098
827.462	5235
827.601	5181
827.741	5193
827.88	5170
828.02	5155
828.159	5246
828.298	5216
828.437	5368
828.577	5315
828.716	5478
828.855	5292
828.994	5147
829.134	5147
829.273	5128
829.412	5102
829.551	5132
829.69	5185
829.829	5212
829.968	5383
830.107	5258
830.246	5231
830.385	5185
830.524	5136
830.663	5037
830.802	4927
830.941	4896
831.08	4919
831.219	5014
831.357	4949
831.496	5124
831.635	4934
831.774	4866
831.913	4820
832.051	4733
832.19	4710
832.329	4858
832.467	4706
832.606	4588
832.744	4725
832.883	4717
833.022	4729
833.16	4774
833.299	4771
833.437	4828
833.576	4793
833.714	4896
833.852	4892
833.991	4862
834.129	4949
834.267	4919
834.406	4904
834.544	4999
834.682	4995
834.821	4995
834.959	5162
835.097	4938
835.235	5109
835.373	5056
835.511	5094
835.65	5014
835.788	4953
835.926	4896
836.064	4873
836.202	4919
836.34	5204
836.478	5204
836.615	5090
836.753	5208
836.891	5311
837.029	5250
837.167	5197
837.305	5246
837.443	5189
837.58	5045
837.718	5269
837.856	5189
837.993	5067
838.131	5277
838.269	5216
838.406	5170
838.544	5162
838.681	5003
838.819	5048
838.956	4873
839.094	4862
839.231	4976
839.369	5083
839.506	5436
839.643	5269
839.781	5048
839.918	4995
840.055	5045
840.193	5067
840.33	5086
840.467	5174
840.604	5159
840.742	5444
840.879	5079
841.016	5029
841.153	5136
841.29	5330
841.427	5299
841.564	5311
841.701	5334
841.838	5299
841.975	5269
842.112	5265
842.249	5124
842.385	5109
842.522	5337
842.659	5193
842.796	5147
842.933	5208
843.069	5098
843.206	5124
843.343	5273
843.479	5246
843.616	5223
843.752	4995
843.889	4999
844.025	5181
844.162	4987
844.298	5185
844.435	5048
844.571	5052
844.708	5220
844.844	5261
844.98	5273
845.117	5292
845.253	5132
845.389	5113
845.525	5174
845.661	5166
845.798	5014
845.934	5121
846.07	5022
846.206	5174
846.342	5288
846.478	5174
846.614	5029
846.75	4911
846.886	4927
847.022	5113
847.158	5048
847.294	5067
847.429	5071
847.565	4987
847.701	5280
847.837	4885
847.972	4774
848.108	4968
848.244	4972
848.379	4748
848.515	4748
848.65	4702
848.786	4729
848.921	4801
849.057	4824
849.192	4889
849.328	4809
849.463	4843
849.598	4767
849.734	4755
849.869	4691
850.004	4577
850.14	4664
850.275	4565
850.41	4535
850.545	4550
850.68	4569
850.815	4592
850.95	4634
851.085	4831
851.22	4729
851.355	4687
851.49	4634
851.625	4626
851.76	4630
851.895	4588
852.03	4478
852.165	4691
852.299	4729
852.434	4786
852.569	4733
852.703	4774
852.838	4805
852.973	4889
853.107	4915
853.242	4710
853.376	4656
853.511	4512
853.645	4618
853.78	4733
853.914	4672
854.048	4649
854.183	4656
854.317	4717
854.451	4885
854.585	4615
854.72	4599
854.854	4740
854.988	4550
855.122	4679
855.256	4554
855.39	4634
855.524	4733
855.658	4672
855.792	4691
855.926	4714
856.06	4748
856.194	4790
856.327	4664
856.461	4603
856.595	4584
856.729	4599
856.862	4748
856.996	4721
857.13	4736
857.263	4744
857.397	4782
857.53	4607
857.664	4710
857.797	4755
857.931	4771
858.064	4694
858.197	4771
858.331	4672
858.464	4573
858.597	4554
858.731	4588
858.864	4596
858.997	4584
859.13	4622
859.263	4626
859.396	4687
859.529	4565
859.662	4554
859.795	4527
859.928	4626
860.061	4778
860.194	4733
860.327	4599
860.46	4584
860.592	4664
860.725	4759
860.858	4717
860.99	4599
861.123	4527
861.256	4481
861.388	4599
861.521	5258
861.653	4489
861.786	4440
861.918	4470
862.05	4519
862.183	4500
862.315	4580
862.447	4653
862.58	4481
862.712	4371
862.844	4352
862.976	4523
863.108	4470
863.24	4702
863.372	4322
863.504	4398
863.636	4409
863.768	4504
863.9	4436
864.032	4375
864.164	4428
864.296	4474
864.428	4516
864.559	4565
864.691	4504
864.823	4470
864.954	4462
865.086	4470
865.217	4497
865.349	4386
865.48	4455
865.612	4508
865.743	4618
865.875	4474
866.006	4383
866.137	4481
866.269	4413
866.4	4409
866.531	4432
866.662	4402
866.793	4436
866.924	4379
867.055	4489
867.186	4447
867.317	4417
867.448	4383
867.579	4398
867.71	4386
867.841	4402
867.972	4424
868.103	4455
868.233	4421
868.364	4432
868.495	4493
868.625	4668
868.756	4733
868.886	4542
869.017	4580
869.147	4744
869.278	4790
869.408	4645
869.539	4588
869.669	4656
869.799	4637
869.929	4759
870.06	4774
870.19	4927
870.32	4831
870.45	4946
870.58	5018
870.71	5064
870.84	5090
870.97	4915
871.1	4862
871.23	5086
871.36	5140
871.489	5014
871.619	5064
871.749	5075
871.879	5109
872.008	5170
872.138	5056
872.267	4976
872.397	4850
872.526	4797
872.656	4717
872.785	4786
872.915	5006
873.044	5052
873.173	4976
873.303	4934
873.432	4961
873.561	4968
873.69	4904
873.819	4828
873.948	4885
874.077	4793
874.206	4752
874.335	4717
874.464	4938
874.593	5003
874.722	4968
874.851	5113
874.979	5086
875.108	5006
875.237	4908
875.365	4885
875.494	4896
875.623	4934
875.751	4843
875.88	4847
876.008	4968
876.136	5060
876.265	5193
876.393	5326
876.521	5231
876.65	5250
876.778	5166
876.906	5014
877.034	4999
877.162	5060
877.29	4980
877.418	5079
877.546	4995
877.674	5060
877.802	5033
877.93	5067
878.058	4881
878.185	4873
878.313	4923
878.441	4911
878.568	4782
878.696	4881
878.824	4976
878.951	4961
879.079	5121
879.206	5265
879.333	5090
879.461	4934
879.588	5018
879.715	5090
879.842	5181
879.97	4991
880.097	4736
880.224	4717
880.351	4774
880.478	4771
880.605	4771
880.732	4824
880.859	5037
880.986	4889
881.112	4896
881.239	4790
881.366	4653
881.493	4554
881.619	4664
881.746	4558
881.872	4630
881.999	4622
882.125	4744
882.252	4774
882.378	4824
882.505	4987
882.631	4828
882.757	4630
882.883	4740
883.01	4763
883.136	4694
883.262	4592
883.388	4622
883.514	4793
883.64	4881
883.766	4771
883.892	4668
884.018	4771
884.143	4889
884.269	4984
884.395	4641
884.52	4615
884.646	4618
884.772	4569
884.897	4569
885.023	4691
885.148	4763
885.274	4877
885.399	4782
885.524	4733
885.65	4706
885.775	4725
885.9	4714
886.025	4790
886.15	4782
886.275	4694
886.4	4679
886.525	4714
886.65	4672
886.775	4660
886.9	4835
887.025	5025
887.149	4790
887.274	4626
887.399	4592
887.523	4588
887.648	4550
887.773	4565
887.897	4725
888.021	4774
888.146	4698
888.27	4866
888.395	4896
888.519	4774
888.643	4786
888.767	4801
888.891	4672
889.015	4607
889.139	4637
889.263	4618
889.387	4733
889.511	4858
889.635	4805
889.759	4664
889.883	4656
890.006	4733
890.13	4828
890.254	4611
890.377	4653
890.501	4523
890.624	4527
890.748	4622
890.871	4485
890.995	4379
891.118	4360
891.241	4504
891.364	4508
891.488	4672
891.611	4493
891.734	4542
891.857	4558
891.98	4542
892.103	4626
892.226	4584
892.349	4512
892.471	4413
892.594	4561
892.717	4546
892.839	4542
892.962	4626
893.085	4664
893.207	4558
893.33	4485
893.452	4508
893.575	4679
893.697	4527
893.819	4752
893.941	4793
894.064	4763
894.186	4554
894.308	4538
894.43	4717
894.552	4793
894.674	4759
894.796	4535
894.918	4603
895.04	4554
895.161	4675
895.283	4694
895.405	4588
895.526	4626
895.648	4668
895.769	4664
895.891	4755
896.012	4710
896.134	4714
896.255	4687
896.376	4577
896.498	4615
896.619	4649
896.74	4596
896.861	4645
896.982	4892
897.103	5041
897.224	4892
897.345	4744
897.466	4637
897.587	4691
897.708	4839
897.828	4774
897.949	4668
898.07	4569
898.19	4603
898.311	4774
898.431	4672
898.552	4759
898.672	4771
898.792	4805
898.913	4782
899.033	4569
899.153	4478
899.273	4421
899.393	4497
899.513	4497
899.633	4504
899.753	4516
899.873	4512
899.993	4622
900.113	4516
900.232	4592
900.352	4519
900.472	4497
900.591	4348
900.711	4493
900.83	4428
900.95	4618
901.069	4653
901.189	4451
901.308	4333
901.427	4325
901.546	4333
901.665	4481
901.784	4462
901.904	4371
902.023	4261
902.141	4207
902.26	4166
902.379	4306
902.498	4215
902.617	4204
902.735	4409
902.854	4474
902.973	4398
903.091	4257
903.21	4188
903.328	4314
903.446	4257
903.565	4268
903.683	4371
903.801	4261
903.919	4402
904.038	4436
904.156	4344
904.274	4432
904.392	4356
904.51	4402
904.627	4436
904.745	4577
904.863	4592
904.981	4398
905.098	4314
905.216	4333
905.334	4398
905.451	4424
905.569	4455
905.686	4611
905.803	4561
905.921	4371
906.038	4519
906.155	4489
906.272	4421
906.389	4413
906.506	4318
906.623	4333
906.74	4360
906.857	4329
906.974	4394
907.091	4550
907.208	4714
907.324	4599
907.441	4527
907.557	4329
907.674	4356
907.79	4246
907.907	4375
908.023	4474
908.139	4512
908.256	4409
908.372	4409
908.488	4424
908.604	4348
908.72	4287
908.836	4424
908.952	4356
909.068	4421
909.184	4565
909.3	4443
909.415	4584
909.531	4508
909.647	4383
909.762	4344
909.878	4322
909.993	4383
910.108	4421
910.224	4402
910.339	4474
910.454	4421
910.57	4295
910.685	4276
910.8	4660
910.915	4577
911.03	4500
911.145	4314
911.259	4314
911.374	4390
911.489	4287
911.604	4261
911.718	4154
911.833	4219
911.947	4101
912.062	4040
912.176	4238
912.291	4200
912.405	4196
912.519	4466
912.633	4489
912.748	4341
912.862	4246
912.976	4192
913.09	4090
913.204	4169
913.318	4257
913.431	4367
913.545	4352
913.659	4474
913.772	4318
913.886	4181
914	4211
914.113	4310
914.226	4459
914.34	4417
914.453	4227
914.566	4402
914.68	4303
914.793	4291
914.906	4200
915.019	4154
915.132	4040
915.245	4166
915.358	4249
915.47	4223
915.583	4211
915.696	4291
915.809	4398
915.921	4405
916.034	4272
916.146	4238
916.259	4207
916.371	4383
916.483	4333
916.595	4219
916.708	4299
916.82	4318
916.932	4329
917.044	4329
917.156	4325
917.268	4207
917.38	4238
917.491	4265
917.603	4322
917.715	4386
917.826	4440
917.938	4299
918.049	4230
918.161	4421
918.272	4516
918.384	4561
918.495	4405
918.606	4280
918.717	4261
918.828	4322
918.939	4348
919.05	4265
919.161	4329
919.272	4101
919.383	4253
919.494	4440
919.604	4588
919.715	4432
919.826	4360
919.936	4409
920.047	4466
920.157	4466
920.267	4736
920.378	4535
920.488	4485
920.598	4733
920.708	4908
920.818	4793
920.928	4786
921.038	4911
921.148	4915
921.258	4592
921.368	4615
921.477	4527
921.587	4459
921.697	4371
921.806	4535
921.916	4398
922.025	4284
922.134	4246
922.244	4219
922.353	4344
922.462	4169
922.571	4116
922.68	4013
922.789	3979
922.898	3994
923.007	3968
923.116	4063
923.224	4071
923.333	4055
923.442	3983
923.55	3998
923.659	4021
923.767	4090
923.876	4017
923.984	4116
924.092	3994
924.201	4017
924.309	4086
924.417	4112
924.525	4044
924.633	4048
924.741	4858
924.849	3865
924.956	4169
925.064	3926
925.172	3873
925.279	3953
925.387	4059
925.494	4101
925.602	4204
925.709	4173
925.816	4048
925.924	4109
926.031	4196
926.138	4116
926.245	4200
926.352	4101
926.459	4188
926.566	4314
926.673	4154
926.779	4071
926.886	4093
926.993	3979
927.099	4010
927.206	3918
927.312	3960
927.419	4025
927.525	4025
927.631	4044
927.737	3987
927.843	3918
927.95	3869
928.056	3983
928.162	3983
928.267	4029
928.373	4584
928.479	4105
928.585	3854
928.69	4006
928.796	4063
928.901	3956
929.007	3835
929.112	4017
929.218	3987
929.323	3934
929.428	3945
929.533	4071
929.638	3926
929.743	3949
929.848	4067
929.953	3987
930.058	3968
930.163	3751
930.267	3838
930.372	3968
930.477	3774
930.581	4044
930.685	3926
930.79	3846
930.894	3899
930.998	3850
931.103	4010
931.207	3698
931.311	3701
931.415	3637
931.519	3526
931.623	3549
