Data from test_V78500241_610.txt Node
Date: Fri Mar 25 16:53:14 CST 2022
User: usil
Spectrometer: V785-0024
Trigger mode: 0
Integration Time (sec): 4.000000E-1
Scans to average: 1
Nonlinearity correction enabled: false
Boxcar width: 0
Storing dark spectrum: false
XAxis mode: Wavelengths
Number of Pixels in Spectrum: 1024
>>>>>Begin Spectral Data<<<<<
801.071	8016
801.214	7993
801.356	7879
801.499	7868
801.641	7852
801.783	7868
801.926	8027
802.068	7993
802.211	8016
802.353	8081
802.496	7890
802.638	7902
802.78	7963
802.923	7974
803.065	7875
803.208	7811
803.35	7970
803.492	8138
803.635	8187
803.777	8050
803.919	8107
804.061	8450
804.204	8107
804.346	8046
804.488	8005
804.63	8092
804.773	8100
804.915	8092
805.057	8256
805.199	8168
805.341	8233
805.483	8328
805.626	8202
805.768	8081
805.91	8084
806.052	8237
806.194	8054
806.336	8267
806.478	8111
806.62	8123
806.762	8149
806.904	8305
807.046	8446
807.188	8339
807.33	8290
807.472	8275
807.614	8218
807.756	8115
807.898	8005
808.04	7803
808.182	7963
808.324	7894
808.465	7909
808.607	8035
808.749	8126
808.891	8244
809.033	8351
809.174	8138
809.316	8024
809.458	8043
809.6	7986
809.741	7959
809.883	7944
810.025	8119
810.166	8035
810.308	7997
810.45	7978
810.591	7894
810.733	7772
810.875	7712
811.016	7594
811.158	7510
811.299	7563
811.441	7776
811.582	7662
811.724	7544
811.865	7525
812.007	7563
812.148	7575
812.29	7616
812.431	7765
812.573	7864
812.714	7974
812.855	8069
812.997	8267
813.138	8343
813.279	8244
813.421	8100
813.562	7993
813.703	7852
813.845	7841
813.986	7441
814.127	7331
814.268	7289
814.41	7225
814.551	7133
814.692	7145
814.833	7091
814.974	7145
815.115	7069
815.256	6993
815.397	6924
815.539	6901
815.68	6844
815.821	6764
815.962	6852
816.103	6852
816.244	6734
816.385	6639
816.526	6635
816.666	6517
816.807	6308
816.948	6399
817.089	6471
817.23	6399
817.371	6357
817.512	6357
817.653	6456
817.793	6361
817.934	6418
818.075	6467
818.216	6437
818.356	6380
818.497	6220
818.638	6117
818.778	6152
818.919	6144
819.06	6155
819.2	6292
819.341	6292
819.481	6350
819.622	6525
819.762	6734
819.903	6681
820.043	6517
820.184	6559
820.324	6563
820.465	6684
820.605	6608
820.746	6597
820.886	6532
821.026	6639
821.167	6726
821.307	6814
821.447	6779
821.588	6662
821.728	6570
821.868	6445
822.008	6311
822.149	6331
822.289	6315
822.429	6106
822.569	6117
822.709	6117
822.849	5939
822.99	5916
823.13	5920
823.27	5866
823.41	5764
823.55	5790
823.69	5737
823.83	5767
823.97	5653
824.11	5524
824.25	5619
824.389	5570
824.529	5547
824.669	5547
824.809	5668
824.949	5703
825.089	5630
825.228	5558
825.368	5391
825.508	5368
825.648	5326
825.787	5391
825.927	5406
826.067	5307
826.206	5318
826.346	5459
826.485	5414
826.625	5421
826.765	5551
826.904	5505
827.044	5326
827.183	5223
827.323	5178
827.462	5303
827.601	5250
827.741	5204
827.88	5208
828.02	5136
828.159	5231
828.298	5376
828.437	5341
828.577	5326
828.716	5497
828.855	5357
828.994	5189
829.134	5174
829.273	5220
829.412	5204
829.551	5201
829.69	5197
829.829	5280
829.968	5353
830.107	5364
830.246	5318
830.385	5197
830.524	5185
830.663	5124
830.802	5022
830.941	4908
831.08	4896
831.219	5033
831.357	5006
831.496	5239
831.635	4968
831.774	4850
831.913	4908
832.051	4790
832.19	4797
832.329	4900
832.467	4782
832.606	4634
832.744	4759
832.883	4763
833.022	4755
833.16	4793
833.299	4858
833.437	4900
833.576	4908
833.714	4896
833.852	4892
833.991	4911
834.129	4999
834.267	4980
834.406	4934
834.544	5018
834.682	5010
834.821	5045
834.959	5208
835.097	5045
835.235	5166
835.373	5102
835.511	5094
835.65	5079
835.788	5048
835.926	4991
836.064	4889
836.202	5003
836.34	5170
836.478	5242
836.615	5166
836.753	5220
836.891	5311
837.029	5239
837.167	5288
837.305	5204
837.443	5162
837.58	5098
837.718	5254
837.856	5189
837.993	5155
838.131	5227
838.269	5296
838.406	5288
838.544	5204
838.681	5075
838.819	5075
838.956	4930
839.094	4915
839.231	5010
839.369	5113
839.506	5459
839.643	5265
839.781	5124
839.918	5071
840.055	5170
840.193	5159
840.33	5143
840.467	5079
840.604	5212
840.742	5482
840.879	5048
841.016	5083
841.153	5181
841.29	5387
841.427	5379
841.564	5322
841.701	5387
841.838	5288
841.975	5246
842.112	5334
842.249	5197
842.385	5124
842.522	5360
842.659	5197
842.796	5166
842.933	5208
843.069	5174
843.206	5155
843.343	5280
843.479	5296
843.616	5334
843.752	5098
843.889	5056
844.025	5261
844.162	5075
844.298	5273
844.435	5136
844.571	5056
844.708	5242
844.844	5284
844.98	5429
845.117	5315
845.253	5155
845.389	5151
845.525	5174
845.661	5216
845.798	5079
845.934	5162
846.07	5037
846.206	5223
846.342	5299
846.478	5231
846.614	5025
846.75	5018
846.886	4961
847.022	5124
847.158	5067
847.294	5124
847.429	5166
847.565	5117
847.701	5311
847.837	4873
847.972	4866
848.108	5003
848.244	4995
848.379	4847
848.515	4793
848.65	4744
848.786	4797
848.921	4824
849.057	4911
849.192	4900
849.328	4854
849.463	4911
849.598	4862
849.734	4824
849.869	4717
850.004	4634
850.14	4683
850.275	4641
850.41	4592
850.545	4588
850.68	4611
850.815	4653
850.95	4664
851.085	4809
851.22	4763
851.355	4679
851.49	4634
851.625	4622
851.76	4668
851.895	4573
852.03	4569
852.165	4672
852.299	4801
852.434	4858
852.569	4828
852.703	4767
852.838	4847
852.973	4949
853.107	4976
853.242	4759
853.376	4653
853.511	4569
853.645	4599
853.78	4873
853.914	4706
854.048	4645
854.183	4706
854.317	4706
854.451	4862
854.585	4675
854.72	4637
854.854	4793
854.988	4641
855.122	4668
855.256	4535
855.39	4725
855.524	4820
855.658	4740
855.792	4694
855.926	4717
856.06	4763
856.194	4839
856.327	4706
856.461	4637
856.595	4634
856.729	4641
856.862	4755
856.996	4755
857.13	4759
857.263	4748
857.397	4812
857.53	4733
857.664	4733
857.797	4801
857.931	4774
858.064	4729
858.197	4744
858.331	4702
858.464	4622
858.597	4561
858.731	4664
858.864	4618
858.997	4622
859.13	4668
859.263	4725
859.396	4736
859.529	4561
859.662	4611
859.795	4554
859.928	4634
860.061	4797
860.194	4782
860.327	4668
860.46	4565
860.592	4744
860.725	4733
860.858	4748
860.99	4618
861.123	4550
861.256	4554
861.388	4622
861.521	5448
861.653	4497
861.786	4516
861.918	4535
862.05	4519
862.183	4626
862.315	4683
862.447	4664
862.58	4538
862.712	4447
862.844	4360
862.976	4481
863.108	4466
863.24	4858
863.372	4379
863.504	4470
863.636	4432
863.768	4538
863.9	4470
864.032	4390
864.164	4455
864.296	4542
864.428	4573
864.559	4596
864.691	4538
864.823	4565
864.954	4531
865.086	4481
865.217	4489
865.349	4409
865.48	4516
865.612	4519
865.743	4679
865.875	4531
866.006	4493
866.137	4519
866.269	4455
866.4	4485
866.531	4451
866.662	4409
866.793	4455
866.924	4474
867.055	4497
867.186	4466
867.317	4421
867.448	4417
867.579	4421
867.71	4455
867.841	4375
867.972	4512
868.103	4531
868.233	4459
868.364	4481
868.495	4550
868.625	4679
868.756	4755
868.886	4607
869.017	4637
869.147	4835
869.278	4828
869.408	4710
869.539	4660
869.669	4714
869.799	4637
869.929	4797
870.06	4744
870.19	5018
870.32	4949
870.45	4953
870.58	5025
870.71	5102
870.84	5086
870.97	4965
871.1	4938
871.23	5174
871.36	5132
871.489	5041
871.619	5147
871.749	5132
871.879	5098
872.008	5231
872.138	5136
872.267	4972
872.397	4854
872.526	4820
872.656	4698
872.785	4790
872.915	4961
873.044	5060
873.173	4984
873.303	4968
873.432	4999
873.561	4995
873.69	4904
873.819	4858
873.948	4904
874.077	4866
874.206	4786
874.335	4805
874.464	4923
874.593	5067
874.722	4968
874.851	5140
874.979	5098
875.108	5056
875.237	4923
875.365	4892
875.494	4900
875.623	4976
875.751	4824
875.88	4896
876.008	4965
876.136	5090
876.265	5227
876.393	5345
876.521	5273
876.65	5246
876.778	5204
876.906	5136
877.034	5079
877.162	5098
877.29	4995
877.418	5060
877.546	5025
877.674	5041
877.802	5010
877.93	5033
878.058	4980
878.185	4885
878.313	4980
878.441	4934
878.568	4816
878.696	4870
878.824	4965
878.951	4995
879.079	5170
879.206	5292
879.333	5128
879.461	4995
879.588	5029
879.715	5159
879.842	5246
879.97	5029
880.097	4797
880.224	4759
880.351	4847
880.478	4866
880.605	4782
880.732	4812
880.859	5079
880.986	4927
881.112	4934
881.239	4801
881.366	4664
881.493	4668
881.619	4622
881.746	4698
881.872	4656
881.999	4683
882.125	4721
882.252	4752
882.378	4797
882.505	4984
882.631	4793
882.757	4679
882.883	4782
883.01	4771
883.136	4725
883.262	4577
883.388	4649
883.514	4866
883.64	4911
883.766	4866
883.892	4675
884.018	4729
884.143	4866
884.269	5010
884.395	4733
884.52	4694
884.646	4687
884.772	4626
884.897	4622
885.023	4641
885.148	4824
885.274	4839
885.399	4782
885.524	4687
885.65	4733
885.775	4748
885.9	4729
886.025	4892
886.15	4831
886.275	4759
886.4	4679
886.525	4736
886.65	4672
886.775	4733
886.9	4938
887.025	5056
887.149	4835
887.274	4645
887.399	4615
887.523	4626
887.648	4546
887.773	4592
887.897	4755
888.021	4790
888.146	4702
888.27	4793
888.395	4900
888.519	4793
888.643	4828
888.767	4881
888.891	4675
889.015	4637
889.139	4660
889.263	4634
889.387	4801
889.511	4843
889.635	4805
889.759	4664
889.883	4668
890.006	4763
890.13	4831
890.254	4637
890.377	4641
890.501	4561
890.624	4523
890.748	4637
890.871	4516
890.995	4462
891.118	4424
891.241	4512
891.364	4611
891.488	4675
891.611	4554
891.734	4554
891.857	4565
891.98	4592
892.103	4702
892.226	4618
892.349	4500
892.471	4443
892.594	4569
892.717	4611
892.839	4569
892.962	4626
893.085	4622
893.207	4599
893.33	4470
893.452	4500
893.575	4634
893.697	4596
893.819	4805
893.941	4854
894.064	4793
894.186	4584
894.308	4558
894.43	4755
894.552	4816
894.674	4736
894.796	4550
894.918	4603
895.04	4538
895.161	4698
895.283	4683
895.405	4592
895.526	4596
895.648	4668
895.769	4675
895.891	4725
896.012	4725
896.134	4710
896.255	4679
896.376	4615
896.498	4645
896.619	4702
896.74	4580
896.861	4626
896.982	4915
897.103	5090
897.224	4854
897.345	4752
897.466	4736
897.587	4740
897.708	4862
897.828	4763
897.949	4649
898.07	4584
898.19	4675
898.311	4809
898.431	4698
898.552	4752
898.672	4824
898.792	4850
898.913	4759
899.033	4691
899.153	4527
899.273	4390
899.393	4485
899.513	4561
899.633	4550
899.753	4565
899.873	4558
899.993	4573
900.113	4504
900.232	4622
900.352	4565
900.472	4523
900.591	4474
900.711	4546
900.83	4466
900.95	4626
901.069	4664
901.189	4493
901.308	4360
901.427	4344
901.546	4417
901.665	4489
901.784	4508
901.904	4402
902.023	4329
902.141	4234
902.26	4158
902.379	4299
902.498	4246
902.617	4246
902.735	4348
902.854	4413
902.973	4356
903.091	4169
903.21	4272
903.328	4306
903.446	4242
903.565	4268
903.683	4352
903.801	4310
903.919	4386
904.038	4481
904.156	4333
904.274	4466
904.392	4428
904.51	4443
904.627	4497
904.745	4615
904.863	4592
904.981	4402
905.098	4322
905.216	4371
905.334	4455
905.451	4474
905.569	4440
905.686	4519
905.803	4558
905.921	4417
906.038	4546
906.155	4478
906.272	4398
906.389	4474
906.506	4398
906.623	4398
906.74	4383
906.857	4318
906.974	4409
907.091	4527
907.208	4683
907.324	4618
907.441	4519
907.557	4356
907.674	4344
907.79	4367
907.907	4383
908.023	4550
908.139	4512
908.256	4474
908.372	4512
908.488	4519
908.604	4367
908.72	4333
908.836	4417
908.952	4413
909.068	4447
909.184	4615
909.3	4500
909.415	4577
909.531	4580
909.647	4390
909.762	4367
909.878	4360
909.993	4436
910.108	4390
910.224	4421
910.339	4493
910.454	4390
910.57	4409
910.685	4299
910.8	4653
910.915	4592
911.03	4489
911.145	4318
911.259	4348
911.374	4394
911.489	4306
911.604	4291
911.718	4196
911.833	4215
911.947	4097
912.062	4051
912.176	4215
912.291	4261
912.405	4227
912.519	4474
912.633	4519
912.748	4363
912.862	4348
912.976	4185
913.09	4082
913.204	4204
913.318	4280
913.431	4371
913.545	4341
913.659	4424
913.772	4341
913.886	4253
914	4261
914.113	4386
914.226	4470
914.34	4409
914.453	4158
914.566	4402
914.68	4352
914.793	4363
914.906	4169
915.019	4120
915.132	4097
915.245	4211
915.358	4211
915.47	4242
915.583	4257
915.696	4322
915.809	4405
915.921	4462
916.034	4253
916.146	4253
916.259	4207
916.371	4421
916.483	4398
916.595	4257
916.708	4367
916.82	4329
916.932	4325
917.044	4306
917.156	4386
917.268	4242
917.38	4268
917.491	4276
917.603	4375
917.715	4436
917.826	4390
917.938	4333
918.049	4219
918.161	4394
918.272	4554
918.384	4519
918.495	4478
918.606	4318
918.717	4257
918.828	4325
918.939	4352
919.05	4238
919.161	4318
919.272	4139
919.383	4253
919.494	4428
919.604	4622
919.715	4402
919.826	4360
919.936	4402
920.047	4519
920.157	4474
920.267	4725
920.378	4580
920.488	4504
920.598	4736
920.708	4892
920.818	4740
920.928	4755
921.038	4984
921.148	4900
921.258	4622
921.368	4554
921.477	4538
921.587	4440
921.697	4371
921.806	4588
921.916	4417
922.025	4253
922.134	4272
922.244	4265
922.353	4318
922.462	4173
922.571	4154
922.68	4036
922.789	3960
922.898	4013
923.007	4044
923.116	4128
923.224	4112
923.333	4086
923.442	4006
923.55	3987
923.659	3994
923.767	4120
923.876	4002
923.984	4120
924.092	3991
924.201	4109
924.309	4109
924.417	4147
924.525	4051
924.633	4071
924.741	5075
924.849	3937
924.956	4166
925.064	3960
925.172	3926
925.279	3968
925.387	4025
925.494	4048
925.602	4227
925.709	4196
925.816	4067
925.924	4124
926.031	4207
926.138	4154
926.245	4230
926.352	4105
926.459	4253
926.566	4276
926.673	4173
926.779	4074
926.886	4044
926.993	3956
927.099	3968
927.206	3918
927.312	3903
927.419	4051
927.525	4006
927.631	4086
927.737	3956
927.843	3983
927.95	3903
928.056	3983
928.162	3998
928.267	4036
928.373	4736
928.479	4090
928.585	3846
928.69	4013
928.796	4105
928.901	3998
929.007	3842
929.112	3998
929.218	4029
929.323	3937
929.428	3960
929.533	4093
929.638	3922
929.743	4002
929.848	4051
929.953	3994
930.058	3941
930.163	3797
930.267	3808
930.372	3994
930.477	3797
930.581	4101
930.685	3930
930.79	3816
930.894	3842
930.998	3876
931.103	4025
931.207	3682
931.311	3690
931.415	3675
931.519	3496
931.623	3564
