Data from test_V78500241_1966.txt Node
Date: Fri Mar 25 17:02:40 CST 2022
User: usil
Spectrometer: V785-0024
Trigger mode: 0
Integration Time (sec): 4.000000E-1
Scans to average: 1
Nonlinearity correction enabled: false
Boxcar width: 0
Storing dark spectrum: false
XAxis mode: Wavelengths
Number of Pixels in Spectrum: 1024
>>>>>Begin Spectral Data<<<<<
801.071	7944
801.214	7944
801.356	7864
801.499	7830
801.641	7750
801.783	7776
801.926	7970
802.068	7982
802.211	8001
802.353	7986
802.496	7871
802.638	7852
802.78	7868
802.923	7898
803.065	7849
803.208	7875
803.35	7967
803.492	8092
803.635	8123
803.777	7967
803.919	8054
804.061	8419
804.204	8145
804.346	8081
804.488	7982
804.63	8073
804.773	8062
804.915	8073
805.057	8282
805.199	8145
805.341	8176
805.483	8214
805.626	8145
805.768	8043
805.91	8161
806.052	8233
806.194	8103
806.336	8244
806.478	8077
806.62	7986
806.762	8168
806.904	8305
807.046	8461
807.188	8355
807.33	8370
807.472	8336
807.614	8199
807.756	8119
807.898	8031
808.04	7856
808.182	7822
808.324	7852
808.465	7879
808.607	8062
808.749	8103
808.891	8149
809.033	8263
809.174	8221
809.316	8058
809.458	8058
809.6	8012
809.741	7978
809.883	8039
810.025	8126
810.166	8027
810.308	7909
810.45	7932
810.591	7818
810.733	7704
810.875	7643
811.016	7510
811.158	7495
811.299	7567
811.441	7693
811.582	7704
811.724	7491
811.865	7590
812.007	7556
812.148	7567
812.29	7613
812.431	7712
812.573	7906
812.714	7925
812.855	8111
812.997	8259
813.138	8252
813.279	8081
813.421	8031
813.562	7925
813.703	7807
813.845	7685
813.986	7400
814.127	7221
814.268	7209
814.41	7236
814.551	7183
814.692	7202
814.833	7118
814.974	7099
815.115	7107
815.256	6913
815.397	6962
815.539	6954
815.68	6787
815.821	6768
815.962	6856
816.103	6810
816.244	6658
816.385	6608
816.526	6604
816.666	6502
816.807	6369
816.948	6437
817.089	6506
817.23	6464
817.371	6346
817.512	6426
817.653	6327
817.793	6391
817.934	6422
818.075	6479
818.216	6410
818.356	6391
818.497	6239
818.638	6140
818.778	6121
818.919	6140
819.06	6155
819.2	6346
819.341	6296
819.481	6376
819.622	6498
819.762	6722
819.903	6681
820.043	6536
820.184	6540
820.324	6593
820.465	6642
820.605	6646
820.746	6662
820.886	6467
821.026	6627
821.167	6719
821.307	6795
821.447	6760
821.588	6738
821.728	6540
821.868	6471
822.008	6338
822.149	6331
822.289	6327
822.429	6072
822.569	6098
822.709	6144
822.849	5901
822.99	5901
823.13	5927
823.27	5874
823.41	5733
823.55	5726
823.69	5764
823.83	5745
823.97	5676
824.11	5532
824.25	5512
824.389	5608
824.529	5600
824.669	5532
824.809	5585
824.949	5642
825.089	5592
825.228	5509
825.368	5364
825.508	5307
825.648	5284
825.787	5398
825.927	5387
826.067	5334
826.206	5326
826.346	5372
826.485	5357
826.625	5410
826.765	5543
826.904	5478
827.044	5246
827.183	5159
827.323	5193
827.462	5235
827.601	5170
827.741	5174
827.88	5242
828.02	5086
828.159	5246
828.298	5299
828.437	5368
828.577	5242
828.716	5490
828.855	5318
828.994	5166
829.134	5147
829.273	5208
829.412	5132
829.551	5170
829.69	5189
829.829	5292
829.968	5406
830.107	5261
830.246	5292
830.385	5216
830.524	5159
830.663	5094
830.802	4991
830.941	4968
831.08	4927
831.219	5060
831.357	5029
831.496	5185
831.635	4923
831.774	4854
831.913	4892
832.051	4759
832.19	4805
832.329	4873
832.467	4729
832.606	4664
832.744	4721
832.883	4797
833.022	4771
833.16	4847
833.299	4843
833.437	4835
833.576	4870
833.714	4911
833.852	4911
833.991	4927
834.129	4995
834.267	5029
834.406	4900
834.544	4991
834.682	5048
834.821	4972
834.959	5208
835.097	5048
835.235	5162
835.373	5083
835.511	5067
835.65	5079
835.788	5056
835.926	4923
836.064	4930
836.202	4965
836.34	5204
836.478	5254
836.615	5136
836.753	5258
836.891	5326
837.029	5239
837.167	5242
837.305	5216
837.443	5181
837.58	5132
837.718	5318
837.856	5231
837.993	5181
838.131	5273
838.269	5261
838.406	5265
838.544	5231
838.681	5060
838.819	5052
838.956	4949
839.094	4934
839.231	5014
839.369	5094
839.506	5463
839.643	5311
839.781	5121
839.918	5079
840.055	5113
840.193	5079
840.33	5117
840.467	5178
840.604	5227
840.742	5512
840.879	5136
841.016	5143
841.153	5189
841.29	5398
841.427	5364
841.564	5364
841.701	5395
841.838	5364
841.975	5239
842.112	5242
842.249	5166
842.385	5140
842.522	5349
842.659	5185
842.796	5170
842.933	5220
843.069	5166
843.206	5197
843.343	5410
843.479	5284
843.616	5292
843.752	5105
843.889	5094
844.025	5265
844.162	5022
844.298	5220
844.435	5124
844.571	5022
844.708	5258
844.844	5280
844.98	5379
845.117	5315
845.253	5216
845.389	5098
845.525	5201
845.661	5102
845.798	5041
845.934	5159
846.07	5090
846.206	5258
846.342	5341
846.478	5239
846.614	5083
846.75	4972
846.886	5014
847.022	5143
847.158	5075
847.294	5128
847.429	5143
847.565	5124
847.701	5334
847.837	4915
847.972	4843
848.108	4995
848.244	4949
848.379	4816
848.515	4816
848.65	4778
848.786	4774
848.921	4835
849.057	4900
849.192	4984
849.328	4862
849.463	4854
849.598	4839
849.734	4774
849.869	4771
850.004	4668
850.14	4683
850.275	4626
850.41	4569
850.545	4618
850.68	4675
850.815	4637
850.95	4634
851.085	4889
851.22	4831
851.355	4714
851.49	4607
851.625	4672
851.76	4664
851.895	4653
852.03	4561
852.165	4679
852.299	4706
852.434	4812
852.569	4740
852.703	4824
852.838	4896
852.973	4984
853.107	4915
853.242	4778
853.376	4698
853.511	4550
853.645	4698
853.78	4839
853.914	4721
854.048	4691
854.183	4637
854.317	4714
854.451	4850
854.585	4694
854.72	4649
854.854	4801
854.988	4615
855.122	4645
855.256	4554
855.39	4702
855.524	4774
855.658	4755
855.792	4755
855.926	4744
856.06	4793
856.194	4797
856.327	4717
856.461	4634
856.595	4645
856.729	4611
856.862	4786
856.996	4717
857.13	4752
857.263	4824
857.397	4847
857.53	4653
857.664	4736
857.797	4774
857.931	4809
858.064	4721
858.197	4805
858.331	4668
858.464	4641
858.597	4538
858.731	4668
858.864	4653
858.997	4588
859.13	4725
859.263	4710
859.396	4740
859.529	4622
859.662	4603
859.795	4584
859.928	4668
860.061	4767
860.194	4778
860.327	4637
860.46	4584
860.592	4774
860.725	4771
860.858	4748
860.99	4592
861.123	4512
861.256	4565
861.388	4675
861.521	5303
861.653	4519
861.786	4432
861.918	4481
862.05	4588
862.183	4519
862.315	4611
862.447	4656
862.58	4573
862.712	4451
862.844	4337
862.976	4466
863.108	4497
863.24	4831
863.372	4325
863.504	4455
863.636	4440
863.768	4527
863.9	4474
864.032	4379
864.164	4443
864.296	4493
864.428	4599
864.559	4592
864.691	4565
864.823	4542
864.954	4531
865.086	4508
865.217	4466
865.349	4459
865.48	4512
865.612	4538
865.743	4660
865.875	4459
866.006	4459
866.137	4470
866.269	4424
866.4	4455
866.531	4447
866.662	4390
866.793	4447
866.924	4417
867.055	4554
867.186	4440
867.317	4428
867.448	4386
867.579	4424
867.71	4421
867.841	4443
867.972	4440
868.103	4516
868.233	4466
868.364	4436
868.495	4500
868.625	4710
868.756	4778
868.886	4588
869.017	4626
869.147	4782
869.278	4801
869.408	4672
869.539	4634
869.669	4733
869.799	4679
869.929	4820
870.06	4793
870.19	4972
870.32	4911
870.45	4953
870.58	5083
870.71	5090
870.84	5170
870.97	4980
871.1	4900
871.23	5223
871.36	5178
871.489	5037
871.619	5086
871.749	5124
871.879	5193
872.008	5216
872.138	5083
872.267	5006
872.397	4873
872.526	4805
872.656	4763
872.785	4801
872.915	4930
873.044	5037
873.173	4949
873.303	5006
873.432	4961
873.561	5022
873.69	4850
873.819	4892
873.948	4965
874.077	4850
874.206	4782
874.335	4839
874.464	4942
874.593	5090
874.722	5006
874.851	5090
874.979	5079
875.108	5071
875.237	4965
875.365	4904
875.494	4930
875.623	4999
875.751	4839
875.88	4908
876.008	5037
876.136	5083
876.265	5201
876.393	5368
876.521	5227
876.65	5223
876.778	5212
876.906	5132
877.034	5037
877.162	5052
877.29	5022
877.418	5064
877.546	5056
877.674	5083
877.802	5037
877.93	5018
878.058	4957
878.185	4904
878.313	5014
878.441	4953
878.568	4866
878.696	4896
878.824	4976
878.951	5033
879.079	5083
879.206	5265
879.333	5174
879.461	4999
879.588	4995
879.715	5128
879.842	5307
879.97	4999
880.097	4858
880.224	4771
880.351	4824
880.478	4809
880.605	4786
880.732	4809
880.859	5090
880.986	4904
881.112	5003
881.239	4801
881.366	4710
881.493	4641
881.619	4577
881.746	4675
881.872	4683
881.999	4675
882.125	4698
882.252	4755
882.378	4877
882.505	4984
882.631	4824
882.757	4721
882.883	4706
883.01	4771
883.136	4687
883.262	4634
883.388	4592
883.514	4831
883.64	4904
883.766	4812
883.892	4672
884.018	4725
884.143	4870
884.269	4949
884.395	4710
884.52	4618
884.646	4668
884.772	4603
884.897	4588
885.023	4740
885.148	4877
885.274	4908
885.399	4843
885.524	4717
885.65	4744
885.775	4740
885.9	4733
886.025	4889
886.15	4778
886.275	4710
886.4	4672
886.525	4790
886.65	4683
886.775	4740
886.9	4919
887.025	5090
887.149	4839
887.274	4675
887.399	4580
887.523	4577
887.648	4596
887.773	4554
887.897	4729
888.021	4767
888.146	4733
888.27	4839
888.395	4904
888.519	4740
888.643	4862
888.767	4847
888.891	4683
889.015	4577
889.139	4641
889.263	4645
889.387	4759
889.511	4892
889.635	4801
889.759	4683
889.883	4641
890.006	4767
890.13	4809
890.254	4634
890.377	4687
890.501	4546
890.624	4577
890.748	4626
890.871	4531
890.995	4424
891.118	4390
891.241	4531
891.364	4550
891.488	4687
891.611	4527
891.734	4565
891.857	4653
891.98	4561
892.103	4679
892.226	4618
892.349	4527
892.471	4447
892.594	4535
892.717	4603
892.839	4630
892.962	4592
893.085	4710
893.207	4607
893.33	4481
893.452	4546
893.575	4645
893.697	4573
893.819	4786
893.941	4839
894.064	4778
894.186	4584
894.308	4615
894.43	4702
894.552	4873
894.674	4790
894.796	4558
894.918	4603
895.04	4485
895.161	4778
895.283	4656
895.405	4611
895.526	4675
895.648	4645
895.769	4710
895.891	4782
896.012	4771
896.134	4729
896.255	4702
896.376	4645
896.498	4626
896.619	4702
896.74	4599
896.861	4664
896.982	4957
897.103	5033
897.224	4870
897.345	4740
897.466	4649
897.587	4736
897.708	4854
897.828	4812
897.949	4660
898.07	4599
898.19	4637
898.311	4835
898.431	4668
898.552	4790
898.672	4858
898.792	4786
898.913	4774
899.033	4634
899.153	4493
899.273	4451
899.393	4542
899.513	4535
899.633	4527
899.753	4546
899.873	4519
899.993	4580
900.113	4577
900.232	4561
900.352	4580
900.472	4512
900.591	4432
900.711	4424
900.83	4447
900.95	4618
901.069	4706
901.189	4584
901.308	4348
901.427	4310
901.546	4402
901.665	4455
901.784	4519
901.904	4367
902.023	4348
902.141	4207
902.26	4207
902.379	4329
902.498	4272
902.617	4230
902.735	4421
902.854	4451
902.973	4390
903.091	4223
903.21	4223
903.328	4337
903.446	4257
903.565	4261
903.683	4390
903.801	4299
903.919	4383
904.038	4474
904.156	4299
904.274	4481
904.392	4390
904.51	4447
904.627	4512
904.745	4599
904.863	4645
904.981	4409
905.098	4348
905.216	4363
905.334	4436
905.451	4466
905.569	4409
905.686	4546
905.803	4596
905.921	4383
906.038	4588
906.155	4474
906.272	4398
906.389	4459
906.506	4371
906.623	4310
906.74	4371
906.857	4318
906.974	4367
907.091	4561
907.208	4694
907.324	4626
907.441	4470
907.557	4371
907.674	4379
907.79	4325
907.907	4394
908.023	4447
908.139	4451
908.256	4447
908.372	4489
908.488	4474
908.604	4367
908.72	4348
908.836	4394
908.952	4394
909.068	4455
909.184	4508
909.3	4440
909.415	4577
909.531	4550
909.647	4386
909.762	4356
909.878	4344
909.993	4405
910.108	4375
910.224	4451
910.339	4500
910.454	4405
910.57	4371
910.685	4310
910.8	4660
910.915	4615
911.03	4523
911.145	4337
911.259	4337
911.374	4405
911.489	4322
911.604	4265
911.718	4166
911.833	4185
911.947	4040
912.062	4044
912.176	4181
912.291	4227
912.405	4284
912.519	4470
912.633	4531
912.748	4356
912.862	4303
912.976	4200
913.09	4086
913.204	4143
913.318	4246
913.431	4348
913.545	4409
913.659	4451
913.772	4337
913.886	4333
914	4227
914.113	4398
914.226	4432
914.34	4409
914.453	4200
914.566	4451
914.68	4341
914.793	4306
914.906	4204
915.019	4112
915.132	4051
915.245	4150
915.358	4230
915.47	4227
915.583	4291
915.696	4284
915.809	4428
915.921	4459
916.034	4265
916.146	4329
916.259	4242
916.371	4402
916.483	4363
916.595	4268
916.708	4318
916.82	4322
916.932	4363
917.044	4341
917.156	4291
917.268	4238
917.38	4257
917.491	4276
917.603	4405
917.715	4470
917.826	4386
917.938	4337
918.049	4284
918.161	4367
918.272	4573
918.384	4474
918.495	4474
918.606	4306
918.717	4249
918.828	4303
918.939	4356
919.05	4280
919.161	4299
919.272	4124
919.383	4196
919.494	4443
919.604	4637
919.715	4440
919.826	4356
919.936	4421
920.047	4527
920.157	4440
920.267	4725
920.378	4516
920.488	4481
920.598	4748
920.708	4949
920.818	4759
920.928	4759
921.038	5010
921.148	4919
921.258	4653
921.368	4554
921.477	4542
921.587	4462
921.697	4390
921.806	4588
921.916	4447
922.025	4287
922.134	4227
922.244	4246
922.353	4367
922.462	4177
922.571	4147
922.68	4013
922.789	3987
922.898	4105
923.007	3975
923.116	4097
923.224	4071
923.333	4055
923.442	3994
923.55	4013
923.659	4055
923.767	4101
923.876	4029
923.984	4143
924.092	3994
924.201	4067
924.309	4071
924.417	4143
924.525	4002
924.633	4082
924.741	5086
924.849	3922
924.956	4120
925.064	3960
925.172	3922
925.279	3983
925.387	4071
925.494	4036
925.602	4188
925.709	4173
925.816	4044
925.924	4181
926.031	4246
926.138	4188
926.245	4200
926.352	4105
926.459	4204
926.566	4333
926.673	4158
926.779	4093
926.886	4093
926.993	3975
927.099	3930
927.206	4006
927.312	3930
927.419	4055
927.525	4029
927.631	4055
927.737	3956
927.843	3915
927.95	3880
928.056	3918
928.162	3987
928.267	4040
928.373	4599
928.479	4078
928.585	3876
928.69	4032
928.796	4078
928.901	3994
929.007	3823
929.112	4006
929.218	3941
929.323	3968
929.428	3964
929.533	4101
929.638	3888
929.743	3975
929.848	4006
929.953	4051
930.058	3907
930.163	3789
930.267	3842
930.372	3998
930.477	3778
930.581	4093
930.685	3922
930.79	3827
930.894	3899
930.998	3903
931.103	3994
931.207	3740
931.311	3690
931.415	3663
931.519	3492
931.623	3587
