Data from test_V78500241_1576.txt Node
Date: Fri Mar 25 16:59:57 CST 2022
User: usil
Spectrometer: V785-0024
Trigger mode: 0
Integration Time (sec): 4.000000E-1
Scans to average: 1
Nonlinearity correction enabled: false
Boxcar width: 0
Storing dark spectrum: false
XAxis mode: Wavelengths
Number of Pixels in Spectrum: 1024
>>>>>Begin Spectral Data<<<<<
801.071	7974
801.214	7883
801.356	7833
801.499	7814
801.641	7746
801.783	7772
801.926	7978
802.068	7890
802.211	7913
802.353	7947
802.496	7822
802.638	7875
802.78	7875
802.923	7902
803.065	7803
803.208	7795
803.35	7925
803.492	8054
803.635	8210
803.777	7986
803.919	8084
804.061	8366
804.204	8134
804.346	8081
804.488	7947
804.63	8050
804.773	8050
804.915	8027
805.057	8252
805.199	8145
805.341	8153
805.483	8225
805.626	8191
805.768	8096
805.91	8157
806.052	8172
806.194	8138
806.336	8256
806.478	8084
806.62	8069
806.762	8130
806.904	8263
807.046	8522
807.188	8389
807.33	8347
807.472	8275
807.614	8084
807.756	8145
807.898	7936
808.04	7887
808.182	7906
808.324	7887
808.465	7902
808.607	8046
808.749	8123
808.891	8073
809.033	8313
809.174	8210
809.316	7967
809.458	8050
809.6	8016
809.741	7986
809.883	8016
810.025	8065
810.166	8062
810.308	8039
810.45	8008
810.591	7841
810.733	7677
810.875	7662
811.016	7476
811.158	7518
811.299	7605
811.441	7696
811.582	7636
811.724	7578
811.865	7582
812.007	7651
812.148	7563
812.29	7590
812.431	7742
812.573	7936
812.714	8012
812.855	8145
812.997	8161
813.138	8393
813.279	8164
813.421	8107
813.562	7959
813.703	7757
813.845	7712
813.986	7419
814.127	7274
814.268	7179
814.41	7221
814.551	7103
814.692	7145
814.833	7061
814.974	7065
815.115	7099
815.256	7008
815.397	6935
815.539	6954
815.68	6837
815.821	6802
815.962	6821
816.103	6810
816.244	6684
816.385	6642
816.526	6631
816.666	6498
816.807	6334
816.948	6365
817.089	6467
817.23	6464
817.371	6331
817.512	6361
817.653	6426
817.793	6361
817.934	6433
818.075	6429
818.216	6369
818.356	6376
818.497	6220
818.638	6087
818.778	6159
818.919	6057
819.06	6144
819.2	6342
819.341	6334
819.481	6388
819.622	6517
819.762	6711
819.903	6707
820.043	6604
820.184	6551
820.324	6578
820.465	6719
820.605	6654
820.746	6642
820.886	6517
821.026	6677
821.167	6734
821.307	6795
821.447	6757
821.588	6692
821.728	6608
821.868	6464
822.008	6308
822.149	6342
822.289	6426
822.429	6148
822.569	6003
822.709	6159
822.849	5927
822.99	5859
823.13	5946
823.27	5908
823.41	5764
823.55	5802
823.69	5722
823.83	5813
823.97	5585
824.11	5570
824.25	5509
824.389	5573
824.529	5551
824.669	5497
824.809	5585
824.949	5688
825.089	5627
825.228	5566
825.368	5379
825.508	5334
825.648	5376
825.787	5391
825.927	5360
826.067	5265
826.206	5315
826.346	5402
826.485	5379
826.625	5379
826.765	5592
826.904	5490
827.044	5220
827.183	5216
827.323	5151
827.462	5235
827.601	5174
827.741	5197
827.88	5223
828.02	5075
828.159	5185
828.298	5299
828.437	5315
828.577	5315
828.716	5516
828.855	5269
828.994	5113
829.134	5140
829.273	5147
829.412	5151
829.551	5124
829.69	5185
829.829	5216
829.968	5387
830.107	5231
830.246	5258
830.385	5155
830.524	5109
830.663	5094
830.802	4972
830.941	4904
831.08	4896
831.219	5041
831.357	4953
831.496	5124
831.635	4870
831.774	4831
831.913	4828
832.051	4744
832.19	4725
832.329	4835
832.467	4721
832.606	4622
832.744	4729
832.883	4721
833.022	4687
833.16	4782
833.299	4835
833.437	4805
833.576	4858
833.714	4793
833.852	4812
833.991	4892
834.129	4976
834.267	4999
834.406	4927
834.544	4908
834.682	4942
834.821	4911
834.959	5170
835.097	4984
835.235	5143
835.373	5048
835.511	5079
835.65	4934
835.788	5010
835.926	4873
836.064	4847
836.202	4919
836.34	5147
836.478	5193
836.615	5064
836.753	5220
836.891	5265
837.029	5239
837.167	5178
837.305	5090
837.443	5094
837.58	5037
837.718	5277
837.856	5181
837.993	5136
838.131	5220
838.269	5174
838.406	5178
838.544	5197
838.681	5064
838.819	5003
838.956	4881
839.094	4900
839.231	4984
839.369	5064
839.506	5452
839.643	5261
839.781	5079
839.918	5010
840.055	5071
840.193	5083
840.33	5086
840.467	5121
840.604	5155
840.742	5387
840.879	5067
841.016	5060
841.153	5159
841.29	5383
841.427	5326
841.564	5250
841.701	5337
841.838	5250
841.975	5250
842.112	5235
842.249	5105
842.385	5102
842.522	5311
842.659	5159
842.796	5166
842.933	5181
843.069	5170
843.206	5113
843.343	5284
843.479	5250
843.616	5261
843.752	5018
843.889	5003
844.025	5220
844.162	5022
844.298	5185
844.435	5064
844.571	5067
844.708	5166
844.844	5220
844.98	5372
845.117	5303
845.253	5151
845.389	5060
845.525	5132
845.661	5136
845.798	5045
845.934	5128
846.07	5060
846.206	5178
846.342	5280
846.478	5151
846.614	5010
846.75	4965
846.886	4896
847.022	5109
847.158	5048
847.294	5056
847.429	5086
847.565	5052
847.701	5296
847.837	4820
847.972	4793
848.108	4923
848.244	4961
848.379	4759
848.515	4721
848.65	4687
848.786	4740
848.921	4710
849.057	4828
849.192	4881
849.328	4816
849.463	4831
849.598	4805
849.734	4752
849.869	4668
850.004	4580
850.14	4664
850.275	4618
850.41	4489
850.545	4550
850.68	4584
850.815	4607
850.95	4573
851.085	4828
851.22	4683
851.355	4683
851.49	4592
851.625	4626
851.76	4641
851.895	4542
852.03	4451
852.165	4675
852.299	4755
852.434	4767
852.569	4744
852.703	4706
852.838	4828
852.973	4904
853.107	4938
853.242	4683
853.376	4660
853.511	4535
853.645	4561
853.78	4763
853.914	4694
854.048	4675
854.183	4626
854.317	4748
854.451	4850
854.585	4653
854.72	4653
854.854	4752
854.988	4584
855.122	4668
855.256	4538
855.39	4618
855.524	4771
855.658	4717
855.792	4634
855.926	4714
856.06	4755
856.194	4805
856.327	4729
856.461	4565
856.595	4611
856.729	4592
856.862	4748
856.996	4698
857.13	4687
857.263	4763
857.397	4824
857.53	4637
857.664	4786
857.797	4771
857.931	4790
858.064	4675
858.197	4763
858.331	4649
858.464	4603
858.597	4512
858.731	4641
858.864	4584
858.997	4569
859.13	4653
859.263	4668
859.396	4656
859.529	4565
859.662	4577
859.795	4508
859.928	4634
860.061	4725
860.194	4729
860.327	4592
860.46	4546
860.592	4706
860.725	4748
860.858	4687
860.99	4603
861.123	4466
861.256	4497
861.388	4615
861.521	5220
861.653	4451
861.786	4409
861.918	4493
862.05	4455
862.183	4584
862.315	4584
862.447	4618
862.58	4588
862.712	4367
862.844	4276
862.976	4451
863.108	4417
863.24	4786
863.372	4348
863.504	4417
863.636	4417
863.768	4443
863.9	4424
864.032	4348
864.164	4390
864.296	4440
864.428	4573
864.559	4546
864.691	4485
864.823	4485
864.954	4516
865.086	4523
865.217	4428
865.349	4405
865.48	4489
865.612	4500
865.743	4618
865.875	4447
866.006	4436
866.137	4440
866.269	4440
866.4	4390
866.531	4424
866.662	4375
866.793	4390
866.924	4424
867.055	4504
867.186	4459
867.317	4405
867.448	4386
867.579	4337
867.71	4367
867.841	4367
867.972	4402
868.103	4497
868.233	4424
868.364	4470
868.495	4485
868.625	4702
868.756	4771
868.886	4588
869.017	4569
869.147	4733
869.278	4763
869.408	4653
869.539	4588
869.669	4729
869.799	4645
869.929	4767
870.06	4687
870.19	4953
870.32	4908
870.45	4957
870.58	5029
870.71	5064
870.84	5052
870.97	4957
871.1	4889
871.23	5102
871.36	5143
871.489	5014
871.619	5075
871.749	5086
871.879	5090
872.008	5113
872.138	5060
872.267	5014
872.397	4885
872.526	4847
872.656	4706
872.785	4793
872.915	4938
873.044	5018
873.173	4961
873.303	4980
873.432	4961
873.561	4927
873.69	4828
873.819	4866
873.948	4911
874.077	4812
874.206	4740
874.335	4767
874.464	4889
874.593	5025
874.722	4999
874.851	5079
874.979	4984
875.108	4999
875.237	4881
875.365	4889
875.494	4892
875.623	4965
875.751	4805
875.88	4866
876.008	4896
876.136	5022
876.265	5185
876.393	5292
876.521	5212
876.65	5273
876.778	5162
876.906	5090
877.034	4991
877.162	5025
877.29	4999
877.418	5041
877.546	5014
877.674	5037
877.802	5003
877.93	5033
878.058	4923
878.185	4873
878.313	4927
878.441	4968
878.568	4828
878.696	4835
878.824	4911
878.951	4976
879.079	5083
879.206	5303
879.333	5121
879.461	5006
879.588	4999
879.715	5064
879.842	5277
879.97	5010
880.097	4710
880.224	4774
880.351	4782
880.478	4839
880.605	4866
880.732	4778
880.859	5094
880.986	4862
881.112	4919
881.239	4752
881.366	4691
881.493	4645
881.619	4500
881.746	4584
881.872	4641
881.999	4641
882.125	4683
882.252	4843
882.378	4805
882.505	4957
882.631	4778
882.757	4710
882.883	4706
883.01	4694
883.136	4607
883.262	4611
883.388	4599
883.514	4767
883.64	4831
883.766	4763
883.892	4672
884.018	4706
884.143	4828
884.269	5022
884.395	4660
884.52	4626
884.646	4653
884.772	4588
884.897	4542
885.023	4675
885.148	4790
885.274	4847
885.399	4797
885.524	4698
885.65	4714
885.775	4736
885.9	4687
886.025	4805
886.15	4721
886.275	4672
886.4	4649
886.525	4687
886.65	4725
886.775	4687
886.9	4866
887.025	5056
887.149	4797
887.274	4611
887.399	4580
887.523	4569
887.648	4577
887.773	4584
887.897	4736
888.021	4752
888.146	4675
888.27	4847
888.395	4839
888.519	4828
888.643	4828
888.767	4862
888.891	4622
889.015	4599
889.139	4630
889.263	4580
889.387	4771
889.511	4870
889.635	4835
889.759	4611
889.883	4615
890.006	4744
890.13	4847
890.254	4645
890.377	4721
890.501	4558
890.624	4478
890.748	4599
890.871	4436
890.995	4413
891.118	4356
891.241	4504
891.364	4504
891.488	4596
891.611	4466
891.734	4588
891.857	4603
891.98	4504
892.103	4698
892.226	4546
892.349	4504
892.471	4432
892.594	4516
892.717	4577
892.839	4550
892.962	4584
893.085	4683
893.207	4588
893.33	4485
893.452	4497
893.575	4687
893.697	4584
893.819	4778
893.941	4816
894.064	4782
894.186	4542
894.308	4558
894.43	4748
894.552	4831
894.674	4771
894.796	4538
894.918	4580
895.04	4580
895.161	4706
895.283	4622
895.405	4611
895.526	4618
895.648	4645
895.769	4622
895.891	4706
896.012	4729
896.134	4694
896.255	4717
896.376	4649
896.498	4622
896.619	4675
896.74	4615
896.861	4607
896.982	4927
897.103	5079
897.224	4790
897.345	4736
897.466	4698
897.587	4679
897.708	4873
897.828	4759
897.949	4618
898.07	4592
898.19	4660
898.311	4812
898.431	4675
898.552	4733
898.672	4805
898.792	4752
898.913	4714
899.033	4664
899.153	4512
899.273	4432
899.393	4508
899.513	4500
899.633	4523
899.753	4504
899.873	4512
899.993	4611
900.113	4554
900.232	4603
900.352	4497
900.472	4455
900.591	4367
900.711	4489
900.83	4424
900.95	4599
901.069	4668
901.189	4504
901.308	4314
901.427	4306
901.546	4383
901.665	4481
901.784	4500
901.904	4363
902.023	4348
902.141	4169
902.26	4139
902.379	4284
902.498	4227
902.617	4219
902.735	4390
902.854	4413
902.973	4344
903.091	4177
903.21	4200
903.328	4329
903.446	4265
903.565	4257
903.683	4363
903.801	4276
903.919	4344
904.038	4432
904.156	4337
904.274	4421
904.392	4424
904.51	4424
904.627	4440
904.745	4531
904.863	4634
904.981	4348
905.098	4284
905.216	4337
905.334	4405
905.451	4428
905.569	4432
905.686	4565
905.803	4508
905.921	4443
906.038	4531
906.155	4462
906.272	4348
906.389	4470
906.506	4352
906.623	4409
906.74	4413
906.857	4257
906.974	4352
907.091	4516
907.208	4645
907.324	4561
907.441	4462
907.557	4363
907.674	4375
907.79	4352
907.907	4341
908.023	4462
908.139	4462
908.256	4413
908.372	4455
908.488	4451
908.604	4329
908.72	4341
908.836	4348
908.952	4402
909.068	4417
909.184	4580
909.3	4474
909.415	4561
909.531	4554
909.647	4318
909.762	4386
909.878	4306
909.993	4398
910.108	4379
910.224	4417
910.339	4459
910.454	4379
910.57	4318
910.685	4303
910.8	4649
910.915	4519
911.03	4447
911.145	4303
911.259	4329
911.374	4356
911.489	4268
911.604	4303
911.718	4147
911.833	4200
911.947	4051
912.062	4036
912.176	4181
912.291	4261
912.405	4276
912.519	4451
912.633	4550
912.748	4356
912.862	4341
912.976	4211
913.09	4105
913.204	4166
913.318	4261
913.431	4344
913.545	4375
913.659	4428
913.772	4379
913.886	4272
914	4246
914.113	4363
914.226	4409
914.34	4424
914.453	4227
914.566	4421
914.68	4348
914.793	4325
914.906	4181
915.019	4124
915.132	4109
915.245	4173
915.358	4253
915.47	4287
915.583	4280
915.696	4318
915.809	4447
915.921	4451
916.034	4291
916.146	4257
916.259	4257
916.371	4417
916.483	4413
916.595	4314
916.708	4352
916.82	4363
916.932	4329
917.044	4348
917.156	4360
917.268	4268
917.38	4303
917.491	4249
917.603	4303
917.715	4432
917.826	4451
917.938	4413
918.049	4318
918.161	4462
918.272	4592
918.384	4565
918.495	4481
918.606	4352
918.717	4314
918.828	4367
918.939	4402
919.05	4371
919.161	4402
919.272	4131
919.383	4249
919.494	4428
919.604	4649
919.715	4474
919.826	4398
919.936	4432
920.047	4569
920.157	4535
920.267	4778
920.378	4622
920.488	4512
920.598	4744
920.708	4927
920.818	4763
920.928	4774
921.038	4999
921.148	4934
921.258	4611
921.368	4588
921.477	4516
921.587	4474
921.697	4386
921.806	4618
921.916	4462
922.025	4318
922.134	4284
922.244	4227
922.353	4379
922.462	4246
922.571	4181
922.68	4067
922.789	4017
922.898	4128
923.007	4025
923.116	4150
923.224	4101
923.333	4112
923.442	4002
923.55	4040
923.659	4071
923.767	4101
923.876	4025
923.984	4150
924.092	4002
924.201	4128
924.309	4120
924.417	4124
924.525	4082
924.633	4124
924.741	4873
924.849	3937
924.956	4169
925.064	4006
925.172	3937
925.279	3998
925.387	4116
925.494	4082
925.602	4287
925.709	4234
925.816	4040
925.924	4166
926.031	4227
926.138	4211
926.245	4234
926.352	4078
926.459	4261
926.566	4386
926.673	4188
926.779	4086
926.886	4109
926.993	4017
927.099	3983
927.206	3994
927.312	3975
927.419	4116
927.525	4040
927.631	4112
927.737	4013
927.843	3975
927.95	3884
928.056	3991
928.162	3983
928.267	4082
928.373	4592
928.479	4112
928.585	3876
928.69	4032
928.796	4082
928.901	3953
929.007	3873
929.112	3998
929.218	3983
929.323	3972
929.428	4002
929.533	4093
929.638	3956
929.743	4013
929.848	4051
929.953	4032
930.058	3945
930.163	3816
930.267	3888
930.372	3983
930.477	3850
930.581	4128
930.685	3994
930.79	3869
930.894	3934
930.998	3888
931.103	4059
931.207	3717
931.311	3720
931.415	3694
931.519	3553
931.623	3553
