Data from test_V78500241_2416.txt Node
Date: Fri Mar 25 17:05:48 CST 2022
User: usil
Spectrometer: V785-0024
Trigger mode: 0
Integration Time (sec): 4.000000E-1
Scans to average: 1
Nonlinearity correction enabled: false
Boxcar width: 0
Storing dark spectrum: false
XAxis mode: Wavelengths
Number of Pixels in Spectrum: 1024
>>>>>Begin Spectral Data<<<<<
801.071	7997
801.214	8016
801.356	7887
801.499	7871
801.641	7799
801.783	7761
801.926	7970
802.068	7928
802.211	8027
802.353	7989
802.496	7814
802.638	7849
802.78	7898
802.923	7928
803.065	7841
803.208	7883
803.35	8020
803.492	8096
803.635	8195
803.777	8005
803.919	8157
804.061	8476
804.204	8164
804.346	8054
804.488	8039
804.63	8115
804.773	8043
804.915	8202
805.057	8309
805.199	8157
805.341	8176
805.483	8309
805.626	8248
805.768	8134
805.91	8225
806.052	8176
806.194	8058
806.336	8393
806.478	8134
806.62	8062
806.762	8153
806.904	8259
807.046	8434
807.188	8298
807.33	8294
807.472	8317
807.614	8221
807.756	8157
807.898	8020
808.04	7887
808.182	7894
808.324	7875
808.465	7967
808.607	8035
808.749	8153
808.891	8176
809.033	8279
809.174	8187
809.316	8024
809.458	8161
809.6	8069
809.741	8088
809.883	8050
810.025	8092
810.166	8043
810.308	8058
810.45	7982
810.591	7883
810.733	7674
810.875	7651
811.016	7529
811.158	7514
811.299	7613
811.441	7746
811.582	7746
811.724	7586
811.865	7521
812.007	7658
812.148	7594
812.29	7628
812.431	7799
812.573	7894
812.714	7986
812.855	8126
812.997	8267
813.138	8355
813.279	8153
813.421	8103
813.562	7894
813.703	7936
813.845	7712
813.986	7438
814.127	7213
814.268	7183
814.41	7141
814.551	7179
814.692	7187
814.833	7141
814.974	7088
815.115	7133
815.256	6943
815.397	6909
815.539	6909
815.68	6825
815.821	6764
815.962	6818
816.103	6867
816.244	6696
816.385	6650
816.526	6616
816.666	6456
816.807	6273
816.948	6418
817.089	6483
817.23	6414
817.371	6399
817.512	6365
817.653	6399
817.793	6357
817.934	6418
818.075	6441
818.216	6403
818.356	6426
818.497	6273
818.638	6117
818.778	6186
818.919	6209
819.06	6186
819.2	6334
819.341	6311
819.481	6323
819.622	6525
819.762	6715
819.903	6738
820.043	6597
820.184	6532
820.324	6570
820.465	6741
820.605	6741
820.746	6620
820.886	6506
821.026	6681
821.167	6684
821.307	6787
821.447	6905
821.588	6673
821.728	6601
821.868	6498
822.008	6365
822.149	6376
822.289	6365
822.429	6167
822.569	6087
822.709	6136
822.849	5916
822.99	5908
823.13	5931
823.27	5901
823.41	5767
823.55	5783
823.69	5836
823.83	5786
823.97	5695
824.11	5478
824.25	5528
824.389	5551
824.529	5634
824.669	5539
824.809	5649
824.949	5684
825.089	5623
825.228	5562
825.368	5414
825.508	5307
825.648	5383
825.787	5376
825.927	5372
826.067	5326
826.206	5284
826.346	5326
826.485	5364
826.625	5402
826.765	5581
826.904	5459
827.044	5231
827.183	5220
827.323	5159
827.462	5261
827.601	5212
827.741	5174
827.88	5201
828.02	5117
828.159	5193
828.298	5303
828.437	5349
828.577	5315
828.716	5425
828.855	5349
828.994	5174
829.134	5204
829.273	5189
829.412	5181
829.551	5109
829.69	5162
829.829	5258
829.968	5436
830.107	5292
830.246	5349
830.385	5178
830.524	5128
830.663	5090
830.802	4987
830.941	4911
831.08	4858
831.219	5006
831.357	4942
831.496	5128
831.635	4934
831.774	4892
831.913	4843
832.051	4755
832.19	4748
832.329	4843
832.467	4733
832.606	4672
832.744	4710
832.883	4691
833.022	4691
833.16	4786
833.299	4828
833.437	4866
833.576	4801
833.714	4873
833.852	4889
833.991	4934
834.129	4980
834.267	4965
834.406	4858
834.544	4949
834.682	4961
834.821	4999
834.959	5166
835.097	5006
835.235	5109
835.373	5102
835.511	5083
835.65	5052
835.788	5037
835.926	4885
836.064	4835
836.202	4915
836.34	5151
836.478	5223
836.615	5094
836.753	5220
836.891	5303
837.029	5265
837.167	5174
837.305	5147
837.443	5136
837.58	5075
837.718	5216
837.856	5185
837.993	5178
838.131	5227
838.269	5170
838.406	5223
838.544	5155
838.681	4965
838.819	5006
838.956	4927
839.094	4911
839.231	4957
839.369	5033
839.506	5395
839.643	5258
839.781	5045
839.918	5037
840.055	5075
840.193	5132
840.33	5067
840.467	5162
840.604	5140
840.742	5410
840.879	5086
841.016	5132
841.153	5079
841.29	5372
841.427	5353
841.564	5349
841.701	5311
841.838	5303
841.975	5242
842.112	5254
842.249	5117
842.385	5124
842.522	5311
842.659	5140
842.796	5155
842.933	5235
843.069	5109
843.206	5193
843.343	5292
843.479	5208
843.616	5284
843.752	5025
843.889	5022
844.025	5223
844.162	5003
844.298	5208
844.435	5079
844.571	5060
844.708	5178
844.844	5250
844.98	5322
845.117	5265
845.253	5151
845.389	5124
845.525	5124
845.661	5128
845.798	5022
845.934	5117
846.07	4995
846.206	5166
846.342	5299
846.478	5227
846.614	5014
846.75	4968
846.886	4915
847.022	5178
847.158	5041
847.294	5064
847.429	5147
847.565	5064
847.701	5288
847.837	4908
847.972	4831
848.108	4908
848.244	4976
848.379	4782
848.515	4752
848.65	4748
848.786	4698
848.921	4786
849.057	4866
849.192	4854
849.328	4801
849.463	4843
849.598	4759
849.734	4721
849.869	4702
850.004	4607
850.14	4687
850.275	4653
850.41	4577
850.545	4565
850.68	4531
850.815	4649
850.95	4641
851.085	4870
851.22	4771
851.355	4706
851.49	4622
851.625	4672
851.76	4630
851.895	4615
852.03	4558
852.165	4645
852.299	4725
852.434	4752
852.569	4767
852.703	4744
852.838	4805
852.973	4957
853.107	4919
853.242	4755
853.376	4675
853.511	4565
853.645	4603
853.78	4843
853.914	4679
854.048	4675
854.183	4630
854.317	4675
854.451	4805
854.585	4687
854.72	4679
854.854	4774
854.988	4577
855.122	4630
855.256	4561
855.39	4637
855.524	4755
855.658	4698
855.792	4729
855.926	4736
856.06	4759
856.194	4782
856.327	4660
856.461	4592
856.595	4611
856.729	4630
856.862	4759
856.996	4694
857.13	4744
857.263	4733
857.397	4778
857.53	4672
857.664	4740
857.797	4767
857.931	4793
858.064	4687
858.197	4797
858.331	4649
858.464	4641
858.597	4542
858.731	4645
858.864	4630
858.997	4588
859.13	4664
859.263	4660
859.396	4759
859.529	4569
859.662	4580
859.795	4519
859.928	4607
860.061	4786
860.194	4763
860.327	4580
860.46	4561
860.592	4755
860.725	4710
860.858	4759
860.99	4584
861.123	4512
861.256	4493
861.388	4588
861.521	5284
861.653	4436
861.786	4409
861.918	4440
862.05	4489
862.183	4550
862.315	4618
862.447	4679
862.58	4554
862.712	4409
862.844	4318
862.976	4443
863.108	4531
863.24	4729
863.372	4379
863.504	4390
863.636	4405
863.768	4474
863.9	4428
864.032	4424
864.164	4398
864.296	4516
864.428	4554
864.559	4611
864.691	4504
864.823	4527
864.954	4485
865.086	4497
865.217	4478
865.349	4421
865.48	4443
865.612	4500
865.743	4588
865.875	4436
866.006	4447
866.137	4462
866.269	4481
866.4	4440
866.531	4447
866.662	4413
866.793	4383
866.924	4379
867.055	4493
867.186	4455
867.317	4417
867.448	4341
867.579	4398
867.71	4405
867.841	4360
867.972	4481
868.103	4485
868.233	4409
868.364	4459
868.495	4481
868.625	4653
868.756	4752
868.886	4630
869.017	4599
869.147	4767
869.278	4790
869.408	4664
869.539	4656
869.669	4710
869.799	4607
869.929	4740
870.06	4759
870.19	4911
870.32	4892
870.45	4972
870.58	5014
870.71	5067
870.84	5117
870.97	4938
871.1	4919
871.23	5124
871.36	5075
871.489	5006
871.619	5022
871.749	5067
871.879	5132
872.008	5159
872.138	5098
872.267	4995
872.397	4847
872.526	4778
872.656	4687
872.785	4839
872.915	5014
873.044	5006
873.173	4942
873.303	4896
873.432	4953
873.561	4976
873.69	4915
873.819	4843
873.948	4915
874.077	4839
874.206	4801
874.335	4771
874.464	4934
874.593	5071
874.722	4968
874.851	5045
874.979	5064
875.108	4999
875.237	4942
875.365	4892
875.494	4885
875.623	4984
875.751	4850
875.88	4908
876.008	5003
876.136	5029
876.265	5227
876.393	5337
876.521	5246
876.65	5265
876.778	5128
876.906	5075
877.034	5022
877.162	5029
877.29	4991
877.418	5094
877.546	5052
877.674	5090
877.802	5025
877.93	4980
878.058	4873
878.185	4919
878.313	5014
878.441	4965
878.568	4843
878.696	4892
878.824	4946
878.951	4999
879.079	5067
879.206	5265
879.333	5121
879.461	4999
879.588	4995
879.715	5162
879.842	5223
879.97	5029
880.097	4797
880.224	4736
880.351	4782
880.478	4805
880.605	4843
880.732	4774
880.859	5109
880.986	4881
881.112	4946
881.239	4805
881.366	4702
881.493	4588
881.619	4615
881.746	4637
881.872	4649
881.999	4641
882.125	4668
882.252	4801
882.378	4839
882.505	4953
882.631	4805
882.757	4714
882.883	4733
883.01	4778
883.136	4691
883.262	4615
883.388	4626
883.514	4790
883.64	4854
883.766	4797
883.892	4717
884.018	4706
884.143	4896
884.269	4991
884.395	4683
884.52	4660
884.646	4649
884.772	4607
884.897	4531
885.023	4645
885.148	4755
885.274	4847
885.399	4797
885.524	4721
885.65	4660
885.775	4717
885.9	4706
886.025	4854
886.15	4824
886.275	4721
886.4	4645
886.525	4736
886.65	4706
886.775	4679
886.9	4934
887.025	5045
887.149	4805
887.274	4675
887.399	4599
887.523	4550
887.648	4584
887.773	4546
887.897	4793
888.021	4831
888.146	4660
888.27	4797
888.395	4919
888.519	4736
888.643	4839
888.767	4793
888.891	4664
889.015	4626
889.139	4637
889.263	4565
889.387	4771
889.511	4889
889.635	4782
889.759	4653
889.883	4656
890.006	4694
890.13	4839
890.254	4592
890.377	4683
890.501	4561
890.624	4527
890.748	4660
890.871	4493
890.995	4409
891.118	4405
891.241	4516
891.364	4512
891.488	4668
891.611	4489
891.734	4481
891.857	4641
891.98	4611
892.103	4637
892.226	4592
892.349	4512
892.471	4443
892.594	4580
892.717	4580
892.839	4546
892.962	4561
893.085	4653
893.207	4558
893.33	4436
893.452	4500
893.575	4653
893.697	4592
893.819	4850
893.941	4847
894.064	4793
894.186	4523
894.308	4584
894.43	4748
894.552	4812
894.674	4717
894.796	4611
894.918	4603
895.04	4577
895.161	4679
895.283	4630
895.405	4603
895.526	4592
895.648	4664
895.769	4653
895.891	4679
896.012	4687
896.134	4714
896.255	4641
896.376	4599
896.498	4569
896.619	4710
896.74	4630
896.861	4694
896.982	4908
897.103	5094
897.224	4805
897.345	4706
897.466	4649
897.587	4736
897.708	4839
897.828	4748
897.949	4645
898.07	4535
898.19	4653
898.311	4816
898.431	4672
898.552	4721
898.672	4835
898.792	4862
898.913	4717
899.033	4634
899.153	4519
899.273	4417
899.393	4508
899.513	4500
899.633	4519
899.753	4538
899.873	4531
899.993	4542
900.113	4531
900.232	4573
900.352	4538
900.472	4470
900.591	4375
900.711	4474
900.83	4413
900.95	4615
901.069	4694
901.189	4500
901.308	4367
901.427	4318
901.546	4379
901.665	4493
901.784	4535
901.904	4375
902.023	4291
902.141	4200
902.26	4200
902.379	4287
902.498	4265
902.617	4230
902.735	4379
902.854	4428
902.973	4329
903.091	4272
903.21	4242
903.328	4337
903.446	4287
903.565	4257
903.683	4386
903.801	4295
903.919	4371
904.038	4451
904.156	4337
904.274	4417
904.392	4428
904.51	4436
904.627	4443
904.745	4580
904.863	4607
904.981	4424
905.098	4310
905.216	4398
905.334	4447
905.451	4421
905.569	4440
905.686	4535
905.803	4596
905.921	4344
906.038	4592
906.155	4436
906.272	4394
906.389	4421
906.506	4367
906.623	4379
906.74	4424
906.857	4344
906.974	4409
907.091	4580
907.208	4691
907.324	4634
907.441	4474
907.557	4333
907.674	4344
907.79	4314
907.907	4379
908.023	4478
908.139	4527
908.256	4424
908.372	4466
908.488	4462
908.604	4348
908.72	4299
908.836	4390
908.952	4325
909.068	4413
909.184	4588
909.3	4527
909.415	4630
909.531	4542
909.647	4356
909.762	4379
909.878	4352
909.993	4379
910.108	4413
910.224	4398
910.339	4440
910.454	4481
910.57	4360
910.685	4337
910.8	4656
910.915	4558
911.03	4508
911.145	4360
911.259	4371
911.374	4383
911.489	4341
911.604	4276
911.718	4162
911.833	4166
911.947	4093
912.062	4082
912.176	4234
912.291	4246
912.405	4234
912.519	4474
912.633	4493
912.748	4386
912.862	4341
912.976	4215
913.09	4120
913.204	4154
913.318	4272
913.431	4371
913.545	4421
913.659	4436
913.772	4322
913.886	4287
914	4227
914.113	4325
914.226	4417
914.34	4413
914.453	4234
914.566	4459
914.68	4322
914.793	4333
914.906	4166
915.019	4154
915.132	4063
915.245	4200
915.358	4230
915.47	4238
915.583	4246
915.696	4348
915.809	4375
915.921	4432
916.034	4234
916.146	4280
916.259	4246
916.371	4398
916.483	4390
916.595	4215
916.708	4261
916.82	4322
916.932	4299
917.044	4306
917.156	4363
917.268	4246
917.38	4253
917.491	4253
917.603	4303
917.715	4413
917.826	4424
917.938	4360
918.049	4246
918.161	4379
918.272	4558
918.384	4531
918.495	4466
918.606	4310
918.717	4230
918.828	4379
918.939	4371
919.05	4265
919.161	4280
919.272	4128
919.383	4219
919.494	4386
919.604	4611
919.715	4462
919.826	4325
919.936	4424
920.047	4500
920.157	4516
920.267	4691
920.378	4500
920.488	4519
920.598	4714
920.708	4847
920.818	4729
920.928	4771
921.038	4942
921.148	4976
921.258	4618
921.368	4588
921.477	4470
921.587	4424
921.697	4379
921.806	4538
921.916	4436
922.025	4284
922.134	4299
922.244	4227
922.353	4341
922.462	4150
922.571	4131
922.68	4006
922.789	4006
922.898	4010
923.007	3991
923.116	4078
923.224	4040
923.333	4086
923.442	3998
923.55	3968
923.659	3998
923.767	4044
923.876	4017
923.984	4147
924.092	3956
924.201	4071
924.309	4078
924.417	4128
924.525	4078
924.633	4086
924.741	5025
924.849	3930
924.956	4097
925.064	3956
925.172	3899
925.279	3907
925.387	4090
925.494	4059
925.602	4211
925.709	4246
925.816	4032
925.924	4128
926.031	4204
926.138	4188
926.245	4196
926.352	4139
926.459	4261
926.566	4318
926.673	4147
926.779	4074
926.886	4109
926.993	3945
927.099	3975
927.206	3968
927.312	3915
927.419	4074
927.525	4044
927.631	4071
927.737	3972
927.843	3922
927.95	3865
928.056	3937
928.162	3979
928.267	4071
928.373	4706
928.479	4074
928.585	3854
928.69	4013
928.796	4109
928.901	4002
929.007	3838
929.112	3975
929.218	3991
929.323	3930
929.428	3937
929.533	4131
929.638	3945
929.743	3994
929.848	4063
929.953	4002
930.058	3911
930.163	3747
930.267	3823
930.372	3987
930.477	3778
930.581	4051
930.685	3991
930.79	3854
930.894	3869
930.998	3850
931.103	4006
931.207	3720
931.311	3652
931.415	3701
931.519	3462
931.623	3523
