Data from test_V78500241_2689.txt Node
Date: Fri Mar 25 17:07:41 CST 2022
User: usil
Spectrometer: V785-0024
Trigger mode: 0
Integration Time (sec): 4.000000E-1
Scans to average: 1
Nonlinearity correction enabled: false
Boxcar width: 0
Storing dark spectrum: false
XAxis mode: Wavelengths
Number of Pixels in Spectrum: 1024
>>>>>Begin Spectral Data<<<<<
801.071	8001
801.214	8096
801.356	7902
801.499	7871
801.641	7860
801.783	7887
801.926	7967
802.068	7940
802.211	8016
802.353	7978
802.496	7826
802.638	7852
802.78	7928
802.923	7967
803.065	7833
803.208	7883
803.35	7959
803.492	8119
803.635	8225
803.777	8024
803.919	8126
804.061	8465
804.204	8153
804.346	8084
804.488	8005
804.63	8050
804.773	8081
804.915	8065
805.057	8237
805.199	8153
805.341	8180
805.483	8183
805.626	8172
805.768	8161
805.91	8240
806.052	8233
806.194	8111
806.336	8282
806.478	8092
806.62	8062
806.762	8096
806.904	8161
807.046	8465
807.188	8343
807.33	8355
807.472	8339
807.614	8202
807.756	8096
807.898	7993
808.04	7845
808.182	7894
808.324	7849
808.465	7925
808.607	8111
808.749	8191
808.891	8256
809.033	8286
809.174	8259
809.316	8088
809.458	8050
809.6	8008
809.741	8008
809.883	8054
810.025	8168
810.166	8092
810.308	7970
810.45	8008
810.591	7940
810.733	7814
810.875	7647
811.016	7464
811.158	7544
811.299	7567
811.441	7746
811.582	7685
811.724	7643
811.865	7502
812.007	7578
812.148	7681
812.29	7670
812.431	7772
812.573	7879
812.714	7894
812.855	8096
812.997	8195
813.138	8317
813.279	8134
813.421	8058
813.562	8069
813.703	7852
813.845	7765
813.986	7457
814.127	7282
814.268	7266
814.41	7225
814.551	7095
814.692	7236
814.833	7099
814.974	7076
815.115	7076
815.256	6973
815.397	6913
815.539	6901
815.68	6829
815.821	6798
815.962	6848
816.103	6829
816.244	6707
816.385	6639
816.526	6658
816.666	6486
816.807	6372
816.948	6418
817.089	6479
817.23	6437
817.371	6418
817.512	6410
817.653	6369
817.793	6319
817.934	6437
818.075	6433
818.216	6388
818.356	6410
818.497	6232
818.638	6148
818.778	6159
818.919	6194
819.06	6167
819.2	6369
819.341	6323
819.481	6403
819.622	6517
819.762	6772
819.903	6681
820.043	6627
820.184	6540
820.324	6589
820.465	6715
820.605	6654
820.746	6669
820.886	6536
821.026	6646
821.167	6711
821.307	6825
821.447	6768
821.588	6620
821.728	6627
821.868	6544
822.008	6357
822.149	6376
822.289	6353
822.429	6209
822.569	6064
822.709	6148
822.849	5961
822.99	5866
823.13	5923
823.27	5954
823.41	5790
823.55	5832
823.69	5737
823.83	5786
823.97	5646
824.11	5585
824.25	5551
824.389	5562
824.529	5573
824.669	5448
824.809	5638
824.949	5680
825.089	5570
825.228	5539
825.368	5383
825.508	5349
825.648	5334
825.787	5364
825.927	5330
826.067	5292
826.206	5235
826.346	5368
826.485	5349
826.625	5398
826.765	5570
826.904	5429
827.044	5261
827.183	5201
827.323	5128
827.462	5239
827.601	5132
827.741	5212
827.88	5231
828.02	5132
828.159	5235
828.298	5322
828.437	5383
828.577	5307
828.716	5524
828.855	5341
828.994	5197
829.134	5170
829.273	5223
829.412	5102
829.551	5162
829.69	5174
829.829	5212
829.968	5296
830.107	5269
830.246	5318
830.385	5151
830.524	5151
830.663	5102
830.802	5022
830.941	4892
831.08	4923
831.219	5003
831.357	4991
831.496	5185
831.635	4946
831.774	4835
831.913	4820
832.051	4702
832.19	4774
832.329	4873
832.467	4721
832.606	4634
832.744	4714
832.883	4721
833.022	4752
833.16	4797
833.299	4820
833.437	4816
833.576	4809
833.714	4858
833.852	4870
833.991	4873
834.129	4957
834.267	4908
834.406	4873
834.544	4953
834.682	5018
834.821	4934
834.959	5117
835.097	4980
835.235	5124
835.373	5056
835.511	5075
835.65	5022
835.788	5006
835.926	4919
836.064	4881
836.202	4949
836.34	5185
836.478	5250
836.615	5166
836.753	5159
836.891	5269
837.029	5246
837.167	5166
837.305	5147
837.443	5174
837.58	5064
837.718	5292
837.856	5216
837.993	5124
838.131	5261
838.269	5181
838.406	5185
838.544	5166
838.681	5010
838.819	5006
838.956	4854
839.094	4896
839.231	5003
839.369	5098
839.506	5421
839.643	5269
839.781	4987
839.918	5033
840.055	5121
840.193	5102
840.33	5136
840.467	5132
840.604	5189
840.742	5406
840.879	5037
841.016	5098
841.153	5124
841.29	5379
841.427	5315
841.564	5292
841.701	5353
841.838	5220
841.975	5250
842.112	5273
842.249	5109
842.385	5083
842.522	5322
842.659	5140
842.796	5132
842.933	5136
843.069	5113
843.206	5113
843.343	5284
843.479	5231
843.616	5250
843.752	4991
843.889	4961
844.025	5201
844.162	5014
844.298	5174
844.435	5075
844.571	5067
844.708	5246
844.844	5303
844.98	5357
845.117	5258
845.253	5143
845.389	5064
845.525	5136
845.661	5098
845.798	5010
845.934	5132
846.07	5060
846.206	5170
846.342	5250
846.478	5216
846.614	5010
846.75	4953
846.886	4927
847.022	5105
847.158	5029
847.294	5056
847.429	5056
847.565	5056
847.701	5299
847.837	4828
847.972	4812
848.108	4949
848.244	4927
848.379	4771
848.515	4744
848.65	4714
848.786	4721
848.921	4767
849.057	4858
849.192	4927
849.328	4752
849.463	4889
849.598	4763
849.734	4748
849.869	4656
850.004	4645
850.14	4664
850.275	4592
850.41	4535
850.545	4558
850.68	4634
850.815	4611
850.95	4664
851.085	4828
851.22	4698
851.355	4637
851.49	4630
851.625	4626
851.76	4573
851.895	4577
852.03	4535
852.165	4660
852.299	4733
852.434	4816
852.569	4786
852.703	4801
852.838	4835
852.973	4930
853.107	4866
853.242	4740
853.376	4675
853.511	4573
853.645	4607
853.78	4767
853.914	4698
854.048	4675
854.183	4634
854.317	4702
854.451	4839
854.585	4672
854.72	4596
854.854	4717
854.988	4558
855.122	4615
855.256	4497
855.39	4645
855.524	4771
855.658	4725
855.792	4710
855.926	4714
856.06	4744
856.194	4797
856.327	4660
856.461	4599
856.595	4641
856.729	4664
856.862	4797
856.996	4698
857.13	4710
857.263	4725
857.397	4797
857.53	4630
857.664	4736
857.797	4759
857.931	4767
858.064	4694
858.197	4706
858.331	4653
858.464	4637
858.597	4535
858.731	4599
858.864	4649
858.997	4550
859.13	4717
859.263	4653
859.396	4660
859.529	4603
859.662	4550
859.795	4531
859.928	4634
860.061	4771
860.194	4767
860.327	4573
860.46	4611
860.592	4702
860.725	4717
860.858	4694
860.99	4615
861.123	4497
861.256	4538
861.388	4626
861.521	5337
861.653	4428
861.786	4432
861.918	4455
862.05	4546
862.183	4500
862.315	4618
862.447	4618
862.58	4542
862.712	4424
862.844	4344
862.976	4466
863.108	4432
863.24	4767
863.372	4360
863.504	4375
863.636	4390
863.768	4485
863.9	4424
864.032	4344
864.164	4447
864.296	4466
864.428	4558
864.559	4508
864.691	4516
864.823	4485
864.954	4500
865.086	4459
865.217	4478
865.349	4413
865.48	4447
865.612	4459
865.743	4622
865.875	4447
866.006	4413
866.137	4455
866.269	4417
866.4	4466
866.531	4421
866.662	4360
866.793	4413
866.924	4421
867.055	4481
867.186	4451
867.317	4451
867.448	4375
867.579	4390
867.71	4367
867.841	4367
867.972	4470
868.103	4405
868.233	4474
868.364	4413
868.495	4466
868.625	4664
868.756	4782
868.886	4542
869.017	4637
869.147	4797
869.278	4755
869.408	4656
869.539	4637
869.669	4729
869.799	4649
869.929	4774
870.06	4733
870.19	4949
870.32	4885
870.45	4953
870.58	5025
870.71	5064
870.84	5056
870.97	4923
871.1	4870
871.23	5147
871.36	5090
871.489	4991
871.619	5102
871.749	5109
871.879	5162
872.008	5204
872.138	5048
872.267	4923
872.397	4820
872.526	4755
872.656	4717
872.785	4733
872.915	4923
873.044	5018
873.173	4930
873.303	4938
873.432	4980
873.561	4965
873.69	4942
873.819	4858
873.948	4911
874.077	4866
874.206	4740
874.335	4820
874.464	4915
874.593	5090
874.722	4911
874.851	5086
874.979	5029
875.108	5022
875.237	4866
875.365	4828
875.494	4873
875.623	4965
875.751	4793
875.88	4854
876.008	4919
876.136	5041
876.265	5193
876.393	5303
876.521	5235
876.65	5174
876.778	5178
876.906	5098
877.034	5060
877.162	5003
877.29	4999
877.418	5056
877.546	4984
877.674	5075
877.802	5014
877.93	4991
878.058	4938
878.185	4858
878.313	4892
878.441	4919
878.568	4786
878.696	4831
878.824	4949
878.951	4987
879.079	5128
879.206	5265
879.333	5109
879.461	4957
879.588	4965
879.715	5075
879.842	5227
879.97	5003
880.097	4740
880.224	4736
880.351	4797
880.478	4812
880.605	4790
880.732	4763
880.859	5029
880.986	4854
881.112	4930
881.239	4748
881.366	4729
881.493	4607
881.619	4615
881.746	4626
881.872	4634
881.999	4664
882.125	4717
882.252	4812
882.378	4820
882.505	4961
882.631	4843
882.757	4683
882.883	4714
883.01	4729
883.136	4683
883.262	4618
883.388	4584
883.514	4774
883.64	4831
883.766	4790
883.892	4641
884.018	4736
884.143	4953
884.269	5003
884.395	4706
884.52	4630
884.646	4649
884.772	4554
884.897	4561
885.023	4691
885.148	4759
885.274	4881
885.399	4748
885.524	4691
885.65	4675
885.775	4755
885.9	4698
886.025	4831
886.15	4812
886.275	4729
886.4	4637
886.525	4729
886.65	4717
886.775	4733
886.9	4946
887.025	5052
887.149	4831
887.274	4683
887.399	4603
887.523	4611
887.648	4558
887.773	4599
887.897	4759
888.021	4824
888.146	4748
888.27	4858
888.395	4896
888.519	4831
888.643	4847
888.767	4824
888.891	4675
889.015	4622
889.139	4706
889.263	4656
889.387	4778
889.511	4896
889.635	4831
889.759	4656
889.883	4729
890.006	4831
890.13	4847
890.254	4653
890.377	4698
890.501	4546
890.624	4569
890.748	4702
890.871	4611
890.995	4485
891.118	4402
891.241	4542
891.364	4592
891.488	4717
891.611	4554
891.734	4592
891.857	4675
891.98	4558
892.103	4672
892.226	4637
892.349	4554
892.471	4462
892.594	4599
892.717	4645
892.839	4637
892.962	4668
893.085	4691
893.207	4554
893.33	4531
893.452	4565
893.575	4721
893.697	4630
893.819	4854
893.941	4870
894.064	4809
894.186	4622
894.308	4634
894.43	4759
894.552	4927
894.674	4786
894.796	4531
894.918	4637
895.04	4637
895.161	4744
895.283	4725
895.405	4599
895.526	4702
895.648	4733
895.769	4729
895.891	4755
896.012	4782
896.134	4786
896.255	4717
896.376	4691
896.498	4656
896.619	4733
896.74	4607
896.861	4698
896.982	4953
897.103	5090
897.224	4839
897.345	4793
897.466	4683
897.587	4759
897.708	4847
897.828	4801
897.949	4759
898.07	4607
898.19	4687
898.311	4854
898.431	4748
898.552	4767
898.672	4835
898.792	4812
898.913	4805
899.033	4630
899.153	4516
899.273	4432
899.393	4497
899.513	4561
899.633	4592
899.753	4577
899.873	4542
899.993	4664
900.113	4599
900.232	4630
900.352	4603
900.472	4470
900.591	4394
900.711	4500
900.83	4554
900.95	4656
901.069	4702
901.189	4615
901.308	4379
901.427	4348
901.546	4398
901.665	4523
901.784	4546
901.904	4424
902.023	4383
902.141	4249
902.26	4200
902.379	4310
902.498	4306
902.617	4329
902.735	4383
902.854	4398
902.973	4405
903.091	4257
903.21	4280
903.328	4322
903.446	4310
903.565	4333
903.683	4390
903.801	4314
903.919	4417
904.038	4462
904.156	4363
904.274	4481
904.392	4489
904.51	4466
904.627	4481
904.745	4592
904.863	4641
904.981	4417
905.098	4348
905.216	4402
905.334	4447
905.451	4474
905.569	4497
905.686	4573
905.803	4554
905.921	4424
906.038	4554
906.155	4512
906.272	4413
906.389	4455
906.506	4405
906.623	4451
906.74	4432
906.857	4352
906.974	4390
907.091	4580
907.208	4675
907.324	4622
907.441	4523
907.557	4371
907.674	4363
907.79	4386
907.907	4424
908.023	4462
908.139	4516
908.256	4489
908.372	4474
908.488	4462
908.604	4383
908.72	4337
908.836	4394
908.952	4413
909.068	4443
909.184	4615
909.3	4531
909.415	4618
909.531	4565
909.647	4360
909.762	4386
909.878	4344
909.993	4485
910.108	4459
910.224	4409
910.339	4485
910.454	4424
910.57	4421
910.685	4352
910.8	4710
910.915	4618
911.03	4493
911.145	4367
911.259	4322
911.374	4447
911.489	4284
911.604	4280
911.718	4185
911.833	4219
911.947	4112
912.062	4074
912.176	4246
912.291	4284
912.405	4257
912.519	4523
912.633	4493
912.748	4428
912.862	4314
912.976	4291
913.09	4147
913.204	4192
913.318	4303
913.431	4390
913.545	4398
913.659	4508
913.772	4402
913.886	4284
914	4268
914.113	4428
914.226	4470
914.34	4405
914.453	4257
914.566	4462
914.68	4287
914.793	4337
914.906	4204
915.019	4158
915.132	4090
915.245	4219
915.358	4204
915.47	4242
915.583	4265
915.696	4333
915.809	4398
915.921	4447
916.034	4261
916.146	4242
916.259	4211
916.371	4363
916.483	4360
916.595	4322
916.708	4375
916.82	4383
916.932	4341
917.044	4318
917.156	4341
917.268	4230
917.38	4295
917.491	4314
917.603	4341
917.715	4466
917.826	4508
917.938	4356
918.049	4238
918.161	4386
918.272	4550
918.384	4561
918.495	4421
918.606	4306
918.717	4249
918.828	4371
918.939	4360
919.05	4238
919.161	4333
919.272	4166
919.383	4249
919.494	4527
919.604	4622
919.715	4470
919.826	4398
919.936	4447
920.047	4577
920.157	4516
920.267	4714
920.378	4607
920.488	4527
920.598	4748
920.708	4942
920.818	4717
920.928	4816
921.038	4946
921.148	4889
921.258	4675
921.368	4599
921.477	4485
921.587	4512
921.697	4424
921.806	4565
921.916	4455
922.025	4299
922.134	4280
922.244	4276
922.353	4344
922.462	4230
922.571	4128
922.68	3987
922.789	3998
922.898	4032
923.007	4036
923.116	4101
923.224	4071
923.333	4124
923.442	3994
923.55	4032
923.659	4067
923.767	4154
923.876	3998
923.984	4169
924.092	4017
924.201	4105
924.309	4131
924.417	4086
924.525	4071
924.633	4139
924.741	5022
924.849	4006
924.956	4143
925.064	3979
925.172	3998
925.279	3911
925.387	4048
925.494	4097
925.602	4295
925.709	4261
925.816	4048
925.924	4188
926.031	4223
926.138	4185
926.245	4211
926.352	4067
926.459	4257
926.566	4329
926.673	4188
926.779	4120
926.886	4086
926.993	4032
927.099	3991
927.206	3987
927.312	3975
927.419	4059
927.525	4059
927.631	4143
927.737	4013
927.843	3949
927.95	3850
928.056	3949
928.162	4071
928.267	4116
928.373	4584
928.479	4162
928.585	3918
928.69	4067
928.796	4093
928.901	3930
929.007	3915
929.112	4055
929.218	3987
929.323	3979
929.428	3979
929.533	4090
929.638	3926
929.743	3998
929.848	4029
929.953	4021
930.058	3983
930.163	3804
930.267	3865
930.372	3956
930.477	3838
930.581	4143
930.685	3991
930.79	3835
930.894	3911
930.998	3884
931.103	4055
931.207	3732
931.311	3694
931.415	3728
931.519	3523
931.623	3584
