Data from test_V78500241_1844.txt Node
Date: Fri Mar 25 17:01:49 CST 2022
User: usil
Spectrometer: V785-0024
Trigger mode: 0
Integration Time (sec): 4.000000E-1
Scans to average: 1
Nonlinearity correction enabled: false
Boxcar width: 0
Storing dark spectrum: false
XAxis mode: Wavelengths
Number of Pixels in Spectrum: 1024
>>>>>Begin Spectral Data<<<<<
801.071	8088
801.214	7974
801.356	7871
801.499	7788
801.641	7757
801.783	7830
801.926	7921
802.068	7890
802.211	7925
802.353	8020
802.496	7879
802.638	7906
802.78	7871
802.923	7879
803.065	7936
803.208	7780
803.35	7982
803.492	8081
803.635	8077
803.777	8069
803.919	8134
804.061	8396
804.204	8084
804.346	8123
804.488	7970
804.63	8058
804.773	7959
804.915	8126
805.057	8275
805.199	8134
805.341	8202
805.483	8267
805.626	8202
805.768	8123
805.91	8176
806.052	8115
806.194	8050
806.336	8298
806.478	8077
806.62	8008
806.762	8119
806.904	8248
807.046	8484
807.188	8374
807.33	8298
807.472	8339
807.614	8172
807.756	8210
807.898	7978
808.04	7852
808.182	7936
808.324	7913
808.465	7902
808.607	8115
808.749	8046
808.891	8191
809.033	8259
809.174	8210
809.316	8103
809.458	8062
809.6	8058
809.741	7989
809.883	8020
810.025	8096
810.166	8069
810.308	7959
810.45	7868
810.591	7845
810.733	7750
810.875	7689
811.016	7518
811.158	7476
811.299	7571
811.441	7655
811.582	7616
811.724	7613
811.865	7476
812.007	7578
812.148	7594
812.29	7537
812.431	7776
812.573	7890
812.714	8054
812.855	8164
812.997	8290
813.138	8301
813.279	8176
813.421	8046
813.562	7932
813.703	7807
813.845	7696
813.986	7476
814.127	7225
814.268	7225
814.41	7160
814.551	7114
814.692	7206
814.833	7118
814.974	7149
815.115	7091
815.256	7019
815.397	6890
815.539	6970
815.68	6795
815.821	6703
815.962	6825
816.103	6783
816.244	6696
816.385	6665
816.526	6582
816.666	6448
816.807	6369
816.948	6388
817.089	6441
817.23	6429
817.371	6365
817.512	6350
817.653	6403
817.793	6384
817.934	6407
818.075	6418
818.216	6433
818.356	6403
818.497	6254
818.638	6133
818.778	6186
818.919	6095
819.06	6194
819.2	6361
819.341	6331
819.481	6426
819.622	6513
819.762	6700
819.903	6681
820.043	6623
820.184	6547
820.324	6547
820.465	6684
820.605	6654
820.746	6654
820.886	6433
821.026	6551
821.167	6673
821.307	6856
821.447	6806
821.588	6696
821.728	6589
821.868	6532
822.008	6243
822.149	6311
822.289	6399
822.429	6095
822.569	6030
822.709	6057
822.849	5893
822.99	5828
823.13	5916
823.27	5908
823.41	5832
823.55	5817
823.69	5756
823.83	5813
823.97	5672
824.11	5509
824.25	5486
824.389	5596
824.529	5528
824.669	5497
824.809	5619
824.949	5630
825.089	5619
825.228	5585
825.368	5383
825.508	5315
825.648	5364
825.787	5337
825.927	5353
826.067	5265
826.206	5258
826.346	5353
826.485	5360
826.625	5341
826.765	5520
826.904	5486
827.044	5216
827.183	5174
827.323	5109
827.462	5269
827.601	5136
827.741	5181
827.88	5216
828.02	5105
828.159	5261
828.298	5322
828.437	5406
828.577	5246
828.716	5493
828.855	5273
828.994	5113
829.134	5132
829.273	5159
829.412	5124
829.551	5098
829.69	5159
829.829	5239
829.968	5379
830.107	5250
830.246	5254
830.385	5151
830.524	5162
830.663	5109
830.802	4968
830.941	4881
831.08	4877
831.219	4934
831.357	4927
831.496	5170
831.635	4889
831.774	4816
831.913	4786
832.051	4744
832.19	4717
832.329	4805
832.467	4717
832.606	4675
832.744	4706
832.883	4733
833.022	4706
833.16	4786
833.299	4809
833.437	4850
833.576	4812
833.714	4805
833.852	4847
833.991	4885
834.129	4957
834.267	4911
834.406	4911
834.544	4976
834.682	5006
834.821	4927
834.959	5155
835.097	5010
835.235	5174
835.373	5056
835.511	5121
835.65	5041
835.788	5014
835.926	4877
836.064	4839
836.202	4911
836.34	5128
836.478	5208
836.615	5140
836.753	5193
836.891	5269
837.029	5216
837.167	5166
837.305	5189
837.443	5090
837.58	5041
837.718	5239
837.856	5189
837.993	5124
838.131	5212
838.269	5193
838.406	5197
838.544	5193
838.681	5029
838.819	5010
838.956	4896
839.094	4900
839.231	4995
839.369	5094
839.506	5398
839.643	5246
839.781	4999
839.918	4999
840.055	5037
840.193	5105
840.33	5075
840.467	5124
840.604	5140
840.742	5429
840.879	5064
841.016	5090
841.153	5140
841.29	5341
841.427	5383
841.564	5277
841.701	5364
841.838	5235
841.975	5216
842.112	5303
842.249	5117
842.385	5075
842.522	5330
842.659	5201
842.796	5151
842.933	5193
843.069	5151
843.206	5151
843.343	5258
843.479	5178
843.616	5280
843.752	5010
843.889	4995
844.025	5250
844.162	5010
844.298	5231
844.435	5094
844.571	4976
844.708	5151
844.844	5265
844.98	5345
845.117	5258
845.253	5147
845.389	5117
845.525	5113
845.661	5113
845.798	5045
845.934	5075
846.07	5041
846.206	5166
846.342	5239
846.478	5140
846.614	4965
846.75	4953
846.886	4965
847.022	5109
847.158	5025
847.294	5083
847.429	5136
847.565	5041
847.701	5296
847.837	4839
847.972	4748
848.108	4961
848.244	4908
848.379	4793
848.515	4729
848.65	4736
848.786	4767
848.921	4774
849.057	4881
849.192	4854
849.328	4831
849.463	4809
849.598	4820
849.734	4763
849.869	4694
850.004	4611
850.14	4596
850.275	4607
850.41	4508
850.545	4558
850.68	4577
850.815	4649
850.95	4637
851.085	4847
851.22	4740
851.355	4634
851.49	4561
851.625	4634
851.76	4630
851.895	4565
852.03	4508
852.165	4641
852.299	4687
852.434	4793
852.569	4748
852.703	4759
852.838	4797
852.973	4870
853.107	4915
853.242	4786
853.376	4645
853.511	4561
853.645	4596
853.78	4782
853.914	4698
854.048	4694
854.183	4618
854.317	4679
854.451	4862
854.585	4626
854.72	4672
854.854	4694
854.988	4660
855.122	4580
855.256	4542
855.39	4675
855.524	4755
855.658	4698
855.792	4653
855.926	4714
856.06	4752
856.194	4759
856.327	4649
856.461	4626
856.595	4622
856.729	4599
856.862	4679
856.996	4694
857.13	4721
857.263	4725
857.397	4809
857.53	4622
857.664	4721
857.797	4797
857.931	4774
858.064	4672
858.197	4710
858.331	4577
858.464	4615
858.597	4455
858.731	4603
858.864	4626
858.997	4577
859.13	4672
859.263	4649
859.396	4687
859.529	4535
859.662	4573
859.795	4535
859.928	4611
860.061	4744
860.194	4721
860.327	4580
860.46	4546
860.592	4710
860.725	4714
860.858	4702
860.99	4546
861.123	4519
861.256	4508
861.388	4607
861.521	5349
861.653	4436
861.786	4413
861.918	4421
862.05	4554
862.183	4497
862.315	4554
862.447	4656
862.58	4580
862.712	4352
862.844	4337
862.976	4455
863.108	4478
863.24	4915
863.372	4306
863.504	4383
863.636	4398
863.768	4489
863.9	4394
864.032	4318
864.164	4352
864.296	4466
864.428	4546
864.559	4558
864.691	4531
864.823	4542
864.954	4485
865.086	4474
865.217	4478
865.349	4413
865.48	4451
865.612	4466
865.743	4592
865.875	4466
866.006	4421
866.137	4462
866.269	4413
866.4	4424
866.531	4405
866.662	4341
866.793	4386
866.924	4440
867.055	4516
867.186	4443
867.317	4447
867.448	4390
867.579	4386
867.71	4394
867.841	4394
867.972	4451
868.103	4409
868.233	4390
868.364	4413
868.495	4462
868.625	4653
868.756	4740
868.886	4561
869.017	4603
869.147	4733
869.278	4793
869.408	4668
869.539	4660
869.669	4668
869.799	4596
869.929	4752
870.06	4706
870.19	4965
870.32	4858
870.45	4919
870.58	4991
870.71	5060
870.84	5033
870.97	5006
871.1	4854
871.23	5094
871.36	5083
871.489	4968
871.619	5075
871.749	5048
871.879	5132
872.008	5121
872.138	5048
872.267	4930
872.397	4839
872.526	4752
872.656	4694
872.785	4816
872.915	4972
873.044	5052
873.173	4927
873.303	4942
873.432	4923
873.561	4987
873.69	4831
873.819	4824
873.948	4892
874.077	4862
874.206	4763
874.335	4870
874.464	4942
874.593	5071
874.722	4976
874.851	5113
874.979	5090
875.108	5086
875.237	4965
875.365	4911
875.494	4900
875.623	5018
875.751	4862
875.88	4908
876.008	4999
876.136	4999
876.265	5204
876.393	5337
876.521	5273
876.65	5223
876.778	5151
876.906	5117
877.034	5071
877.162	5075
877.29	5029
877.418	5056
877.546	5113
877.674	5086
877.802	5067
877.93	4999
878.058	4915
878.185	4915
878.313	4972
878.441	4984
878.568	4805
878.696	4923
878.824	4957
878.951	5025
879.079	5197
879.206	5353
879.333	5162
879.461	4957
879.588	5071
879.715	5166
879.842	5269
879.97	5056
880.097	4820
880.224	4812
880.351	4858
880.478	4858
880.605	4812
880.732	4824
880.859	5178
880.986	4938
881.112	4923
881.239	4774
881.366	4710
881.493	4672
881.619	4592
881.746	4706
881.872	4687
881.999	4691
882.125	4725
882.252	4790
882.378	4843
882.505	5010
882.631	4850
882.757	4706
882.883	4763
883.01	4771
883.136	4702
883.262	4687
883.388	4683
883.514	4809
883.64	4843
883.766	4820
883.892	4694
884.018	4782
884.143	4946
884.269	4991
884.395	4679
884.52	4641
884.646	4653
884.772	4645
884.897	4565
885.023	4672
885.148	4828
885.274	4866
885.399	4862
885.524	4725
885.65	4759
885.775	4759
885.9	4767
886.025	4900
886.15	4801
886.275	4801
886.4	4691
886.525	4786
886.65	4717
886.775	4733
886.9	4908
887.025	5083
887.149	4839
887.274	4630
887.399	4649
887.523	4637
887.648	4588
887.773	4615
887.897	4744
888.021	4797
888.146	4714
888.27	4850
888.395	4911
888.519	4809
888.643	4896
888.767	4866
888.891	4782
889.015	4649
889.139	4717
889.263	4634
889.387	4801
889.511	4870
889.635	4812
889.759	4702
889.883	4653
890.006	4774
890.13	4892
890.254	4611
890.377	4706
890.501	4565
890.624	4546
890.748	4637
890.871	4504
890.995	4462
891.118	4409
891.241	4519
891.364	4538
891.488	4672
891.611	4561
891.734	4546
891.857	4637
891.98	4599
892.103	4675
892.226	4569
892.349	4550
892.471	4436
892.594	4569
892.717	4649
892.839	4546
892.962	4554
893.085	4717
893.207	4641
893.33	4527
893.452	4569
893.575	4641
893.697	4645
893.819	4820
893.941	4881
894.064	4774
894.186	4584
894.308	4588
894.43	4736
894.552	4793
894.674	4801
894.796	4618
894.918	4584
895.04	4538
895.161	4698
895.283	4679
895.405	4634
895.526	4683
895.648	4714
895.769	4683
895.891	4771
896.012	4759
896.134	4736
896.255	4702
896.376	4656
896.498	4607
896.619	4691
896.74	4691
896.861	4660
896.982	4942
897.103	5083
897.224	4866
897.345	4771
897.466	4660
897.587	4782
897.708	4885
897.828	4835
897.949	4702
898.07	4565
898.19	4687
898.311	4873
898.431	4672
898.552	4744
898.672	4835
898.792	4862
898.913	4797
899.033	4653
899.153	4592
899.273	4459
899.393	4550
899.513	4554
899.633	4519
899.753	4584
899.873	4508
899.993	4554
900.113	4603
900.232	4630
900.352	4584
900.472	4531
900.591	4451
900.711	4504
900.83	4485
900.95	4645
901.069	4736
901.189	4546
901.308	4447
901.427	4337
901.546	4417
901.665	4508
901.784	4569
901.904	4386
902.023	4276
902.141	4196
902.26	4192
902.379	4337
902.498	4287
902.617	4268
902.735	4402
902.854	4436
902.973	4383
903.091	4207
903.21	4238
903.328	4333
903.446	4291
903.565	4344
903.683	4383
903.801	4287
903.919	4417
904.038	4451
904.156	4356
904.274	4459
904.392	4443
904.51	4455
904.627	4504
904.745	4626
904.863	4634
904.981	4428
905.098	4299
905.216	4405
905.334	4470
905.451	4447
905.569	4478
905.686	4584
905.803	4653
905.921	4481
906.038	4577
906.155	4523
906.272	4428
906.389	4478
906.506	4394
906.623	4390
906.74	4405
906.857	4325
906.974	4459
907.091	4603
907.208	4710
907.324	4615
907.441	4519
907.557	4333
907.674	4379
907.79	4367
907.907	4398
908.023	4485
908.139	4489
908.256	4451
908.372	4519
908.488	4466
908.604	4375
908.72	4363
908.836	4386
908.952	4390
909.068	4466
909.184	4580
909.3	4493
909.415	4588
909.531	4588
909.647	4375
909.762	4398
909.878	4356
909.993	4485
910.108	4455
910.224	4394
910.339	4508
910.454	4394
910.57	4371
910.685	4322
910.8	4691
910.915	4634
911.03	4481
911.145	4341
911.259	4363
911.374	4344
911.489	4314
911.604	4310
911.718	4188
911.833	4204
911.947	4128
912.062	4017
912.176	4215
912.291	4268
912.405	4192
912.519	4485
912.633	4519
912.748	4363
912.862	4268
912.976	4234
913.09	4082
913.204	4215
913.318	4272
913.431	4383
913.545	4379
913.659	4443
913.772	4398
913.886	4265
914	4230
914.113	4367
914.226	4432
914.34	4417
914.453	4272
914.566	4424
914.68	4371
914.793	4291
914.906	4166
915.019	4173
915.132	4097
915.245	4188
915.358	4207
915.47	4234
915.583	4291
915.696	4337
915.809	4432
915.921	4424
916.034	4249
916.146	4246
916.259	4242
916.371	4386
916.483	4383
916.595	4272
916.708	4306
916.82	4303
916.932	4337
917.044	4318
917.156	4375
917.268	4253
917.38	4280
917.491	4257
917.603	4383
917.715	4436
917.826	4436
917.938	4394
918.049	4268
918.161	4390
918.272	4634
918.384	4577
918.495	4436
918.606	4341
918.717	4249
918.828	4344
918.939	4367
919.05	4295
919.161	4356
919.272	4185
919.383	4200
919.494	4417
919.604	4634
919.715	4390
919.826	4409
919.936	4417
920.047	4550
920.157	4504
920.267	4691
920.378	4546
920.488	4565
920.598	4656
920.708	4885
920.818	4812
920.928	4748
921.038	4908
921.148	4927
921.258	4656
921.368	4580
921.477	4512
921.587	4508
921.697	4405
921.806	4546
921.916	4413
922.025	4265
922.134	4291
922.244	4238
922.353	4310
922.462	4211
922.571	4150
922.68	4002
922.789	3994
922.898	4090
923.007	3983
923.116	4105
923.224	4063
923.333	4109
923.442	4021
923.55	3991
923.659	4059
923.767	4131
923.876	4006
923.984	4135
924.092	4029
924.201	4067
924.309	4128
924.417	4177
924.525	4101
924.633	4105
924.741	5048
924.849	3941
924.956	4105
925.064	3979
925.172	3960
925.279	3960
925.387	4105
925.494	4025
925.602	4185
925.709	4227
925.816	4101
925.924	4112
926.031	4238
926.138	4204
926.245	4219
926.352	4078
926.459	4207
926.566	4344
926.673	4173
926.779	4078
926.886	4120
926.993	3979
927.099	3972
927.206	3960
927.312	3953
927.419	4051
927.525	4044
927.631	4051
927.737	4025
927.843	3968
927.95	3892
928.056	3987
928.162	3998
928.267	4029
928.373	4607
928.479	4139
928.585	3911
928.69	4013
928.796	4109
928.901	4021
929.007	3869
929.112	4021
929.218	4010
929.323	3975
929.428	3937
929.533	4135
929.638	3960
929.743	3983
929.848	4013
929.953	4055
930.058	3911
930.163	3778
930.267	3857
930.372	3987
930.477	3785
930.581	4074
930.685	3968
930.79	3861
930.894	3831
930.998	3888
931.103	4063
931.207	3740
931.311	3682
931.415	3648
931.519	3519
931.623	3584
