Data from test_V78500241_476.txt Node
Date: Fri Mar 25 16:52:18 CST 2022
User: usil
Spectrometer: V785-0024
Trigger mode: 0
Integration Time (sec): 4.000000E-1
Scans to average: 1
Nonlinearity correction enabled: false
Boxcar width: 0
Storing dark spectrum: false
XAxis mode: Wavelengths
Number of Pixels in Spectrum: 1024
>>>>>Begin Spectral Data<<<<<
801.071	8001
801.214	8027
801.356	7864
801.499	7909
801.641	7761
801.783	7860
801.926	7970
802.068	8069
802.211	8005
802.353	8008
802.496	7849
802.638	7906
802.78	7932
802.923	7967
803.065	7887
803.208	7913
803.35	7925
803.492	8050
803.635	8096
803.777	7993
803.919	8126
804.061	8469
804.204	8187
804.346	8005
804.488	7932
804.63	8126
804.773	7970
804.915	8138
805.057	8355
805.199	8202
805.341	8259
805.483	8263
805.626	8225
805.768	8084
805.91	8191
806.052	8244
806.194	8058
806.336	8279
806.478	8164
806.62	8081
806.762	8149
806.904	8252
807.046	8434
807.188	8332
807.33	8343
807.472	8298
807.614	8199
807.756	8134
807.898	8024
808.04	7970
808.182	8005
808.324	7925
808.465	7951
808.607	7993
808.749	8149
808.891	8138
809.033	8332
809.174	8191
809.316	8092
809.458	8073
809.6	8031
809.741	8020
809.883	8077
810.025	8100
810.166	8142
810.308	8031
810.45	8005
810.591	7811
810.733	7772
810.875	7601
811.016	7601
811.158	7480
811.299	7693
811.441	7811
811.582	7719
811.724	7605
811.865	7651
812.007	7624
812.148	7609
812.29	7670
812.431	7807
812.573	7871
812.714	8027
812.855	8214
812.997	8294
813.138	8400
813.279	8218
813.421	8176
813.562	8027
813.703	7963
813.845	7814
813.986	7514
814.127	7331
814.268	7411
814.41	7217
814.551	7206
814.692	7240
814.833	7122
814.974	7076
815.115	7122
815.256	6970
815.397	6909
815.539	7012
815.68	6875
815.821	6848
815.962	6943
816.103	6886
816.244	6726
816.385	6658
816.526	6665
816.666	6559
816.807	6350
816.948	6498
817.089	6479
817.23	6555
817.371	6422
817.512	6414
817.653	6452
817.793	6361
817.934	6467
818.075	6498
818.216	6471
818.356	6490
818.497	6311
818.638	6178
818.778	6114
818.919	6171
819.06	6133
819.2	6304
819.341	6338
819.481	6334
819.622	6551
819.762	6745
819.903	6730
820.043	6673
820.184	6589
820.324	6544
820.465	6715
820.605	6681
820.746	6673
820.886	6521
821.026	6665
821.167	6722
821.307	6856
821.447	6753
821.588	6681
821.728	6601
821.868	6460
822.008	6311
822.149	6384
822.289	6395
822.429	6136
822.569	6152
822.709	6117
822.849	5897
822.99	5882
823.13	5969
823.27	5939
823.41	5824
823.55	5847
823.69	5859
823.83	5786
823.97	5767
824.11	5600
824.25	5528
824.389	5619
824.529	5623
824.669	5570
824.809	5619
824.949	5646
825.089	5611
825.228	5570
825.368	5414
825.508	5353
825.648	5341
825.787	5398
825.927	5421
826.067	5345
826.206	5303
826.346	5406
826.485	5448
826.625	5452
826.765	5562
826.904	5478
827.044	5315
827.183	5265
827.323	5147
827.462	5284
827.601	5170
827.741	5181
827.88	5242
828.02	5136
828.159	5261
828.298	5299
828.437	5368
828.577	5296
828.716	5532
828.855	5296
828.994	5143
829.134	5254
829.273	5208
829.412	5208
829.551	5151
829.69	5212
829.829	5269
829.968	5383
830.107	5330
830.246	5330
830.385	5235
830.524	5151
830.663	5098
830.802	5067
830.941	4946
831.08	4965
831.219	4949
831.357	4991
831.496	5174
831.635	4938
831.774	4904
831.913	4870
832.051	4767
832.19	4721
832.329	4885
832.467	4748
832.606	4683
832.744	4729
832.883	4721
833.022	4759
833.16	4774
833.299	4835
833.437	4831
833.576	4835
833.714	4870
833.852	4870
833.991	4938
834.129	4953
834.267	4972
834.406	4976
834.544	5014
834.682	5018
834.821	5010
834.959	5151
835.097	4987
835.235	5102
835.373	5083
835.511	5121
835.65	5094
835.788	5029
835.926	4942
836.064	4881
836.202	4938
836.34	5239
836.478	5197
836.615	5143
836.753	5136
836.891	5372
837.029	5280
837.167	5189
837.305	5204
837.443	5181
837.58	5140
837.718	5273
837.856	5197
837.993	5151
838.131	5280
838.269	5269
838.406	5189
838.544	5246
838.681	5109
838.819	5006
838.956	4927
839.094	4900
839.231	5014
839.369	5056
839.506	5410
839.643	5273
839.781	5102
839.918	5064
840.055	5128
840.193	5105
840.33	5117
840.467	5166
840.604	5277
840.742	5474
840.879	5128
841.016	5121
841.153	5136
841.29	5410
841.427	5322
841.564	5311
841.701	5398
841.838	5258
841.975	5296
842.112	5280
842.249	5151
842.385	5124
842.522	5311
842.659	5174
842.796	5132
842.933	5201
843.069	5162
843.206	5143
843.343	5334
843.479	5299
843.616	5261
843.752	5025
843.889	5010
844.025	5220
844.162	5045
844.298	5170
844.435	5109
844.571	5029
844.708	5231
844.844	5330
844.98	5391
845.117	5311
845.253	5140
845.389	5098
845.525	5121
845.661	5197
845.798	5094
845.934	5185
846.07	5033
846.206	5197
846.342	5296
846.478	5220
846.614	5052
846.75	4999
846.886	4961
847.022	5136
847.158	5048
847.294	5113
847.429	5159
847.565	5025
847.701	5379
847.837	4908
847.972	4805
848.108	4930
848.244	4953
848.379	4809
848.515	4717
848.65	4706
848.786	4759
848.921	4850
849.057	4877
849.192	4934
849.328	4854
849.463	4854
849.598	4790
849.734	4755
849.869	4721
850.004	4630
850.14	4649
850.275	4675
850.41	4561
850.545	4611
850.68	4630
850.815	4653
850.95	4634
851.085	4828
851.22	4771
851.355	4706
851.49	4599
851.625	4698
851.76	4664
851.895	4546
852.03	4523
852.165	4664
852.299	4801
852.434	4790
852.569	4774
852.703	4839
852.838	4862
852.973	4953
853.107	4915
853.242	4710
853.376	4698
853.511	4618
853.645	4637
853.78	4812
853.914	4698
854.048	4717
854.183	4687
854.317	4714
854.451	4892
854.585	4687
854.72	4672
854.854	4752
854.988	4634
855.122	4573
855.256	4573
855.39	4683
855.524	4801
855.658	4729
855.792	4733
855.926	4755
856.06	4824
856.194	4892
856.327	4748
856.461	4660
856.595	4626
856.729	4702
856.862	4774
856.996	4683
857.13	4759
857.263	4809
857.397	4801
857.53	4622
857.664	4786
857.797	4771
857.931	4782
858.064	4733
858.197	4710
858.331	4683
858.464	4641
858.597	4516
858.731	4675
858.864	4691
858.997	4618
859.13	4702
859.263	4736
859.396	4706
859.529	4592
859.662	4615
859.795	4565
859.928	4645
860.061	4805
860.194	4782
860.327	4660
860.46	4580
860.592	4748
860.725	4748
860.858	4740
860.99	4611
861.123	4497
861.256	4527
861.388	4622
861.521	5296
861.653	4542
861.786	4428
861.918	4455
862.05	4558
862.183	4580
862.315	4653
862.447	4668
862.58	4550
862.712	4447
862.844	4329
862.976	4538
863.108	4455
863.24	4801
863.372	4329
863.504	4440
863.636	4466
863.768	4481
863.9	4459
864.032	4356
864.164	4409
864.296	4523
864.428	4561
864.559	4569
864.691	4584
864.823	4523
864.954	4550
865.086	4519
865.217	4462
865.349	4417
865.48	4451
865.612	4466
865.743	4656
865.875	4500
866.006	4440
866.137	4504
866.269	4478
866.4	4470
866.531	4447
866.662	4443
866.793	4462
866.924	4428
867.055	4550
867.186	4451
867.317	4459
867.448	4402
867.579	4413
867.71	4428
867.841	4352
867.972	4550
868.103	4459
868.233	4443
868.364	4428
868.495	4466
868.625	4694
868.756	4759
868.886	4584
869.017	4694
869.147	4778
869.278	4748
869.408	4698
869.539	4672
869.669	4748
869.799	4717
869.929	4759
870.06	4767
870.19	4911
870.32	4904
870.45	4976
870.58	5056
870.71	5117
870.84	5075
870.97	4961
871.1	4885
871.23	5178
871.36	5147
871.489	5010
871.619	5128
871.749	5083
871.879	5109
872.008	5193
872.138	5105
872.267	4968
872.397	4816
872.526	4805
872.656	4729
872.785	4835
872.915	4984
873.044	5041
873.173	4984
873.303	5010
873.432	4965
873.561	4976
873.69	4873
873.819	4866
873.948	4915
874.077	4835
874.206	4774
874.335	4820
874.464	4892
874.593	5037
874.722	4965
874.851	5105
874.979	5090
875.108	5022
875.237	4987
875.365	4904
875.494	4892
875.623	4972
875.751	4847
875.88	4911
876.008	5006
876.136	5037
876.265	5174
876.393	5357
876.521	5239
876.65	5208
876.778	5162
876.906	5075
877.034	5086
877.162	5014
877.29	4965
877.418	5067
877.546	5045
877.674	5083
877.802	5029
877.93	5014
878.058	4965
878.185	4877
878.313	4938
878.441	4930
878.568	4828
878.696	4854
878.824	5022
878.951	5018
879.079	5136
879.206	5318
879.333	5113
879.461	4984
879.588	5003
879.715	5170
879.842	5261
879.97	4984
880.097	4801
880.224	4763
880.351	4828
880.478	4786
880.605	4801
880.732	4759
880.859	5132
880.986	4873
881.112	4961
881.239	4793
881.366	4683
881.493	4592
881.619	4516
881.746	4626
881.872	4672
881.999	4683
882.125	4706
882.252	4809
882.378	4866
882.505	4976
882.631	4839
882.757	4675
882.883	4725
883.01	4744
883.136	4668
883.262	4611
883.388	4615
883.514	4824
883.64	4904
883.766	4816
883.892	4664
884.018	4721
884.143	4881
884.269	4980
884.395	4710
884.52	4607
884.646	4637
884.772	4550
884.897	4516
885.023	4634
885.148	4786
885.274	4892
885.399	4816
885.524	4714
885.65	4698
885.775	4812
885.9	4733
886.025	4820
886.15	4805
886.275	4771
886.4	4691
886.525	4714
886.65	4641
886.775	4725
886.9	4915
887.025	5048
887.149	4801
887.274	4691
887.399	4588
887.523	4637
887.648	4607
887.773	4603
887.897	4805
888.021	4767
888.146	4672
888.27	4790
888.395	4858
888.519	4767
888.643	4820
888.767	4873
888.891	4672
889.015	4592
889.139	4672
889.263	4607
889.387	4786
889.511	4847
889.635	4759
889.759	4656
889.883	4672
890.006	4698
890.13	4847
890.254	4653
890.377	4675
890.501	4558
890.624	4538
890.748	4626
890.871	4565
890.995	4432
891.118	4413
891.241	4523
891.364	4577
891.488	4603
891.611	4508
891.734	4580
891.857	4588
891.98	4569
892.103	4664
892.226	4611
892.349	4565
892.471	4485
892.594	4542
892.717	4584
892.839	4573
892.962	4607
893.085	4668
893.207	4599
893.33	4508
893.452	4523
893.575	4694
893.697	4599
893.819	4824
893.941	4839
894.064	4771
894.186	4550
894.308	4569
894.43	4733
894.552	4820
894.674	4801
894.796	4558
894.918	4599
895.04	4538
895.161	4694
895.283	4622
895.405	4580
895.526	4664
895.648	4679
895.769	4702
895.891	4653
896.012	4717
896.134	4717
896.255	4679
896.376	4641
896.498	4573
896.619	4698
896.74	4637
896.861	4634
896.982	4900
897.103	5071
897.224	4816
897.345	4740
897.466	4702
897.587	4748
897.708	4847
897.828	4786
897.949	4694
898.07	4546
898.19	4694
898.311	4831
898.431	4679
898.552	4729
898.672	4850
898.792	4812
898.913	4710
899.033	4592
899.153	4535
899.273	4451
899.393	4531
899.513	4504
899.633	4538
899.753	4596
899.873	4535
899.993	4599
900.113	4542
900.232	4607
900.352	4554
900.472	4474
900.591	4383
900.711	4508
900.83	4413
900.95	4584
901.069	4653
901.189	4596
901.308	4424
901.427	4325
901.546	4337
901.665	4478
901.784	4470
901.904	4386
902.023	4360
902.141	4196
902.26	4204
902.379	4287
902.498	4261
902.617	4219
902.735	4348
902.854	4417
902.973	4375
903.091	4223
903.21	4204
903.328	4306
903.446	4261
903.565	4280
903.683	4344
903.801	4295
903.919	4405
904.038	4447
904.156	4306
904.274	4451
904.392	4409
904.51	4421
904.627	4504
904.745	4573
904.863	4615
904.981	4417
905.098	4310
905.216	4341
905.334	4436
905.451	4489
905.569	4390
905.686	4573
905.803	4527
905.921	4432
906.038	4573
906.155	4504
906.272	4375
906.389	4451
906.506	4371
906.623	4413
906.74	4367
906.857	4322
906.974	4356
907.091	4542
907.208	4710
907.324	4584
907.441	4531
907.557	4337
907.674	4322
907.79	4318
907.907	4344
908.023	4466
908.139	4478
908.256	4443
908.372	4489
908.488	4398
908.604	4333
908.72	4341
908.836	4386
908.952	4360
909.068	4417
909.184	4538
909.3	4436
909.415	4580
909.531	4516
909.647	4375
909.762	4375
909.878	4310
909.993	4470
910.108	4371
910.224	4443
910.339	4538
910.454	4409
910.57	4367
910.685	4322
910.8	4645
910.915	4592
911.03	4481
911.145	4322
911.259	4348
911.374	4383
911.489	4287
911.604	4268
911.718	4204
911.833	4173
911.947	4086
912.062	4010
912.176	4230
912.291	4230
912.405	4257
912.519	4451
912.633	4481
912.748	4363
912.862	4310
912.976	4200
913.09	4105
913.204	4158
913.318	4280
913.431	4379
913.545	4375
913.659	4455
913.772	4344
913.886	4268
914	4219
914.113	4394
914.226	4455
914.34	4383
914.453	4272
914.566	4440
914.68	4299
914.793	4337
914.906	4147
915.019	4139
915.132	4109
915.245	4169
915.358	4192
915.47	4219
915.583	4227
915.696	4314
915.809	4432
915.921	4398
916.034	4261
916.146	4265
916.259	4166
916.371	4402
916.483	4356
916.595	4272
916.708	4371
916.82	4242
916.932	4333
917.044	4341
917.156	4314
917.268	4280
917.38	4253
917.491	4291
917.603	4325
917.715	4432
917.826	4489
917.938	4371
918.049	4238
918.161	4379
918.272	4527
918.384	4546
918.495	4466
918.606	4295
918.717	4177
918.828	4310
918.939	4344
919.05	4238
919.161	4310
919.272	4109
919.383	4177
919.494	4417
919.604	4607
919.715	4440
919.826	4344
919.936	4367
920.047	4535
920.157	4535
920.267	4725
920.378	4607
920.488	4500
920.598	4755
920.708	4892
920.818	4736
920.928	4793
921.038	4934
921.148	4892
921.258	4615
921.368	4550
921.477	4519
921.587	4493
921.697	4390
921.806	4592
921.916	4432
922.025	4272
922.134	4192
922.244	4223
922.353	4306
922.462	4150
922.571	4139
922.68	4002
922.789	3987
922.898	4040
923.007	3979
923.116	4086
923.224	4090
923.333	4063
923.442	3991
923.55	4006
923.659	4036
923.767	4112
923.876	3983
923.984	4139
924.092	3975
924.201	4101
924.309	4074
924.417	4078
924.525	4082
924.633	4109
924.741	5067
924.849	3903
924.956	4173
925.064	3964
925.172	3873
925.279	3907
925.387	4048
925.494	4086
925.602	4181
925.709	4162
925.816	4013
925.924	4162
926.031	4204
926.138	4177
926.245	4192
926.352	4078
926.459	4227
926.566	4291
926.673	4139
926.779	4105
926.886	4074
926.993	4017
927.099	3930
927.206	3953
927.312	3945
927.419	4040
927.525	4017
927.631	4131
927.737	4013
927.843	3960
927.95	3842
928.056	3930
928.162	3964
928.267	4040
928.373	4653
928.479	4063
928.585	3884
928.69	4029
928.796	4093
928.901	3945
929.007	3827
929.112	4017
929.218	3945
929.323	3926
929.428	3949
929.533	4101
929.638	3873
929.743	3953
929.848	4055
929.953	4013
930.058	3907
930.163	3808
930.267	3831
930.372	3907
930.477	3797
930.581	4036
930.685	3926
930.79	3835
930.894	3934
930.998	3857
931.103	4021
931.207	3682
931.311	3736
931.415	3660
931.519	3496
931.623	3507
