Data from test_V78500241_1638.txt Node
Date: Fri Mar 25 17:00:23 CST 2022
User: usil
Spectrometer: V785-0024
Trigger mode: 0
Integration Time (sec): 4.000000E-1
Scans to average: 1
Nonlinearity correction enabled: false
Boxcar width: 0
Storing dark spectrum: false
XAxis mode: Wavelengths
Number of Pixels in Spectrum: 1024
>>>>>Begin Spectral Data<<<<<
801.071	7955
801.214	7925
801.356	7795
801.499	7871
801.641	7792
801.783	7776
801.926	7925
802.068	7936
802.211	7978
802.353	8012
802.496	7830
802.638	7818
802.78	7868
802.923	7917
803.065	7871
803.208	7799
803.35	7959
803.492	8111
803.635	8084
803.777	7982
803.919	8111
804.061	8408
804.204	8149
804.346	7986
804.488	7974
804.63	8103
804.773	7951
804.915	8065
805.057	8305
805.199	8138
805.341	8157
805.483	8214
805.626	8233
805.768	8046
805.91	8191
806.052	8180
806.194	8088
806.336	8294
806.478	8130
806.62	8035
806.762	8134
806.904	8218
807.046	8461
807.188	8301
807.33	8370
807.472	8298
807.614	8145
807.756	8210
807.898	7993
808.04	7849
808.182	7925
808.324	7883
808.465	7917
808.607	8161
808.749	8031
808.891	8149
809.033	8271
809.174	8202
809.316	8138
809.458	8054
809.6	7947
809.741	8088
809.883	8016
810.025	8081
810.166	8046
810.308	8016
810.45	7997
810.591	7818
810.733	7772
810.875	7685
811.016	7480
811.158	7514
811.299	7590
811.441	7753
811.582	7696
811.724	7571
811.865	7597
812.007	7613
812.148	7578
812.29	7689
812.431	7849
812.573	7936
812.714	8050
812.855	8115
812.997	8259
813.138	8313
813.279	8248
813.421	8138
813.562	7974
813.703	7852
813.845	7738
813.986	7407
814.127	7285
814.268	7221
814.41	7213
814.551	7217
814.692	7228
814.833	7118
814.974	7129
815.115	7187
815.256	7015
815.397	6924
815.539	6954
815.68	6882
815.821	6787
815.962	6905
816.103	6814
816.244	6722
816.385	6612
816.526	6612
816.666	6490
816.807	6327
816.948	6506
817.089	6467
817.23	6407
817.371	6426
817.512	6445
817.653	6437
817.793	6388
817.934	6391
818.075	6483
818.216	6414
818.356	6410
818.497	6228
818.638	6159
818.778	6258
818.919	6159
819.06	6171
819.2	6357
819.341	6292
819.481	6395
819.622	6585
819.762	6749
819.903	6703
820.043	6650
820.184	6563
820.324	6593
820.465	6738
820.605	6692
820.746	6700
820.886	6467
821.026	6650
821.167	6692
821.307	6840
821.447	6783
821.588	6738
821.728	6566
821.868	6559
822.008	6391
822.149	6376
822.289	6418
822.429	6216
822.569	6072
822.709	6171
822.849	5977
822.99	5931
823.13	5927
823.27	5927
823.41	5805
823.55	5836
823.69	5805
823.83	5805
823.97	5638
824.11	5516
824.25	5547
824.389	5589
824.529	5611
824.669	5516
824.809	5657
824.949	5672
825.089	5638
825.228	5611
825.368	5372
825.508	5307
825.648	5376
825.787	5376
825.927	5357
826.067	5330
826.206	5311
826.346	5402
826.485	5425
826.625	5448
826.765	5589
826.904	5486
827.044	5265
827.183	5159
827.323	5162
827.462	5273
827.601	5155
827.741	5201
827.88	5208
828.02	5090
828.159	5292
828.298	5330
828.437	5372
828.577	5303
828.716	5478
828.855	5334
828.994	5174
829.134	5155
829.273	5181
829.412	5143
829.551	5128
829.69	5189
829.829	5246
829.968	5391
830.107	5334
830.246	5311
830.385	5174
830.524	5166
830.663	5113
830.802	5022
830.941	4889
831.08	4927
831.219	4968
831.357	5022
831.496	5147
831.635	4911
831.774	4847
831.913	4881
832.051	4793
832.19	4725
832.329	4828
832.467	4675
832.606	4634
832.744	4740
832.883	4759
833.022	4744
833.16	4736
833.299	4862
833.437	4854
833.576	4847
833.714	4858
833.852	4870
833.991	4938
834.129	4987
834.267	4984
834.406	4870
834.544	4987
834.682	4995
834.821	4984
834.959	5140
835.097	4961
835.235	5185
835.373	5086
835.511	5094
835.65	5037
835.788	5022
835.926	4862
836.064	4870
836.202	4987
836.34	5166
836.478	5193
836.615	5143
836.753	5197
836.891	5303
837.029	5250
837.167	5204
837.305	5117
837.443	5102
837.58	5105
837.718	5292
837.856	5170
837.993	5204
838.131	5242
838.269	5143
838.406	5242
838.544	5170
838.681	5018
838.819	5006
838.956	4915
839.094	4938
839.231	5014
839.369	5086
839.506	5417
839.643	5292
839.781	5045
839.918	4968
840.055	5079
840.193	5105
840.33	5174
840.467	5124
840.604	5223
840.742	5440
840.879	5083
841.016	5090
841.153	5151
841.29	5368
841.427	5307
841.564	5349
841.701	5349
841.838	5258
841.975	5258
842.112	5292
842.249	5159
842.385	5147
842.522	5322
842.659	5220
842.796	5178
842.933	5231
843.069	5121
843.206	5201
843.343	5292
843.479	5246
843.616	5299
843.752	5086
843.889	5045
844.025	5204
844.162	5079
844.298	5181
844.435	5094
844.571	5052
844.708	5155
844.844	5337
844.98	5299
845.117	5322
845.253	5204
845.389	5105
845.525	5155
845.661	5178
845.798	5113
845.934	5121
846.07	5029
846.206	5227
846.342	5280
846.478	5185
846.614	5064
846.75	4991
846.886	4949
847.022	5143
847.158	5071
847.294	5083
847.429	5113
847.565	5090
847.701	5357
847.837	4900
847.972	4767
848.108	4938
848.244	4911
848.379	4801
848.515	4755
848.65	4729
848.786	4752
848.921	4831
849.057	4877
849.192	4892
849.328	4816
849.463	4873
849.598	4847
849.734	4763
849.869	4744
850.004	4626
850.14	4656
850.275	4618
850.41	4512
850.545	4558
850.68	4615
850.815	4618
850.95	4683
851.085	4801
851.22	4793
851.355	4717
851.49	4679
851.625	4656
851.76	4637
851.895	4596
852.03	4558
852.165	4710
852.299	4736
852.434	4835
852.569	4752
852.703	4774
852.838	4896
852.973	4972
853.107	4889
853.242	4797
853.376	4672
853.511	4561
853.645	4611
853.78	4839
853.914	4702
854.048	4664
854.183	4672
854.317	4668
854.451	4858
854.585	4675
854.72	4653
854.854	4710
854.988	4622
855.122	4634
855.256	4546
855.39	4656
855.524	4809
855.658	4733
855.792	4729
855.926	4748
856.06	4786
856.194	4786
856.327	4710
856.461	4622
856.595	4615
856.729	4630
856.862	4736
856.996	4702
857.13	4694
857.263	4759
857.397	4805
857.53	4672
857.664	4759
857.797	4755
857.931	4793
858.064	4740
858.197	4771
858.331	4634
858.464	4584
858.597	4535
858.731	4622
858.864	4668
858.997	4611
859.13	4649
859.263	4687
859.396	4664
859.529	4584
859.662	4603
859.795	4607
859.928	4637
860.061	4767
860.194	4793
860.327	4615
860.46	4596
860.592	4771
860.725	4748
860.858	4698
860.99	4561
861.123	4493
861.256	4546
861.388	4622
861.521	5216
861.653	4489
861.786	4527
861.918	4443
862.05	4508
862.183	4603
862.315	4592
862.447	4668
862.58	4546
862.712	4413
862.844	4360
862.976	4527
863.108	4519
863.24	4801
863.372	4367
863.504	4398
863.636	4470
863.768	4516
863.9	4481
864.032	4367
864.164	4409
864.296	4485
864.428	4531
864.559	4538
864.691	4558
864.823	4550
864.954	4485
865.086	4500
865.217	4504
865.349	4443
865.48	4516
865.612	4512
865.743	4618
865.875	4447
866.006	4478
866.137	4478
866.269	4459
866.4	4451
866.531	4405
866.662	4367
866.793	4493
866.924	4402
867.055	4504
867.186	4493
867.317	4432
867.448	4360
867.579	4432
867.71	4367
867.841	4394
867.972	4421
868.103	4497
868.233	4417
868.364	4462
868.495	4508
868.625	4679
868.756	4797
868.886	4542
869.017	4653
869.147	4820
869.278	4809
869.408	4660
869.539	4679
869.669	4748
869.799	4637
869.929	4820
870.06	4828
870.19	4942
870.32	4908
870.45	4957
870.58	5083
870.71	5090
870.84	5105
870.97	4923
871.1	4919
871.23	5181
871.36	5113
871.489	5056
871.619	5071
871.749	5121
871.879	5151
872.008	5239
872.138	5083
872.267	4995
872.397	4881
872.526	4839
872.656	4744
872.785	4805
872.915	4961
873.044	5025
873.173	4995
873.303	5010
873.432	4961
873.561	4991
873.69	4911
873.819	4877
873.948	4919
874.077	4850
874.206	4748
874.335	4904
874.464	4976
874.593	5098
874.722	5022
874.851	5136
874.979	5037
875.108	5033
875.237	4923
875.365	4858
875.494	4877
875.623	4999
875.751	4847
875.88	4927
876.008	5014
876.136	5048
876.265	5174
876.393	5318
876.521	5239
876.65	5277
876.778	5147
876.906	5109
877.034	5010
877.162	5041
877.29	4961
877.418	5018
877.546	4976
877.674	5079
877.802	5014
877.93	4972
878.058	4987
878.185	4889
878.313	4972
878.441	4942
878.568	4820
878.696	4896
878.824	4987
878.951	5037
879.079	5166
879.206	5269
879.333	5128
879.461	4999
879.588	4957
879.715	5105
879.842	5216
879.97	4995
880.097	4824
880.224	4759
880.351	4828
880.478	4835
880.605	4748
880.732	4809
880.859	5105
880.986	4923
881.112	4915
881.239	4797
881.366	4672
881.493	4641
881.619	4592
881.746	4637
881.872	4702
881.999	4683
882.125	4706
882.252	4820
882.378	4790
882.505	4957
882.631	4824
882.757	4698
882.883	4755
883.01	4755
883.136	4683
883.262	4618
883.388	4611
883.514	4828
883.64	4877
883.766	4843
883.892	4672
884.018	4748
884.143	4870
884.269	5014
884.395	4672
884.52	4656
884.646	4668
884.772	4615
884.897	4554
885.023	4679
885.148	4771
885.274	4870
885.399	4820
885.524	4736
885.65	4687
885.775	4767
885.9	4702
886.025	4904
886.15	4816
886.275	4763
886.4	4615
886.525	4706
886.65	4687
886.775	4714
886.9	4915
887.025	4965
887.149	4809
887.274	4672
887.399	4546
887.523	4592
887.648	4561
887.773	4596
887.897	4664
888.021	4824
888.146	4679
888.27	4812
888.395	4946
888.519	4835
888.643	4809
888.767	4797
888.891	4679
889.015	4569
889.139	4679
889.263	4641
889.387	4755
889.511	4847
889.635	4816
889.759	4622
889.883	4683
890.006	4710
890.13	4828
890.254	4653
890.377	4691
890.501	4558
890.624	4580
890.748	4679
890.871	4500
890.995	4428
891.118	4383
891.241	4516
891.364	4500
891.488	4607
891.611	4535
891.734	4527
891.857	4611
891.98	4538
892.103	4641
892.226	4615
892.349	4493
892.471	4432
892.594	4584
892.717	4573
892.839	4565
892.962	4561
893.085	4656
893.207	4599
893.33	4478
893.452	4519
893.575	4672
893.697	4580
893.819	4797
893.941	4805
894.064	4755
894.186	4618
894.308	4565
894.43	4740
894.552	4828
894.674	4771
894.796	4508
894.918	4599
895.04	4546
895.161	4721
895.283	4698
895.405	4577
895.526	4618
895.648	4679
895.769	4656
895.891	4748
896.012	4725
896.134	4725
896.255	4660
896.376	4607
896.498	4630
896.619	4698
896.74	4618
896.861	4660
896.982	4896
897.103	5098
897.224	4850
897.345	4748
897.466	4706
897.587	4748
897.708	4839
897.828	4774
897.949	4664
898.07	4519
898.19	4603
898.311	4816
898.431	4691
898.552	4740
898.672	4797
898.792	4786
898.913	4729
899.033	4607
899.153	4531
899.273	4405
899.393	4504
899.513	4489
899.633	4497
899.753	4550
899.873	4527
899.993	4588
900.113	4554
900.232	4592
900.352	4565
900.472	4516
900.591	4440
900.711	4455
900.83	4424
900.95	4569
901.069	4714
901.189	4489
901.308	4371
901.427	4322
901.546	4363
901.665	4447
901.784	4512
901.904	4344
902.023	4322
902.141	4230
902.26	4177
902.379	4291
902.498	4223
902.617	4242
902.735	4325
902.854	4402
902.973	4398
903.091	4215
903.21	4230
903.328	4299
903.446	4295
903.565	4238
903.683	4356
903.801	4246
903.919	4383
904.038	4424
904.156	4341
904.274	4394
904.392	4394
904.51	4394
904.627	4443
904.745	4584
904.863	4626
904.981	4390
905.098	4314
905.216	4352
905.334	4459
905.451	4432
905.569	4443
905.686	4504
905.803	4489
905.921	4413
906.038	4538
906.155	4504
906.272	4417
906.389	4428
906.506	4310
906.623	4356
906.74	4417
906.857	4329
906.974	4318
907.091	4573
907.208	4660
907.324	4615
907.441	4500
907.557	4375
907.674	4325
907.79	4348
907.907	4424
908.023	4470
908.139	4462
908.256	4421
908.372	4481
908.488	4451
908.604	4310
908.72	4371
908.836	4371
908.952	4310
909.068	4417
909.184	4542
909.3	4481
909.415	4531
909.531	4558
909.647	4390
909.762	4383
909.878	4325
909.993	4459
910.108	4462
910.224	4436
910.339	4459
910.454	4379
910.57	4352
910.685	4272
910.8	4660
910.915	4603
911.03	4516
911.145	4352
911.259	4333
911.374	4367
911.489	4295
911.604	4341
911.718	4169
911.833	4192
911.947	4063
912.062	4044
912.176	4177
912.291	4268
912.405	4242
912.519	4481
912.633	4512
912.748	4333
912.862	4325
912.976	4196
913.09	4116
913.204	4154
913.318	4284
913.431	4352
913.545	4356
913.659	4390
913.772	4360
913.886	4200
914	4188
914.113	4367
914.226	4413
914.34	4306
914.453	4200
914.566	4402
914.68	4333
914.793	4333
914.906	4120
915.019	4135
915.132	4051
915.245	4158
915.358	4234
915.47	4215
915.583	4287
915.696	4268
915.809	4329
915.921	4428
916.034	4223
916.146	4261
916.259	4223
916.371	4379
916.483	4348
916.595	4299
916.708	4318
916.82	4318
916.932	4306
917.044	4314
917.156	4318
917.268	4249
917.38	4310
917.491	4284
917.603	4318
917.715	4451
917.826	4443
917.938	4306
918.049	4204
918.161	4413
918.272	4535
918.384	4493
918.495	4474
918.606	4284
918.717	4265
918.828	4356
918.939	4310
919.05	4223
919.161	4341
919.272	4143
919.383	4246
919.494	4474
919.604	4618
919.715	4421
919.826	4333
919.936	4356
920.047	4474
920.157	4500
920.267	4759
920.378	4577
920.488	4531
920.598	4687
920.708	4839
920.818	4725
920.928	4717
921.038	4972
921.148	4930
921.258	4603
921.368	4588
921.477	4519
921.587	4451
921.697	4371
921.806	4596
921.916	4455
922.025	4310
922.134	4268
922.244	4200
922.353	4325
922.462	4120
922.571	4120
922.68	3994
922.789	4013
922.898	4025
923.007	4002
923.116	4109
923.224	4032
923.333	4097
923.442	3991
923.55	3945
923.659	4044
923.767	4109
923.876	3968
923.984	4109
924.092	3987
924.201	4093
924.309	4063
924.417	4112
924.525	4067
924.633	4071
924.741	4892
924.849	3907
924.956	4124
925.064	3926
925.172	3922
925.279	3975
925.387	4051
925.494	4032
925.602	4223
925.709	4158
925.816	4040
925.924	4124
926.031	4242
926.138	4169
926.245	4219
926.352	4082
926.459	4291
926.566	4276
926.673	4162
926.779	4093
926.886	4116
926.993	3975
927.099	3926
927.206	3937
927.312	3915
927.419	4063
927.525	4032
927.631	4025
927.737	3972
927.843	3956
927.95	3854
928.056	3945
928.162	3983
928.267	4082
928.373	4603
928.479	4090
928.585	3892
928.69	3994
928.796	4078
928.901	3987
929.007	3819
929.112	3956
929.218	3949
929.323	3945
929.428	3953
929.533	4105
929.638	3876
929.743	3956
929.848	4040
929.953	3991
930.058	3918
930.163	3797
930.267	3800
930.372	4010
930.477	3823
930.581	4097
930.685	3934
930.79	3827
930.894	3896
930.998	3846
931.103	4017
931.207	3732
931.311	3713
931.415	3667
931.519	3519
931.623	3564
