Data from test_V78500241_322.txt Node
Date: Fri Mar 25 16:51:14 CST 2022
User: usil
Spectrometer: V785-0024
Trigger mode: 0
Integration Time (sec): 4.000000E-1
Scans to average: 1
Nonlinearity correction enabled: false
Boxcar width: 0
Storing dark spectrum: false
XAxis mode: Wavelengths
Number of Pixels in Spectrum: 1024
>>>>>Begin Spectral Data<<<<<
801.071	8149
801.214	8123
801.356	7963
801.499	7982
801.641	7947
801.783	7963
801.926	7974
802.068	8027
802.211	8035
802.353	8081
802.496	7909
802.638	7921
802.78	7982
802.923	8024
803.065	7925
803.208	7932
803.35	8058
803.492	8123
803.635	8191
803.777	8008
803.919	8172
804.061	8526
804.204	8157
804.346	8138
804.488	8065
804.63	8065
804.773	7970
804.915	8164
805.057	8294
805.199	8206
805.341	8237
805.483	8275
805.626	8157
805.768	8058
805.91	8218
806.052	8191
806.194	8134
806.336	8355
806.478	8176
806.62	8149
806.762	8206
806.904	8328
807.046	8545
807.188	8366
807.33	8374
807.472	8332
807.614	8176
807.756	8126
807.898	8039
808.04	7917
808.182	7932
808.324	7963
808.465	7925
808.607	8115
808.749	8221
808.891	8271
809.033	8366
809.174	8130
809.316	8096
809.458	8039
809.6	8054
809.741	8050
809.883	8069
810.025	8103
810.166	8130
810.308	8126
810.45	8012
810.591	7917
810.733	7727
810.875	7674
811.016	7556
811.158	7544
811.299	7696
811.441	7852
811.582	7734
811.724	7601
811.865	7559
812.007	7575
812.148	7655
812.29	7632
812.431	7849
812.573	7906
812.714	7978
812.855	8103
812.997	8199
813.138	8225
813.279	8142
813.421	8199
813.562	8046
813.703	7860
813.845	7849
813.986	7525
814.127	7305
814.268	7247
814.41	7221
814.551	7202
814.692	7209
814.833	7145
814.974	7179
815.115	7103
815.256	7000
815.397	6916
815.539	6951
815.68	6802
815.821	6814
815.962	6844
816.103	6852
816.244	6764
816.385	6722
816.526	6646
816.666	6593
816.807	6399
816.948	6422
817.089	6456
817.23	6483
817.371	6429
817.512	6433
817.653	6380
817.793	6380
817.934	6346
818.075	6475
818.216	6490
818.356	6471
818.497	6251
818.638	6114
818.778	6171
818.919	6201
819.06	6155
819.2	6262
819.341	6350
819.481	6334
819.622	6513
819.762	6764
819.903	6703
820.043	6616
820.184	6574
820.324	6654
820.465	6688
820.605	6673
820.746	6688
820.886	6502
821.026	6730
821.167	6684
821.307	6840
821.447	6768
821.588	6639
821.728	6601
821.868	6483
822.008	6467
822.149	6464
822.289	6331
822.429	6163
822.569	6140
822.709	6144
822.849	5920
822.99	5885
823.13	5950
823.27	5923
823.41	5847
823.55	5836
823.69	5794
823.83	5813
823.97	5684
824.11	5600
824.25	5535
824.389	5558
824.529	5611
824.669	5596
824.809	5604
824.949	5672
825.089	5649
825.228	5554
825.368	5463
825.508	5357
825.648	5402
825.787	5417
825.927	5379
826.067	5296
826.206	5299
826.346	5368
826.485	5406
826.625	5474
826.765	5604
826.904	5471
827.044	5261
827.183	5193
827.323	5121
827.462	5265
827.601	5162
827.741	5189
827.88	5216
828.02	5227
828.159	5280
828.298	5299
828.437	5414
828.577	5265
828.716	5516
828.855	5421
828.994	5216
829.134	5178
829.273	5246
829.412	5159
829.551	5124
829.69	5166
829.829	5269
829.968	5425
830.107	5307
830.246	5296
830.385	5189
830.524	5155
830.663	5109
830.802	4999
830.941	4919
831.08	4900
831.219	4953
831.357	4999
831.496	5159
831.635	4995
831.774	4892
831.913	4854
832.051	4782
832.19	4805
832.329	4835
832.467	4793
832.606	4664
832.744	4771
832.883	4755
833.022	4759
833.16	4858
833.299	4843
833.437	4866
833.576	4843
833.714	4831
833.852	4927
833.991	4923
834.129	4965
834.267	4984
834.406	4904
834.544	4980
834.682	4961
834.821	4995
834.959	5151
835.097	4987
835.235	5185
835.373	5102
835.511	5147
835.65	5048
835.788	5056
835.926	4980
836.064	4870
836.202	4923
836.34	5197
836.478	5284
836.615	5109
836.753	5208
836.891	5277
837.029	5280
837.167	5231
837.305	5220
837.443	5151
837.58	5086
837.718	5303
837.856	5269
837.993	5143
838.131	5250
838.269	5261
838.406	5220
838.544	5170
838.681	5083
838.819	5060
838.956	4946
839.094	4938
839.231	5003
839.369	5109
839.506	5421
839.643	5299
839.781	5098
839.918	5022
840.055	5132
840.193	5086
840.33	5121
840.467	5174
840.604	5170
840.742	5410
840.879	5094
841.016	5075
841.153	5178
841.29	5364
841.427	5353
841.564	5288
841.701	5391
841.838	5250
841.975	5220
842.112	5326
842.249	5170
842.385	5083
842.522	5357
842.659	5220
842.796	5166
842.933	5208
843.069	5178
843.206	5155
843.343	5265
843.479	5227
843.616	5341
843.752	5048
843.889	5060
844.025	5212
844.162	5067
844.298	5250
844.435	5124
844.571	5079
844.708	5227
844.844	5334
844.98	5364
845.117	5330
845.253	5147
845.389	5071
845.525	5170
845.661	5162
845.798	5064
845.934	5132
846.07	5060
846.206	5204
846.342	5322
846.478	5216
846.614	5052
846.75	4946
846.886	4957
847.022	5174
847.158	5056
847.294	5094
847.429	5132
847.565	5071
847.701	5341
847.837	4904
847.972	4820
848.108	4972
848.244	4915
848.379	4812
848.515	4782
848.65	4714
848.786	4767
848.921	4797
849.057	4854
849.192	4885
849.328	4801
849.463	4790
849.598	4801
849.734	4774
849.869	4736
850.004	4630
850.14	4721
850.275	4615
850.41	4565
850.545	4607
850.68	4630
850.815	4637
850.95	4622
851.085	4847
851.22	4736
851.355	4694
851.49	4622
851.625	4630
851.76	4653
851.895	4535
852.03	4588
852.165	4660
852.299	4706
852.434	4797
852.569	4729
852.703	4793
852.838	4843
852.973	4946
853.107	4938
853.242	4759
853.376	4687
853.511	4569
853.645	4634
853.78	4812
853.914	4710
854.048	4691
854.183	4630
854.317	4736
854.451	4892
854.585	4656
854.72	4641
854.854	4812
854.988	4611
855.122	4668
855.256	4504
855.39	4698
855.524	4790
855.658	4698
855.792	4672
855.926	4752
856.06	4752
856.194	4767
856.327	4698
856.461	4580
856.595	4645
856.729	4611
856.862	4725
856.996	4706
857.13	4725
857.263	4763
857.397	4797
857.53	4691
857.664	4748
857.797	4759
857.931	4782
858.064	4725
858.197	4755
858.331	4603
858.464	4603
858.597	4554
858.731	4645
858.864	4679
858.997	4607
859.13	4660
859.263	4641
859.396	4755
859.529	4637
859.662	4592
859.795	4546
859.928	4596
860.061	4729
860.194	4839
860.327	4634
860.46	4527
860.592	4687
860.725	4725
860.858	4717
860.99	4599
861.123	4508
861.256	4542
861.388	4645
861.521	5337
861.653	4535
861.786	4470
861.918	4538
862.05	4542
862.183	4554
862.315	4637
862.447	4664
862.58	4580
862.712	4405
862.844	4329
862.976	4500
863.108	4516
863.24	4930
863.372	4333
863.504	4432
863.636	4428
863.768	4523
863.9	4474
864.032	4371
864.164	4390
864.296	4531
864.428	4554
864.559	4565
864.691	4588
864.823	4538
864.954	4546
865.086	4485
865.217	4538
865.349	4394
865.48	4432
865.612	4481
865.743	4634
865.875	4440
866.006	4428
866.137	4478
866.269	4478
866.4	4447
866.531	4402
866.662	4421
866.793	4367
866.924	4436
867.055	4527
867.186	4443
867.317	4432
867.448	4398
867.579	4344
867.71	4379
867.841	4360
867.972	4447
868.103	4478
868.233	4447
868.364	4462
868.495	4508
868.625	4725
868.756	4733
868.886	4538
869.017	4630
869.147	4774
869.278	4755
869.408	4683
869.539	4660
869.669	4771
869.799	4679
869.929	4771
870.06	4744
870.19	5018
870.32	4949
870.45	4976
870.58	4991
870.71	5124
870.84	5033
870.97	4949
871.1	4877
871.23	5124
871.36	5136
871.489	5022
871.619	5083
871.749	5086
871.879	5128
872.008	5185
872.138	5052
872.267	5029
872.397	4885
872.526	4835
872.656	4725
872.785	4793
872.915	4930
873.044	5056
873.173	4965
873.303	4946
873.432	4934
873.561	4949
873.69	4889
873.819	4873
873.948	4881
874.077	4820
874.206	4809
874.335	4854
874.464	4957
874.593	5094
874.722	4961
874.851	5143
874.979	5052
875.108	5048
875.237	4862
875.365	4858
875.494	4915
875.623	4976
875.751	4812
875.88	4862
876.008	4972
876.136	5037
876.265	5204
876.393	5357
876.521	5269
876.65	5178
876.778	5162
876.906	5037
877.034	5045
877.162	5010
877.29	5033
877.418	5018
877.546	5102
877.674	5029
877.802	5010
877.93	5003
878.058	4991
878.185	4892
878.313	4984
878.441	4946
878.568	4835
878.696	4892
878.824	4957
878.951	5014
879.079	5117
879.206	5334
879.333	5124
879.461	5003
879.588	4995
879.715	5090
879.842	5193
879.97	5006
880.097	4812
880.224	4729
880.351	4801
880.478	4790
880.605	4736
880.732	4835
880.859	5098
880.986	4915
881.112	4873
881.239	4752
881.366	4664
881.493	4626
881.619	4577
881.746	4698
881.872	4641
881.999	4615
882.125	4725
882.252	4790
882.378	4793
882.505	5014
882.631	4805
882.757	4630
882.883	4710
883.01	4736
883.136	4672
883.262	4561
883.388	4656
883.514	4809
883.64	4896
883.766	4759
883.892	4691
884.018	4687
884.143	4900
884.269	4995
884.395	4694
884.52	4618
884.646	4630
884.772	4615
884.897	4538
885.023	4656
885.148	4820
885.274	4831
885.399	4809
885.524	4736
885.65	4691
885.775	4752
885.9	4744
886.025	4873
886.15	4752
886.275	4759
886.4	4653
886.525	4763
886.65	4748
886.775	4675
886.9	4904
887.025	5098
887.149	4778
887.274	4603
887.399	4565
887.523	4611
887.648	4569
887.773	4611
887.897	4767
888.021	4763
888.146	4649
888.27	4831
888.395	4892
888.519	4824
888.643	4801
888.767	4809
888.891	4717
889.015	4622
889.139	4641
889.263	4615
889.387	4752
889.511	4866
889.635	4805
889.759	4675
889.883	4641
890.006	4702
890.13	4786
890.254	4611
890.377	4717
890.501	4569
890.624	4569
890.748	4599
890.871	4527
890.995	4443
891.118	4428
891.241	4523
891.364	4478
891.488	4675
891.611	4497
891.734	4538
891.857	4561
891.98	4584
892.103	4698
892.226	4588
892.349	4535
892.471	4417
892.594	4516
892.717	4611
892.839	4607
892.962	4599
893.085	4687
893.207	4588
893.33	4489
893.452	4519
893.575	4668
893.697	4599
893.819	4774
893.941	4847
894.064	4809
894.186	4577
894.308	4558
894.43	4706
894.552	4805
894.674	4725
894.796	4573
894.918	4626
895.04	4561
895.161	4717
895.283	4672
895.405	4550
895.526	4592
895.648	4664
895.769	4706
895.891	4763
896.012	4759
896.134	4748
896.255	4660
896.376	4656
896.498	4660
896.619	4725
896.74	4588
896.861	4653
896.982	4946
897.103	5075
897.224	4854
897.345	4683
897.466	4710
897.587	4725
897.708	4847
897.828	4797
897.949	4641
898.07	4588
898.19	4596
898.311	4866
898.431	4691
898.552	4755
898.672	4809
898.792	4816
898.913	4763
899.033	4588
899.153	4535
899.273	4451
899.393	4485
899.513	4558
899.633	4523
899.753	4554
899.873	4512
899.993	4546
900.113	4531
900.232	4596
900.352	4542
900.472	4554
900.591	4394
900.711	4466
900.83	4428
900.95	4592
901.069	4672
901.189	4542
901.308	4348
901.427	4325
901.546	4409
901.665	4459
901.784	4466
901.904	4367
902.023	4344
902.141	4181
902.26	4173
902.379	4306
902.498	4242
902.617	4188
902.735	4394
902.854	4363
902.973	4341
903.091	4211
903.21	4265
903.328	4318
903.446	4246
903.565	4253
903.683	4329
903.801	4295
903.919	4409
904.038	4390
904.156	4337
904.274	4470
904.392	4428
904.51	4409
904.627	4424
904.745	4577
904.863	4596
904.981	4402
905.098	4325
905.216	4424
905.334	4436
905.451	4443
905.569	4455
905.686	4580
905.803	4535
905.921	4371
906.038	4546
906.155	4478
906.272	4379
906.389	4459
906.506	4348
906.623	4386
906.74	4447
906.857	4352
906.974	4402
907.091	4550
907.208	4675
907.324	4588
907.441	4523
907.557	4356
907.674	4375
907.79	4322
907.907	4405
908.023	4504
908.139	4466
908.256	4459
908.372	4474
908.488	4462
908.604	4398
908.72	4306
908.836	4375
908.952	4325
909.068	4405
909.184	4573
909.3	4459
909.415	4618
909.531	4569
909.647	4341
909.762	4398
909.878	4367
909.993	4432
910.108	4367
910.224	4371
910.339	4455
910.454	4405
910.57	4360
910.685	4322
910.8	4653
910.915	4580
911.03	4531
911.145	4314
911.259	4325
911.374	4375
911.489	4341
911.604	4371
911.718	4207
911.833	4211
911.947	4116
912.062	4010
912.176	4246
912.291	4276
912.405	4219
912.519	4451
912.633	4485
912.748	4352
912.862	4341
912.976	4215
913.09	4082
913.204	4177
913.318	4257
913.431	4341
913.545	4325
913.659	4440
913.772	4325
913.886	4276
914	4234
914.113	4322
914.226	4440
914.34	4371
914.453	4268
914.566	4405
914.68	4303
914.793	4299
914.906	4177
915.019	4139
915.132	4017
915.245	4207
915.358	4200
915.47	4246
915.583	4276
915.696	4276
915.809	4421
915.921	4413
916.034	4268
916.146	4265
916.259	4257
916.371	4428
916.483	4360
916.595	4284
916.708	4299
916.82	4329
916.932	4363
917.044	4325
917.156	4318
917.268	4234
917.38	4303
917.491	4272
917.603	4379
917.715	4394
917.826	4455
917.938	4352
918.049	4261
918.161	4409
918.272	4535
918.384	4531
918.495	4455
918.606	4276
918.717	4246
918.828	4299
918.939	4383
919.05	4257
919.161	4329
919.272	4143
919.383	4234
919.494	4497
919.604	4634
919.715	4489
919.826	4402
919.936	4443
920.047	4535
920.157	4478
920.267	4702
920.378	4527
920.488	4493
920.598	4740
920.708	4870
920.818	4782
920.928	4767
921.038	4953
921.148	4911
921.258	4706
921.368	4577
921.477	4527
921.587	4493
921.697	4394
921.806	4527
921.916	4455
922.025	4276
922.134	4303
922.244	4257
922.353	4375
922.462	4188
922.571	4150
922.68	4002
922.789	3998
922.898	4032
923.007	3979
923.116	4120
923.224	4086
923.333	4090
923.442	4006
923.55	3941
923.659	4071
923.767	4112
923.876	4002
923.984	4131
924.092	3975
924.201	4051
924.309	4112
924.417	4135
924.525	4029
924.633	4109
924.741	4892
924.849	3896
924.956	4109
925.064	3922
925.172	3918
925.279	3956
925.387	4063
925.494	4032
925.602	4230
925.709	4169
925.816	4044
925.924	4166
926.031	4215
926.138	4128
926.245	4227
926.352	4109
926.459	4276
926.566	4276
926.673	4135
926.779	4071
926.886	4055
926.993	3934
927.099	3979
927.206	3964
927.312	3941
927.419	4090
927.525	4029
927.631	4112
927.737	4017
927.843	3926
927.95	3888
928.056	3964
928.162	3998
928.267	4078
928.373	4710
928.479	4135
928.585	3869
928.69	4025
928.796	4032
928.901	3953
929.007	3827
929.112	3998
929.218	3941
929.323	3911
929.428	3953
929.533	4093
929.638	3937
929.743	3964
929.848	4013
929.953	3994
930.058	3884
930.163	3766
930.267	3846
930.372	3987
930.477	3816
930.581	4101
930.685	3968
930.79	3827
930.894	3911
930.998	3850
931.103	4040
931.207	3732
931.311	3713
931.415	3652
931.519	3519
931.623	3538
