Data from test_V78500241_1303.txt Node
Date: Fri Mar 25 16:58:03 CST 2022
User: usil
Spectrometer: V785-0024
Trigger mode: 0
Integration Time (sec): 4.000000E-1
Scans to average: 1
Nonlinearity correction enabled: false
Boxcar width: 0
Storing dark spectrum: false
XAxis mode: Wavelengths
Number of Pixels in Spectrum: 1024
>>>>>Begin Spectral Data<<<<<
801.071	8024
801.214	8001
801.356	7932
801.499	7795
801.641	7852
801.783	7753
801.926	7925
802.068	7902
802.211	7936
802.353	8008
802.496	7822
802.638	7849
802.78	7917
802.923	8012
803.065	7902
803.208	7830
803.35	7951
803.492	8119
803.635	8142
803.777	8031
803.919	8149
804.061	8473
804.204	8218
804.346	8008
804.488	8027
804.63	8065
804.773	7932
804.915	8111
805.057	8271
805.199	8126
805.341	8237
805.483	8237
805.626	8164
805.768	8073
805.91	8130
806.052	8199
806.194	8081
806.336	8279
806.478	8107
806.62	8035
806.762	8134
806.904	8328
807.046	8518
807.188	8336
807.33	8294
807.472	8279
807.614	8176
807.756	8187
807.898	7978
808.04	7909
808.182	7860
808.324	7913
808.465	7940
808.607	8062
808.749	8100
808.891	8206
809.033	8343
809.174	8221
809.316	8016
809.458	7970
809.6	7986
809.741	7993
809.883	8043
810.025	8058
810.166	8016
810.308	8012
810.45	7940
810.591	7868
810.733	7727
810.875	7632
811.016	7502
811.158	7521
811.299	7601
811.441	7784
811.582	7636
811.724	7624
811.865	7521
812.007	7563
812.148	7571
812.29	7624
812.431	7727
812.573	7837
812.714	7947
812.855	8073
812.997	8176
813.138	8294
813.279	8168
813.421	8126
813.562	7967
813.703	7864
813.845	7734
813.986	7430
814.127	7228
814.268	7217
814.41	7236
814.551	7187
814.692	7217
814.833	7053
814.974	7141
815.115	7057
815.256	6932
815.397	6943
815.539	6913
815.68	6844
815.821	6776
815.962	6886
816.103	6783
816.244	6749
816.385	6604
816.526	6502
816.666	6445
816.807	6315
816.948	6460
817.089	6452
817.23	6494
817.371	6296
817.512	6350
817.653	6391
817.793	6350
817.934	6437
818.075	6418
818.216	6403
818.356	6376
818.497	6243
818.638	6057
818.778	6129
818.919	6167
819.06	6129
819.2	6331
819.341	6338
819.481	6342
819.622	6490
819.762	6696
819.903	6730
820.043	6563
820.184	6544
820.324	6574
820.465	6715
820.605	6700
820.746	6623
820.886	6486
821.026	6677
821.167	6760
821.307	6741
821.447	6715
821.588	6635
821.728	6494
821.868	6475
822.008	6285
822.149	6327
822.289	6376
822.429	6163
822.569	6053
822.709	6064
822.849	5920
822.99	5874
823.13	5889
823.27	5904
823.41	5805
823.55	5786
823.69	5714
823.83	5714
823.97	5688
824.11	5532
824.25	5516
824.389	5512
824.529	5554
824.669	5497
824.809	5600
824.949	5649
825.089	5627
825.228	5535
825.368	5364
825.508	5330
825.648	5360
825.787	5410
825.927	5345
826.067	5303
826.206	5250
826.346	5364
826.485	5379
826.625	5455
826.765	5512
826.904	5493
827.044	5261
827.183	5174
827.323	5117
827.462	5242
827.601	5159
827.741	5170
827.88	5174
828.02	5086
828.159	5227
828.298	5269
828.437	5360
828.577	5220
828.716	5452
828.855	5307
828.994	5143
829.134	5132
829.273	5143
829.412	5117
829.551	5151
829.69	5079
829.829	5242
829.968	5372
830.107	5288
830.246	5296
830.385	5155
830.524	5121
830.663	5056
830.802	4942
830.941	4896
831.08	4858
831.219	4942
831.357	4942
831.496	5166
831.635	4911
831.774	4866
831.913	4873
832.051	4763
832.19	4729
832.329	4786
832.467	4645
832.606	4573
832.744	4698
832.883	4687
833.022	4698
833.16	4736
833.299	4801
833.437	4793
833.576	4786
833.714	4809
833.852	4824
833.991	4919
834.129	4934
834.267	4927
834.406	4919
834.544	4904
834.682	4976
834.821	5048
834.959	5162
835.097	4919
835.235	5151
835.373	5086
835.511	5086
835.65	5064
835.788	5006
835.926	4900
836.064	4885
836.202	4862
836.34	5140
836.478	5239
836.615	5098
836.753	5208
836.891	5265
837.029	5201
837.167	5174
837.305	5124
837.443	5124
837.58	5105
837.718	5284
837.856	5136
837.993	5143
838.131	5204
838.269	5178
838.406	5212
838.544	5193
838.681	5003
838.819	5029
838.956	4854
839.094	4900
839.231	4953
839.369	5064
839.506	5433
839.643	5227
839.781	5067
839.918	4976
840.055	5086
840.193	5102
840.33	5041
840.467	5174
840.604	5216
840.742	5402
840.879	5121
841.016	5056
841.153	5128
841.29	5364
841.427	5288
841.564	5341
841.701	5364
841.838	5277
841.975	5212
842.112	5220
842.249	5151
842.385	5105
842.522	5307
842.659	5162
842.796	5132
842.933	5185
843.069	5071
843.206	5170
843.343	5303
843.479	5231
843.616	5258
843.752	5041
843.889	5003
844.025	5162
844.162	4930
844.298	5166
844.435	5075
844.571	5022
844.708	5204
844.844	5223
844.98	5292
845.117	5299
845.253	5124
845.389	5018
845.525	5147
845.661	5113
845.798	5018
845.934	5086
846.07	5056
846.206	5197
846.342	5288
846.478	5178
846.614	5045
846.75	4961
846.886	4953
847.022	5113
847.158	4999
847.294	5064
847.429	5075
847.565	5014
847.701	5303
847.837	4847
847.972	4763
848.108	4938
848.244	4870
848.379	4797
848.515	4694
848.65	4691
848.786	4725
848.921	4771
849.057	4862
849.192	4900
849.328	4774
849.463	4831
849.598	4782
849.734	4767
849.869	4694
850.004	4660
850.14	4672
850.275	4649
850.41	4527
850.545	4531
850.68	4558
850.815	4637
850.95	4603
851.085	4820
851.22	4725
851.355	4691
851.49	4596
851.625	4569
851.76	4691
851.895	4527
852.03	4504
852.165	4618
852.299	4717
852.434	4767
852.569	4683
852.703	4717
852.838	4835
852.973	4976
853.107	4889
853.242	4706
853.376	4653
853.511	4546
853.645	4630
853.78	4763
853.914	4714
854.048	4664
854.183	4634
854.317	4706
854.451	4812
854.585	4656
854.72	4683
854.854	4801
854.988	4599
855.122	4615
855.256	4519
855.39	4645
855.524	4797
855.658	4752
855.792	4706
855.926	4721
856.06	4774
856.194	4782
856.327	4656
856.461	4649
856.595	4611
856.729	4626
856.862	4763
856.996	4683
857.13	4694
857.263	4717
857.397	4755
857.53	4656
857.664	4694
857.797	4736
857.931	4774
858.064	4645
858.197	4675
858.331	4660
858.464	4611
858.597	4497
858.731	4637
858.864	4584
858.997	4573
859.13	4656
859.263	4675
859.396	4752
859.529	4615
859.662	4565
859.795	4565
859.928	4630
860.061	4740
860.194	4793
860.327	4607
860.46	4588
860.592	4664
860.725	4736
860.858	4744
860.99	4603
861.123	4485
861.256	4493
861.388	4615
861.521	5178
861.653	4478
861.786	4455
861.918	4455
862.05	4516
862.183	4519
862.315	4561
862.447	4599
862.58	4512
862.712	4375
862.844	4272
862.976	4497
863.108	4455
863.24	4858
863.372	4306
863.504	4417
863.636	4371
863.768	4455
863.9	4443
864.032	4417
864.164	4383
864.296	4436
864.428	4542
864.559	4542
864.691	4516
864.823	4478
864.954	4481
865.086	4500
865.217	4466
865.349	4443
865.48	4451
865.612	4474
865.743	4592
865.875	4421
866.006	4409
866.137	4428
866.269	4462
866.4	4455
866.531	4413
866.662	4398
866.793	4424
866.924	4436
867.055	4478
867.186	4440
867.317	4421
867.448	4333
867.579	4383
867.71	4363
867.841	4375
867.972	4474
868.103	4455
868.233	4462
868.364	4440
868.495	4455
868.625	4656
868.756	4778
868.886	4527
869.017	4584
869.147	4729
869.278	4736
869.408	4630
869.539	4615
869.669	4702
869.799	4660
869.929	4733
870.06	4710
870.19	4934
870.32	4965
870.45	4911
870.58	5003
870.71	5090
870.84	5083
870.97	4919
871.1	4896
871.23	5151
871.36	5079
871.489	5014
871.619	5048
871.749	5014
871.879	5113
872.008	5143
872.138	5041
872.267	4953
872.397	4873
872.526	4774
872.656	4691
872.785	4828
872.915	4957
873.044	5003
873.173	4934
873.303	4896
873.432	4938
873.561	4957
873.69	4843
873.819	4839
873.948	4892
874.077	4763
874.206	4698
874.335	4752
874.464	4938
874.593	5105
874.722	4946
874.851	5071
874.979	5037
875.108	5037
875.237	4919
875.365	4877
875.494	4847
875.623	5018
875.751	4828
875.88	4854
876.008	4976
876.136	4987
876.265	5140
876.393	5269
876.521	5292
876.65	5185
876.778	5143
876.906	5029
877.034	4980
877.162	5010
877.29	4987
877.418	5037
877.546	5045
877.674	5041
877.802	5048
877.93	4999
878.058	4938
878.185	4900
878.313	4957
878.441	4908
878.568	4831
878.696	4843
878.824	4904
878.951	5010
879.079	5143
879.206	5254
879.333	5075
879.461	4984
879.588	4972
879.715	5090
879.842	5174
879.97	4999
880.097	4816
880.224	4683
880.351	4778
880.478	4805
880.605	4816
880.732	4812
880.859	5086
880.986	4870
881.112	4870
881.239	4748
881.366	4611
881.493	4607
881.619	4573
881.746	4607
881.872	4615
881.999	4622
882.125	4611
882.252	4748
882.378	4816
882.505	4934
882.631	4812
882.757	4698
882.883	4733
883.01	4710
883.136	4637
883.262	4649
883.388	4615
883.514	4771
883.64	4816
883.766	4805
883.892	4714
884.018	4774
884.143	4904
884.269	4980
884.395	4694
884.52	4580
884.646	4615
884.772	4618
884.897	4554
885.023	4660
885.148	4759
885.274	4847
885.399	4828
885.524	4641
885.65	4694
885.775	4752
885.9	4744
886.025	4824
886.15	4801
886.275	4706
886.4	4672
886.525	4679
886.65	4675
886.775	4694
886.9	4904
887.025	5052
887.149	4812
887.274	4626
887.399	4527
887.523	4588
887.648	4573
887.773	4580
887.897	4744
888.021	4763
888.146	4653
888.27	4786
888.395	4923
888.519	4752
888.643	4809
888.767	4820
888.891	4672
889.015	4577
889.139	4645
889.263	4569
889.387	4710
889.511	4839
889.635	4786
889.759	4546
889.883	4641
890.006	4752
890.13	4824
890.254	4577
890.377	4618
890.501	4519
890.624	4542
890.748	4622
890.871	4489
890.995	4424
891.118	4363
891.241	4466
891.364	4531
891.488	4592
891.611	4470
891.734	4535
891.857	4584
891.98	4527
892.103	4618
892.226	4561
892.349	4519
892.471	4421
892.594	4523
892.717	4550
892.839	4599
892.962	4599
893.085	4626
893.207	4565
893.33	4424
893.452	4508
893.575	4679
893.697	4554
893.819	4778
893.941	4809
894.064	4706
894.186	4493
894.308	4535
894.43	4710
894.552	4786
894.674	4736
894.796	4569
894.918	4523
895.04	4558
895.161	4649
895.283	4641
895.405	4626
895.526	4641
895.648	4698
895.769	4683
895.891	4656
896.012	4694
896.134	4683
896.255	4698
896.376	4611
896.498	4611
896.619	4611
896.74	4660
896.861	4637
896.982	4877
897.103	5048
897.224	4850
897.345	4767
897.466	4603
897.587	4763
897.708	4873
897.828	4771
897.949	4664
898.07	4508
898.19	4626
898.311	4816
898.431	4675
898.552	4698
898.672	4797
898.792	4782
898.913	4683
899.033	4588
899.153	4466
899.273	4409
899.393	4470
899.513	4527
899.633	4489
899.753	4489
899.873	4466
899.993	4546
900.113	4580
900.232	4588
900.352	4508
900.472	4424
900.591	4371
900.711	4432
900.83	4390
900.95	4569
901.069	4660
901.189	4508
901.308	4379
901.427	4253
901.546	4390
901.665	4405
901.784	4489
901.904	4344
902.023	4310
902.141	4162
902.26	4181
902.379	4249
902.498	4188
902.617	4211
902.735	4371
902.854	4344
902.973	4383
903.091	4192
903.21	4227
903.328	4295
903.446	4249
903.565	4265
903.683	4280
903.801	4257
903.919	4379
904.038	4413
904.156	4314
904.274	4409
904.392	4409
904.51	4409
904.627	4413
904.745	4573
904.863	4599
904.981	4356
905.098	4325
905.216	4333
905.334	4451
905.451	4421
905.569	4417
905.686	4580
905.803	4561
905.921	4409
906.038	4546
906.155	4481
906.272	4386
906.389	4466
906.506	4352
906.623	4352
906.74	4348
906.857	4348
906.974	4344
907.091	4592
907.208	4645
907.324	4565
907.441	4535
907.557	4379
907.674	4379
907.79	4314
907.907	4375
908.023	4489
908.139	4455
908.256	4417
908.372	4519
908.488	4462
908.604	4375
908.72	4375
908.836	4405
908.952	4413
909.068	4428
909.184	4622
909.3	4508
909.415	4626
909.531	4611
909.647	4398
909.762	4424
909.878	4348
909.993	4493
910.108	4428
910.224	4455
910.339	4538
910.454	4440
910.57	4405
910.685	4306
910.8	4634
910.915	4622
911.03	4538
911.145	4398
911.259	4379
911.374	4409
911.489	4310
911.604	4310
911.718	4185
911.833	4242
911.947	4131
912.062	4048
912.176	4253
912.291	4280
912.405	4318
912.519	4504
912.633	4542
912.748	4428
912.862	4352
912.976	4303
913.09	4109
913.204	4185
913.318	4287
913.431	4398
913.545	4405
913.659	4485
913.772	4386
913.886	4261
914	4253
914.113	4413
914.226	4455
914.34	4436
914.453	4268
914.566	4485
914.68	4314
914.793	4371
914.906	4238
915.019	4204
915.132	4109
915.245	4246
915.358	4219
915.47	4215
915.583	4280
915.696	4363
915.809	4447
915.921	4432
916.034	4299
916.146	4276
916.259	4249
916.371	4367
916.483	4432
916.595	4299
916.708	4367
916.82	4379
916.932	4344
917.044	4383
917.156	4337
917.268	4257
917.38	4333
917.491	4280
917.603	4398
917.715	4455
917.826	4466
917.938	4371
918.049	4261
918.161	4443
918.272	4561
918.384	4580
918.495	4447
918.606	4333
918.717	4261
918.828	4356
918.939	4440
919.05	4291
919.161	4356
919.272	4154
919.383	4257
919.494	4500
919.604	4637
919.715	4466
919.826	4417
919.936	4443
920.047	4523
920.157	4481
920.267	4752
920.378	4626
920.488	4497
920.598	4717
920.708	4904
920.818	4809
920.928	4816
921.038	4938
921.148	4953
921.258	4672
921.368	4599
921.477	4542
921.587	4508
921.697	4409
921.806	4554
921.916	4481
922.025	4287
922.134	4318
922.244	4211
922.353	4360
922.462	4173
922.571	4162
922.68	4071
922.789	4021
922.898	4055
923.007	4032
923.116	4124
923.224	4112
923.333	4074
923.442	3991
923.55	3964
923.659	4017
923.767	4105
923.876	4002
923.984	4166
924.092	4032
924.201	4116
924.309	4105
924.417	4150
924.525	4063
924.633	4124
924.741	5041
924.849	3979
924.956	4158
925.064	4006
925.172	3945
925.279	4013
925.387	4109
925.494	4078
925.602	4242
925.709	4200
925.816	4036
925.924	4166
926.031	4257
926.138	4230
926.245	4246
926.352	4112
926.459	4200
926.566	4356
926.673	4169
926.779	4135
926.886	4082
926.993	4002
927.099	3979
927.206	3983
927.312	3945
927.419	4105
927.525	4078
927.631	4067
927.737	3972
927.843	3975
927.95	3835
928.056	3994
928.162	3994
928.267	4120
928.373	4710
928.479	4173
928.585	3907
928.69	4074
928.796	4109
928.901	4025
929.007	3861
929.112	4040
929.218	4021
929.323	3998
929.428	3979
929.533	4139
929.638	3918
929.743	3998
929.848	4040
929.953	4036
930.058	3922
930.163	3816
930.267	3903
930.372	3972
930.477	3835
930.581	4112
930.685	3979
930.79	3823
930.894	3926
930.998	3884
931.103	4055
931.207	3728
931.311	3720
931.415	3736
931.519	3564
931.623	3584
