Data from test_V78500241_2252.txt Node
Date: Fri Mar 25 17:04:39 CST 2022
User: usil
Spectrometer: V785-0024
Trigger mode: 0
Integration Time (sec): 4.000000E-1
Scans to average: 1
Nonlinearity correction enabled: false
Boxcar width: 0
Storing dark spectrum: false
XAxis mode: Wavelengths
Number of Pixels in Spectrum: 1024
>>>>>Begin Spectral Data<<<<<
801.071	8054
801.214	8008
801.356	7868
801.499	7837
801.641	7841
801.783	7784
801.926	8046
802.068	7974
802.211	8016
802.353	8035
802.496	7856
802.638	7841
802.78	7871
802.923	7959
803.065	7814
803.208	7833
803.35	7947
803.492	8069
803.635	8180
803.777	8081
803.919	8138
804.061	8488
804.204	8126
804.346	8035
804.488	7970
804.63	8081
804.773	7982
804.915	8065
805.057	8370
805.199	8176
805.341	8229
805.483	8309
805.626	8244
805.768	8142
805.91	8248
806.052	8134
806.194	8092
806.336	8286
806.478	8103
806.62	8062
806.762	8130
806.904	8229
807.046	8400
807.188	8271
807.33	8263
807.472	8370
807.614	8138
807.756	8153
807.898	7986
808.04	7913
808.182	7826
808.324	7909
808.465	7925
808.607	8035
808.749	8130
808.891	8168
809.033	8275
809.174	8271
809.316	8065
809.458	8145
809.6	8035
809.741	8039
809.883	8073
810.025	8183
810.166	8088
810.308	8054
810.45	8027
810.591	7860
810.733	7708
810.875	7616
811.016	7483
811.158	7445
811.299	7525
811.441	7674
811.582	7677
811.724	7632
811.865	7521
812.007	7647
812.148	7628
812.29	7643
812.431	7715
812.573	7837
812.714	8035
812.855	8187
812.997	8248
813.138	8271
813.279	8157
813.421	8077
813.562	8001
813.703	7814
813.845	7776
813.986	7445
814.127	7247
814.268	7179
814.41	7141
814.551	7175
814.692	7198
814.833	7072
814.974	7072
815.115	7133
815.256	6996
815.397	7004
815.539	6920
815.68	6806
815.821	6730
815.962	6810
816.103	6768
816.244	6722
816.385	6639
816.526	6589
816.666	6490
816.807	6296
816.948	6429
817.089	6486
817.23	6448
817.371	6410
817.512	6410
817.653	6369
817.793	6429
817.934	6414
818.075	6464
818.216	6464
818.356	6422
818.497	6296
818.638	6125
818.778	6205
818.919	6171
819.06	6159
819.2	6315
819.341	6323
819.481	6357
819.622	6570
819.762	6779
819.903	6738
820.043	6582
820.184	6582
820.324	6528
820.465	6696
820.605	6692
820.746	6623
820.886	6540
821.026	6642
821.167	6673
821.307	6772
821.447	6776
821.588	6665
821.728	6570
821.868	6486
822.008	6353
822.149	6369
822.289	6308
822.429	6178
822.569	6133
822.709	6121
822.849	5950
822.99	5904
823.13	5878
823.27	5878
823.41	5756
823.55	5726
823.69	5821
823.83	5794
823.97	5665
824.11	5524
824.25	5486
824.389	5558
824.529	5596
824.669	5501
824.809	5649
824.949	5646
825.089	5619
825.228	5543
825.368	5379
825.508	5410
825.648	5353
825.787	5318
825.927	5360
826.067	5269
826.206	5311
826.346	5410
826.485	5429
826.625	5459
826.765	5566
826.904	5505
827.044	5239
827.183	5231
827.323	5105
827.462	5231
827.601	5189
827.741	5170
827.88	5242
828.02	5113
828.159	5258
828.298	5311
828.437	5402
828.577	5277
828.716	5505
828.855	5299
828.994	5185
829.134	5147
829.273	5189
829.412	5181
829.551	5136
829.69	5212
829.829	5273
829.968	5433
830.107	5311
830.246	5280
830.385	5178
830.524	5159
830.663	5117
830.802	5025
830.941	4904
831.08	4889
831.219	4984
831.357	4995
831.496	5220
831.635	4991
831.774	4866
831.913	4885
832.051	4767
832.19	4809
832.329	4835
832.467	4759
832.606	4714
832.744	4721
832.883	4809
833.022	4729
833.16	4809
833.299	4877
833.437	4843
833.576	4885
833.714	4896
833.852	4904
833.991	4961
834.129	4984
834.267	5037
834.406	4949
834.544	5056
834.682	5067
834.821	4999
834.959	5189
835.097	5003
835.235	5170
835.373	5105
835.511	5033
835.65	5086
835.788	5079
835.926	4942
836.064	4930
836.202	4980
836.34	5216
836.478	5273
836.615	5151
836.753	5322
836.891	5345
837.029	5311
837.167	5258
837.305	5170
837.443	5166
837.58	5132
837.718	5330
837.856	5235
837.993	5204
838.131	5315
838.269	5273
838.406	5227
838.544	5212
838.681	5109
838.819	5033
838.956	4930
839.094	4934
839.231	4987
839.369	5124
839.506	5471
839.643	5303
839.781	5113
839.918	5102
840.055	5094
840.193	5140
840.33	5124
840.467	5216
840.604	5197
840.742	5490
840.879	5052
841.016	5147
841.153	5212
841.29	5372
841.427	5383
841.564	5337
841.701	5425
841.838	5303
841.975	5265
842.112	5341
842.249	5193
842.385	5155
842.522	5417
842.659	5197
842.796	5155
842.933	5216
843.069	5193
843.206	5178
843.343	5330
843.479	5284
843.616	5296
843.752	5075
843.889	5075
844.025	5242
844.162	5010
844.298	5254
844.435	5121
844.571	5117
844.708	5269
844.844	5345
844.98	5383
845.117	5307
845.253	5151
845.389	5136
845.525	5242
845.661	5174
845.798	5090
845.934	5136
846.07	5136
846.206	5277
846.342	5315
846.478	5128
846.614	5037
846.75	4995
846.886	5010
847.022	5185
847.158	5067
847.294	5113
847.429	5136
847.565	5098
847.701	5360
847.837	4847
847.972	4820
848.108	4984
848.244	4984
848.379	4797
848.515	4755
848.65	4702
848.786	4790
848.921	4858
849.057	4881
849.192	4976
849.328	4843
849.463	4896
849.598	4797
849.734	4801
849.869	4710
850.004	4645
850.14	4710
850.275	4630
850.41	4561
850.545	4626
850.68	4660
850.815	4615
850.95	4683
851.085	4824
851.22	4759
851.355	4683
851.49	4675
851.625	4710
851.76	4698
851.895	4596
852.03	4569
852.165	4626
852.299	4763
852.434	4782
852.569	4812
852.703	4801
852.838	4858
852.973	4919
853.107	4900
853.242	4748
853.376	4679
853.511	4611
853.645	4603
853.78	4820
853.914	4702
854.048	4653
854.183	4714
854.317	4679
854.451	4934
854.585	4714
854.72	4698
854.854	4755
854.988	4611
855.122	4622
855.256	4565
855.39	4733
855.524	4850
855.658	4744
855.792	4714
855.926	4763
856.06	4771
856.194	4858
856.327	4672
856.461	4675
856.595	4656
856.729	4653
856.862	4786
856.996	4717
857.13	4725
857.263	4778
857.397	4843
857.53	4706
857.664	4729
857.797	4774
857.931	4835
858.064	4672
858.197	4740
858.331	4683
858.464	4668
858.597	4596
858.731	4641
858.864	4687
858.997	4618
859.13	4694
859.263	4694
859.396	4698
859.529	4637
859.662	4561
859.795	4577
859.928	4634
860.061	4820
860.194	4767
860.327	4630
860.46	4588
860.592	4748
860.725	4740
860.858	4763
860.99	4573
861.123	4546
861.256	4550
861.388	4634
861.521	5326
861.653	4516
861.786	4462
861.918	4500
862.05	4519
862.183	4558
862.315	4645
862.447	4694
862.58	4573
862.712	4497
862.844	4398
862.976	4489
863.108	4474
863.24	4911
863.372	4371
863.504	4443
863.636	4462
863.768	4500
863.9	4478
864.032	4402
864.164	4428
864.296	4508
864.428	4626
864.559	4588
864.691	4504
864.823	4573
864.954	4474
865.086	4531
865.217	4470
865.349	4432
865.48	4455
865.612	4542
865.743	4702
865.875	4508
866.006	4443
866.137	4481
866.269	4470
866.4	4413
866.531	4474
866.662	4466
866.793	4383
866.924	4436
867.055	4493
867.186	4474
867.317	4428
867.448	4379
867.579	4462
867.71	4405
867.841	4367
867.972	4459
868.103	4478
868.233	4481
868.364	4443
868.495	4508
868.625	4736
868.756	4771
868.886	4607
869.017	4679
869.147	4805
869.278	4801
869.408	4687
869.539	4618
869.669	4729
869.799	4702
869.929	4752
870.06	4748
870.19	4999
870.32	4972
870.45	4953
870.58	5060
870.71	5132
870.84	5147
870.97	4934
871.1	4953
871.23	5181
871.36	5121
871.489	5060
871.619	5143
871.749	5048
871.879	5170
872.008	5159
872.138	5067
872.267	4995
872.397	4892
872.526	4786
872.656	4759
872.785	4801
872.915	4957
873.044	5098
873.173	4946
873.303	4957
873.432	4987
873.561	4953
873.69	4923
873.819	4870
873.948	4930
874.077	4843
874.206	4805
874.335	4790
874.464	4972
874.593	5003
874.722	5003
874.851	5083
874.979	5056
875.108	5022
875.237	4953
875.365	4900
875.494	4938
875.623	4957
875.751	4900
875.88	4930
876.008	5018
876.136	5041
876.265	5235
876.393	5376
876.521	5246
876.65	5231
876.778	5197
876.906	5075
877.034	5018
877.162	5014
877.29	4999
877.418	5060
877.546	5037
877.674	5060
877.802	5094
877.93	5075
878.058	4930
878.185	4889
878.313	4999
878.441	4987
878.568	4797
878.696	4885
878.824	4980
878.951	4984
879.079	5136
879.206	5311
879.333	5166
879.461	5010
879.588	5006
879.715	5117
879.842	5280
879.97	4965
880.097	4755
880.224	4733
880.351	4816
880.478	4870
880.605	4778
880.732	4850
880.859	5071
880.986	4896
881.112	4919
881.239	4786
881.366	4729
881.493	4668
881.619	4615
881.746	4664
881.872	4653
881.999	4710
882.125	4729
882.252	4790
882.378	4873
882.505	4957
882.631	4870
882.757	4675
882.883	4767
883.01	4763
883.136	4717
883.262	4592
883.388	4645
883.514	4854
883.64	4919
883.766	4774
883.892	4668
884.018	4736
884.143	4885
884.269	4995
884.395	4714
884.52	4626
884.646	4656
884.772	4554
884.897	4558
885.023	4694
885.148	4824
885.274	4892
885.399	4835
885.524	4736
885.65	4748
885.775	4744
885.9	4714
886.025	4866
886.15	4850
886.275	4763
886.4	4664
886.525	4729
886.65	4691
886.775	4744
886.9	4946
887.025	5014
887.149	4793
887.274	4675
887.399	4611
887.523	4622
887.648	4603
887.773	4618
887.897	4759
888.021	4809
888.146	4774
888.27	4809
888.395	4896
888.519	4816
888.643	4847
888.767	4885
888.891	4653
889.015	4573
889.139	4679
889.263	4622
889.387	4786
889.511	4885
889.635	4797
889.759	4637
889.883	4679
890.006	4736
890.13	4854
890.254	4656
890.377	4672
890.501	4596
890.624	4538
890.748	4645
890.871	4527
890.995	4432
891.118	4413
891.241	4554
891.364	4580
891.488	4664
891.611	4493
891.734	4573
891.857	4603
891.98	4577
892.103	4702
892.226	4622
892.349	4523
892.471	4497
892.594	4542
892.717	4611
892.839	4580
892.962	4592
893.085	4668
893.207	4656
893.33	4432
893.452	4531
893.575	4675
893.697	4565
893.819	4790
893.941	4812
894.064	4793
894.186	4550
894.308	4645
894.43	4725
894.552	4820
894.674	4790
894.796	4588
894.918	4599
895.04	4603
895.161	4755
895.283	4683
895.405	4592
895.526	4634
895.648	4774
895.769	4645
895.891	4729
896.012	4786
896.134	4759
896.255	4687
896.376	4622
896.498	4592
896.619	4668
896.74	4649
896.861	4691
896.982	4923
897.103	5102
897.224	4812
897.345	4790
897.466	4740
897.587	4721
897.708	4790
897.828	4812
897.949	4679
898.07	4546
898.19	4660
898.311	4801
898.431	4717
898.552	4759
898.672	4866
898.792	4801
898.913	4786
899.033	4653
899.153	4474
899.273	4424
899.393	4474
899.513	4519
899.633	4550
899.753	4554
899.873	4489
899.993	4592
900.113	4535
900.232	4626
900.352	4577
900.472	4489
900.591	4424
900.711	4470
900.83	4424
900.95	4615
901.069	4668
901.189	4565
901.308	4363
901.427	4344
901.546	4363
901.665	4440
901.784	4516
901.904	4367
902.023	4329
902.141	4162
902.26	4211
902.379	4295
902.498	4238
902.617	4257
902.735	4363
902.854	4371
902.973	4325
903.091	4223
903.21	4211
903.328	4337
903.446	4276
903.565	4276
903.683	4341
903.801	4265
903.919	4371
904.038	4421
904.156	4333
904.274	4443
904.392	4424
904.51	4432
904.627	4489
904.745	4622
904.863	4668
904.981	4398
905.098	4287
905.216	4344
905.334	4402
905.451	4417
905.569	4432
905.686	4561
905.803	4599
905.921	4413
906.038	4516
906.155	4466
906.272	4344
906.389	4474
906.506	4371
906.623	4348
906.74	4405
906.857	4325
906.974	4390
907.091	4565
907.208	4714
907.324	4584
907.441	4519
907.557	4379
907.674	4417
907.79	4306
907.907	4394
908.023	4516
908.139	4512
908.256	4447
908.372	4455
908.488	4497
908.604	4379
908.72	4306
908.836	4383
908.952	4363
909.068	4417
909.184	4596
909.3	4451
909.415	4611
909.531	4516
909.647	4394
909.762	4417
909.878	4333
909.993	4478
910.108	4394
910.224	4432
910.339	4466
910.454	4421
910.57	4390
910.685	4329
910.8	4660
910.915	4630
911.03	4485
911.145	4348
911.259	4383
911.374	4341
911.489	4284
911.604	4280
911.718	4147
911.833	4169
911.947	4090
912.062	4059
912.176	4211
912.291	4246
912.405	4253
912.519	4497
912.633	4512
912.748	4390
912.862	4287
912.976	4211
913.09	4067
913.204	4166
913.318	4287
913.431	4337
913.545	4371
913.659	4424
913.772	4398
913.886	4204
914	4249
914.113	4409
914.226	4417
914.34	4402
914.453	4272
914.566	4466
914.68	4314
914.793	4337
914.906	4093
915.019	4135
915.132	4071
915.245	4200
915.358	4219
915.47	4265
915.583	4295
915.696	4333
915.809	4398
915.921	4417
916.034	4276
916.146	4227
916.259	4200
916.371	4371
916.483	4360
916.595	4287
916.708	4344
916.82	4348
916.932	4322
917.044	4310
917.156	4333
917.268	4234
917.38	4227
917.491	4261
917.603	4383
917.715	4432
917.826	4489
917.938	4337
918.049	4284
918.161	4371
918.272	4508
918.384	4565
918.495	4466
918.606	4341
918.717	4287
918.828	4325
918.939	4314
919.05	4280
919.161	4287
919.272	4188
919.383	4268
919.494	4428
919.604	4599
919.715	4447
919.826	4371
919.936	4352
920.047	4554
920.157	4531
920.267	4687
920.378	4512
920.488	4500
920.598	4683
920.708	4889
920.818	4759
920.928	4717
921.038	4938
921.148	4889
921.258	4668
921.368	4542
921.477	4497
921.587	4497
921.697	4386
921.806	4550
921.916	4405
922.025	4234
922.134	4314
922.244	4223
922.353	4306
922.462	4169
922.571	4131
922.68	4017
922.789	3937
922.898	4063
923.007	4025
923.116	4109
923.224	4071
923.333	4101
923.442	3983
923.55	3953
923.659	4063
923.767	4105
923.876	4017
923.984	4093
924.092	3972
924.201	4093
924.309	4158
924.417	4185
924.525	4063
924.633	4116
924.741	4987
924.849	3899
924.956	4105
925.064	3899
925.172	3899
925.279	3975
925.387	4044
925.494	4059
925.602	4223
925.709	4150
925.816	4048
925.924	4181
926.031	4242
926.138	4181
926.245	4173
926.352	4097
926.459	4253
926.566	4329
926.673	4166
926.779	4063
926.886	4059
926.993	3899
927.099	3964
927.206	3937
927.312	3918
927.419	4055
927.525	4025
927.631	4109
927.737	3998
927.843	3968
927.95	3861
928.056	3926
928.162	3979
928.267	4013
928.373	4660
928.479	4097
928.585	3911
928.69	4006
928.796	4078
928.901	3987
929.007	3842
929.112	3968
929.218	3960
929.323	3960
929.428	3926
929.533	4139
929.638	3945
929.743	3930
929.848	4063
929.953	4025
930.058	3922
930.163	3816
930.267	3800
930.372	3968
930.477	3793
930.581	4036
930.685	3941
930.79	3789
930.894	3907
930.998	3838
931.103	4055
931.207	3709
931.311	3690
931.415	3671
931.519	3519
931.623	3572
