Data from test_V78500241_235.txt Node
Date: Fri Mar 25 16:50:38 CST 2022
User: usil
Spectrometer: V785-0024
Trigger mode: 0
Integration Time (sec): 4.000000E-1
Scans to average: 1
Nonlinearity correction enabled: false
Boxcar width: 0
Storing dark spectrum: false
XAxis mode: Wavelengths
Number of Pixels in Spectrum: 1024
>>>>>Begin Spectral Data<<<<<
801.071	8069
801.214	8046
801.356	7849
801.499	7845
801.641	7807
801.783	7814
801.926	8027
802.068	7959
802.211	7959
802.353	7982
802.496	7826
802.638	7856
802.78	7894
802.923	7936
803.065	7788
803.208	7807
803.35	7967
803.492	8073
803.635	8145
803.777	7951
803.919	8084
804.061	8480
804.204	8111
804.346	7989
804.488	7932
804.63	8073
804.773	7959
804.915	8126
805.057	8252
805.199	8149
805.341	8210
805.483	8267
805.626	8263
805.768	8024
805.91	8126
806.052	8153
806.194	8092
806.336	8298
806.478	8035
806.62	8100
806.762	8046
806.904	8157
807.046	8427
807.188	8366
807.33	8195
807.472	8282
807.614	8153
807.756	8111
807.898	7932
808.04	7856
808.182	7879
808.324	7871
808.465	7932
808.607	8073
808.749	8100
808.891	8210
809.033	8279
809.174	8176
809.316	8043
809.458	8084
809.6	7997
809.741	8050
809.883	8012
810.025	8062
810.166	8069
810.308	8005
810.45	7967
810.591	7871
810.733	7757
810.875	7628
811.016	7502
811.158	7563
811.299	7567
811.441	7693
811.582	7761
811.724	7586
811.865	7521
812.007	7605
812.148	7567
812.29	7632
812.431	7776
812.573	7871
812.714	7993
812.855	8172
812.997	8214
813.138	8328
813.279	8176
813.421	8145
813.562	7986
813.703	7799
813.845	7727
813.986	7422
814.127	7213
814.268	7232
814.41	7236
814.551	7156
814.692	7190
814.833	7122
814.974	7088
815.115	7091
815.256	7000
815.397	6989
815.539	6973
815.68	6795
815.821	6764
815.962	6787
816.103	6764
816.244	6776
816.385	6662
816.526	6593
816.666	6536
816.807	6308
816.948	6399
817.089	6433
817.23	6467
817.371	6369
817.512	6399
817.653	6407
817.793	6350
817.934	6380
818.075	6456
818.216	6407
818.356	6414
818.497	6254
818.638	6030
818.778	6110
818.919	6133
819.06	6102
819.2	6331
819.341	6296
819.481	6334
819.622	6547
819.762	6726
819.903	6738
820.043	6570
820.184	6616
820.324	6547
820.465	6612
820.605	6635
820.746	6631
820.886	6422
821.026	6585
821.167	6646
821.307	6719
821.447	6696
821.588	6654
821.728	6601
821.868	6517
822.008	6296
822.149	6361
822.289	6353
822.429	6186
822.569	6140
822.709	6110
822.849	5901
822.99	5923
823.13	5863
823.27	5980
823.41	5783
823.55	5756
823.69	5752
823.83	5813
823.97	5695
824.11	5516
824.25	5573
824.389	5558
824.529	5543
824.669	5539
824.809	5653
824.949	5665
825.089	5570
825.228	5520
825.368	5387
825.508	5334
825.648	5334
825.787	5379
825.927	5364
826.067	5296
826.206	5311
826.346	5353
826.485	5379
826.625	5398
826.765	5539
826.904	5501
827.044	5189
827.183	5254
827.323	5098
827.462	5239
827.601	5193
827.741	5239
827.88	5204
828.02	5136
828.159	5201
828.298	5296
828.437	5337
828.577	5261
828.716	5520
828.855	5307
828.994	5166
829.134	5143
829.273	5216
829.412	5151
829.551	5132
829.69	5147
829.829	5239
829.968	5383
830.107	5246
830.246	5250
830.385	5181
830.524	5117
830.663	5102
830.802	4995
830.941	4866
831.08	4877
831.219	4904
831.357	4946
831.496	5178
831.635	4957
831.774	4862
831.913	4831
832.051	4729
832.19	4767
832.329	4809
832.467	4660
832.606	4641
832.744	4702
832.883	4778
833.022	4767
833.16	4835
833.299	4793
833.437	4862
833.576	4805
833.714	4904
833.852	4854
833.991	4896
834.129	4946
834.267	4927
834.406	4915
834.544	4934
834.682	5033
834.821	5010
834.959	5094
835.097	5033
835.235	5155
835.373	5022
835.511	5090
835.65	5079
835.788	5025
835.926	4873
836.064	4866
836.202	4949
836.34	5178
836.478	5185
836.615	5136
836.753	5185
836.891	5299
837.029	5254
837.167	5254
837.305	5151
837.443	5113
837.58	5086
837.718	5220
837.856	5189
837.993	5155
838.131	5288
838.269	5212
838.406	5208
838.544	5204
838.681	5033
838.819	5022
838.956	4889
839.094	4892
839.231	4972
839.369	5075
839.506	5448
839.643	5258
839.781	5052
839.918	4995
840.055	5140
840.193	5060
840.33	5128
840.467	5140
840.604	5181
840.742	5387
840.879	5102
841.016	5102
841.153	5140
841.29	5402
841.427	5318
841.564	5315
841.701	5395
841.838	5258
841.975	5292
842.112	5242
842.249	5094
842.385	5094
842.522	5334
842.659	5185
842.796	5174
842.933	5151
843.069	5124
843.206	5185
843.343	5284
843.479	5250
843.616	5288
843.752	5029
843.889	5029
844.025	5239
844.162	5037
844.298	5231
844.435	5094
844.571	5056
844.708	5166
844.844	5299
844.98	5322
845.117	5265
845.253	5128
845.389	5041
845.525	5159
845.661	5170
845.798	5094
845.934	5159
846.07	5029
846.206	5181
846.342	5292
846.478	5166
846.614	5060
846.75	5006
846.886	4946
847.022	5151
847.158	5006
847.294	5014
847.429	5056
847.565	5075
847.701	5330
847.837	4816
847.972	4816
848.108	4946
848.244	5003
848.379	4771
848.515	4714
848.65	4721
848.786	4721
848.921	4767
849.057	4816
849.192	4919
849.328	4805
849.463	4854
849.598	4767
849.734	4774
849.869	4717
850.004	4630
850.14	4679
850.275	4626
850.41	4535
850.545	4630
850.68	4641
850.815	4618
850.95	4611
851.085	4870
851.22	4733
851.355	4672
851.49	4588
851.625	4653
851.76	4626
851.895	4519
852.03	4550
852.165	4649
852.299	4714
852.434	4797
852.569	4759
852.703	4755
852.838	4824
852.973	4938
853.107	4938
853.242	4702
853.376	4641
853.511	4527
853.645	4577
853.78	4797
853.914	4683
854.048	4687
854.183	4626
854.317	4660
854.451	4763
854.585	4698
854.72	4645
854.854	4771
854.988	4565
855.122	4618
855.256	4550
855.39	4634
855.524	4790
855.658	4717
855.792	4618
855.926	4740
856.06	4721
856.194	4763
856.327	4721
856.461	4626
856.595	4637
856.729	4592
856.862	4729
856.996	4702
857.13	4740
857.263	4774
857.397	4828
857.53	4656
857.664	4786
857.797	4744
857.931	4767
858.064	4721
858.197	4790
858.331	4615
858.464	4599
858.597	4546
858.731	4641
858.864	4592
858.997	4626
859.13	4672
859.263	4672
859.396	4714
859.529	4565
859.662	4577
859.795	4504
859.928	4675
860.061	4782
860.194	4767
860.327	4637
860.46	4573
860.592	4698
860.725	4714
860.858	4740
860.99	4603
861.123	4527
861.256	4554
861.388	4599
861.521	5444
861.653	4424
861.786	4398
861.918	4455
862.05	4535
862.183	4531
862.315	4626
862.447	4615
862.58	4519
862.712	4402
862.844	4367
862.976	4504
863.108	4459
863.24	4908
863.372	4322
863.504	4398
863.636	4367
863.768	4493
863.9	4436
864.032	4390
864.164	4470
864.296	4493
864.428	4550
864.559	4588
864.691	4508
864.823	4542
864.954	4485
865.086	4500
865.217	4424
865.349	4405
865.48	4440
865.612	4489
865.743	4683
865.875	4424
866.006	4413
866.137	4451
866.269	4440
866.4	4424
866.531	4398
866.662	4383
866.793	4455
866.924	4402
867.055	4535
867.186	4474
867.317	4409
867.448	4371
867.579	4360
867.71	4398
867.841	4379
867.972	4462
868.103	4459
868.233	4451
868.364	4432
868.495	4493
868.625	4649
868.756	4748
868.886	4561
869.017	4611
869.147	4759
869.278	4831
869.408	4641
869.539	4599
869.669	4736
869.799	4645
869.929	4797
870.06	4755
870.19	4972
870.32	4911
870.45	4961
870.58	5075
870.71	5098
870.84	5079
870.97	4984
871.1	4919
871.23	5132
871.36	5162
871.489	4972
871.619	5083
871.749	5086
871.879	5185
872.008	5159
872.138	5079
872.267	4991
872.397	4839
872.526	4831
872.656	4744
872.785	4790
872.915	4957
873.044	5033
873.173	4915
873.303	4972
873.432	4930
873.561	4942
873.69	4896
873.819	4854
873.948	4900
874.077	4816
874.206	4771
874.335	4820
874.464	4930
874.593	5048
874.722	4972
874.851	5098
874.979	5090
875.108	5056
875.237	4942
875.365	4908
875.494	4854
875.623	5022
875.751	4824
875.88	4862
876.008	4961
876.136	5006
876.265	5166
876.393	5410
876.521	5258
876.65	5254
876.778	5102
876.906	5098
877.034	5003
877.162	5056
877.29	4991
877.418	5052
877.546	5014
877.674	5060
877.802	4999
877.93	5006
878.058	4968
878.185	4889
878.313	4949
878.441	4957
878.568	4801
878.696	4915
878.824	4957
878.951	4949
879.079	5132
879.206	5296
879.333	5098
879.461	4991
879.588	4968
879.715	5083
879.842	5277
879.97	5048
880.097	4809
880.224	4759
880.351	4843
880.478	4881
880.605	4797
880.732	4805
880.859	5052
880.986	4858
881.112	4885
881.239	4824
881.366	4683
881.493	4618
881.619	4611
881.746	4634
881.872	4656
881.999	4672
882.125	4706
882.252	4831
882.378	4774
882.505	4961
882.631	4778
882.757	4687
882.883	4733
883.01	4721
883.136	4679
883.262	4607
883.388	4592
883.514	4805
883.64	4782
883.766	4782
883.892	4664
884.018	4752
884.143	4919
884.269	4999
884.395	4645
884.52	4653
884.646	4668
884.772	4634
884.897	4626
885.023	4683
885.148	4847
885.274	4900
885.399	4801
885.524	4710
885.65	4752
885.775	4721
885.9	4679
886.025	4923
886.15	4816
886.275	4774
886.4	4736
886.525	4733
886.65	4805
886.775	4714
886.9	4923
887.025	5075
887.149	4831
887.274	4710
887.399	4630
887.523	4637
887.648	4599
887.773	4660
887.897	4805
888.021	4843
888.146	4664
888.27	4866
888.395	4938
888.519	4801
888.643	4908
888.767	4862
888.891	4733
889.015	4618
889.139	4656
889.263	4649
889.387	4778
889.511	4877
889.635	4820
889.759	4702
889.883	4694
890.006	4805
890.13	4892
890.254	4687
890.377	4744
890.501	4615
890.624	4603
890.748	4664
890.871	4580
890.995	4470
891.118	4398
891.241	4558
891.364	4596
891.488	4702
891.611	4542
891.734	4603
891.857	4645
891.98	4611
892.103	4694
892.226	4664
892.349	4558
892.471	4485
892.594	4607
892.717	4664
892.839	4626
892.962	4675
893.085	4626
893.207	4660
893.33	4535
893.452	4535
893.575	4698
893.697	4656
893.819	4854
893.941	4847
894.064	4858
894.186	4637
894.308	4637
894.43	4786
894.552	4858
894.674	4839
894.796	4611
894.918	4664
895.04	4599
895.161	4698
895.283	4687
895.405	4618
895.526	4691
895.648	4744
895.769	4675
895.891	4759
896.012	4755
896.134	4812
896.255	4694
896.376	4660
896.498	4672
896.619	4721
896.74	4691
896.861	4744
896.982	4961
897.103	5132
897.224	4854
897.345	4786
897.466	4725
897.587	4786
897.708	4911
897.828	4831
897.949	4694
898.07	4592
898.19	4664
898.311	4850
898.431	4672
898.552	4790
898.672	4877
898.792	4839
898.913	4782
899.033	4683
899.153	4565
899.273	4451
899.393	4535
899.513	4580
899.633	4558
899.753	4580
899.873	4588
899.993	4641
900.113	4607
900.232	4645
900.352	4584
900.472	4535
900.591	4402
900.711	4504
900.83	4516
900.95	4675
901.069	4729
901.189	4599
901.308	4413
901.427	4432
901.546	4394
901.665	4493
901.784	4558
901.904	4428
902.023	4371
902.141	4246
902.26	4162
902.379	4367
902.498	4284
902.617	4230
902.735	4402
902.854	4428
902.973	4409
903.091	4215
903.21	4261
903.328	4348
903.446	4268
903.565	4249
903.683	4409
903.801	4291
903.919	4436
904.038	4466
904.156	4375
904.274	4451
904.392	4413
904.51	4462
904.627	4512
904.745	4618
904.863	4698
904.981	4436
905.098	4333
905.216	4417
905.334	4523
905.451	4462
905.569	4493
905.686	4603
905.803	4592
905.921	4405
906.038	4615
906.155	4535
906.272	4386
906.389	4493
906.506	4371
906.623	4394
906.74	4424
906.857	4383
906.974	4390
907.091	4538
907.208	4759
907.324	4618
907.441	4550
907.557	4409
907.674	4379
907.79	4363
907.907	4409
908.023	4546
908.139	4508
908.256	4481
908.372	4527
908.488	4542
908.604	4409
908.72	4413
908.836	4371
908.952	4421
909.068	4489
909.184	4569
909.3	4466
909.415	4626
909.531	4592
909.647	4383
909.762	4421
909.878	4402
909.993	4455
910.108	4428
910.224	4497
910.339	4516
910.454	4474
910.57	4398
910.685	4348
910.8	4691
910.915	4649
911.03	4535
911.145	4390
911.259	4322
911.374	4432
911.489	4318
911.604	4367
911.718	4177
911.833	4287
911.947	4109
912.062	4063
912.176	4295
912.291	4303
912.405	4227
912.519	4546
912.633	4554
912.748	4424
912.862	4322
912.976	4242
913.09	4147
913.204	4215
913.318	4276
913.431	4398
913.545	4413
913.659	4466
913.772	4386
913.886	4276
914	4306
914.113	4383
914.226	4508
914.34	4424
914.453	4261
914.566	4493
914.68	4424
914.793	4371
914.906	4173
915.019	4150
915.132	4169
915.245	4227
915.358	4268
915.47	4238
915.583	4276
915.696	4344
915.809	4478
915.921	4451
916.034	4303
916.146	4276
916.259	4230
916.371	4402
916.483	4405
916.595	4303
916.708	4390
916.82	4287
916.932	4363
917.044	4394
917.156	4367
917.268	4284
917.38	4348
917.491	4265
917.603	4421
917.715	4512
917.826	4478
917.938	4367
918.049	4257
918.161	4417
918.272	4558
918.384	4580
918.495	4497
918.606	4356
918.717	4299
918.828	4371
918.939	4394
919.05	4265
919.161	4367
919.272	4169
919.383	4272
919.494	4417
919.604	4653
919.715	4462
919.826	4383
919.936	4421
920.047	4645
920.157	4516
920.267	4714
920.378	4599
920.488	4516
920.598	4710
920.708	4946
920.818	4831
920.928	4831
921.038	4965
921.148	4987
921.258	4679
921.368	4584
921.477	4573
921.587	4497
921.697	4421
921.806	4611
921.916	4470
922.025	4299
922.134	4276
922.244	4227
922.353	4390
922.462	4223
922.571	4177
922.68	4032
922.789	3987
922.898	4059
923.007	4082
923.116	4135
923.224	4116
923.333	4097
923.442	4032
923.55	4048
923.659	4048
923.767	4131
923.876	4002
923.984	4135
924.092	3979
924.201	4112
924.309	4154
924.417	4162
924.525	4116
924.633	4128
924.741	5056
924.849	3937
924.956	4188
925.064	3972
925.172	3956
925.279	3991
925.387	4139
925.494	4078
925.602	4253
925.709	4219
925.816	4055
925.924	4147
926.031	4303
926.138	4158
926.245	4219
926.352	4169
926.459	4284
926.566	4352
926.673	4169
926.779	4109
926.886	4135
926.993	4040
927.099	3987
927.206	3960
927.312	3964
927.419	4090
927.525	4116
927.631	4093
927.737	4002
927.843	3972
927.95	3884
928.056	4021
928.162	4029
928.267	4074
928.373	4626
928.479	4139
928.585	3937
928.69	4059
928.796	4090
928.901	4029
929.007	3850
929.112	4071
929.218	3975
929.323	3975
929.428	3983
929.533	4177
929.638	3907
929.743	4017
929.848	4048
929.953	4002
930.058	3956
930.163	3854
930.267	3876
930.372	4029
930.477	3838
930.581	4097
930.685	3987
930.79	3850
930.894	3911
930.998	3903
931.103	4048
931.207	3720
931.311	3732
931.415	3633
931.519	3584
931.623	3599
