Data from test_V78500241_266.txt Node
Date: Fri Mar 25 16:50:51 CST 2022
User: usil
Spectrometer: V785-0024
Trigger mode: 0
Integration Time (sec): 4.000000E-1
Scans to average: 1
Nonlinearity correction enabled: false
Boxcar width: 0
Storing dark spectrum: false
XAxis mode: Wavelengths
Number of Pixels in Spectrum: 1024
>>>>>Begin Spectral Data<<<<<
801.071	8077
801.214	8024
801.356	7887
801.499	7826
801.641	7807
801.783	7864
801.926	7986
802.068	7970
802.211	8024
802.353	7955
802.496	7944
802.638	7947
802.78	7959
802.923	7887
803.065	7906
803.208	7799
803.35	7986
803.492	8024
803.635	8126
803.777	8008
803.919	8081
804.061	8484
804.204	8103
804.346	8088
804.488	8012
804.63	8126
804.773	7982
804.915	8065
805.057	8294
805.199	8172
805.341	8199
805.483	8183
805.626	8092
805.768	8115
805.91	8138
806.052	8263
806.194	8126
806.336	8290
806.478	8077
806.62	8065
806.762	8157
806.904	8187
807.046	8431
807.188	8393
807.33	8351
807.472	8309
807.614	8096
807.756	8103
807.898	7932
808.04	7822
808.182	7887
808.324	7921
808.465	7925
808.607	8050
808.749	8088
808.891	8244
809.033	8309
809.174	8142
809.316	8058
809.458	8073
809.6	7986
809.741	7970
809.883	7970
810.025	8123
810.166	8043
810.308	8058
810.45	8016
810.591	7894
810.733	7769
810.875	7685
811.016	7544
811.158	7426
811.299	7597
811.441	7666
811.582	7628
811.724	7548
811.865	7544
812.007	7632
812.148	7594
812.29	7616
812.431	7719
812.573	7826
812.714	7936
812.855	8103
812.997	8218
813.138	8279
813.279	8214
813.421	8073
813.562	8016
813.703	7799
813.845	7734
813.986	7441
814.127	7228
814.268	7206
814.41	7198
814.551	7213
814.692	7160
814.833	7046
814.974	7088
815.115	7091
815.256	7000
815.397	6909
815.539	6935
815.68	6791
815.821	6772
815.962	6894
816.103	6787
816.244	6722
816.385	6631
816.526	6665
816.666	6483
816.807	6407
816.948	6380
817.089	6483
817.23	6380
817.371	6331
817.512	6403
817.653	6353
817.793	6369
817.934	6410
818.075	6418
818.216	6456
818.356	6399
818.497	6247
818.638	6049
818.778	6190
818.919	6106
819.06	6140
819.2	6308
819.341	6289
819.481	6338
819.622	6498
819.762	6696
819.903	6722
820.043	6616
820.184	6555
820.324	6582
820.465	6635
820.605	6642
820.746	6642
820.886	6464
821.026	6563
821.167	6692
821.307	6768
821.447	6783
821.588	6654
821.728	6544
821.868	6452
822.008	6323
822.149	6285
822.289	6327
822.429	6125
822.569	6140
822.709	6178
822.849	5927
822.99	5901
823.13	5882
823.27	5863
823.41	5840
823.55	5813
823.69	5764
823.83	5790
823.97	5642
824.11	5520
824.25	5505
824.389	5482
824.529	5554
824.669	5505
824.809	5646
824.949	5604
825.089	5619
825.228	5516
825.368	5395
825.508	5322
825.648	5360
825.787	5376
825.927	5349
826.067	5288
826.206	5299
826.346	5372
826.485	5391
826.625	5444
826.765	5532
826.904	5497
827.044	5231
827.183	5147
827.323	5102
827.462	5231
827.601	5185
827.741	5140
827.88	5216
828.02	5140
828.159	5265
828.298	5326
828.437	5322
828.577	5277
828.716	5474
828.855	5322
828.994	5193
829.134	5162
829.273	5239
829.412	5212
829.551	5162
829.69	5170
829.829	5296
829.968	5402
830.107	5326
830.246	5322
830.385	5174
830.524	5132
830.663	5083
830.802	5041
830.941	4923
831.08	4896
831.219	4999
831.357	5048
831.496	5197
831.635	4919
831.774	4919
831.913	4908
832.051	4771
832.19	4755
832.329	4885
832.467	4729
832.606	4641
832.744	4744
832.883	4805
833.022	4755
833.16	4839
833.299	4850
833.437	4858
833.576	4862
833.714	4934
833.852	4839
833.991	4968
834.129	5037
834.267	5010
834.406	4968
834.544	5056
834.682	5041
834.821	4999
834.959	5178
835.097	5006
835.235	5170
835.373	5121
835.511	5140
835.65	5067
835.788	5121
835.926	4995
836.064	4953
836.202	5014
836.34	5216
836.478	5254
836.615	5220
836.753	5307
836.891	5368
837.029	5307
837.167	5216
837.305	5261
837.443	5185
837.58	5178
837.718	5250
837.856	5212
837.993	5197
838.131	5303
838.269	5280
838.406	5246
838.544	5246
838.681	5075
838.819	5064
838.956	4949
839.094	4930
839.231	5056
839.369	5105
839.506	5471
839.643	5303
839.781	5086
839.918	5102
840.055	5174
840.193	5204
840.33	5151
840.467	5151
840.604	5239
840.742	5535
840.879	5124
841.016	5151
841.153	5189
841.29	5417
841.427	5379
841.564	5357
841.701	5398
841.838	5296
841.975	5288
842.112	5280
842.249	5185
842.385	5132
842.522	5383
842.659	5265
842.796	5220
842.933	5223
843.069	5201
843.206	5170
843.343	5292
843.479	5261
843.616	5326
843.752	5041
843.889	4995
844.025	5292
844.162	5086
844.298	5299
844.435	5128
844.571	5041
844.708	5220
844.844	5368
844.98	5364
845.117	5341
845.253	5174
845.389	5140
845.525	5178
845.661	5159
845.798	5121
845.934	5189
846.07	5083
846.206	5242
846.342	5349
846.478	5181
846.614	5045
846.75	5056
846.886	4976
847.022	5132
847.158	5064
847.294	5109
847.429	5086
847.565	5086
847.701	5322
847.837	4942
847.972	4847
848.108	4987
848.244	4976
848.379	4831
848.515	4748
848.65	4714
848.786	4774
848.921	4824
849.057	4877
849.192	4961
849.328	4885
849.463	4946
849.598	4896
849.734	4778
849.869	4717
850.004	4637
850.14	4687
850.275	4683
850.41	4577
850.545	4584
850.68	4615
850.815	4683
850.95	4641
851.085	4881
851.22	4812
851.355	4706
851.49	4660
851.625	4653
851.76	4675
851.895	4653
852.03	4603
852.165	4649
852.299	4740
852.434	4809
852.569	4816
852.703	4759
852.838	4873
852.973	4923
853.107	4987
853.242	4782
853.376	4759
853.511	4592
853.645	4630
853.78	4839
853.914	4752
854.048	4679
854.183	4710
854.317	4710
854.451	4892
854.585	4694
854.72	4675
854.854	4729
854.988	4656
855.122	4634
855.256	4584
855.39	4725
855.524	4850
855.658	4717
855.792	4752
855.926	4782
856.06	4824
856.194	4786
856.327	4755
856.461	4649
856.595	4672
856.729	4683
856.862	4771
856.996	4740
857.13	4736
857.263	4782
857.397	4854
857.53	4729
857.664	4759
857.797	4767
857.931	4809
858.064	4721
858.197	4774
858.331	4641
858.464	4641
858.597	4531
858.731	4649
858.864	4656
858.997	4611
859.13	4717
859.263	4736
859.396	4748
859.529	4645
859.662	4584
859.795	4561
859.928	4694
860.061	4831
860.194	4797
860.327	4641
860.46	4580
860.592	4767
860.725	4740
860.858	4759
860.99	4641
861.123	4535
861.256	4580
861.388	4687
861.521	5467
861.653	4535
861.786	4538
861.918	4504
862.05	4519
862.183	4516
862.315	4634
862.447	4649
862.58	4573
862.712	4451
862.844	4348
862.976	4523
863.108	4440
863.24	4900
863.372	4379
863.504	4474
863.636	4466
863.768	4508
863.9	4405
864.032	4371
864.164	4390
864.296	4535
864.428	4542
864.559	4649
864.691	4535
864.823	4542
864.954	4538
865.086	4519
865.217	4504
865.349	4432
865.48	4459
865.612	4535
865.743	4615
865.875	4474
866.006	4470
866.137	4451
866.269	4508
866.4	4436
866.531	4436
866.662	4428
866.793	4405
866.924	4428
867.055	4504
867.186	4508
867.317	4443
867.448	4379
867.579	4428
867.71	4443
867.841	4348
867.972	4485
868.103	4497
868.233	4500
868.364	4459
868.495	4558
868.625	4687
868.756	4805
868.886	4569
869.017	4687
869.147	4763
869.278	4767
869.408	4725
869.539	4634
869.669	4774
869.799	4729
869.929	4790
870.06	4748
870.19	4957
870.32	4942
870.45	4930
870.58	5033
870.71	5113
870.84	5124
870.97	4980
871.1	4881
871.23	5212
871.36	5159
871.489	5045
871.619	5151
871.749	5075
871.879	5189
872.008	5223
872.138	5117
872.267	5033
872.397	4858
872.526	4870
872.656	4759
872.785	4850
872.915	4999
873.044	5018
873.173	4984
873.303	4987
873.432	4968
873.561	4991
873.69	4885
873.819	4930
873.948	4934
874.077	4850
874.206	4774
874.335	4873
874.464	4968
874.593	5090
874.722	5025
874.851	5132
874.979	5064
875.108	5014
875.237	4938
875.365	4900
875.494	4919
875.623	4984
875.751	4911
875.88	4930
876.008	5029
876.136	5060
876.265	5212
876.393	5357
876.521	5303
876.65	5162
876.778	5201
876.906	5071
877.034	5037
877.162	5102
877.29	5010
877.418	5102
877.546	5029
877.674	5113
877.802	5025
877.93	5018
878.058	4968
878.185	4885
878.313	4927
878.441	4999
878.568	4820
878.696	4892
878.824	5010
878.951	5006
879.079	5143
879.206	5330
879.333	5128
879.461	5014
879.588	5052
879.715	5090
879.842	5246
879.97	5056
880.097	4812
880.224	4706
880.351	4885
880.478	4870
880.605	4828
880.732	4790
880.859	5113
880.986	4946
881.112	4957
881.239	4843
881.366	4717
881.493	4660
881.619	4618
881.746	4675
881.872	4672
881.999	4691
882.125	4698
882.252	4816
882.378	4870
882.505	5067
882.631	4850
882.757	4691
882.883	4767
883.01	4736
883.136	4656
883.262	4618
883.388	4622
883.514	4809
883.64	4854
883.766	4847
883.892	4649
884.018	4752
884.143	4892
884.269	4976
884.395	4694
884.52	4637
884.646	4687
884.772	4538
884.897	4592
885.023	4672
885.148	4805
885.274	4885
885.399	4797
885.524	4752
885.65	4694
885.775	4752
885.9	4763
886.025	4911
886.15	4809
886.275	4706
886.4	4660
886.525	4744
886.65	4679
886.775	4706
886.9	4923
887.025	5071
887.149	4820
887.274	4634
887.399	4607
887.523	4615
887.648	4584
887.773	4599
887.897	4786
888.021	4778
888.146	4721
888.27	4843
888.395	4957
888.519	4858
888.643	4866
888.767	4843
888.891	4714
889.015	4630
889.139	4683
889.263	4588
889.387	4828
889.511	4881
889.635	4763
889.759	4637
889.883	4637
890.006	4740
890.13	4835
890.254	4675
890.377	4729
890.501	4615
890.624	4577
890.748	4656
890.871	4512
890.995	4485
891.118	4421
891.241	4542
891.364	4527
891.488	4626
891.611	4516
891.734	4592
891.857	4615
891.98	4554
892.103	4615
892.226	4618
892.349	4535
892.471	4447
892.594	4508
892.717	4599
892.839	4599
892.962	4607
893.085	4691
893.207	4611
893.33	4470
893.452	4538
893.575	4721
893.697	4573
893.819	4824
893.941	4889
894.064	4816
894.186	4603
894.308	4592
894.43	4714
894.552	4831
894.674	4790
894.796	4607
894.918	4615
895.04	4592
895.161	4755
895.283	4702
895.405	4584
895.526	4668
895.648	4687
895.769	4740
895.891	4717
896.012	4771
896.134	4725
896.255	4698
896.376	4630
896.498	4630
896.619	4694
896.74	4607
896.861	4626
896.982	4942
897.103	5083
897.224	4889
897.345	4782
897.466	4721
897.587	4725
897.708	4885
897.828	4843
897.949	4714
898.07	4558
898.19	4634
898.311	4850
898.431	4717
898.552	4744
898.672	4805
898.792	4877
898.913	4733
899.033	4656
899.153	4531
899.273	4432
899.393	4538
899.513	4512
899.633	4550
899.753	4542
899.873	4519
899.993	4565
900.113	4565
900.232	4626
900.352	4519
900.472	4516
900.591	4390
900.711	4508
900.83	4451
900.95	4615
901.069	4702
901.189	4558
901.308	4398
901.427	4348
901.546	4379
901.665	4390
901.784	4542
901.904	4455
902.023	4371
902.141	4192
902.26	4200
902.379	4314
902.498	4284
902.617	4246
902.735	4405
902.854	4432
902.973	4371
903.091	4265
903.21	4253
903.328	4318
903.446	4284
903.565	4265
903.683	4352
903.801	4265
903.919	4424
904.038	4493
904.156	4310
904.274	4462
904.392	4436
904.51	4481
904.627	4512
904.745	4588
904.863	4653
904.981	4466
905.098	4371
905.216	4451
905.334	4504
905.451	4421
905.569	4504
905.686	4584
905.803	4634
905.921	4398
906.038	4573
906.155	4504
906.272	4417
906.389	4470
906.506	4363
906.623	4405
906.74	4542
906.857	4363
906.974	4413
907.091	4577
907.208	4698
907.324	4641
907.441	4523
907.557	4402
907.674	4356
907.79	4341
907.907	4436
908.023	4523
908.139	4512
908.256	4489
908.372	4531
908.488	4508
908.604	4436
908.72	4356
908.836	4470
908.952	4402
909.068	4478
909.184	4607
909.3	4538
909.415	4672
909.531	4645
909.647	4440
909.762	4398
909.878	4432
909.993	4504
910.108	4474
910.224	4462
910.339	4527
910.454	4478
910.57	4402
910.685	4394
910.8	4740
910.915	4668
911.03	4527
911.145	4371
911.259	4402
911.374	4436
911.489	4280
911.604	4341
911.718	4238
911.833	4280
911.947	4120
912.062	4021
912.176	4261
912.291	4295
912.405	4295
912.519	4550
912.633	4527
912.748	4424
912.862	4348
912.976	4234
913.09	4147
913.204	4200
913.318	4337
913.431	4402
913.545	4428
913.659	4462
913.772	4413
913.886	4314
914	4261
914.113	4443
914.226	4485
914.34	4447
914.453	4284
914.566	4443
914.68	4322
914.793	4398
914.906	4177
915.019	4196
915.132	4147
915.245	4204
915.358	4322
915.47	4280
915.583	4295
915.696	4325
915.809	4443
915.921	4493
916.034	4299
916.146	4333
916.259	4284
916.371	4428
916.483	4424
916.595	4287
916.708	4386
916.82	4371
916.932	4325
917.044	4341
917.156	4337
917.268	4249
917.38	4348
917.491	4352
917.603	4409
917.715	4432
917.826	4500
917.938	4375
918.049	4280
918.161	4428
918.272	4577
918.384	4577
918.495	4485
918.606	4344
918.717	4272
918.828	4394
918.939	4428
919.05	4284
919.161	4402
919.272	4192
919.383	4295
919.494	4497
919.604	4672
919.715	4512
919.826	4363
919.936	4466
920.047	4569
920.157	4508
920.267	4721
920.378	4603
920.488	4542
920.598	4778
920.708	4938
920.818	4797
920.928	4774
921.038	4987
921.148	4896
921.258	4691
921.368	4603
921.477	4565
921.587	4519
921.697	4428
921.806	4584
921.916	4478
922.025	4325
922.134	4325
922.244	4265
922.353	4344
922.462	4135
922.571	4169
922.68	4086
922.789	4044
922.898	4040
923.007	4036
923.116	4139
923.224	4109
923.333	4128
923.442	3998
923.55	4006
923.659	4097
923.767	4120
923.876	4032
923.984	4185
924.092	4017
924.201	4105
924.309	4166
924.417	4128
924.525	4086
924.633	4112
924.741	5079
924.849	3934
924.956	4147
925.064	4025
925.172	3941
925.279	3994
925.387	4078
925.494	4093
925.602	4219
925.709	4219
925.816	4082
925.924	4196
926.031	4261
926.138	4204
926.245	4280
926.352	4131
926.459	4299
926.566	4333
926.673	4211
926.779	4200
926.886	4135
926.993	4040
927.099	4013
927.206	3994
927.312	3945
927.419	4044
927.525	4044
927.631	4120
927.737	3987
927.843	3964
927.95	3884
928.056	4002
928.162	4013
928.267	4082
928.373	4698
928.479	4128
928.585	3945
928.69	4097
928.796	4116
928.901	3983
929.007	3876
929.112	4051
929.218	4044
929.323	3979
929.428	3945
929.533	4150
929.638	3934
929.743	4002
929.848	4109
929.953	4036
930.058	3975
930.163	3869
930.267	3857
930.372	4036
930.477	3827
930.581	4135
930.685	3987
930.79	3865
930.894	3896
930.998	3884
931.103	4078
931.207	3800
931.311	3778
931.415	3720
931.519	3595
931.623	3587
