Data from test_V78500241_998.txt Node
Date: Fri Mar 25 16:55:56 CST 2022
User: usil
Spectrometer: V785-0024
Trigger mode: 0
Integration Time (sec): 4.000000E-1
Scans to average: 1
Nonlinearity correction enabled: false
Boxcar width: 0
Storing dark spectrum: false
XAxis mode: Wavelengths
Number of Pixels in Spectrum: 1024
>>>>>Begin Spectral Data<<<<<
801.071	8084
801.214	8005
801.356	7940
801.499	7921
801.641	7784
801.783	7898
801.926	7986
802.068	8039
802.211	7982
802.353	7978
802.496	7841
802.638	7868
802.78	7947
802.923	7902
803.065	7955
803.208	7944
803.35	7978
803.492	8126
803.635	8221
803.777	8024
803.919	8206
804.061	8454
804.204	8103
804.346	8050
804.488	7944
804.63	8119
804.773	8031
804.915	8157
805.057	8298
805.199	8149
805.341	8225
805.483	8259
805.626	8168
805.768	8130
805.91	8218
806.052	8172
806.194	8073
806.336	8267
806.478	8069
806.62	8073
806.762	8138
806.904	8290
807.046	8457
807.188	8385
807.33	8320
807.472	8290
807.614	8176
807.756	8191
807.898	7970
808.04	7868
808.182	7944
808.324	7887
808.465	7959
808.607	8065
808.749	8142
808.891	8286
809.033	8351
809.174	8233
809.316	8142
809.458	8039
809.6	8069
809.741	8069
809.883	8100
810.025	8123
810.166	8096
810.308	8027
810.45	7978
810.591	7909
810.733	7731
810.875	7685
811.016	7556
811.158	7480
811.299	7632
811.441	7700
811.582	7742
811.724	7575
811.865	7559
812.007	7483
812.148	7571
812.29	7677
812.431	7700
812.573	7822
812.714	7986
812.855	8126
812.997	8153
813.138	8389
813.279	8183
813.421	8092
813.562	8031
813.703	7879
813.845	7837
813.986	7544
814.127	7324
814.268	7198
814.41	7221
814.551	7183
814.692	7187
814.833	7110
814.974	7084
815.115	7168
815.256	6947
815.397	6932
815.539	6958
815.68	6852
815.821	6814
815.962	6833
816.103	6886
816.244	6806
816.385	6688
816.526	6658
816.666	6490
816.807	6319
816.948	6410
817.089	6521
817.23	6448
817.371	6399
817.512	6395
817.653	6346
817.793	6388
817.934	6441
818.075	6494
818.216	6418
818.356	6445
818.497	6254
818.638	6163
818.778	6155
818.919	6159
819.06	6167
819.2	6350
819.341	6353
819.481	6388
819.622	6555
819.762	6696
819.903	6692
820.043	6601
820.184	6604
820.324	6585
820.465	6700
820.605	6642
820.746	6700
820.886	6570
821.026	6738
821.167	6757
821.307	6825
821.447	6779
821.588	6677
821.728	6555
821.868	6498
822.008	6342
822.149	6372
822.289	6315
822.429	6167
822.569	6106
822.709	6102
822.849	5954
822.99	5916
823.13	5927
823.27	5935
823.41	5794
823.55	5813
823.69	5802
823.83	5783
823.97	5695
824.11	5524
824.25	5566
824.389	5570
824.529	5642
824.669	5539
824.809	5680
824.949	5680
825.089	5646
825.228	5554
825.368	5452
825.508	5341
825.648	5357
825.787	5433
825.927	5391
826.067	5322
826.206	5315
826.346	5425
826.485	5402
826.625	5436
826.765	5543
826.904	5505
827.044	5284
827.183	5189
827.323	5113
827.462	5227
827.601	5162
827.741	5181
827.88	5220
828.02	5124
828.159	5269
828.298	5341
828.437	5345
828.577	5254
828.716	5474
828.855	5311
828.994	5147
829.134	5147
829.273	5223
829.412	5155
829.551	5121
829.69	5181
829.829	5280
829.968	5387
830.107	5227
830.246	5277
830.385	5178
830.524	5105
830.663	5052
830.802	4991
830.941	4885
831.08	4862
831.219	4968
831.357	4965
831.496	5128
831.635	4919
831.774	4858
831.913	4877
832.051	4721
832.19	4698
832.329	4862
832.467	4706
832.606	4630
832.744	4721
832.883	4736
833.022	4755
833.16	4729
833.299	4812
833.437	4828
833.576	4843
833.714	4854
833.852	4877
833.991	4885
834.129	5010
834.267	4972
834.406	4908
834.544	4987
834.682	4972
834.821	4972
834.959	5193
835.097	5029
835.235	5151
835.373	5128
835.511	5136
835.65	5014
835.788	5064
835.926	4934
836.064	4961
836.202	4831
836.34	5204
836.478	5254
836.615	5178
836.753	5216
836.891	5318
837.029	5239
837.167	5193
837.305	5178
837.443	5132
837.58	5121
837.718	5254
837.856	5155
837.993	5185
838.131	5204
838.269	5178
838.406	5181
838.544	5155
838.681	5060
838.819	5014
838.956	4904
839.094	4923
839.231	4965
839.369	5090
839.506	5425
839.643	5231
839.781	5060
839.918	5018
840.055	5025
840.193	5136
840.33	5143
840.467	5166
840.604	5162
840.742	5459
840.879	5090
841.016	5132
841.153	5117
841.29	5357
841.427	5307
841.564	5357
841.701	5349
841.838	5269
841.975	5239
842.112	5254
842.249	5140
842.385	5098
842.522	5334
842.659	5204
842.796	5140
842.933	5151
843.069	5128
843.206	5185
843.343	5364
843.479	5208
843.616	5254
843.752	5037
843.889	5010
844.025	5185
844.162	5010
844.298	5197
844.435	5140
844.571	5052
844.708	5197
844.844	5303
844.98	5360
845.117	5258
845.253	5204
845.389	5083
845.525	5159
845.661	5132
845.798	5060
845.934	5128
846.07	5090
846.206	5155
846.342	5220
846.478	5143
846.614	4999
846.75	4984
846.886	4949
847.022	5178
847.158	5052
847.294	5071
847.429	5079
847.565	5075
847.701	5341
847.837	4885
847.972	4809
848.108	4938
848.244	4923
848.379	4778
848.515	4774
848.65	4733
848.786	4687
848.921	4797
849.057	4828
849.192	4892
849.328	4828
849.463	4805
849.598	4801
849.734	4790
849.869	4691
850.004	4694
850.14	4660
850.275	4588
850.41	4512
850.545	4550
850.68	4615
850.815	4649
850.95	4607
851.085	4809
851.22	4767
851.355	4683
851.49	4653
851.625	4634
851.76	4649
851.895	4573
852.03	4527
852.165	4664
852.299	4714
852.434	4778
852.569	4733
852.703	4748
852.838	4782
852.973	4908
853.107	4904
853.242	4748
853.376	4710
853.511	4523
853.645	4626
853.78	4835
853.914	4759
854.048	4683
854.183	4611
854.317	4687
854.451	4847
854.585	4660
854.72	4649
854.854	4774
854.988	4592
855.122	4618
855.256	4504
855.39	4649
855.524	4786
855.658	4725
855.792	4694
855.926	4736
856.06	4702
856.194	4786
856.327	4653
856.461	4603
856.595	4630
856.729	4615
856.862	4755
856.996	4733
857.13	4691
857.263	4793
857.397	4771
857.53	4679
857.664	4672
857.797	4744
857.931	4763
858.064	4679
858.197	4740
858.331	4615
858.464	4599
858.597	4493
858.731	4637
858.864	4653
858.997	4584
859.13	4653
859.263	4672
859.396	4653
859.529	4618
859.662	4615
859.795	4554
859.928	4607
860.061	4740
860.194	4763
860.327	4592
860.46	4565
860.592	4702
860.725	4702
860.858	4710
860.99	4580
861.123	4500
861.256	4538
861.388	4637
861.521	5246
861.653	4470
861.786	4421
861.918	4481
862.05	4493
862.183	4558
862.315	4660
862.447	4660
862.58	4542
862.712	4394
862.844	4325
862.976	4451
863.108	4466
863.24	4854
863.372	4333
863.504	4455
863.636	4371
863.768	4443
863.9	4386
864.032	4386
864.164	4348
864.296	4443
864.428	4542
864.559	4550
864.691	4489
864.823	4478
864.954	4489
865.086	4489
865.217	4424
865.349	4436
865.48	4436
865.612	4478
865.743	4653
865.875	4417
866.006	4421
866.137	4417
866.269	4428
866.4	4424
866.531	4436
866.662	4383
866.793	4375
866.924	4424
867.055	4512
867.186	4421
867.317	4417
867.448	4352
867.579	4344
867.71	4386
867.841	4360
867.972	4462
868.103	4447
868.233	4478
868.364	4485
868.495	4554
868.625	4637
868.756	4748
868.886	4542
869.017	4542
869.147	4755
869.278	4767
869.408	4649
869.539	4618
869.669	4729
869.799	4675
869.929	4706
870.06	4736
870.19	4942
870.32	4850
870.45	4953
870.58	4980
870.71	5086
870.84	5052
870.97	4900
871.1	4896
871.23	5098
871.36	5071
871.489	5029
871.619	5067
871.749	5071
871.879	5113
872.008	5208
872.138	5079
872.267	5003
872.397	4858
872.526	4801
872.656	4774
872.785	4793
872.915	4915
873.044	5033
873.173	4934
873.303	4942
873.432	4965
873.561	4968
873.69	4828
873.819	4816
873.948	4915
874.077	4816
874.206	4721
874.335	4767
874.464	4957
874.593	5041
874.722	4976
874.851	5056
874.979	5041
875.108	4980
875.237	4904
875.365	4843
875.494	4908
875.623	4980
875.751	4778
875.88	4866
876.008	4908
876.136	4976
876.265	5197
876.393	5292
876.521	5246
876.65	5220
876.778	5140
876.906	5098
877.034	5041
877.162	5014
877.29	5045
877.418	4999
877.546	4987
877.674	5064
877.802	5006
877.93	4995
878.058	4919
878.185	4831
878.313	5006
878.441	4976
878.568	4782
878.696	4889
878.824	4949
878.951	5025
879.079	5174
879.206	5242
879.333	5098
879.461	4980
879.588	4965
879.715	5128
879.842	5197
879.97	4976
880.097	4767
880.224	4736
880.351	4763
880.478	4767
880.605	4793
880.732	4820
880.859	5155
880.986	4854
881.112	4911
881.239	4698
881.366	4645
881.493	4580
881.619	4599
881.746	4634
881.872	4641
881.999	4645
882.125	4702
882.252	4767
882.378	4831
882.505	4881
882.631	4755
882.757	4637
882.883	4721
883.01	4729
883.136	4702
883.262	4573
883.388	4603
883.514	4790
883.64	4858
883.766	4767
883.892	4634
884.018	4702
884.143	4835
884.269	4991
884.395	4698
884.52	4618
884.646	4634
884.772	4577
884.897	4603
885.023	4596
885.148	4755
885.274	4843
885.399	4812
885.524	4672
885.65	4664
885.775	4729
885.9	4664
886.025	4835
886.15	4733
886.275	4668
886.4	4675
886.525	4702
886.65	4691
886.775	4733
886.9	4873
887.025	5014
887.149	4771
887.274	4702
887.399	4596
887.523	4611
887.648	4531
887.773	4592
887.897	4797
888.021	4767
888.146	4653
888.27	4748
888.395	4934
888.519	4797
888.643	4759
888.767	4797
888.891	4683
889.015	4618
889.139	4622
889.263	4588
889.387	4759
889.511	4858
889.635	4778
889.759	4592
889.883	4596
890.006	4736
890.13	4797
890.254	4630
890.377	4653
890.501	4512
890.624	4531
890.748	4603
890.871	4470
890.995	4413
891.118	4398
891.241	4493
891.364	4550
891.488	4634
891.611	4470
891.734	4546
891.857	4573
891.98	4512
892.103	4599
892.226	4561
892.349	4519
892.471	4386
892.594	4592
892.717	4603
892.839	4569
892.962	4565
893.085	4649
893.207	4626
893.33	4455
893.452	4489
893.575	4653
893.697	4512
893.819	4820
893.941	4786
894.064	4771
894.186	4558
894.308	4538
894.43	4702
894.552	4816
894.674	4752
894.796	4512
894.918	4580
895.04	4622
895.161	4702
895.283	4622
895.405	4584
895.526	4660
895.648	4698
895.769	4668
895.891	4649
896.012	4706
896.134	4687
896.255	4645
896.376	4634
896.498	4649
896.619	4679
896.74	4611
896.861	4653
896.982	4892
897.103	5041
897.224	4759
897.345	4740
897.466	4668
897.587	4771
897.708	4812
897.828	4763
897.949	4710
898.07	4542
898.19	4599
898.311	4847
898.431	4664
898.552	4729
898.672	4824
898.792	4786
898.913	4698
899.033	4569
899.153	4478
899.273	4436
899.393	4466
899.513	4523
899.633	4531
899.753	4504
899.873	4493
899.993	4577
900.113	4508
900.232	4561
900.352	4546
900.472	4481
900.591	4386
900.711	4432
900.83	4421
900.95	4584
901.069	4687
901.189	4538
901.308	4344
901.427	4303
901.546	4386
901.665	4447
901.784	4516
901.904	4417
902.023	4337
902.141	4177
902.26	4169
902.379	4341
902.498	4200
902.617	4131
902.735	4322
902.854	4356
902.973	4337
903.091	4196
903.21	4204
903.328	4306
903.446	4268
903.565	4234
903.683	4344
903.801	4261
903.919	4371
904.038	4470
904.156	4268
904.274	4470
904.392	4371
904.51	4466
904.627	4428
904.745	4546
904.863	4615
904.981	4417
905.098	4356
905.216	4333
905.334	4390
905.451	4485
905.569	4428
905.686	4531
905.803	4577
905.921	4394
906.038	4554
906.155	4436
906.272	4371
906.389	4478
906.506	4299
906.623	4379
906.74	4363
906.857	4318
906.974	4341
907.091	4558
907.208	4694
907.324	4584
907.441	4504
907.557	4303
907.674	4360
907.79	4322
907.907	4341
908.023	4447
908.139	4561
908.256	4440
908.372	4481
908.488	4474
908.604	4329
908.72	4329
908.836	4337
908.952	4405
909.068	4405
909.184	4580
909.3	4459
909.415	4577
909.531	4538
909.647	4322
909.762	4383
909.878	4322
909.993	4390
910.108	4394
910.224	4402
910.339	4440
910.454	4386
910.57	4360
910.685	4306
910.8	4626
910.915	4603
911.03	4478
911.145	4363
911.259	4322
911.374	4356
911.489	4303
911.604	4246
911.718	4124
911.833	4207
911.947	4063
912.062	3991
912.176	4204
912.291	4227
912.405	4246
912.519	4443
912.633	4538
912.748	4383
912.862	4303
912.976	4204
913.09	4063
913.204	4143
913.318	4234
913.431	4367
913.545	4360
913.659	4405
913.772	4371
913.886	4268
914	4200
914.113	4379
914.226	4474
914.34	4379
914.453	4200
914.566	4383
914.68	4272
914.793	4265
914.906	4177
915.019	4093
915.132	4093
915.245	4188
915.358	4200
915.47	4234
915.583	4230
915.696	4238
915.809	4352
915.921	4363
916.034	4272
916.146	4230
916.259	4215
916.371	4398
916.483	4394
916.595	4280
916.708	4337
916.82	4314
916.932	4272
917.044	4287
917.156	4314
917.268	4249
917.38	4268
917.491	4261
917.603	4356
917.715	4413
917.826	4455
917.938	4337
918.049	4276
918.161	4390
918.272	4538
918.384	4519
918.495	4440
918.606	4303
918.717	4196
918.828	4360
918.939	4352
919.05	4284
919.161	4284
919.272	4162
919.383	4242
919.494	4466
919.604	4618
919.715	4455
919.826	4341
919.936	4398
920.047	4519
920.157	4470
920.267	4710
920.378	4527
920.488	4508
920.598	4702
920.708	4854
920.818	4706
920.928	4733
921.038	4934
921.148	4915
921.258	4573
921.368	4584
921.477	4436
921.587	4459
921.697	4360
921.806	4497
921.916	4459
922.025	4253
922.134	4246
922.244	4211
922.353	4314
922.462	4192
922.571	4090
922.68	4002
922.789	3964
922.898	4074
923.007	3953
923.116	4090
923.224	4040
923.333	3968
923.442	4006
923.55	3964
923.659	4010
923.767	4082
923.876	3998
923.984	4090
924.092	3937
924.201	4090
924.309	4105
924.417	4116
924.525	4036
924.633	4082
924.741	5003
924.849	3922
924.956	4112
925.064	3945
925.172	3918
925.279	3941
925.387	4017
925.494	4048
925.602	4158
925.709	4128
925.816	4048
925.924	4143
926.031	4204
926.138	4143
926.245	4188
926.352	4078
926.459	4227
926.566	4280
926.673	4150
926.779	4059
926.886	4097
926.993	4002
927.099	3945
927.206	3941
927.312	3892
927.419	4006
927.525	4017
927.631	4124
927.737	3953
927.843	3953
927.95	3838
928.056	3907
928.162	3975
928.267	4040
928.373	4683
928.479	4078
928.585	3846
928.69	4029
928.796	4116
928.901	3953
929.007	3842
929.112	4013
929.218	3968
929.323	3926
929.428	3926
929.533	4071
929.638	3896
929.743	3949
929.848	4036
929.953	4044
930.058	3922
930.163	3781
930.267	3800
930.372	3896
930.477	3804
930.581	4048
930.685	3915
930.79	3778
930.894	3884
930.998	3861
931.103	3994
931.207	3717
931.311	3637
931.415	3663
931.519	3530
931.623	3557
