Data from test_V78500241_2573.txt Node
Date: Fri Mar 25 17:06:53 CST 2022
User: usil
Spectrometer: V785-0024
Trigger mode: 0
Integration Time (sec): 4.000000E-1
Scans to average: 1
Nonlinearity correction enabled: false
Boxcar width: 0
Storing dark spectrum: false
XAxis mode: Wavelengths
Number of Pixels in Spectrum: 1024
>>>>>Begin Spectral Data<<<<<
801.071	7963
801.214	7974
801.356	7871
801.499	7909
801.641	7757
801.783	7788
801.926	7887
802.068	7917
802.211	7978
802.353	8012
802.496	7940
802.638	7788
802.78	7849
802.923	7944
803.065	7811
803.208	7772
803.35	8001
803.492	8100
803.635	8157
803.777	8054
803.919	8107
804.061	8446
804.204	8142
804.346	8115
804.488	7932
804.63	8096
804.773	8008
804.915	8115
805.057	8263
805.199	8084
805.341	8161
805.483	8320
805.626	8301
805.768	8164
805.91	8145
806.052	8161
806.194	8035
806.336	8294
806.478	8081
806.62	8058
806.762	8191
806.904	8218
807.046	8469
807.188	8324
807.33	8351
807.472	8374
807.614	8153
807.756	8100
807.898	8039
808.04	7879
808.182	7906
808.324	7890
808.465	7963
808.607	8103
808.749	8111
808.891	8206
809.033	8320
809.174	8206
809.316	8020
809.458	8069
809.6	7951
809.741	8043
809.883	8027
810.025	8180
810.166	8031
810.308	8005
810.45	8054
810.591	7826
810.733	7723
810.875	7658
811.016	7556
811.158	7464
811.299	7525
811.441	7719
811.582	7696
811.724	7601
811.865	7544
812.007	7605
812.148	7586
812.29	7636
812.431	7746
812.573	7906
812.714	7936
812.855	8130
812.997	8164
813.138	8343
813.279	8134
813.421	8062
813.562	8031
813.703	7921
813.845	7788
813.986	7495
814.127	7198
814.268	7202
814.41	7217
814.551	7179
814.692	7187
814.833	7122
814.974	7110
815.115	7091
815.256	6932
815.397	6954
815.539	6939
815.68	6787
815.821	6798
815.962	6821
816.103	6810
816.244	6760
816.385	6608
816.526	6620
816.666	6479
816.807	6247
816.948	6452
817.089	6479
817.23	6422
817.371	6479
817.512	6357
817.653	6338
817.793	6334
817.934	6422
818.075	6437
818.216	6384
818.356	6426
818.497	6296
818.638	6129
818.778	6197
818.919	6125
819.06	6197
819.2	6342
819.341	6289
819.481	6410
819.622	6517
819.762	6730
819.903	6726
820.043	6658
820.184	6528
820.324	6642
820.465	6760
820.605	6711
820.746	6692
820.886	6525
821.026	6753
821.167	6711
821.307	6821
821.447	6791
821.588	6696
821.728	6570
821.868	6536
822.008	6331
822.149	6399
822.289	6353
822.429	6129
822.569	6117
822.709	6125
822.849	5927
822.99	5920
823.13	5923
823.27	5939
823.41	5771
823.55	5802
823.69	5813
823.83	5828
823.97	5775
824.11	5573
824.25	5520
824.389	5535
824.529	5581
824.669	5551
824.809	5630
824.949	5627
825.089	5634
825.228	5585
825.368	5372
825.508	5387
825.648	5349
825.787	5391
825.927	5383
826.067	5292
826.206	5246
826.346	5364
826.485	5379
826.625	5478
826.765	5562
826.904	5512
827.044	5235
827.183	5273
827.323	5117
827.462	5292
827.601	5246
827.741	5128
827.88	5208
828.02	5083
828.159	5227
828.298	5299
828.437	5372
828.577	5265
828.716	5497
828.855	5349
828.994	5132
829.134	5159
829.273	5201
829.412	5128
829.551	5132
829.69	5166
829.829	5265
829.968	5353
830.107	5265
830.246	5303
830.385	5162
830.524	5140
830.663	5075
830.802	4949
830.941	4881
831.08	4854
831.219	4965
831.357	4953
831.496	5136
831.635	4927
831.774	4854
831.913	4843
832.051	4687
832.19	4771
832.329	4843
832.467	4729
832.606	4634
832.744	4691
832.883	4717
833.022	4733
833.16	4790
833.299	4828
833.437	4786
833.576	4892
833.714	4850
833.852	4820
833.991	4900
834.129	4976
834.267	4946
834.406	4889
834.544	5010
834.682	5033
834.821	4991
834.959	5162
835.097	4995
835.235	5083
835.373	5094
835.511	5067
835.65	5033
835.788	5018
835.926	4904
836.064	4870
836.202	4927
836.34	5140
836.478	5212
836.615	5151
836.753	5197
836.891	5299
837.029	5155
837.167	5159
837.305	5193
837.443	5170
837.58	5071
837.718	5299
837.856	5193
837.993	5162
838.131	5216
838.269	5216
838.406	5185
838.544	5143
838.681	5018
838.819	4995
838.956	4870
839.094	4911
839.231	4991
839.369	5098
839.506	5417
839.643	5246
839.781	5029
839.918	5045
840.055	5086
840.193	5075
840.33	5094
840.467	5094
840.604	5181
840.742	5410
840.879	5109
841.016	5098
841.153	5128
841.29	5368
841.427	5299
841.564	5318
841.701	5357
841.838	5250
841.975	5261
842.112	5269
842.249	5155
842.385	5132
842.522	5337
842.659	5193
842.796	5143
842.933	5204
843.069	5162
843.206	5136
843.343	5292
843.479	5220
843.616	5246
843.752	5056
843.889	5029
844.025	5220
844.162	5045
844.298	5208
844.435	5067
844.571	5064
844.708	5170
844.844	5311
844.98	5303
845.117	5311
845.253	5143
845.389	5113
845.525	5204
845.661	5136
845.798	5037
845.934	5109
846.07	5041
846.206	5178
846.342	5277
846.478	5235
846.614	5014
846.75	4980
846.886	4927
847.022	5121
847.158	5041
847.294	5098
847.429	5071
847.565	5067
847.701	5379
847.837	4850
847.972	4824
848.108	4934
848.244	4961
848.379	4805
848.515	4698
848.65	4714
848.786	4759
848.921	4793
849.057	4839
849.192	4915
849.328	4812
849.463	4835
849.598	4778
849.734	4759
849.869	4702
850.004	4592
850.14	4672
850.275	4626
850.41	4569
850.545	4622
850.68	4603
850.815	4672
850.95	4653
851.085	4782
851.22	4725
851.355	4660
851.49	4611
851.625	4611
851.76	4641
851.895	4569
852.03	4516
852.165	4641
852.299	4733
852.434	4805
852.569	4782
852.703	4717
852.838	4881
852.973	4915
853.107	4953
853.242	4729
853.376	4664
853.511	4596
853.645	4618
853.78	4812
853.914	4660
854.048	4679
854.183	4653
854.317	4725
854.451	4847
854.585	4672
854.72	4649
854.854	4752
854.988	4577
855.122	4660
855.256	4493
855.39	4679
855.524	4759
855.658	4702
855.792	4691
855.926	4744
856.06	4752
856.194	4812
856.327	4714
856.461	4618
856.595	4634
856.729	4672
856.862	4805
856.996	4679
857.13	4755
857.263	4729
857.397	4790
857.53	4618
857.664	4714
857.797	4759
857.931	4782
858.064	4660
858.197	4736
858.331	4664
858.464	4611
858.597	4508
858.731	4641
858.864	4656
858.997	4546
859.13	4653
859.263	4698
859.396	4733
859.529	4615
859.662	4546
859.795	4508
859.928	4641
860.061	4744
860.194	4774
860.327	4607
860.46	4611
860.592	4675
860.725	4733
860.858	4725
860.99	4584
861.123	4546
861.256	4538
861.388	4618
861.521	5326
861.653	4508
861.786	4481
861.918	4428
862.05	4516
862.183	4592
862.315	4569
862.447	4664
862.58	4554
862.712	4405
862.844	4310
862.976	4462
863.108	4451
863.24	4721
863.372	4276
863.504	4424
863.636	4390
863.768	4424
863.9	4478
864.032	4363
864.164	4417
864.296	4462
864.428	4550
864.559	4565
864.691	4580
864.823	4500
864.954	4535
865.086	4535
865.217	4474
865.349	4432
865.48	4474
865.612	4531
865.743	4634
865.875	4462
866.006	4451
866.137	4455
866.269	4432
866.4	4443
866.531	4360
866.662	4409
866.793	4398
866.924	4440
867.055	4508
867.186	4459
867.317	4455
867.448	4360
867.579	4386
867.71	4360
867.841	4344
867.972	4451
868.103	4409
868.233	4481
868.364	4455
868.495	4527
868.625	4660
868.756	4721
868.886	4561
869.017	4599
869.147	4752
869.278	4790
869.408	4653
869.539	4618
869.669	4740
869.799	4630
869.929	4793
870.06	4736
870.19	4957
870.32	4919
870.45	4938
870.58	5025
870.71	5029
870.84	5151
870.97	4965
871.1	4892
871.23	5124
871.36	5071
871.489	5003
871.619	5052
871.749	5060
871.879	5121
872.008	5166
872.138	5056
872.267	4961
872.397	4854
872.526	4828
872.656	4694
872.785	4839
872.915	4953
873.044	5022
873.173	4934
873.303	4987
873.432	4930
873.561	4968
873.69	4835
873.819	4870
873.948	4942
874.077	4797
874.206	4698
874.335	4828
874.464	4892
874.593	5056
874.722	4942
874.851	5136
874.979	5079
875.108	5029
875.237	4908
875.365	4847
875.494	4870
875.623	5006
875.751	4809
875.88	4866
876.008	4968
876.136	4999
876.265	5242
876.393	5334
876.521	5284
876.65	5235
876.778	5143
876.906	5025
877.034	4987
877.162	5014
877.29	4991
877.418	5056
877.546	5041
877.674	5056
877.802	5086
877.93	5029
878.058	4946
878.185	4908
878.313	4999
878.441	4957
878.568	4763
878.696	4923
878.824	4976
878.951	4999
879.079	5132
879.206	5250
879.333	5083
879.461	4991
879.588	5045
879.715	5117
879.842	5189
879.97	4987
880.097	4752
880.224	4755
880.351	4801
880.478	4824
880.605	4797
880.732	4774
880.859	5048
880.986	4938
881.112	4881
881.239	4797
881.366	4664
881.493	4580
881.619	4565
881.746	4653
881.872	4634
881.999	4622
882.125	4679
882.252	4774
882.378	4835
882.505	4980
882.631	4809
882.757	4656
882.883	4706
883.01	4767
883.136	4634
883.262	4592
883.388	4561
883.514	4816
883.64	4896
883.766	4774
883.892	4656
884.018	4755
884.143	4923
884.269	4991
884.395	4664
884.52	4618
884.646	4672
884.772	4603
884.897	4580
885.023	4664
885.148	4763
885.274	4850
885.399	4805
885.524	4679
885.65	4755
885.775	4774
885.9	4748
886.025	4850
886.15	4782
886.275	4706
886.4	4641
886.525	4698
886.65	4691
886.775	4634
886.9	4877
887.025	5022
887.149	4797
887.274	4672
887.399	4603
887.523	4645
887.648	4607
887.773	4596
887.897	4740
888.021	4774
888.146	4626
888.27	4790
888.395	4885
888.519	4801
888.643	4835
888.767	4790
888.891	4634
889.015	4630
889.139	4641
889.263	4622
889.387	4755
889.511	4858
889.635	4782
889.759	4649
889.883	4656
890.006	4721
890.13	4847
890.254	4615
890.377	4630
890.501	4550
890.624	4538
890.748	4645
890.871	4531
890.995	4371
891.118	4386
891.241	4531
891.364	4500
891.488	4668
891.611	4481
891.734	4577
891.857	4542
891.98	4538
892.103	4626
892.226	4641
892.349	4535
892.471	4405
892.594	4554
892.717	4637
892.839	4554
892.962	4615
893.085	4710
893.207	4603
893.33	4481
893.452	4535
893.575	4641
893.697	4527
893.819	4771
893.941	4793
894.064	4755
894.186	4611
894.308	4584
894.43	4748
894.552	4828
894.674	4759
894.796	4516
894.918	4577
895.04	4596
895.161	4717
895.283	4664
895.405	4599
895.526	4641
895.648	4679
895.769	4698
895.891	4683
896.012	4672
896.134	4729
896.255	4622
896.376	4630
896.498	4592
896.619	4653
896.74	4641
896.861	4630
896.982	4915
897.103	5079
897.224	4797
897.345	4725
897.466	4634
897.587	4755
897.708	4828
897.828	4782
897.949	4637
898.07	4554
898.19	4641
898.311	4816
898.431	4664
898.552	4679
898.672	4816
898.792	4801
898.913	4774
899.033	4615
899.153	4538
899.273	4424
899.393	4519
899.513	4470
899.633	4500
899.753	4523
899.873	4478
899.993	4622
900.113	4500
900.232	4554
900.352	4573
900.472	4478
900.591	4417
900.711	4554
900.83	4424
900.95	4558
901.069	4714
901.189	4531
901.308	4360
901.427	4280
901.546	4363
901.665	4436
901.784	4554
901.904	4386
902.023	4318
902.141	4227
902.26	4166
902.379	4246
902.498	4272
902.617	4196
902.735	4337
902.854	4421
902.973	4367
903.091	4215
903.21	4261
903.328	4303
903.446	4261
903.565	4272
903.683	4356
903.801	4284
903.919	4436
904.038	4443
904.156	4363
904.274	4478
904.392	4398
904.51	4440
904.627	4459
904.745	4538
904.863	4584
904.981	4390
905.098	4318
905.216	4379
905.334	4417
905.451	4436
905.569	4455
905.686	4523
905.803	4561
905.921	4474
906.038	4584
906.155	4443
906.272	4375
906.389	4474
906.506	4310
906.623	4379
906.74	4394
906.857	4325
906.974	4383
907.091	4577
907.208	4710
907.324	4615
907.441	4497
907.557	4333
907.674	4341
907.79	4310
907.907	4379
908.023	4523
908.139	4459
908.256	4421
908.372	4485
908.488	4462
908.604	4337
908.72	4287
908.836	4413
908.952	4383
909.068	4413
909.184	4554
909.3	4485
909.415	4573
909.531	4531
909.647	4386
909.762	4394
909.878	4367
909.993	4402
910.108	4409
910.224	4424
910.339	4485
910.454	4390
910.57	4386
910.685	4329
910.8	4668
910.915	4611
911.03	4497
911.145	4295
911.259	4322
911.374	4341
911.489	4329
911.604	4265
911.718	4173
911.833	4188
911.947	4147
912.062	4017
912.176	4192
912.291	4272
912.405	4246
912.519	4508
912.633	4497
912.748	4367
912.862	4306
912.976	4207
913.09	4112
913.204	4154
913.318	4257
913.431	4363
913.545	4344
913.659	4455
913.772	4352
913.886	4265
914	4246
914.113	4352
914.226	4462
914.34	4341
914.453	4211
914.566	4436
914.68	4295
914.793	4318
914.906	4166
915.019	4124
915.132	4051
915.245	4196
915.358	4188
915.47	4268
915.583	4265
915.696	4306
915.809	4417
915.921	4371
916.034	4261
916.146	4234
916.259	4238
916.371	4383
916.483	4329
916.595	4268
916.708	4314
916.82	4386
916.932	4299
917.044	4325
917.156	4325
917.268	4242
917.38	4246
917.491	4249
917.603	4337
917.715	4405
917.826	4436
917.938	4352
918.049	4242
918.161	4417
918.272	4519
918.384	4519
918.495	4424
918.606	4295
918.717	4234
918.828	4291
918.939	4443
919.05	4223
919.161	4341
919.272	4124
919.383	4215
919.494	4478
919.604	4660
919.715	4424
919.826	4348
919.936	4405
920.047	4542
920.157	4459
920.267	4672
920.378	4531
920.488	4508
920.598	4721
920.708	4934
920.818	4790
920.928	4797
921.038	4999
921.148	4900
921.258	4637
921.368	4573
921.477	4508
921.587	4462
921.697	4371
921.806	4546
921.916	4447
922.025	4287
922.134	4280
922.244	4223
922.353	4341
922.462	4181
922.571	4139
922.68	4029
922.789	3968
922.898	4006
923.007	3972
923.116	4090
923.224	4067
923.333	4112
923.442	3987
923.55	3979
923.659	4059
923.767	4086
923.876	3991
923.984	4128
924.092	4002
924.201	4086
924.309	4109
924.417	4124
924.525	4078
924.633	4090
924.741	5067
924.849	3896
924.956	4150
925.064	3983
925.172	3884
925.279	3998
925.387	4082
925.494	4090
925.602	4242
925.709	4181
925.816	4055
925.924	4154
926.031	4219
926.138	4147
926.245	4223
926.352	4086
926.459	4219
926.566	4348
926.673	4162
926.779	4112
926.886	4101
926.993	3994
927.099	3945
927.206	3922
927.312	3926
927.419	4067
927.525	4051
927.631	4078
927.737	3956
927.843	3949
927.95	3850
928.056	3968
928.162	3983
928.267	4086
928.373	4584
928.479	4128
928.585	3861
928.69	4048
928.796	4078
928.901	3983
929.007	3831
929.112	3983
929.218	4017
929.323	3964
929.428	3945
929.533	4078
929.638	3915
929.743	3941
929.848	4071
929.953	3991
930.058	3876
930.163	3823
930.267	3789
930.372	3949
930.477	3816
930.581	4090
930.685	3926
930.79	3823
930.894	3945
930.998	3804
931.103	4036
931.207	3732
931.311	3709
931.415	3705
931.519	3523
931.623	3542
