Data from test_V78500241_2152.txt Node
Date: Fri Mar 25 17:03:57 CST 2022
User: usil
Spectrometer: V785-0024
Trigger mode: 0
Integration Time (sec): 4.000000E-1
Scans to average: 1
Nonlinearity correction enabled: false
Boxcar width: 0
Storing dark spectrum: false
XAxis mode: Wavelengths
Number of Pixels in Spectrum: 1024
>>>>>Begin Spectral Data<<<<<
801.071	8001
801.214	7955
801.356	7818
801.499	7879
801.641	7814
801.783	7814
801.926	7871
802.068	7947
802.211	8046
802.353	7955
802.496	7909
802.638	7807
802.78	7894
802.923	7917
803.065	7807
803.208	7807
803.35	7986
803.492	8149
803.635	8115
803.777	8035
803.919	8119
804.061	8473
804.204	8202
804.346	8001
804.488	7928
804.63	8058
804.773	7967
804.915	8111
805.057	8313
805.199	8157
805.341	8206
805.483	8290
805.626	8180
805.768	8119
805.91	8180
806.052	8259
806.194	8153
806.336	8324
806.478	8077
806.62	7993
806.762	8134
806.904	8286
807.046	8434
807.188	8400
807.33	8271
807.472	8210
807.614	8187
807.756	8142
807.898	7982
808.04	7875
808.182	7871
808.324	7894
808.465	7856
808.607	8062
808.749	8100
808.891	8229
809.033	8305
809.174	8279
809.316	8016
809.458	8096
809.6	8020
809.741	8088
809.883	7982
810.025	8111
810.166	8039
810.308	8031
810.45	7887
810.591	7864
810.733	7704
810.875	7708
811.016	7472
811.158	7434
811.299	7537
811.441	7723
811.582	7685
811.724	7586
811.865	7578
812.007	7563
812.148	7605
812.29	7582
812.431	7734
812.573	7871
812.714	7986
812.855	8176
812.997	8176
813.138	8317
813.279	8111
813.421	8088
813.562	7940
813.703	7784
813.845	7704
813.986	7434
814.127	7236
814.268	7202
814.41	7141
814.551	7152
814.692	7232
814.833	7057
814.974	7076
815.115	7091
815.256	7050
815.397	6954
815.539	6909
815.68	6795
815.821	6844
815.962	6810
816.103	6814
816.244	6684
816.385	6578
816.526	6604
816.666	6475
816.807	6319
816.948	6441
817.089	6445
817.23	6486
817.371	6395
817.512	6403
817.653	6391
817.793	6372
817.934	6372
818.075	6540
818.216	6407
818.356	6422
818.497	6209
818.638	6175
818.778	6159
818.919	6117
819.06	6136
819.2	6361
819.341	6323
819.481	6338
819.622	6521
819.762	6711
819.903	6715
820.043	6551
820.184	6574
820.324	6589
820.465	6684
820.605	6684
820.746	6623
820.886	6509
821.026	6662
821.167	6681
821.307	6829
821.447	6806
821.588	6612
821.728	6544
821.868	6547
822.008	6372
822.149	6395
822.289	6319
822.429	6152
822.569	6079
822.709	6133
822.849	5954
822.99	5840
823.13	5897
823.27	5954
823.41	5809
823.55	5790
823.69	5764
823.83	5691
823.97	5661
824.11	5512
824.25	5493
824.389	5577
824.529	5562
824.669	5562
824.809	5573
824.949	5653
825.089	5600
825.228	5577
825.368	5334
825.508	5299
825.648	5398
825.787	5345
825.927	5334
826.067	5296
826.206	5273
826.346	5429
826.485	5410
826.625	5421
826.765	5562
826.904	5471
827.044	5242
827.183	5197
827.323	5079
827.462	5239
827.601	5162
827.741	5193
827.88	5239
828.02	5113
828.159	5220
828.298	5307
828.437	5364
828.577	5223
828.716	5482
828.855	5280
828.994	5140
829.134	5166
829.273	5220
829.412	5109
829.551	5102
829.69	5170
829.829	5201
829.968	5417
830.107	5269
830.246	5292
830.385	5151
830.524	5140
830.663	5102
830.802	4900
830.941	4900
831.08	4843
831.219	4942
831.357	4965
831.496	5102
831.635	4919
831.774	4873
831.913	4847
832.051	4691
832.19	4714
832.329	4839
832.467	4683
832.606	4653
832.744	4725
832.883	4740
833.022	4710
833.16	4744
833.299	4797
833.437	4873
833.576	4854
833.714	4885
833.852	4835
833.991	4911
834.129	4957
834.267	4927
834.406	4900
834.544	4957
834.682	4987
834.821	4976
834.959	5109
835.097	5022
835.235	5174
835.373	5113
835.511	5121
835.65	5041
835.788	4972
835.926	4881
836.064	4873
836.202	4873
836.34	5159
836.478	5178
836.615	5102
836.753	5178
836.891	5296
837.029	5231
837.167	5178
837.305	5132
837.443	5136
837.58	5067
837.718	5284
837.856	5220
837.993	5151
838.131	5204
838.269	5227
838.406	5162
838.544	5178
838.681	5033
838.819	4957
838.956	4896
839.094	4885
839.231	4946
839.369	4995
839.506	5398
839.643	5239
839.781	5052
839.918	5056
840.055	5098
840.193	5128
840.33	5060
840.467	5185
840.604	5143
840.742	5417
840.879	5048
841.016	5071
841.153	5140
841.29	5376
841.427	5284
841.564	5299
841.701	5345
841.838	5269
841.975	5193
842.112	5242
842.249	5090
842.385	5056
842.522	5353
842.659	5121
842.796	5178
842.933	5208
843.069	5098
843.206	5143
843.343	5288
843.479	5261
843.616	5258
843.752	5010
843.889	4999
844.025	5220
844.162	5014
844.298	5201
844.435	5086
844.571	5045
844.708	5231
844.844	5292
844.98	5326
845.117	5273
845.253	5113
845.389	5048
845.525	5102
845.661	5140
845.798	4972
845.934	5121
846.07	5025
846.206	5193
846.342	5280
846.478	5181
846.614	5067
846.75	4968
846.886	4957
847.022	5140
847.158	4987
847.294	5048
847.429	5071
847.565	5064
847.701	5330
847.837	4835
847.972	4812
848.108	4976
848.244	4942
848.379	4763
848.515	4748
848.65	4683
848.786	4717
848.921	4801
849.057	4873
849.192	4843
849.328	4835
849.463	4835
849.598	4778
849.734	4717
849.869	4679
850.004	4656
850.14	4615
850.275	4615
850.41	4569
850.545	4550
850.68	4580
850.815	4672
850.95	4622
851.085	4759
851.22	4710
851.355	4664
851.49	4622
851.625	4584
851.76	4645
851.895	4481
852.03	4523
852.165	4622
852.299	4706
852.434	4774
852.569	4698
852.703	4767
852.838	4816
852.973	4934
853.107	4911
853.242	4672
853.376	4641
853.511	4561
853.645	4645
853.78	4755
853.914	4702
854.048	4660
854.183	4607
854.317	4698
854.451	4854
854.585	4675
854.72	4672
854.854	4714
854.988	4580
855.122	4672
855.256	4497
855.39	4698
855.524	4675
855.658	4645
855.792	4714
855.926	4736
856.06	4717
856.194	4797
856.327	4698
856.461	4603
856.595	4554
856.729	4645
856.862	4725
856.996	4698
857.13	4706
857.263	4748
857.397	4793
857.53	4660
857.664	4698
857.797	4740
857.931	4763
858.064	4672
858.197	4778
858.331	4618
858.464	4580
858.597	4504
858.731	4592
858.864	4637
858.997	4588
859.13	4664
859.263	4675
859.396	4656
859.529	4588
859.662	4577
859.795	4565
859.928	4637
860.061	4736
860.194	4714
860.327	4577
860.46	4550
860.592	4706
860.725	4664
860.858	4694
860.99	4584
861.123	4500
861.256	4508
861.388	4584
861.521	5436
861.653	4470
861.786	4383
861.918	4443
862.05	4519
862.183	4599
862.315	4607
862.447	4603
862.58	4519
862.712	4356
862.844	4322
862.976	4462
863.108	4459
863.24	4786
863.372	4352
863.504	4394
863.636	4386
863.768	4493
863.9	4409
864.032	4375
864.164	4386
864.296	4470
864.428	4512
864.559	4584
864.691	4531
864.823	4523
864.954	4542
865.086	4508
865.217	4470
865.349	4424
865.48	4424
865.612	4474
865.743	4603
865.875	4417
866.006	4424
866.137	4493
866.269	4424
866.4	4432
866.531	4440
866.662	4367
866.793	4405
866.924	4386
867.055	4489
867.186	4451
867.317	4371
867.448	4390
867.579	4398
867.71	4360
867.841	4394
867.972	4470
868.103	4474
868.233	4432
868.364	4432
868.495	4474
868.625	4618
868.756	4710
868.886	4573
869.017	4675
869.147	4759
869.278	4729
869.408	4656
869.539	4649
869.669	4675
869.799	4683
869.929	4748
870.06	4755
870.19	4980
870.32	4908
870.45	4911
870.58	4987
870.71	5124
870.84	5105
870.97	4965
871.1	4835
871.23	5189
871.36	5102
871.489	4946
871.619	5098
871.749	5105
871.879	5102
872.008	5185
872.138	5010
872.267	4976
872.397	4885
872.526	4835
872.656	4755
872.785	4774
872.915	4957
873.044	5037
873.173	4972
873.303	4927
873.432	4972
873.561	4965
873.69	4858
873.819	4850
873.948	4889
874.077	4790
874.206	4733
874.335	4831
874.464	4930
874.593	5060
874.722	4919
874.851	5094
874.979	5056
875.108	5018
875.237	4881
875.365	4858
875.494	4828
875.623	4908
875.751	4843
875.88	4919
876.008	4999
876.136	5048
876.265	5212
876.393	5311
876.521	5265
876.65	5212
876.778	5105
876.906	5048
877.034	4965
877.162	5083
877.29	4991
877.418	5090
877.546	5052
877.674	5060
877.802	5037
877.93	5003
878.058	4934
878.185	4866
878.313	4972
878.441	4892
878.568	4759
878.696	4892
878.824	4961
878.951	4968
879.079	5105
879.206	5284
879.333	5056
879.461	4965
879.588	5014
879.715	5121
879.842	5201
879.97	4999
880.097	4790
880.224	4774
880.351	4793
880.478	4862
880.605	4729
880.732	4790
880.859	5056
880.986	4862
881.112	4919
881.239	4771
881.366	4660
881.493	4626
881.619	4561
881.746	4615
881.872	4588
881.999	4634
882.125	4653
882.252	4771
882.378	4786
882.505	4919
882.631	4828
882.757	4630
882.883	4710
883.01	4725
883.136	4675
883.262	4592
883.388	4599
883.514	4790
883.64	4850
883.766	4824
883.892	4637
884.018	4645
884.143	4900
884.269	4984
884.395	4664
884.52	4599
884.646	4649
884.772	4561
884.897	4565
885.023	4630
885.148	4786
885.274	4881
885.399	4812
885.524	4717
885.65	4679
885.775	4736
885.9	4660
886.025	4828
886.15	4782
886.275	4672
886.4	4656
886.525	4660
886.65	4717
886.775	4664
886.9	4911
887.025	5041
887.149	4793
887.274	4622
887.399	4584
887.523	4592
887.648	4538
887.773	4558
887.897	4744
888.021	4752
888.146	4630
888.27	4740
888.395	4915
888.519	4748
888.643	4736
888.767	4805
888.891	4714
889.015	4611
889.139	4630
889.263	4580
889.387	4694
889.511	4816
889.635	4752
889.759	4615
889.883	4637
890.006	4679
890.13	4805
890.254	4630
890.377	4725
890.501	4550
890.624	4580
890.748	4611
890.871	4481
890.995	4440
891.118	4379
891.241	4519
891.364	4573
891.488	4653
891.611	4481
891.734	4504
891.857	4634
891.98	4558
892.103	4641
892.226	4637
892.349	4538
892.471	4447
892.594	4516
892.717	4618
892.839	4618
892.962	4599
893.085	4679
893.207	4611
893.33	4466
893.452	4535
893.575	4691
893.697	4592
893.819	4778
893.941	4870
894.064	4786
894.186	4615
894.308	4618
894.43	4683
894.552	4843
894.674	4748
894.796	4592
894.918	4641
895.04	4569
895.161	4759
895.283	4668
895.405	4592
895.526	4653
895.648	4702
895.769	4721
895.891	4759
896.012	4801
896.134	4774
896.255	4675
896.376	4675
896.498	4691
896.619	4717
896.74	4637
896.861	4679
896.982	4949
897.103	5109
897.224	4873
897.345	4786
897.466	4691
897.587	4748
897.708	4927
897.828	4824
897.949	4717
898.07	4630
898.19	4656
898.311	4889
898.431	4729
898.552	4752
898.672	4816
898.792	4801
898.913	4797
899.033	4656
899.153	4546
899.273	4462
899.393	4512
899.513	4550
899.633	4538
899.753	4641
899.873	4531
899.993	4664
900.113	4580
900.232	4622
900.352	4569
900.472	4538
900.591	4451
900.711	4527
900.83	4447
900.95	4702
901.069	4675
901.189	4554
901.308	4386
901.427	4356
901.546	4443
901.665	4478
901.784	4516
901.904	4455
902.023	4379
902.141	4242
902.26	4196
902.379	4329
902.498	4276
902.617	4257
902.735	4394
902.854	4432
902.973	4383
903.091	4253
903.21	4280
903.328	4268
903.446	4242
903.565	4295
903.683	4360
903.801	4303
903.919	4394
904.038	4478
904.156	4352
904.274	4474
904.392	4447
904.51	4489
904.627	4474
904.745	4626
904.863	4664
904.981	4367
905.098	4329
905.216	4379
905.334	4466
905.451	4436
905.569	4493
905.686	4569
905.803	4607
905.921	4436
906.038	4550
906.155	4535
906.272	4455
906.389	4443
906.506	4371
906.623	4383
906.74	4432
906.857	4352
906.974	4462
907.091	4569
907.208	4691
907.324	4592
907.441	4516
907.557	4371
907.674	4390
907.79	4360
907.907	4417
908.023	4527
908.139	4519
908.256	4443
908.372	4497
908.488	4497
908.604	4390
908.72	4352
908.836	4455
908.952	4443
909.068	4413
909.184	4607
909.3	4519
909.415	4607
909.531	4599
909.647	4383
909.762	4398
909.878	4337
909.993	4493
910.108	4443
910.224	4421
910.339	4470
910.454	4424
910.57	4405
910.685	4394
910.8	4679
910.915	4584
911.03	4512
911.145	4360
911.259	4348
911.374	4424
911.489	4348
911.604	4284
911.718	4230
911.833	4200
911.947	4124
912.062	4055
912.176	4215
912.291	4280
912.405	4276
912.519	4443
912.633	4512
912.748	4417
912.862	4386
912.976	4234
913.09	4131
913.204	4238
913.318	4265
913.431	4371
913.545	4417
913.659	4421
913.772	4367
913.886	4337
914	4299
914.113	4383
914.226	4462
914.34	4424
914.453	4287
914.566	4459
914.68	4371
914.793	4367
914.906	4185
915.019	4173
915.132	4097
915.245	4192
915.358	4257
915.47	4291
915.583	4322
915.696	4348
915.809	4424
915.921	4493
916.034	4299
916.146	4318
916.259	4276
916.371	4356
916.483	4383
916.595	4287
916.708	4348
916.82	4344
916.932	4352
917.044	4417
917.156	4386
917.268	4291
917.38	4325
917.491	4238
917.603	4363
917.715	4455
917.826	4493
917.938	4371
918.049	4268
918.161	4455
918.272	4584
918.384	4592
918.495	4447
918.606	4363
918.717	4306
918.828	4352
918.939	4413
919.05	4306
919.161	4344
919.272	4162
919.383	4280
919.494	4485
919.604	4668
919.715	4462
919.826	4363
919.936	4398
920.047	4519
920.157	4577
920.267	4771
920.378	4550
920.488	4531
920.598	4755
920.708	4900
920.818	4736
920.928	4771
921.038	4987
921.148	4930
921.258	4618
921.368	4584
921.477	4527
921.587	4447
921.697	4375
921.806	4630
921.916	4390
922.025	4325
922.134	4329
922.244	4249
922.353	4405
922.462	4166
922.571	4139
922.68	4025
922.789	4002
922.898	4036
923.007	4051
923.116	4154
923.224	4063
923.333	4131
923.442	4032
923.55	4021
923.659	4067
923.767	4124
923.876	4017
923.984	4185
924.092	3998
924.201	4093
924.309	4082
924.417	4105
924.525	4109
924.633	4158
924.741	5105
924.849	3945
924.956	4185
925.064	3968
925.172	3968
925.279	4006
925.387	4067
925.494	4067
925.602	4207
925.709	4192
925.816	4044
925.924	4154
926.031	4227
926.138	4181
926.245	4188
926.352	4112
926.459	4265
926.566	4329
926.673	4173
926.779	4097
926.886	4131
926.993	4044
927.099	3960
927.206	3968
927.312	3991
927.419	4090
927.525	4040
927.631	4109
927.737	4036
927.843	3960
927.95	3838
928.056	3998
928.162	3987
928.267	4063
928.373	4672
928.479	4147
928.585	3915
928.69	4048
928.796	4067
928.901	3994
929.007	3876
929.112	3998
929.218	3972
929.323	3968
929.428	3972
929.533	4131
929.638	3903
929.743	3998
929.848	4067
929.953	3987
930.058	3991
930.163	3816
930.267	3800
930.372	4017
930.477	3819
930.581	4120
930.685	3968
930.79	3865
930.894	3896
930.998	3873
931.103	4051
931.207	3762
931.311	3743
931.415	3690
931.519	3542
931.623	3591
