Data from test_V78500241_1030.txt Node
Date: Fri Mar 25 16:56:09 CST 2022
User: usil
Spectrometer: V785-0024
Trigger mode: 0
Integration Time (sec): 4.000000E-1
Scans to average: 1
Nonlinearity correction enabled: false
Boxcar width: 0
Storing dark spectrum: false
XAxis mode: Wavelengths
Number of Pixels in Spectrum: 1024
>>>>>Begin Spectral Data<<<<<
801.071	8050
801.214	8065
801.356	7845
801.499	7845
801.641	7769
801.783	7849
801.926	7944
802.068	7947
802.211	7944
802.353	7852
802.496	7780
802.638	7814
802.78	7940
802.923	7970
803.065	7833
803.208	7917
803.35	8046
803.492	8168
803.635	8161
803.777	8008
803.919	8073
804.061	8377
804.204	8126
804.346	8096
804.488	7989
804.63	8138
804.773	7978
804.915	8145
805.057	8240
805.199	8103
805.341	8214
805.483	8149
805.626	8157
805.768	8142
805.91	8199
806.052	8210
806.194	8005
806.336	8313
806.478	8107
806.62	8039
806.762	8092
806.904	8199
807.046	8473
807.188	8294
807.33	8301
807.472	8320
807.614	8096
807.756	8103
807.898	7955
808.04	7909
808.182	7932
808.324	7849
808.465	7932
808.607	8016
808.749	8046
808.891	8145
809.033	8214
809.174	8195
809.316	8046
809.458	8005
809.6	7993
809.741	7963
809.883	7986
810.025	8065
810.166	8031
810.308	7974
810.45	8016
810.591	7871
810.733	7738
810.875	7578
811.016	7495
811.158	7453
811.299	7586
811.441	7719
811.582	7666
811.724	7563
811.865	7529
812.007	7510
812.148	7628
812.29	7613
812.431	7712
812.573	7803
812.714	7986
812.855	8119
812.997	8214
813.138	8252
813.279	8164
813.421	8119
813.562	8001
813.703	7833
813.845	7753
813.986	7411
814.127	7244
814.268	7270
814.41	7221
814.551	7145
814.692	7141
814.833	7057
814.974	7095
815.115	7133
815.256	6993
815.397	6920
815.539	6996
815.68	6840
815.821	6787
815.962	6856
816.103	6776
816.244	6722
816.385	6582
816.526	6684
816.666	6464
816.807	6319
816.948	6422
817.089	6399
817.23	6407
817.371	6407
817.512	6422
817.653	6388
817.793	6365
817.934	6372
818.075	6452
818.216	6483
818.356	6448
818.497	6201
818.638	6102
818.778	6152
818.919	6171
819.06	6155
819.2	6270
819.341	6254
819.481	6308
819.622	6494
819.762	6741
819.903	6650
820.043	6532
820.184	6593
820.324	6597
820.465	6665
820.605	6601
820.746	6593
820.886	6506
821.026	6612
821.167	6673
821.307	6738
821.447	6715
821.588	6612
821.728	6547
821.868	6376
822.008	6346
822.149	6342
822.289	6277
822.429	6148
822.569	6045
822.709	6076
822.849	5866
822.99	5882
823.13	5874
823.27	5904
823.41	5764
823.55	5828
823.69	5786
823.83	5794
823.97	5672
824.11	5547
824.25	5512
824.389	5528
824.529	5535
824.669	5493
824.809	5642
824.949	5661
825.089	5592
825.228	5566
825.368	5364
825.508	5326
825.648	5296
825.787	5391
825.927	5326
826.067	5284
826.206	5299
826.346	5318
826.485	5364
826.625	5368
826.765	5535
826.904	5474
827.044	5231
827.183	5189
827.323	5136
827.462	5258
827.601	5155
827.741	5189
827.88	5178
828.02	5075
828.159	5189
828.298	5265
828.437	5334
828.577	5299
828.716	5490
828.855	5334
828.994	5105
829.134	5193
829.273	5136
829.412	5143
829.551	5113
829.69	5128
829.829	5265
829.968	5269
830.107	5250
830.246	5258
830.385	5162
830.524	5128
830.663	5056
830.802	4900
830.941	4862
831.08	4870
831.219	4961
831.357	4942
831.496	5155
831.635	4946
831.774	4797
831.913	4812
832.051	4717
832.19	4725
832.329	4805
832.467	4675
832.606	4622
832.744	4702
832.883	4752
833.022	4733
833.16	4778
833.299	4839
833.437	4820
833.576	4809
833.714	4839
833.852	4839
833.991	4896
834.129	4953
834.267	4930
834.406	4870
834.544	4942
834.682	4984
834.821	4968
834.959	5136
835.097	4938
835.235	5098
835.373	5117
835.511	5098
835.65	4980
835.788	5033
835.926	4881
836.064	4885
836.202	4892
836.34	5166
836.478	5181
836.615	5113
836.753	5216
836.891	5223
837.029	5223
837.167	5223
837.305	5121
837.443	5102
837.58	5071
837.718	5235
837.856	5159
837.993	5121
838.131	5208
838.269	5151
838.406	5201
838.544	5128
838.681	4995
838.819	5022
838.956	4835
839.094	4889
839.231	4968
839.369	5083
839.506	5433
839.643	5246
839.781	5052
839.918	4957
840.055	5098
840.193	5098
840.33	5185
840.467	5159
840.604	5128
840.742	5349
840.879	5121
841.016	5109
841.153	5193
841.29	5326
841.427	5322
841.564	5326
841.701	5387
841.838	5246
841.975	5227
842.112	5254
842.249	5067
842.385	5128
842.522	5368
842.659	5098
842.796	5117
842.933	5166
843.069	5147
843.206	5155
843.343	5307
843.479	5280
843.616	5204
843.752	5018
843.889	4995
844.025	5227
844.162	4968
844.298	5204
844.435	5052
844.571	5048
844.708	5197
844.844	5303
844.98	5296
845.117	5292
845.253	5121
845.389	5079
845.525	5159
845.661	5105
845.798	5033
845.934	5124
846.07	5045
846.206	5181
846.342	5303
846.478	5216
846.614	5010
846.75	4995
846.886	4881
847.022	5147
847.158	4987
847.294	5079
847.429	5048
847.565	5010
847.701	5250
847.837	4870
847.972	4816
848.108	4934
848.244	4927
848.379	4740
848.515	4763
848.65	4672
848.786	4767
848.921	4755
849.057	4843
849.192	4831
849.328	4816
849.463	4850
849.598	4733
849.734	4694
849.869	4687
850.004	4599
850.14	4634
850.275	4618
850.41	4558
850.545	4584
850.68	4565
850.815	4573
850.95	4607
851.085	4839
851.22	4698
851.355	4645
851.49	4592
851.625	4611
851.76	4660
851.895	4546
852.03	4512
852.165	4596
852.299	4649
852.434	4816
852.569	4736
852.703	4725
852.838	4858
852.973	4908
853.107	4877
853.242	4717
853.376	4630
853.511	4554
853.645	4592
853.78	4790
853.914	4706
854.048	4622
854.183	4596
854.317	4721
854.451	4790
854.585	4668
854.72	4588
854.854	4733
854.988	4550
855.122	4577
855.256	4527
855.39	4710
855.524	4782
855.658	4740
855.792	4634
855.926	4759
856.06	4755
856.194	4740
856.327	4668
856.461	4630
856.595	4622
856.729	4573
856.862	4771
856.996	4683
857.13	4733
857.263	4710
857.397	4748
857.53	4653
857.664	4710
857.797	4771
857.931	4740
858.064	4653
858.197	4702
858.331	4622
858.464	4558
858.597	4580
858.731	4630
858.864	4637
858.997	4596
859.13	4611
859.263	4649
859.396	4710
859.529	4542
859.662	4542
859.795	4535
859.928	4637
860.061	4771
860.194	4755
860.327	4588
860.46	4508
860.592	4698
860.725	4736
860.858	4675
860.99	4561
861.123	4523
861.256	4542
861.388	4584
861.521	5299
861.653	4546
861.786	4436
861.918	4443
862.05	4481
862.183	4527
862.315	4618
862.447	4561
862.58	4512
862.712	4367
862.844	4329
862.976	4447
863.108	4443
863.24	4854
863.372	4337
863.504	4379
863.636	4383
863.768	4470
863.9	4451
864.032	4329
864.164	4375
864.296	4462
864.428	4546
864.559	4580
864.691	4508
864.823	4481
864.954	4436
865.086	4493
865.217	4447
865.349	4417
865.48	4440
865.612	4474
865.743	4573
865.875	4371
866.006	4409
866.137	4462
866.269	4398
866.4	4424
866.531	4417
866.662	4356
866.793	4413
866.924	4432
867.055	4455
867.186	4474
867.317	4405
867.448	4333
867.579	4402
867.71	4363
867.841	4383
867.972	4402
868.103	4421
868.233	4436
868.364	4481
868.495	4504
868.625	4660
868.756	4733
868.886	4561
869.017	4592
869.147	4778
869.278	4755
869.408	4626
869.539	4634
869.669	4698
869.799	4618
869.929	4725
870.06	4664
870.19	4991
870.32	4911
870.45	4972
870.58	4976
870.71	5083
870.84	5067
870.97	4976
871.1	4896
871.23	5140
871.36	5121
871.489	4999
871.619	5064
871.749	5128
871.879	5048
872.008	5094
872.138	5048
872.267	4980
872.397	4812
872.526	4793
872.656	4721
872.785	4839
872.915	4972
873.044	5025
873.173	4904
873.303	5010
873.432	4991
873.561	4885
873.69	4866
873.819	4858
873.948	4930
874.077	4801
874.206	4759
874.335	4801
874.464	4866
874.593	5025
874.722	4976
874.851	5102
874.979	5052
875.108	4999
875.237	4877
875.365	4866
875.494	4843
875.623	4980
875.751	4774
875.88	4866
876.008	4976
876.136	5033
876.265	5162
876.393	5322
876.521	5231
876.65	5189
876.778	5143
876.906	5033
877.034	5025
877.162	5003
877.29	4980
877.418	5003
877.546	4999
877.674	5010
877.802	4995
877.93	5003
878.058	4942
878.185	4843
878.313	4957
878.441	4953
878.568	4782
878.696	4812
878.824	4961
878.951	4923
879.079	5067
879.206	5197
879.333	5041
879.461	4961
879.588	5003
879.715	5132
879.842	5223
879.97	5003
880.097	4774
880.224	4748
880.351	4740
880.478	4824
880.605	4774
880.732	4786
880.859	5056
880.986	4885
881.112	4911
881.239	4786
881.366	4596
881.493	4573
881.619	4558
881.746	4634
881.872	4618
881.999	4611
882.125	4683
882.252	4816
882.378	4816
882.505	4942
882.631	4771
882.757	4637
882.883	4717
883.01	4729
883.136	4691
883.262	4592
883.388	4592
883.514	4759
883.64	4854
883.766	4763
883.892	4611
884.018	4649
884.143	4873
884.269	4965
884.395	4675
884.52	4611
884.646	4615
884.772	4592
884.897	4554
885.023	4607
885.148	4744
885.274	4839
885.399	4809
885.524	4615
885.65	4679
885.775	4736
885.9	4687
886.025	4809
886.15	4733
886.275	4698
886.4	4630
886.525	4664
886.65	4687
886.775	4664
886.9	4839
887.025	4976
887.149	4801
887.274	4645
887.399	4565
887.523	4573
887.648	4573
887.773	4516
887.897	4725
888.021	4759
888.146	4660
888.27	4850
888.395	4873
888.519	4782
888.643	4839
888.767	4812
888.891	4691
889.015	4561
889.139	4660
889.263	4592
889.387	4694
889.511	4835
889.635	4816
889.759	4630
889.883	4653
890.006	4748
890.13	4835
890.254	4626
890.377	4691
890.501	4519
890.624	4516
890.748	4664
890.871	4527
890.995	4462
891.118	4417
891.241	4565
891.364	4504
891.488	4622
891.611	4489
891.734	4535
891.857	4626
891.98	4565
892.103	4641
892.226	4592
892.349	4569
892.471	4470
892.594	4569
892.717	4554
892.839	4599
892.962	4653
893.085	4656
893.207	4630
893.33	4504
893.452	4558
893.575	4717
893.697	4622
893.819	4839
893.941	4881
894.064	4793
894.186	4584
894.308	4641
894.43	4744
894.552	4900
894.674	4763
894.796	4535
894.918	4637
895.04	4603
895.161	4721
895.283	4675
895.405	4569
895.526	4702
895.648	4733
895.769	4736
895.891	4733
896.012	4778
896.134	4717
896.255	4694
896.376	4656
896.498	4698
896.619	4725
896.74	4672
896.861	4702
896.982	4923
897.103	5067
897.224	4870
897.345	4740
897.466	4694
897.587	4771
897.708	4896
897.828	4778
897.949	4675
898.07	4588
898.19	4637
898.311	4889
898.431	4691
898.552	4736
898.672	4892
898.792	4828
898.913	4755
899.033	4653
899.153	4561
899.273	4474
899.393	4493
899.513	4558
899.633	4561
899.753	4561
899.873	4527
899.993	4580
900.113	4546
900.232	4630
900.352	4542
900.472	4519
900.591	4459
900.711	4462
900.83	4451
900.95	4618
901.069	4710
901.189	4535
901.308	4443
901.427	4337
901.546	4440
901.665	4497
901.784	4485
901.904	4428
902.023	4325
902.141	4219
902.26	4227
902.379	4337
902.498	4314
902.617	4295
902.735	4402
902.854	4417
902.973	4367
903.091	4242
903.21	4246
903.328	4322
903.446	4303
903.565	4291
903.683	4383
903.801	4322
903.919	4409
904.038	4451
904.156	4287
904.274	4489
904.392	4398
904.51	4436
904.627	4523
904.745	4580
904.863	4615
904.981	4424
905.098	4318
905.216	4424
905.334	4447
905.451	4402
905.569	4478
905.686	4603
905.803	4573
905.921	4451
906.038	4577
906.155	4481
906.272	4421
906.389	4489
906.506	4337
906.623	4383
906.74	4413
906.857	4280
906.974	4367
907.091	4546
907.208	4687
907.324	4611
907.441	4535
907.557	4379
907.674	4375
907.79	4348
907.907	4398
908.023	4500
908.139	4455
908.256	4428
908.372	4470
908.488	4443
908.604	4360
908.72	4341
908.836	4394
908.952	4386
909.068	4466
909.184	4626
909.3	4497
909.415	4637
909.531	4561
909.647	4371
909.762	4379
909.878	4375
909.993	4424
910.108	4436
910.224	4443
910.339	4500
910.454	4424
910.57	4413
910.685	4348
910.8	4691
910.915	4637
911.03	4523
911.145	4337
911.259	4398
911.374	4428
911.489	4348
911.604	4329
911.718	4181
911.833	4219
911.947	4097
912.062	4029
912.176	4261
912.291	4253
912.405	4268
912.519	4470
912.633	4550
912.748	4356
912.862	4352
912.976	4234
913.09	4131
913.204	4204
913.318	4253
913.431	4432
913.545	4394
913.659	4455
913.772	4402
913.886	4253
914	4261
914.113	4421
914.226	4493
914.34	4424
914.453	4257
914.566	4405
914.68	4322
914.793	4383
914.906	4196
915.019	4139
915.132	4093
915.245	4200
915.358	4257
915.47	4268
915.583	4314
915.696	4318
915.809	4466
915.921	4432
916.034	4314
916.146	4249
916.259	4261
916.371	4356
916.483	4421
916.595	4261
916.708	4329
916.82	4325
916.932	4341
917.044	4398
917.156	4363
917.268	4215
917.38	4303
917.491	4299
917.603	4413
917.715	4440
917.826	4417
917.938	4348
918.049	4303
918.161	4424
918.272	4569
918.384	4512
918.495	4481
918.606	4268
918.717	4280
918.828	4367
918.939	4390
919.05	4280
919.161	4325
919.272	4150
919.383	4295
919.494	4500
919.604	4668
919.715	4447
919.826	4356
919.936	4424
920.047	4535
920.157	4523
920.267	4729
920.378	4573
920.488	4565
920.598	4729
920.708	4908
920.818	4786
920.928	4782
921.038	4942
921.148	4953
921.258	4698
921.368	4626
921.477	4538
921.587	4470
921.697	4402
921.806	4538
921.916	4485
922.025	4329
922.134	4272
922.244	4272
922.353	4348
922.462	4200
922.571	4169
922.68	4029
922.789	4017
922.898	4078
923.007	4040
923.116	4116
923.224	4116
923.333	4093
923.442	3972
923.55	4044
923.659	4051
923.767	4169
923.876	4013
923.984	4154
924.092	4051
924.201	4086
924.309	4120
924.417	4143
924.525	4055
924.633	4124
924.741	5022
924.849	3934
924.956	4177
925.064	3922
925.172	3937
925.279	3960
925.387	4032
925.494	4093
925.602	4204
925.709	4215
925.816	4048
925.924	4188
926.031	4242
926.138	4166
926.245	4230
926.352	4131
926.459	4265
926.566	4341
926.673	4158
926.779	4120
926.886	4128
926.993	4036
927.099	3983
927.206	3991
927.312	3949
927.419	4090
927.525	4029
927.631	4101
927.737	3983
927.843	3930
927.95	3857
928.056	4055
928.162	4017
928.267	4086
928.373	4653
928.479	4158
928.585	3873
928.69	4044
928.796	4097
928.901	4006
929.007	3869
929.112	3979
929.218	4010
929.323	3930
929.428	3945
929.533	4124
929.638	3922
929.743	3987
929.848	4025
929.953	3987
930.058	3960
930.163	3785
930.267	3861
930.372	3964
930.477	3808
930.581	4120
930.685	3964
930.79	3857
930.894	3911
930.998	3838
931.103	4048
931.207	3717
931.311	3743
931.415	3682
931.519	3542
931.623	3576
