Data from test_V78500241_1279.txt Node
Date: Fri Mar 25 16:57:53 CST 2022
User: usil
Spectrometer: V785-0024
Trigger mode: 0
Integration Time (sec): 4.000000E-1
Scans to average: 1
Nonlinearity correction enabled: false
Boxcar width: 0
Storing dark spectrum: false
XAxis mode: Wavelengths
Number of Pixels in Spectrum: 1024
>>>>>Begin Spectral Data<<<<<
801.071	8001
801.214	7982
801.356	7868
801.499	7852
801.641	7776
801.783	7772
801.926	7875
802.068	7944
802.211	7974
802.353	7963
802.496	7849
802.638	7841
802.78	7887
802.923	7955
803.065	7947
803.208	7883
803.35	8008
803.492	8081
803.635	8115
803.777	7993
803.919	8164
804.061	8507
804.204	8244
804.346	8031
804.488	8012
804.63	8088
804.773	7944
804.915	8096
805.057	8366
805.199	8111
805.341	8240
805.483	8248
805.626	8229
805.768	8065
805.91	8275
806.052	8267
806.194	8073
806.336	8252
806.478	8073
806.62	8058
806.762	8176
806.904	8248
807.046	8412
807.188	8267
807.33	8275
807.472	8385
807.614	8115
807.756	8073
807.898	7936
808.04	7887
808.182	7944
808.324	7936
808.465	7959
808.607	8157
808.749	8115
808.891	8202
809.033	8339
809.174	8111
809.316	8111
809.458	8077
809.6	8016
809.741	8043
809.883	8043
810.025	8039
810.166	8103
810.308	8058
810.45	8077
810.591	7841
810.733	7761
810.875	7647
811.016	7537
811.158	7544
811.299	7628
811.441	7719
811.582	7681
811.724	7632
811.865	7540
812.007	7647
812.148	7590
812.29	7628
812.431	7761
812.573	7917
812.714	7940
812.855	8069
812.997	8229
813.138	8305
813.279	8183
813.421	8142
813.562	8001
813.703	7845
813.845	7757
813.986	7468
814.127	7266
814.268	7168
814.41	7190
814.551	7141
814.692	7183
814.833	7084
814.974	7126
815.115	7110
815.256	6973
815.397	6901
815.539	7015
815.68	6837
815.821	6783
815.962	6848
816.103	6776
816.244	6703
816.385	6642
816.526	6608
816.666	6467
816.807	6346
816.948	6448
817.089	6441
817.23	6369
817.371	6365
817.512	6399
817.653	6365
817.793	6376
817.934	6372
818.075	6418
818.216	6414
818.356	6433
818.497	6209
818.638	6076
818.778	6194
818.919	6178
819.06	6171
819.2	6300
819.341	6327
819.481	6334
819.622	6555
819.762	6745
819.903	6734
820.043	6517
820.184	6578
820.324	6601
820.465	6688
820.605	6658
820.746	6650
820.886	6437
821.026	6654
821.167	6662
821.307	6734
821.447	6779
821.588	6639
821.728	6536
821.868	6448
822.008	6353
822.149	6281
822.289	6311
822.429	6095
822.569	6072
822.709	6079
822.849	5935
822.99	5904
823.13	5931
823.27	5897
823.41	5794
823.55	5805
823.69	5767
823.83	5718
823.97	5646
824.11	5535
824.25	5509
824.389	5554
824.529	5619
824.669	5497
824.809	5623
824.949	5634
825.089	5592
825.228	5566
825.368	5360
825.508	5379
825.648	5341
825.787	5360
825.927	5318
826.067	5235
826.206	5292
826.346	5341
826.485	5318
826.625	5421
826.765	5505
826.904	5398
827.044	5258
827.183	5227
827.323	5121
827.462	5197
827.601	5174
827.741	5166
827.88	5197
828.02	5071
828.159	5231
828.298	5299
828.437	5303
828.577	5223
828.716	5474
828.855	5265
828.994	5185
829.134	5109
829.273	5155
829.412	5109
829.551	5128
829.69	5140
829.829	5265
829.968	5330
830.107	5311
830.246	5296
830.385	5159
830.524	5159
830.663	5041
830.802	4949
830.941	4870
831.08	4839
831.219	5018
831.357	4972
831.496	5117
831.635	4896
831.774	4839
831.913	4896
832.051	4706
832.19	4729
832.329	4797
832.467	4645
832.606	4599
832.744	4710
832.883	4717
833.022	4759
833.16	4778
833.299	4801
833.437	4782
833.576	4843
833.714	4854
833.852	4854
833.991	4870
834.129	4923
834.267	4896
834.406	4824
834.544	4980
834.682	5003
834.821	4930
834.959	5185
835.097	5006
835.235	5132
835.373	5041
835.511	5105
835.65	5029
835.788	4961
835.926	4847
836.064	4835
836.202	4885
836.34	5124
836.478	5254
836.615	5090
836.753	5178
836.891	5273
837.029	5227
837.167	5220
837.305	5170
837.443	5143
837.58	5102
837.718	5220
837.856	5185
837.993	5162
838.131	5242
838.269	5155
838.406	5178
838.544	5216
838.681	5022
838.819	5018
838.956	4850
839.094	4915
839.231	5010
839.369	5064
839.506	5421
839.643	5273
839.781	5064
839.918	5010
840.055	5094
840.193	5102
840.33	5151
840.467	5098
840.604	5185
840.742	5433
840.879	5060
841.016	5056
841.153	5117
841.29	5357
841.427	5307
841.564	5322
841.701	5345
841.838	5246
841.975	5212
842.112	5280
842.249	5143
842.385	5098
842.522	5357
842.659	5151
842.796	5151
842.933	5208
843.069	5121
843.206	5147
843.343	5258
843.479	5261
843.616	5265
843.752	5041
843.889	5003
844.025	5216
844.162	5025
844.298	5235
844.435	5079
844.571	5052
844.708	5208
844.844	5277
844.98	5296
845.117	5273
845.253	5147
845.389	5022
845.525	5178
845.661	5155
845.798	5025
845.934	5109
846.07	4991
846.206	5170
846.342	5303
846.478	5178
846.614	4965
846.75	4930
846.886	4908
847.022	5136
847.158	5064
847.294	5025
847.429	5113
847.565	5045
847.701	5299
847.837	4854
847.972	4782
848.108	4991
848.244	4953
848.379	4767
848.515	4694
848.65	4694
848.786	4729
848.921	4759
849.057	4850
849.192	4889
849.328	4755
849.463	4854
849.598	4744
849.734	4748
849.869	4656
850.004	4649
850.14	4653
850.275	4615
850.41	4546
850.545	4603
850.68	4603
850.815	4618
850.95	4607
851.085	4782
851.22	4790
851.355	4679
851.49	4618
851.625	4645
851.76	4649
851.895	4554
852.03	4504
852.165	4634
852.299	4721
852.434	4782
852.569	4717
852.703	4782
852.838	4828
852.973	4919
853.107	4854
853.242	4702
853.376	4672
853.511	4558
853.645	4580
853.78	4801
853.914	4668
854.048	4637
854.183	4687
854.317	4683
854.451	4858
854.585	4691
854.72	4641
854.854	4710
854.988	4538
855.122	4637
855.256	4573
855.39	4645
855.524	4805
855.658	4717
855.792	4675
855.926	4717
856.06	4729
856.194	4778
856.327	4641
856.461	4611
856.595	4611
856.729	4577
856.862	4771
856.996	4653
857.13	4691
857.263	4755
857.397	4782
857.53	4637
857.664	4797
857.797	4782
857.931	4801
858.064	4702
858.197	4729
858.331	4626
858.464	4580
858.597	4459
858.731	4603
858.864	4660
858.997	4569
859.13	4664
859.263	4706
859.396	4649
859.529	4626
859.662	4527
859.795	4504
859.928	4630
860.061	4763
860.194	4774
860.327	4626
860.46	4561
860.592	4714
860.725	4691
860.858	4714
860.99	4569
861.123	4558
861.256	4512
861.388	4637
861.521	5189
861.653	4455
861.786	4417
861.918	4447
862.05	4497
862.183	4542
862.315	4584
862.447	4664
862.58	4561
862.712	4367
862.844	4299
862.976	4451
863.108	4440
863.24	4858
863.372	4386
863.504	4379
863.636	4405
863.768	4421
863.9	4417
864.032	4363
864.164	4390
864.296	4466
864.428	4504
864.559	4577
864.691	4569
864.823	4508
864.954	4500
865.086	4474
865.217	4447
865.349	4398
865.48	4402
865.612	4432
865.743	4565
865.875	4409
866.006	4440
866.137	4455
866.269	4436
866.4	4432
866.531	4443
866.662	4443
866.793	4367
866.924	4379
867.055	4519
867.186	4352
867.317	4398
867.448	4409
867.579	4386
867.71	4360
867.841	4356
867.972	4459
868.103	4428
868.233	4443
868.364	4470
868.495	4481
868.625	4660
868.756	4748
868.886	4573
869.017	4649
869.147	4752
869.278	4733
869.408	4645
869.539	4584
869.669	4691
869.799	4634
869.929	4744
870.06	4714
870.19	4927
870.32	4904
870.45	4862
870.58	5014
870.71	5064
870.84	5079
870.97	4927
871.1	4915
871.23	5155
871.36	5117
871.489	5060
871.619	5083
871.749	5083
871.879	5143
872.008	5102
872.138	5071
872.267	4919
872.397	4858
872.526	4778
872.656	4714
872.785	4759
872.915	4934
873.044	5033
873.173	4927
873.303	4965
873.432	4953
873.561	4923
873.69	4835
873.819	4816
873.948	4942
874.077	4801
874.206	4759
874.335	4759
874.464	4927
874.593	5060
874.722	4953
874.851	5090
874.979	5045
875.108	5003
875.237	4911
875.365	4858
875.494	4824
875.623	4984
875.751	4793
875.88	4900
876.008	4949
876.136	5071
876.265	5159
876.393	5303
876.521	5223
876.65	5197
876.778	5140
876.906	5075
877.034	5029
877.162	5048
877.29	4942
877.418	5079
877.546	5060
877.674	5022
877.802	5041
877.93	4965
878.058	4915
878.185	4839
878.313	4980
878.441	4900
878.568	4782
878.696	4828
878.824	4953
878.951	4900
879.079	5124
879.206	5326
879.333	5048
879.461	4934
879.588	4991
879.715	5094
879.842	5185
879.97	5018
880.097	4771
880.224	4721
880.351	4824
880.478	4809
880.605	4774
880.732	4771
880.859	5048
880.986	4892
881.112	4915
881.239	4755
881.366	4664
881.493	4558
881.619	4573
881.746	4618
881.872	4649
881.999	4603
882.125	4672
882.252	4774
882.378	4881
882.505	4885
882.631	4862
882.757	4618
882.883	4744
883.01	4744
883.136	4660
883.262	4607
883.388	4611
883.514	4740
883.64	4850
883.766	4809
883.892	4668
884.018	4725
884.143	4881
884.269	4984
884.395	4618
884.52	4634
884.646	4664
884.772	4565
884.897	4508
885.023	4668
885.148	4778
885.274	4812
885.399	4820
885.524	4687
885.65	4664
885.775	4736
885.9	4736
886.025	4835
886.15	4801
886.275	4717
886.4	4603
886.525	4740
886.65	4675
886.775	4710
886.9	4831
887.025	5094
887.149	4755
887.274	4672
887.399	4542
887.523	4573
887.648	4588
887.773	4596
887.897	4752
888.021	4736
888.146	4687
888.27	4831
888.395	4896
888.519	4793
888.643	4809
888.767	4793
888.891	4653
889.015	4592
889.139	4599
889.263	4607
889.387	4797
889.511	4892
889.635	4847
889.759	4637
889.883	4596
890.006	4740
890.13	4828
890.254	4615
890.377	4656
890.501	4546
890.624	4523
890.748	4664
890.871	4523
890.995	4405
891.118	4360
891.241	4519
891.364	4546
891.488	4618
891.611	4478
891.734	4516
891.857	4607
891.98	4573
892.103	4656
892.226	4577
892.349	4504
892.471	4413
892.594	4542
892.717	4584
892.839	4561
892.962	4622
893.085	4706
893.207	4603
893.33	4417
893.452	4519
893.575	4725
893.697	4588
893.819	4801
893.941	4809
894.064	4694
894.186	4554
894.308	4554
894.43	4660
894.552	4820
894.674	4744
894.796	4527
894.918	4580
895.04	4531
895.161	4683
895.283	4649
895.405	4561
895.526	4664
895.648	4656
895.769	4710
895.891	4717
896.012	4687
896.134	4691
896.255	4664
896.376	4626
896.498	4592
896.619	4660
896.74	4588
896.861	4710
896.982	4904
897.103	5025
897.224	4831
897.345	4706
897.466	4687
897.587	4729
897.708	4843
897.828	4736
897.949	4668
898.07	4573
898.19	4569
898.311	4843
898.431	4721
898.552	4755
898.672	4797
898.792	4736
898.913	4702
899.033	4645
899.153	4516
899.273	4371
899.393	4466
899.513	4516
899.633	4497
899.753	4504
899.873	4485
899.993	4542
900.113	4542
900.232	4607
900.352	4561
900.472	4459
900.591	4409
900.711	4455
900.83	4421
900.95	4645
901.069	4698
901.189	4531
901.308	4375
901.427	4325
901.546	4352
901.665	4504
901.784	4527
901.904	4432
902.023	4265
902.141	4207
902.26	4173
902.379	4287
902.498	4223
902.617	4196
902.735	4371
902.854	4379
902.973	4356
903.091	4185
903.21	4223
903.328	4272
903.446	4257
903.565	4265
903.683	4360
903.801	4291
903.919	4405
904.038	4421
904.156	4314
904.274	4386
904.392	4363
904.51	4447
904.627	4474
904.745	4535
904.863	4596
904.981	4379
905.098	4287
905.216	4341
905.334	4428
905.451	4405
905.569	4421
905.686	4527
905.803	4561
905.921	4417
906.038	4493
906.155	4512
906.272	4379
906.389	4428
906.506	4352
906.623	4394
906.74	4329
906.857	4322
906.974	4352
907.091	4569
907.208	4683
907.324	4607
907.441	4462
907.557	4303
907.674	4341
907.79	4303
907.907	4360
908.023	4561
908.139	4489
908.256	4440
908.372	4500
908.488	4440
908.604	4318
908.72	4265
908.836	4360
908.952	4375
909.068	4447
909.184	4523
909.3	4516
909.415	4550
909.531	4554
909.647	4337
909.762	4341
909.878	4371
909.993	4440
910.108	4428
910.224	4421
910.339	4497
910.454	4390
910.57	4371
910.685	4246
910.8	4592
910.915	4588
911.03	4485
911.145	4318
911.259	4356
911.374	4402
911.489	4306
911.604	4280
911.718	4166
911.833	4196
911.947	4063
912.062	4059
912.176	4185
912.291	4196
912.405	4219
912.519	4466
912.633	4481
912.748	4253
912.862	4287
912.976	4211
913.09	4071
913.204	4158
913.318	4200
913.431	4352
913.545	4356
913.659	4402
913.772	4398
913.886	4246
914	4230
914.113	4417
914.226	4474
914.34	4371
914.453	4249
914.566	4413
914.68	4295
914.793	4329
914.906	4128
915.019	4109
915.132	4051
915.245	4124
915.358	4223
915.47	4169
915.583	4257
915.696	4295
915.809	4394
915.921	4402
916.034	4238
916.146	4246
916.259	4227
916.371	4379
916.483	4337
916.595	4234
916.708	4291
916.82	4325
916.932	4299
917.044	4306
917.156	4303
917.268	4253
917.38	4276
917.491	4253
917.603	4344
917.715	4383
917.826	4459
917.938	4352
918.049	4215
918.161	4390
918.272	4489
918.384	4500
918.495	4466
918.606	4295
918.717	4249
918.828	4379
918.939	4379
919.05	4230
919.161	4329
919.272	4109
919.383	4238
919.494	4424
919.604	4622
919.715	4409
919.826	4356
919.936	4405
920.047	4542
920.157	4462
920.267	4660
920.378	4523
920.488	4474
920.598	4710
920.708	4862
920.818	4691
920.928	4778
921.038	4915
921.148	4908
921.258	4603
921.368	4565
921.477	4493
921.587	4447
921.697	4390
921.806	4535
921.916	4432
922.025	4265
922.134	4268
922.244	4253
922.353	4371
922.462	4154
922.571	4120
922.68	3964
922.789	3968
922.898	4010
923.007	3975
923.116	4116
923.224	4051
923.333	4105
923.442	3994
923.55	3991
923.659	4025
923.767	4055
923.876	3972
923.984	4105
924.092	3968
924.201	4097
924.309	4097
924.417	4101
924.525	4078
924.633	4055
924.741	5022
924.849	3918
924.956	4143
925.064	3953
925.172	3873
925.279	3975
925.387	4021
925.494	4029
925.602	4219
925.709	4150
925.816	4040
925.924	4112
926.031	4173
926.138	4166
926.245	4211
926.352	4086
926.459	4219
926.566	4249
926.673	4131
926.779	4071
926.886	4131
926.993	3907
927.099	3998
927.206	3937
927.312	3911
927.419	4017
927.525	4013
927.631	4105
927.737	3956
927.843	3991
927.95	3899
928.056	3956
928.162	4021
928.267	4032
928.373	4637
928.479	4074
928.585	3842
928.69	4029
928.796	4063
928.901	3941
929.007	3880
929.112	3994
929.218	4032
929.323	3922
929.428	3945
929.533	4097
929.638	3930
929.743	3945
929.848	4055
929.953	4002
930.058	3956
930.163	3740
930.267	3789
930.372	3964
930.477	3812
930.581	4078
930.685	3972
930.79	3819
930.894	3846
930.998	3842
931.103	4025
931.207	3698
931.311	3671
931.415	3694
931.519	3523
931.623	3526
