Data from test_V78500241_1004.txt Node
Date: Fri Mar 25 16:55:59 CST 2022
User: usil
Spectrometer: V785-0024
Trigger mode: 0
Integration Time (sec): 4.000000E-1
Scans to average: 1
Nonlinearity correction enabled: false
Boxcar width: 0
Storing dark spectrum: false
XAxis mode: Wavelengths
Number of Pixels in Spectrum: 1024
>>>>>Begin Spectral Data<<<<<
801.071	8039
801.214	7993
801.356	7875
801.499	7814
801.641	7750
801.783	7845
801.926	7921
802.068	7913
802.211	7944
802.353	7932
802.496	7761
802.638	7864
802.78	7871
802.923	7951
803.065	7875
803.208	7883
803.35	7928
803.492	8077
803.635	8206
803.777	8062
803.919	8180
804.061	8473
804.204	8202
804.346	8005
804.488	7993
804.63	8123
804.773	8043
804.915	8054
805.057	8320
805.199	8248
805.341	8199
805.483	8233
805.626	8145
805.768	8058
805.91	8172
806.052	8168
806.194	8024
806.336	8267
806.478	8088
806.62	8065
806.762	8084
806.904	8214
807.046	8465
807.188	8343
807.33	8210
807.472	8248
807.614	8088
807.756	8092
807.898	8050
808.04	7890
808.182	7909
808.324	7852
808.465	7887
808.607	8001
808.749	8111
808.891	8161
809.033	8309
809.174	8187
809.316	8050
809.458	8069
809.6	8024
809.741	8035
809.883	8005
810.025	8138
810.166	8084
810.308	7917
810.45	8008
810.591	7860
810.733	7757
810.875	7613
811.016	7518
811.158	7499
811.299	7571
811.441	7712
811.582	7677
811.724	7559
811.865	7556
812.007	7571
812.148	7567
812.29	7624
812.431	7757
812.573	7868
812.714	7909
812.855	8092
812.997	8172
813.138	8332
813.279	8229
813.421	8123
813.562	8012
813.703	7871
813.845	7776
813.986	7415
814.127	7316
814.268	7228
814.41	7190
814.551	7061
814.692	7137
814.833	7061
814.974	7088
815.115	7076
815.256	6981
815.397	6882
815.539	6897
815.68	6848
815.821	6787
815.962	6859
816.103	6818
816.244	6764
816.385	6650
816.526	6589
816.666	6471
816.807	6327
816.948	6471
817.089	6467
817.23	6494
817.371	6395
817.512	6410
817.653	6437
817.793	6376
817.934	6380
818.075	6433
818.216	6448
818.356	6361
818.497	6190
818.638	6110
818.778	6121
818.919	6144
819.06	6110
819.2	6258
819.341	6334
819.481	6407
819.622	6525
819.762	6654
819.903	6707
820.043	6525
820.184	6540
820.324	6593
820.465	6681
820.605	6616
820.746	6616
820.886	6498
821.026	6662
821.167	6711
821.307	6734
821.447	6783
821.588	6696
821.728	6547
821.868	6448
822.008	6311
822.149	6304
822.289	6338
822.429	6121
822.569	6117
822.709	6072
822.849	5958
822.99	5863
823.13	5931
823.27	5885
823.41	5794
823.55	5783
823.69	5771
823.83	5771
823.97	5668
824.11	5551
824.25	5455
824.389	5543
824.529	5543
824.669	5497
824.809	5611
824.949	5634
825.089	5535
825.228	5562
825.368	5337
825.508	5334
825.648	5395
825.787	5368
825.927	5330
826.067	5322
826.206	5250
826.346	5353
826.485	5379
826.625	5410
826.765	5501
826.904	5467
827.044	5220
827.183	5208
827.323	5094
827.462	5216
827.601	5166
827.741	5166
827.88	5220
828.02	5170
828.159	5227
828.298	5277
828.437	5364
828.577	5303
828.716	5452
828.855	5330
828.994	5181
829.134	5197
829.273	5208
829.412	5060
829.551	5090
829.69	5143
829.829	5235
829.968	5337
830.107	5307
830.246	5292
830.385	5197
830.524	5079
830.663	5090
830.802	4923
830.941	4919
831.08	4850
831.219	4957
831.357	4976
831.496	5162
831.635	4934
831.774	4805
831.913	4797
832.051	4721
832.19	4721
832.329	4831
832.467	4660
832.606	4645
832.744	4691
832.883	4691
833.022	4748
833.16	4767
833.299	4778
833.437	4839
833.576	4824
833.714	4835
833.852	4858
833.991	4858
834.129	4934
834.267	4858
834.406	4889
834.544	4984
834.682	4965
834.821	4965
834.959	5136
835.097	4930
835.235	5136
835.373	5083
835.511	5113
835.65	5052
835.788	5045
835.926	4892
836.064	4858
836.202	4915
836.34	5155
836.478	5208
836.615	5132
836.753	5208
836.891	5322
837.029	5254
837.167	5208
837.305	5136
837.443	5121
837.58	5075
837.718	5212
837.856	5170
837.993	5079
838.131	5227
838.269	5174
838.406	5159
838.544	5174
838.681	5064
838.819	5014
838.956	4892
839.094	4866
839.231	4995
839.369	5037
839.506	5417
839.643	5277
839.781	5083
839.918	4965
840.055	5083
840.193	5098
840.33	5121
840.467	5109
840.604	5197
840.742	5444
840.879	5071
841.016	5083
841.153	5113
841.29	5345
841.427	5345
841.564	5311
841.701	5334
841.838	5246
841.975	5181
842.112	5254
842.249	5140
842.385	5113
842.522	5326
842.659	5155
842.796	5178
842.933	5235
843.069	5181
843.206	5132
843.343	5280
843.479	5178
843.616	5258
843.752	5010
843.889	4976
844.025	5208
844.162	4957
844.298	5155
844.435	5067
844.571	5014
844.708	5136
844.844	5288
844.98	5315
845.117	5307
845.253	5128
845.389	5010
845.525	5132
845.661	5109
845.798	5056
845.934	5105
846.07	5010
846.206	5162
846.342	5242
846.478	5132
846.614	4995
846.75	4961
846.886	4968
847.022	5109
847.158	5052
847.294	5056
847.429	5060
847.565	5018
847.701	5349
847.837	4854
847.972	4790
848.108	4968
848.244	4904
848.379	4778
848.515	4698
848.65	4679
848.786	4725
848.921	4755
849.057	4831
849.192	4854
849.328	4793
849.463	4793
849.598	4782
849.734	4774
849.869	4702
850.004	4599
850.14	4668
850.275	4618
850.41	4478
850.545	4542
850.68	4603
850.815	4630
850.95	4634
851.085	4778
851.22	4752
851.355	4618
851.49	4561
851.625	4641
851.76	4592
851.895	4538
852.03	4493
852.165	4637
852.299	4679
852.434	4763
852.569	4694
852.703	4824
852.838	4835
852.973	4953
853.107	4892
853.242	4736
853.376	4611
853.511	4538
853.645	4599
853.78	4748
853.914	4675
854.048	4607
854.183	4599
854.317	4733
854.451	4835
854.585	4649
854.72	4618
854.854	4710
854.988	4577
855.122	4622
855.256	4512
855.39	4637
855.524	4752
855.658	4729
855.792	4755
855.926	4721
856.06	4717
856.194	4752
856.327	4675
856.461	4573
856.595	4630
856.729	4607
856.862	4717
856.996	4672
857.13	4691
857.263	4748
857.397	4801
857.53	4653
857.664	4710
857.797	4733
857.931	4771
858.064	4714
858.197	4717
858.331	4607
858.464	4622
858.597	4535
858.731	4634
858.864	4588
858.997	4580
859.13	4683
859.263	4615
859.396	4698
859.529	4573
859.662	4538
859.795	4561
859.928	4611
860.061	4782
860.194	4774
860.327	4588
860.46	4577
860.592	4691
860.725	4706
860.858	4698
860.99	4569
861.123	4500
861.256	4519
861.388	4573
861.521	5242
861.653	4493
861.786	4474
861.918	4447
862.05	4508
862.183	4546
862.315	4611
862.447	4618
862.58	4474
862.712	4367
862.844	4318
862.976	4428
863.108	4440
863.24	4885
863.372	4341
863.504	4402
863.636	4383
863.768	4500
863.9	4459
864.032	4329
864.164	4398
864.296	4440
864.428	4527
864.559	4565
864.691	4550
864.823	4516
864.954	4512
865.086	4466
865.217	4436
865.349	4413
865.48	4421
865.612	4466
865.743	4626
865.875	4466
866.006	4409
866.137	4443
866.269	4421
866.4	4405
866.531	4386
866.662	4367
866.793	4417
866.924	4383
867.055	4481
867.186	4481
867.317	4405
867.448	4352
867.579	4371
867.71	4333
867.841	4329
867.972	4428
868.103	4470
868.233	4447
868.364	4398
868.495	4466
868.625	4653
868.756	4702
868.886	4516
869.017	4599
869.147	4725
869.278	4809
869.408	4649
869.539	4618
869.669	4672
869.799	4656
869.929	4710
870.06	4675
870.19	4976
870.32	4957
870.45	4904
870.58	4999
870.71	5045
870.84	5067
870.97	4961
871.1	4862
871.23	5105
871.36	5117
871.489	5006
871.619	5045
871.749	5083
871.879	5140
872.008	5094
872.138	5025
872.267	4930
872.397	4843
872.526	4812
872.656	4698
872.785	4801
872.915	4930
873.044	5022
873.173	4896
873.303	4968
873.432	4946
873.561	4930
873.69	4889
873.819	4843
873.948	4854
874.077	4774
874.206	4748
874.335	4778
874.464	4889
874.593	5067
874.722	4968
874.851	5098
874.979	5045
875.108	5033
875.237	4915
875.365	4927
875.494	4866
875.623	4957
875.751	4801
875.88	4866
876.008	4923
876.136	4999
876.265	5185
876.393	5357
876.521	5250
876.65	5235
876.778	5208
876.906	5029
877.034	4987
877.162	5060
877.29	4995
877.418	5071
877.546	4976
877.674	5037
877.802	5037
877.93	5048
878.058	4934
878.185	4873
878.313	4908
878.441	4972
878.568	4710
878.696	4889
878.824	4923
878.951	4976
879.079	5071
879.206	5292
879.333	5094
879.461	4968
879.588	4957
879.715	5121
879.842	5212
879.97	4999
880.097	4805
880.224	4702
880.351	4778
880.478	4790
880.605	4793
880.732	4748
880.859	5075
880.986	4816
881.112	4870
881.239	4763
881.366	4618
881.493	4599
881.619	4596
881.746	4618
881.872	4660
881.999	4592
882.125	4664
882.252	4778
882.378	4809
882.505	4980
882.631	4774
882.757	4622
882.883	4694
883.01	4698
883.136	4637
883.262	4588
883.388	4622
883.514	4790
883.64	4850
883.766	4774
883.892	4660
884.018	4774
884.143	4896
884.269	5010
884.395	4634
884.52	4641
884.646	4615
884.772	4550
884.897	4569
885.023	4645
885.148	4759
885.274	4816
885.399	4812
885.524	4771
885.65	4698
885.775	4759
885.9	4691
886.025	4877
886.15	4725
886.275	4752
886.4	4660
886.525	4717
886.65	4626
886.775	4649
886.9	4885
887.025	4984
887.149	4744
887.274	4653
887.399	4573
887.523	4622
887.648	4550
887.773	4565
887.897	4755
888.021	4755
888.146	4634
888.27	4774
888.395	4900
888.519	4763
888.643	4786
888.767	4786
888.891	4649
889.015	4558
889.139	4630
889.263	4542
889.387	4698
889.511	4866
889.635	4774
889.759	4622
889.883	4618
890.006	4721
890.13	4873
890.254	4660
890.377	4691
890.501	4558
890.624	4485
890.748	4630
890.871	4504
890.995	4394
891.118	4356
891.241	4478
891.364	4497
891.488	4588
891.611	4512
891.734	4538
891.857	4607
891.98	4542
892.103	4618
892.226	4558
892.349	4512
892.471	4402
892.594	4531
892.717	4596
892.839	4542
892.962	4561
893.085	4649
893.207	4554
893.33	4478
893.452	4527
893.575	4675
893.697	4569
893.819	4759
893.941	4812
894.064	4752
894.186	4577
894.308	4542
894.43	4710
894.552	4831
894.674	4706
894.796	4538
894.918	4577
895.04	4558
895.161	4702
895.283	4687
895.405	4596
895.526	4672
895.648	4694
895.769	4679
895.891	4668
896.012	4687
896.134	4717
896.255	4679
896.376	4641
896.498	4634
896.619	4630
896.74	4615
896.861	4634
896.982	4881
897.103	5060
897.224	4801
897.345	4744
897.466	4641
897.587	4786
897.708	4835
897.828	4786
897.949	4668
898.07	4519
898.19	4675
898.311	4786
898.431	4603
898.552	4771
898.672	4793
898.792	4782
898.913	4733
899.033	4611
899.153	4466
899.273	4413
899.393	4478
899.513	4489
899.633	4538
899.753	4523
899.873	4500
899.993	4596
900.113	4493
900.232	4569
900.352	4538
900.472	4440
900.591	4402
900.711	4451
900.83	4489
900.95	4596
901.069	4672
901.189	4546
901.308	4398
901.427	4287
901.546	4337
901.665	4459
901.784	4508
901.904	4367
902.023	4268
902.141	4173
902.26	4147
902.379	4280
902.498	4253
902.617	4223
902.735	4344
902.854	4360
902.973	4386
903.091	4192
903.21	4261
903.328	4291
903.446	4287
903.565	4246
903.683	4360
903.801	4257
903.919	4375
904.038	4379
904.156	4310
904.274	4443
904.392	4394
904.51	4409
904.627	4459
904.745	4592
904.863	4626
904.981	4402
905.098	4291
905.216	4402
905.334	4390
905.451	4440
905.569	4436
905.686	4569
905.803	4565
905.921	4409
906.038	4542
906.155	4443
906.272	4390
906.389	4402
906.506	4333
906.623	4352
906.74	4409
906.857	4284
906.974	4402
907.091	4516
907.208	4687
907.324	4607
907.441	4519
907.557	4344
907.674	4322
907.79	4360
907.907	4367
908.023	4500
908.139	4413
908.256	4421
908.372	4432
908.488	4481
908.604	4398
908.72	4306
908.836	4329
908.952	4310
909.068	4428
909.184	4550
909.3	4485
909.415	4607
909.531	4497
909.647	4390
909.762	4405
909.878	4337
909.993	4451
910.108	4398
910.224	4375
910.339	4432
910.454	4405
910.57	4348
910.685	4291
910.8	4596
910.915	4592
911.03	4508
911.145	4356
911.259	4329
911.374	4284
911.489	4276
911.604	4284
911.718	4185
911.833	4188
911.947	4055
912.062	4074
912.176	4249
912.291	4249
912.405	4249
912.519	4519
912.633	4424
912.748	4352
912.862	4310
912.976	4181
913.09	4067
913.204	4181
913.318	4246
913.431	4352
913.545	4383
913.659	4398
913.772	4333
913.886	4287
914	4207
914.113	4371
914.226	4443
914.34	4402
914.453	4261
914.566	4417
914.68	4291
914.793	4314
914.906	4150
915.019	4124
915.132	4059
915.245	4166
915.358	4169
915.47	4219
915.583	4291
915.696	4261
915.809	4383
915.921	4424
916.034	4223
916.146	4219
916.259	4192
916.371	4371
916.483	4356
916.595	4253
916.708	4329
916.82	4329
916.932	4325
917.044	4314
917.156	4341
917.268	4196
917.38	4268
917.491	4246
917.603	4337
917.715	4428
917.826	4428
917.938	4371
918.049	4196
918.161	4363
918.272	4497
918.384	4489
918.495	4424
918.606	4314
918.717	4227
918.828	4299
918.939	4344
919.05	4230
919.161	4310
919.272	4105
919.383	4234
919.494	4428
919.604	4637
919.715	4459
919.826	4329
919.936	4409
920.047	4519
920.157	4466
920.267	4687
920.378	4550
920.488	4519
920.598	4668
920.708	4892
920.818	4729
920.928	4755
921.038	4953
921.148	4919
921.258	4660
921.368	4561
921.477	4497
921.587	4451
921.697	4341
921.806	4565
921.916	4417
922.025	4246
922.134	4253
922.244	4257
922.353	4287
922.462	4173
922.571	4120
922.68	3960
922.789	4013
922.898	4006
923.007	3987
923.116	4101
923.224	4082
923.333	4051
923.442	3979
923.55	3956
923.659	4021
923.767	4082
923.876	4010
923.984	4090
924.092	3998
924.201	4055
924.309	4112
924.417	4093
924.525	4017
924.633	4055
924.741	5117
924.849	3926
924.956	4109
925.064	3941
925.172	3888
925.279	3972
925.387	4051
925.494	4074
925.602	4230
925.709	4173
925.816	4021
925.924	4109
926.031	4230
926.138	4112
926.245	4200
926.352	4055
926.459	4249
926.566	4272
926.673	4101
926.779	4071
926.886	4078
926.993	3991
927.099	3930
927.206	3979
927.312	3934
927.419	4059
927.525	3983
927.631	4112
927.737	3956
927.843	3926
927.95	3800
928.056	3934
928.162	3964
928.267	4059
928.373	4649
928.479	4090
928.585	3850
928.69	3994
928.796	4063
928.901	3953
929.007	3808
929.112	4032
929.218	3941
929.323	3941
929.428	3892
929.533	4093
929.638	3869
929.743	4010
929.848	3983
929.953	3960
930.058	3911
930.163	3766
930.267	3831
930.372	3945
930.477	3804
930.581	4093
930.685	3956
930.79	3831
930.894	3876
930.998	3865
931.103	4048
931.207	3694
931.311	3652
931.415	3667
931.519	3507
931.623	3572
