Data from test_V78500241_327.txt Node
Date: Fri Mar 25 16:51:16 CST 2022
User: usil
Spectrometer: V785-0024
Trigger mode: 0
Integration Time (sec): 4.000000E-1
Scans to average: 1
Nonlinearity correction enabled: false
Boxcar width: 0
Storing dark spectrum: false
XAxis mode: Wavelengths
Number of Pixels in Spectrum: 1024
>>>>>Begin Spectral Data<<<<<
801.071	8092
801.214	8084
801.356	8005
801.499	7906
801.641	7784
801.783	7792
801.926	8058
802.068	7936
802.211	8031
802.353	8001
802.496	7925
802.638	8016
802.78	7887
802.923	7944
803.065	7814
803.208	7871
803.35	7978
803.492	8119
803.635	8103
803.777	7982
803.919	8092
804.061	8454
804.204	8153
804.346	8024
804.488	8024
804.63	8069
804.773	8020
804.915	8050
805.057	8233
805.199	8210
805.341	8202
805.483	8256
805.626	8130
805.768	7993
805.91	8176
806.052	8123
806.194	8069
806.336	8286
806.478	8115
806.62	8107
806.762	8229
806.904	8233
807.046	8484
807.188	8377
807.33	8320
807.472	8279
807.614	8107
807.756	8157
807.898	8027
808.04	7849
808.182	7864
808.324	7989
808.465	7909
808.607	8081
808.749	8130
808.891	8218
809.033	8290
809.174	8233
809.316	8123
809.458	8084
809.6	8069
809.741	8043
809.883	8031
810.025	8050
810.166	8115
810.308	8050
810.45	8008
810.591	7830
810.733	7841
810.875	7624
811.016	7506
811.158	7449
811.299	7605
811.441	7742
811.582	7772
811.724	7563
811.865	7605
812.007	7624
812.148	7597
812.29	7613
812.431	7689
812.573	7890
812.714	8031
812.855	8100
812.997	8256
813.138	8275
813.279	8180
813.421	8062
813.562	8027
813.703	7909
813.845	7780
813.986	7457
814.127	7320
814.268	7278
814.41	7228
814.551	7095
814.692	7206
814.833	7099
814.974	7107
815.115	7110
815.256	7004
815.397	6867
815.539	6875
815.68	6821
815.821	6840
815.962	6867
816.103	6844
816.244	6745
816.385	6684
816.526	6707
816.666	6517
816.807	6357
816.948	6407
817.089	6498
817.23	6452
817.371	6395
817.512	6346
817.653	6429
817.793	6418
817.934	6365
818.075	6452
818.216	6471
818.356	6399
818.497	6262
818.638	6106
818.778	6182
818.919	6205
819.06	6076
819.2	6369
819.341	6391
819.481	6319
819.622	6486
819.762	6738
819.903	6715
820.043	6547
820.184	6498
820.324	6517
820.465	6741
820.605	6639
820.746	6631
820.886	6441
821.026	6616
821.167	6738
821.307	6802
821.447	6703
821.588	6639
821.728	6589
821.868	6563
822.008	6334
822.149	6376
822.289	6353
822.429	6159
822.569	6102
822.709	6133
822.849	5969
822.99	5984
823.13	5878
823.27	5897
823.41	5756
823.55	5798
823.69	5767
823.83	5775
823.97	5691
824.11	5532
824.25	5532
824.389	5532
824.529	5577
824.669	5493
824.809	5642
824.949	5653
825.089	5592
825.228	5558
825.368	5372
825.508	5318
825.648	5379
825.787	5387
825.927	5368
826.067	5357
826.206	5318
826.346	5368
826.485	5383
826.625	5383
826.765	5528
826.904	5493
827.044	5246
827.183	5204
827.323	5162
827.462	5242
827.601	5201
827.741	5193
827.88	5174
828.02	5105
828.159	5231
828.298	5341
828.437	5341
828.577	5318
828.716	5524
828.855	5303
828.994	5204
829.134	5159
829.273	5227
829.412	5239
829.551	5216
829.69	5258
829.829	5311
829.968	5402
830.107	5254
830.246	5345
830.385	5269
830.524	5178
830.663	5121
830.802	4995
830.941	4927
831.08	4930
831.219	5033
831.357	5010
831.496	5174
831.635	4938
831.774	4915
831.913	4866
832.051	4759
832.19	4809
832.329	4870
832.467	4759
832.606	4656
832.744	4736
832.883	4790
833.022	4767
833.16	4831
833.299	4870
833.437	4877
833.576	4908
833.714	4908
833.852	4953
833.991	4968
834.129	4991
834.267	4919
834.406	4942
834.544	5025
834.682	5067
834.821	5037
834.959	5162
835.097	5006
835.235	5212
835.373	5086
835.511	5147
835.65	5052
835.788	5025
835.926	4953
836.064	4946
836.202	4961
836.34	5254
836.478	5284
836.615	5159
836.753	5254
836.891	5360
837.029	5315
837.167	5299
837.305	5159
837.443	5231
837.58	5121
837.718	5315
837.856	5239
837.993	5223
838.131	5288
838.269	5299
838.406	5311
838.544	5185
838.681	5086
838.819	5010
838.956	4972
839.094	4980
839.231	5041
839.369	5181
839.506	5474
839.643	5296
839.781	5098
839.918	5071
840.055	5174
840.193	5117
840.33	5143
840.467	5178
840.604	5250
840.742	5528
840.879	5105
841.016	5170
841.153	5246
841.29	5440
841.427	5326
841.564	5376
841.701	5349
841.838	5299
841.975	5273
842.112	5265
842.249	5181
842.385	5136
842.522	5395
842.659	5201
842.796	5227
842.933	5269
843.069	5208
843.206	5143
843.343	5368
843.479	5280
843.616	5330
843.752	5094
843.889	5056
844.025	5299
844.162	5056
844.298	5261
844.435	5132
844.571	5086
844.708	5254
844.844	5383
844.98	5345
845.117	5303
845.253	5181
845.389	5113
845.525	5174
845.661	5212
845.798	5105
845.934	5143
846.07	5117
846.206	5258
846.342	5303
846.478	5220
846.614	5067
846.75	5056
846.886	4995
847.022	5197
847.158	5052
847.294	5067
847.429	5143
847.565	5052
847.701	5383
847.837	4889
847.972	4889
848.108	5003
848.244	5006
848.379	4797
848.515	4816
848.65	4774
848.786	4774
848.921	4831
849.057	4953
849.192	4953
849.328	4866
849.463	4870
849.598	4866
849.734	4797
849.869	4752
850.004	4622
850.14	4717
850.275	4573
850.41	4565
850.545	4649
850.68	4615
850.815	4649
850.95	4740
851.085	4915
851.22	4801
851.355	4725
851.49	4683
851.625	4683
851.76	4710
851.895	4611
852.03	4561
852.165	4656
852.299	4771
852.434	4870
852.569	4748
852.703	4831
852.838	4881
852.973	4976
853.107	4957
853.242	4774
853.376	4706
853.511	4580
853.645	4691
853.78	4850
853.914	4691
854.048	4721
854.183	4717
854.317	4744
854.451	4824
854.585	4714
854.72	4714
854.854	4755
854.988	4649
855.122	4653
855.256	4523
855.39	4698
855.524	4771
855.658	4755
855.792	4740
855.926	4771
856.06	4755
856.194	4828
856.327	4717
856.461	4634
856.595	4687
856.729	4687
856.862	4805
856.996	4706
857.13	4771
857.263	4793
857.397	4809
857.53	4679
857.664	4744
857.797	4793
857.931	4828
858.064	4755
858.197	4744
858.331	4691
858.464	4694
858.597	4538
858.731	4649
858.864	4687
858.997	4599
859.13	4683
859.263	4710
859.396	4679
859.529	4645
859.662	4622
859.795	4596
859.928	4649
860.061	4797
860.194	4778
860.327	4649
860.46	4603
860.592	4786
860.725	4755
860.858	4733
860.99	4660
861.123	4561
861.256	4577
861.388	4615
861.521	5383
861.653	4504
861.786	4481
861.918	4493
862.05	4561
862.183	4569
862.315	4615
862.447	4691
862.58	4596
862.712	4383
862.844	4386
862.976	4500
863.108	4512
863.24	4786
863.372	4356
863.504	4440
863.636	4398
863.768	4516
863.9	4474
864.032	4405
864.164	4440
864.296	4516
864.428	4588
864.559	4565
864.691	4584
864.823	4599
864.954	4519
865.086	4519
865.217	4485
865.349	4443
865.48	4527
865.612	4538
865.743	4637
865.875	4523
866.006	4440
866.137	4459
866.269	4470
866.4	4485
866.531	4462
866.662	4390
866.793	4409
866.924	4481
867.055	4500
867.186	4462
867.317	4413
867.448	4394
867.579	4424
867.71	4421
867.841	4417
867.972	4489
868.103	4508
868.233	4481
868.364	4470
868.495	4516
868.625	4706
868.756	4805
868.886	4592
869.017	4622
869.147	4843
869.278	4824
869.408	4656
869.539	4679
869.669	4740
869.799	4694
869.929	4790
870.06	4752
870.19	4965
870.32	4949
870.45	5018
870.58	5045
870.71	5113
870.84	5140
870.97	4976
871.1	4938
871.23	5201
871.36	5159
871.489	5079
871.619	5098
871.749	5113
871.879	5151
872.008	5140
872.138	5105
872.267	5014
872.397	4896
872.526	4847
872.656	4809
872.785	4828
872.915	4999
873.044	5102
873.173	4942
873.303	5025
873.432	4938
873.561	4999
873.69	4961
873.819	4881
873.948	4957
874.077	4858
874.206	4797
874.335	4820
874.464	4938
874.593	5083
874.722	4957
874.851	5064
874.979	5117
875.108	5083
875.237	4900
875.365	4923
875.494	4896
875.623	4927
875.751	4866
875.88	4870
876.008	5045
876.136	5045
876.265	5239
876.393	5379
876.521	5318
876.65	5261
876.778	5170
876.906	5075
877.034	5064
877.162	5079
877.29	5003
877.418	5090
877.546	5083
877.674	5083
877.802	5045
877.93	5010
878.058	4965
878.185	4866
878.313	4923
878.441	4995
878.568	4862
878.696	4889
878.824	4995
878.951	5029
879.079	5151
879.206	5337
879.333	5162
879.461	4999
879.588	5079
879.715	5094
879.842	5311
879.97	5025
880.097	4812
880.224	4778
880.351	4812
880.478	4854
880.605	4847
880.732	4850
880.859	5079
880.986	4942
881.112	4946
881.239	4782
881.366	4698
881.493	4694
881.619	4653
881.746	4660
881.872	4626
881.999	4664
882.125	4714
882.252	4759
882.378	4850
882.505	4999
882.631	4809
882.757	4710
882.883	4744
883.01	4740
883.136	4698
883.262	4634
883.388	4592
883.514	4835
883.64	4892
883.766	4809
883.892	4736
884.018	4714
884.143	4946
884.269	5045
884.395	4664
884.52	4679
884.646	4618
884.772	4615
884.897	4592
885.023	4691
885.148	4816
885.274	4854
885.399	4831
885.524	4755
885.65	4714
885.775	4759
885.9	4733
886.025	4892
886.15	4805
886.275	4744
886.4	4641
886.525	4763
886.65	4736
886.775	4702
886.9	4995
887.025	5071
887.149	4793
887.274	4736
887.399	4603
887.523	4607
887.648	4603
887.773	4634
887.897	4843
888.021	4824
888.146	4672
888.27	4847
888.395	4908
888.519	4782
888.643	4767
888.767	4828
888.891	4763
889.015	4622
889.139	4679
889.263	4637
889.387	4759
889.511	4904
889.635	4793
889.759	4649
889.883	4668
890.006	4714
890.13	4873
890.254	4656
890.377	4683
890.501	4569
890.624	4592
890.748	4622
890.871	4516
890.995	4462
891.118	4402
891.241	4531
891.364	4500
891.488	4592
891.611	4512
891.734	4584
891.857	4637
891.98	4569
892.103	4664
892.226	4588
892.349	4561
892.471	4455
892.594	4550
892.717	4603
892.839	4630
892.962	4592
893.085	4687
893.207	4592
893.33	4493
893.452	4615
893.575	4672
893.697	4660
893.819	4835
893.941	4843
894.064	4729
894.186	4599
894.308	4569
894.43	4782
894.552	4847
894.674	4809
894.796	4615
894.918	4615
895.04	4607
895.161	4774
895.283	4717
895.405	4565
895.526	4596
895.648	4752
895.769	4687
895.891	4752
896.012	4736
896.134	4763
896.255	4755
896.376	4641
896.498	4637
896.619	4675
896.74	4615
896.861	4656
896.982	4900
897.103	5075
897.224	4858
897.345	4771
897.466	4710
897.587	4771
897.708	4854
897.828	4786
897.949	4668
898.07	4588
898.19	4645
898.311	4873
898.431	4683
898.552	4740
898.672	4835
898.792	4759
898.913	4752
899.033	4611
899.153	4447
899.273	4432
899.393	4485
899.513	4489
899.633	4504
899.753	4580
899.873	4558
899.993	4577
900.113	4527
900.232	4558
900.352	4527
900.472	4523
900.591	4398
900.711	4500
900.83	4516
900.95	4683
901.069	4694
901.189	4561
901.308	4409
901.427	4371
901.546	4424
901.665	4481
901.784	4516
901.904	4436
902.023	4333
902.141	4219
902.26	4207
902.379	4322
902.498	4268
902.617	4280
902.735	4394
902.854	4481
902.973	4428
903.091	4249
903.21	4257
903.328	4299
903.446	4299
903.565	4299
903.683	4402
903.801	4341
903.919	4470
904.038	4531
904.156	4367
904.274	4485
904.392	4474
904.51	4485
904.627	4516
904.745	4649
904.863	4691
904.981	4417
905.098	4360
905.216	4459
905.334	4485
905.451	4474
905.569	4500
905.686	4622
905.803	4622
905.921	4481
906.038	4611
906.155	4535
906.272	4466
906.389	4497
906.506	4402
906.623	4447
906.74	4447
906.857	4379
906.974	4440
907.091	4607
907.208	4725
907.324	4668
907.441	4565
907.557	4402
907.674	4424
907.79	4409
907.907	4428
908.023	4531
908.139	4508
908.256	4459
908.372	4470
908.488	4546
908.604	4405
908.72	4413
908.836	4375
908.952	4413
909.068	4478
909.184	4615
909.3	4474
909.415	4637
909.531	4607
909.647	4413
909.762	4436
909.878	4413
909.993	4497
910.108	4432
910.224	4421
910.339	4577
910.454	4485
910.57	4386
910.685	4371
910.8	4675
910.915	4641
911.03	4527
911.145	4344
911.259	4371
911.374	4402
911.489	4352
911.604	4325
911.718	4211
911.833	4246
911.947	4128
912.062	4063
912.176	4238
912.291	4295
912.405	4291
912.519	4466
912.633	4538
912.748	4432
912.862	4348
912.976	4238
913.09	4147
913.204	4227
913.318	4310
913.431	4394
913.545	4421
913.659	4478
913.772	4394
913.886	4284
914	4242
914.113	4424
914.226	4485
914.34	4443
914.453	4284
914.566	4474
914.68	4356
914.793	4390
914.906	4238
915.019	4215
915.132	4135
915.245	4242
915.358	4272
915.47	4299
915.583	4299
915.696	4367
915.809	4474
915.921	4478
916.034	4325
916.146	4329
916.259	4325
916.371	4470
916.483	4352
916.595	4287
916.708	4417
916.82	4333
916.932	4352
917.044	4383
917.156	4390
917.268	4242
917.38	4287
917.491	4299
917.603	4390
917.715	4455
917.826	4466
917.938	4386
918.049	4249
918.161	4462
918.272	4531
918.384	4580
918.495	4481
918.606	4306
918.717	4276
918.828	4390
918.939	4413
919.05	4325
919.161	4402
919.272	4207
919.383	4268
919.494	4455
919.604	4717
919.715	4508
919.826	4428
919.936	4413
920.047	4607
920.157	4542
920.267	4752
920.378	4607
920.488	4558
920.598	4752
920.708	4923
920.818	4790
920.928	4744
921.038	4965
921.148	5003
921.258	4668
921.368	4565
921.477	4527
921.587	4478
921.697	4390
921.806	4577
921.916	4478
922.025	4261
922.134	4352
922.244	4246
922.353	4360
922.462	4223
922.571	4211
922.68	4029
922.789	4006
922.898	4093
923.007	4032
923.116	4124
923.224	4128
923.333	4135
923.442	4055
923.55	4044
923.659	4051
923.767	4120
923.876	4048
923.984	4169
924.092	4025
924.201	4147
924.309	4116
924.417	4196
924.525	4169
924.633	4147
924.741	4961
924.849	3975
924.956	4169
925.064	4002
925.172	3979
925.279	4025
925.387	4097
925.494	4063
925.602	4268
925.709	4211
925.816	4067
925.924	4143
926.031	4295
926.138	4284
926.245	4200
926.352	4101
926.459	4333
926.566	4337
926.673	4192
926.779	4128
926.886	4143
926.993	4025
927.099	4010
927.206	3983
927.312	3972
927.419	4051
927.525	4131
927.631	4109
927.737	4036
927.843	4025
927.95	3861
928.056	3960
928.162	4025
928.267	4086
928.373	4740
928.479	4185
928.585	3899
928.69	4044
928.796	4128
928.901	4002
929.007	3884
929.112	4021
929.218	4021
929.323	3930
929.428	3975
929.533	4139
929.638	3945
929.743	4006
929.848	4112
929.953	4048
930.058	3983
930.163	3812
930.267	3876
930.372	4013
930.477	3831
930.581	4090
930.685	4036
930.79	3873
930.894	3888
930.998	3892
931.103	4101
931.207	3755
931.311	3709
931.415	3736
931.519	3530
931.623	3572
