Data from test_V78500241_688.txt Node
Date: Fri Mar 25 16:53:47 CST 2022
User: usil
Spectrometer: V785-0024
Trigger mode: 0
Integration Time (sec): 4.000000E-1
Scans to average: 1
Nonlinearity correction enabled: false
Boxcar width: 0
Storing dark spectrum: false
XAxis mode: Wavelengths
Number of Pixels in Spectrum: 1024
>>>>>Begin Spectral Data<<<<<
801.071	7967
801.214	7947
801.356	7852
801.499	7860
801.641	7841
801.783	7879
801.926	7921
802.068	7947
802.211	7955
802.353	8016
802.496	7818
802.638	7864
802.78	7925
802.923	7868
803.065	7856
803.208	7845
803.35	7951
803.492	8069
803.635	8145
803.777	7989
803.919	8050
804.061	8408
804.204	8126
804.346	8050
804.488	7982
804.63	8218
804.773	8008
804.915	8100
805.057	8267
805.199	8084
805.341	8157
805.483	8214
805.626	8221
805.768	8107
805.91	8183
806.052	8229
806.194	8081
806.336	8343
806.478	8077
806.62	8069
806.762	8138
806.904	8187
807.046	8431
807.188	8343
807.33	8309
807.472	8347
807.614	8187
807.756	8145
807.898	7940
808.04	7792
808.182	7902
808.324	7921
808.465	7879
808.607	8024
808.749	8077
808.891	8168
809.033	8298
809.174	8240
809.316	8035
809.458	8012
809.6	7989
809.741	8008
809.883	8046
810.025	8065
810.166	8043
810.308	8031
810.45	8115
810.591	7890
810.733	7772
810.875	7674
811.016	7525
811.158	7499
811.299	7620
811.441	7723
811.582	7624
811.724	7552
811.865	7514
812.007	7601
812.148	7670
812.29	7556
812.431	7757
812.573	7864
812.714	7917
812.855	8149
812.997	8195
813.138	8305
813.279	8180
813.421	8065
813.562	8031
813.703	7849
813.845	7700
813.986	7430
814.127	7278
814.268	7259
814.41	7187
814.551	7126
814.692	7126
814.833	7031
814.974	7091
815.115	7110
815.256	6943
815.397	6882
815.539	6916
815.68	6783
815.821	6791
815.962	6863
816.103	6814
816.244	6726
816.385	6662
816.526	6646
816.666	6464
816.807	6308
816.948	6441
817.089	6509
817.23	6399
817.371	6331
817.512	6433
817.653	6350
817.793	6372
817.934	6395
818.075	6403
818.216	6475
818.356	6369
818.497	6270
818.638	6068
818.778	6117
818.919	6129
819.06	6171
819.2	6289
819.341	6346
819.481	6395
819.622	6544
819.762	6741
819.903	6654
820.043	6551
820.184	6547
820.324	6509
820.465	6662
820.605	6631
820.746	6635
820.886	6429
821.026	6654
821.167	6711
821.307	6814
821.447	6753
821.588	6589
821.728	6513
821.868	6498
822.008	6289
822.149	6323
822.289	6369
822.429	6136
822.569	6076
822.709	6083
822.849	5923
822.99	5847
823.13	5893
823.27	5889
823.41	5794
823.55	5756
823.69	5748
823.83	5737
823.97	5695
824.11	5566
824.25	5524
824.389	5589
824.529	5524
824.669	5474
824.809	5615
824.949	5634
825.089	5547
825.228	5585
825.368	5372
825.508	5277
825.648	5383
825.787	5376
825.927	5357
826.067	5296
826.206	5280
826.346	5383
826.485	5383
826.625	5372
826.765	5528
826.904	5490
827.044	5250
827.183	5162
827.323	5117
827.462	5250
827.601	5151
827.741	5117
827.88	5204
828.02	5083
828.159	5265
828.298	5242
828.437	5341
828.577	5277
828.716	5459
828.855	5345
828.994	5159
829.134	5204
829.273	5212
829.412	5105
829.551	5109
829.69	5136
829.829	5261
829.968	5402
830.107	5223
830.246	5235
830.385	5239
830.524	5094
830.663	5045
830.802	4972
830.941	4843
831.08	4908
831.219	4976
831.357	4953
831.496	5189
831.635	4923
831.774	4873
831.913	4835
832.051	4710
832.19	4797
832.329	4854
832.467	4672
832.606	4653
832.744	4752
832.883	4683
833.022	4691
833.16	4740
833.299	4866
833.437	4858
833.576	4778
833.714	4816
833.852	4858
833.991	4877
834.129	4919
834.267	4946
834.406	4881
834.544	4968
834.682	4968
834.821	4919
834.959	5117
835.097	4972
835.235	5124
835.373	5056
835.511	5109
835.65	5014
835.788	4980
835.926	4870
836.064	4839
836.202	4892
836.34	5147
836.478	5208
836.615	5117
836.753	5250
836.891	5277
837.029	5269
837.167	5201
837.305	5166
837.443	5162
837.58	5071
837.718	5208
837.856	5201
837.993	5121
838.131	5220
838.269	5151
838.406	5212
838.544	5189
838.681	4987
838.819	4938
838.956	4889
839.094	4892
839.231	4957
839.369	5090
839.506	5425
839.643	5273
839.781	5029
839.918	5033
840.055	5075
840.193	5117
840.33	5121
840.467	5109
840.604	5181
840.742	5402
840.879	5033
841.016	5102
841.153	5117
841.29	5341
841.427	5349
841.564	5280
841.701	5341
841.838	5246
841.975	5216
842.112	5261
842.249	5121
842.385	5086
842.522	5318
842.659	5117
842.796	5094
842.933	5185
843.069	5128
843.206	5105
843.343	5303
843.479	5231
843.616	5288
843.752	4999
843.889	5018
844.025	5223
844.162	5018
844.298	5193
844.435	5079
844.571	5045
844.708	5162
844.844	5269
844.98	5334
845.117	5231
845.253	5159
845.389	5056
845.525	5124
845.661	5105
845.798	5018
845.934	5113
846.07	5003
846.206	5178
846.342	5216
846.478	5166
846.614	5037
846.75	4972
846.886	4900
847.022	5105
847.158	5006
847.294	5105
847.429	5071
847.565	5064
847.701	5330
847.837	4873
847.972	4816
848.108	4923
848.244	4908
848.379	4767
848.515	4767
848.65	4729
848.786	4733
848.921	4786
849.057	4816
849.192	4873
849.328	4801
849.463	4866
849.598	4774
849.734	4759
849.869	4656
850.004	4618
850.14	4660
850.275	4611
850.41	4527
850.545	4558
850.68	4577
850.815	4573
850.95	4580
851.085	4805
851.22	4721
851.355	4630
851.49	4660
851.625	4679
851.76	4599
851.895	4569
852.03	4554
852.165	4622
852.299	4755
852.434	4767
852.569	4748
852.703	4790
852.838	4812
852.973	4930
853.107	4866
853.242	4729
853.376	4672
853.511	4558
853.645	4592
853.78	4809
853.914	4634
854.048	4668
854.183	4615
854.317	4672
854.451	4847
854.585	4702
854.72	4656
854.854	4717
854.988	4580
855.122	4618
855.256	4542
855.39	4622
855.524	4774
855.658	4694
855.792	4672
855.926	4679
856.06	4752
856.194	4778
856.327	4664
856.461	4592
856.595	4577
856.729	4637
856.862	4733
856.996	4641
857.13	4767
857.263	4733
857.397	4843
857.53	4649
857.664	4691
857.797	4793
857.931	4801
858.064	4683
858.197	4710
858.331	4618
858.464	4615
858.597	4493
858.731	4672
858.864	4615
858.997	4565
859.13	4637
859.263	4645
859.396	4706
859.529	4531
859.662	4618
859.795	4542
859.928	4618
860.061	4767
860.194	4706
860.327	4634
860.46	4592
860.592	4679
860.725	4729
860.858	4691
860.99	4580
861.123	4516
861.256	4577
861.388	4558
861.521	5250
861.653	4447
861.786	4417
861.918	4478
862.05	4500
862.183	4584
862.315	4558
862.447	4660
862.58	4550
862.712	4367
862.844	4329
862.976	4493
863.108	4459
863.24	4824
863.372	4333
863.504	4413
863.636	4394
863.768	4531
863.9	4409
864.032	4352
864.164	4383
864.296	4470
864.428	4516
864.559	4561
864.691	4527
864.823	4527
864.954	4462
865.086	4485
865.217	4451
865.349	4417
865.48	4409
865.612	4493
865.743	4645
865.875	4447
866.006	4405
866.137	4432
866.269	4421
866.4	4421
866.531	4390
866.662	4394
866.793	4405
866.924	4459
867.055	4466
867.186	4443
867.317	4402
867.448	4371
867.579	4398
867.71	4348
867.841	4405
867.972	4428
868.103	4421
868.233	4447
868.364	4421
868.495	4489
868.625	4645
868.756	4790
868.886	4554
869.017	4584
869.147	4767
869.278	4771
869.408	4687
869.539	4691
869.669	4710
869.799	4618
869.929	4744
870.06	4714
870.19	4930
870.32	4904
870.45	4919
870.58	5045
870.71	5037
870.84	5098
870.97	4953
871.1	4915
871.23	5128
871.36	5174
871.489	5067
871.619	5041
871.749	5037
871.879	5155
872.008	5128
872.138	4999
872.267	4980
872.397	4824
872.526	4831
872.656	4706
872.785	4866
872.915	4911
873.044	4999
873.173	4938
873.303	4957
873.432	4980
873.561	4972
873.69	4904
873.819	4839
873.948	4873
874.077	4809
874.206	4793
874.335	4797
874.464	4927
874.593	5056
874.722	4927
874.851	5041
874.979	5064
875.108	5041
875.237	4896
875.365	4850
875.494	4896
875.623	4961
875.751	4801
875.88	4866
876.008	4984
876.136	5060
876.265	5212
876.393	5353
876.521	5277
876.65	5246
876.778	5143
876.906	5094
877.034	5006
877.162	5052
877.29	4999
877.418	5041
877.546	5041
877.674	5014
877.802	4968
877.93	5014
878.058	4961
878.185	4858
878.313	4987
878.441	4972
878.568	4820
878.696	4889
878.824	4953
878.951	5041
879.079	5098
879.206	5299
879.333	5136
879.461	4968
879.588	5029
879.715	5105
879.842	5223
879.97	5025
880.097	4721
880.224	4736
880.351	4797
880.478	4797
880.605	4786
880.732	4774
880.859	5105
880.986	4889
881.112	4858
881.239	4793
881.366	4664
881.493	4599
881.619	4546
881.746	4637
881.872	4656
881.999	4653
882.125	4679
882.252	4774
882.378	4828
882.505	4961
882.631	4778
882.757	4630
882.883	4691
883.01	4744
883.136	4679
883.262	4531
883.388	4637
883.514	4828
883.64	4870
883.766	4748
883.892	4611
884.018	4733
884.143	4896
884.269	4968
884.395	4691
884.52	4618
884.646	4618
884.772	4546
884.897	4538
885.023	4645
885.148	4793
885.274	4843
885.399	4793
885.524	4744
885.65	4675
885.775	4771
885.9	4721
886.025	4908
886.15	4778
886.275	4679
886.4	4641
886.525	4706
886.65	4717
886.775	4683
886.9	4892
887.025	5029
887.149	4820
887.274	4698
887.399	4569
887.523	4561
887.648	4580
887.773	4554
887.897	4809
888.021	4767
888.146	4626
888.27	4831
888.395	4896
888.519	4847
888.643	4839
888.767	4805
888.891	4702
889.015	4580
889.139	4653
889.263	4637
889.387	4755
889.511	4854
889.635	4816
889.759	4596
889.883	4588
890.006	4740
890.13	4854
890.254	4626
890.377	4668
890.501	4508
890.624	4519
890.748	4634
890.871	4523
890.995	4432
891.118	4363
891.241	4542
891.364	4550
891.488	4634
891.611	4497
891.734	4474
891.857	4630
891.98	4569
892.103	4668
892.226	4584
892.349	4527
892.471	4424
892.594	4573
892.717	4577
892.839	4573
892.962	4558
893.085	4679
893.207	4630
893.33	4481
893.452	4535
893.575	4660
893.697	4618
893.819	4790
893.941	4843
894.064	4782
894.186	4592
894.308	4538
894.43	4687
894.552	4824
894.674	4759
894.796	4550
894.918	4580
895.04	4588
895.161	4694
895.283	4653
895.405	4592
895.526	4653
895.648	4702
895.769	4675
895.891	4725
896.012	4691
896.134	4752
896.255	4664
896.376	4592
896.498	4615
896.619	4679
896.74	4584
896.861	4611
896.982	4892
897.103	5064
897.224	4778
897.345	4744
897.466	4702
897.587	4774
897.708	4839
897.828	4748
897.949	4729
898.07	4554
898.19	4653
898.311	4812
898.431	4679
898.552	4767
898.672	4824
898.792	4755
898.913	4759
899.033	4630
899.153	4500
899.273	4459
899.393	4478
899.513	4519
899.633	4508
899.753	4542
899.873	4478
899.993	4573
900.113	4554
900.232	4565
900.352	4523
900.472	4470
900.591	4386
900.711	4527
900.83	4432
900.95	4588
901.069	4668
901.189	4535
901.308	4383
901.427	4337
901.546	4379
901.665	4402
901.784	4565
901.904	4333
902.023	4360
902.141	4169
902.26	4181
902.379	4310
902.498	4234
902.617	4284
902.735	4417
902.854	4383
902.973	4367
903.091	4234
903.21	4188
903.328	4375
903.446	4238
903.565	4276
903.683	4344
903.801	4276
903.919	4375
904.038	4443
904.156	4314
904.274	4379
904.392	4356
904.51	4417
904.627	4451
904.745	4573
904.863	4592
904.981	4413
905.098	4329
905.216	4402
905.334	4421
905.451	4440
905.569	4440
905.686	4500
905.803	4546
905.921	4432
906.038	4546
906.155	4478
906.272	4367
906.389	4417
906.506	4333
906.623	4375
906.74	4367
906.857	4272
906.974	4344
907.091	4546
907.208	4672
907.324	4603
907.441	4519
907.557	4383
907.674	4348
907.79	4291
907.907	4421
908.023	4485
908.139	4489
908.256	4421
908.372	4493
908.488	4459
908.604	4329
908.72	4295
908.836	4398
908.952	4333
909.068	4432
909.184	4599
909.3	4485
909.415	4550
909.531	4561
909.647	4363
909.762	4341
909.878	4314
909.993	4436
910.108	4402
910.224	4405
910.339	4497
910.454	4379
910.57	4390
910.685	4265
910.8	4664
910.915	4561
911.03	4485
911.145	4356
911.259	4329
911.374	4402
911.489	4337
911.604	4230
911.718	4181
911.833	4223
911.947	4105
912.062	4002
912.176	4230
912.291	4227
912.405	4242
912.519	4459
912.633	4497
912.748	4341
912.862	4299
912.976	4185
913.09	4071
913.204	4143
913.318	4196
913.431	4413
913.545	4383
913.659	4424
913.772	4341
913.886	4272
914	4230
914.113	4363
914.226	4428
914.34	4386
914.453	4234
914.566	4371
914.68	4276
914.793	4356
914.906	4177
915.019	4109
915.132	4071
915.245	4169
915.358	4188
915.47	4230
915.583	4253
915.696	4287
915.809	4390
915.921	4428
916.034	4249
916.146	4257
916.259	4196
916.371	4352
916.483	4310
916.595	4234
916.708	4341
916.82	4295
916.932	4356
917.044	4325
917.156	4325
917.268	4227
917.38	4360
917.491	4272
917.603	4383
917.715	4417
917.826	4443
917.938	4352
918.049	4215
918.161	4402
918.272	4546
918.384	4596
918.495	4462
918.606	4219
918.717	4291
918.828	4333
918.939	4367
919.05	4314
919.161	4375
919.272	4143
919.383	4234
919.494	4447
919.604	4626
919.715	4421
919.826	4363
919.936	4405
920.047	4512
920.157	4481
920.267	4683
920.378	4546
920.488	4493
920.598	4721
920.708	4889
920.818	4778
920.928	4740
921.038	4908
921.148	4934
921.258	4607
921.368	4535
921.477	4470
921.587	4390
921.697	4367
921.806	4527
921.916	4432
922.025	4261
922.134	4268
922.244	4204
922.353	4318
922.462	4131
922.571	4112
922.68	4032
922.789	3968
922.898	4021
923.007	3983
923.116	4101
923.224	4055
923.333	4097
923.442	4006
923.55	3953
923.659	4017
923.767	4086
923.876	3968
923.984	4169
924.092	3983
924.201	4059
924.309	4071
924.417	4124
924.525	4025
924.633	4101
924.741	5052
924.849	3941
924.956	4101
925.064	4029
925.172	3899
925.279	3899
925.387	4051
925.494	4067
925.602	4219
925.709	4166
925.816	4067
925.924	4105
926.031	4234
926.138	4169
926.245	4158
926.352	4105
926.459	4253
926.566	4306
926.673	4105
926.779	4074
926.886	4071
926.993	3991
927.099	3953
927.206	3949
927.312	3968
927.419	4078
927.525	4013
927.631	4059
927.737	3968
927.843	3949
927.95	3846
928.056	3956
928.162	3983
928.267	4067
928.373	4649
928.479	4124
928.585	3880
928.69	3979
928.796	4071
928.901	3987
929.007	3865
929.112	3972
929.218	3960
929.323	3926
929.428	3892
929.533	4139
929.638	3907
929.743	3899
929.848	4017
929.953	3998
930.058	3911
930.163	3793
930.267	3857
930.372	3968
930.477	3778
930.581	4063
930.685	3934
930.79	3808
930.894	3876
930.998	3884
931.103	4044
931.207	3724
931.311	3694
931.415	3633
931.519	3526
931.623	3500
