Data from test_V78500241_954.txt Node
Date: Fri Mar 25 16:55:38 CST 2022
User: usil
Spectrometer: V785-0024
Trigger mode: 0
Integration Time (sec): 4.000000E-1
Scans to average: 1
Nonlinearity correction enabled: false
Boxcar width: 0
Storing dark spectrum: false
XAxis mode: Wavelengths
Number of Pixels in Spectrum: 1024
>>>>>Begin Spectral Data<<<<<
801.071	8107
801.214	8046
801.356	7871
801.499	7784
801.641	7830
801.783	7811
801.926	7970
802.068	7890
802.211	7955
802.353	7978
802.496	7788
802.638	7879
802.78	7909
802.923	7944
803.065	7852
803.208	7852
803.35	8020
803.492	8107
803.635	8111
803.777	7986
803.919	8092
804.061	8374
804.204	8111
804.346	7978
804.488	7932
804.63	8145
804.773	8031
804.915	8084
805.057	8267
805.199	8111
805.341	8149
805.483	8282
805.626	8157
805.768	8073
805.91	8267
806.052	8191
806.194	8054
806.336	8271
806.478	8050
806.62	8027
806.762	8088
806.904	8210
807.046	8431
807.188	8301
807.33	8237
807.472	8298
807.614	8096
807.756	8073
807.898	7982
808.04	7917
808.182	7841
808.324	7871
808.465	7906
808.607	8073
808.749	8138
808.891	8115
809.033	8309
809.174	8263
809.316	8065
809.458	8027
809.6	8005
809.741	8050
809.883	7982
810.025	8035
810.166	8050
810.308	7993
810.45	8012
810.591	7970
810.733	7772
810.875	7674
811.016	7559
811.158	7487
811.299	7582
811.441	7643
811.582	7651
811.724	7578
811.865	7529
812.007	7525
812.148	7605
812.29	7616
812.431	7746
812.573	7833
812.714	7932
812.855	8111
812.997	8126
813.138	8298
813.279	8111
813.421	8164
813.562	8084
813.703	7879
813.845	7742
813.986	7529
814.127	7282
814.268	7301
814.41	7190
814.551	7187
814.692	7141
814.833	7038
814.974	7046
815.115	7118
815.256	6901
815.397	6897
815.539	6954
815.68	6833
815.821	6844
815.962	6814
816.103	6734
816.244	6711
816.385	6585
816.526	6616
816.666	6475
816.807	6251
816.948	6445
817.089	6498
817.23	6418
817.371	6410
817.512	6384
817.653	6414
817.793	6327
817.934	6384
818.075	6399
818.216	6429
818.356	6357
818.497	6209
818.638	6117
818.778	6095
818.919	6190
819.06	6125
819.2	6270
819.341	6350
819.481	6353
819.622	6528
819.762	6662
819.903	6688
820.043	6563
820.184	6540
820.324	6555
820.465	6658
820.605	6696
820.746	6658
820.886	6517
821.026	6654
821.167	6688
821.307	6783
821.447	6696
821.588	6707
821.728	6528
821.868	6502
822.008	6304
822.149	6391
822.289	6338
822.429	6144
822.569	6068
822.709	6148
822.849	5908
822.99	5908
823.13	5950
823.27	5904
823.41	5775
823.55	5729
823.69	5798
823.83	5748
823.97	5688
824.11	5501
824.25	5509
824.389	5539
824.529	5558
824.669	5509
824.809	5649
824.949	5649
825.089	5539
825.228	5512
825.368	5379
825.508	5337
825.648	5337
825.787	5353
825.927	5383
826.067	5296
826.206	5258
826.346	5372
826.485	5421
826.625	5414
826.765	5509
826.904	5463
827.044	5261
827.183	5189
827.323	5098
827.462	5258
827.601	5159
827.741	5102
827.88	5189
828.02	5102
828.159	5181
828.298	5299
828.437	5303
828.577	5284
828.716	5474
828.855	5357
828.994	5178
829.134	5121
829.273	5159
829.412	5113
829.551	5117
829.69	5159
829.829	5204
829.968	5353
830.107	5273
830.246	5239
830.385	5174
830.524	5090
830.663	5090
830.802	4953
830.941	4854
831.08	4862
831.219	4934
831.357	5006
831.496	5166
831.635	4896
831.774	4835
831.913	4824
832.051	4733
832.19	4782
832.329	4820
832.467	4649
832.606	4577
832.744	4748
832.883	4706
833.022	4694
833.16	4771
833.299	4820
833.437	4831
833.576	4831
833.714	4847
833.852	4824
833.991	4889
834.129	4938
834.267	4923
834.406	4915
834.544	4957
834.682	4873
834.821	4949
834.959	5124
835.097	4980
835.235	5113
835.373	5048
835.511	5048
835.65	5022
835.788	4968
835.926	4862
836.064	4873
836.202	4885
836.34	5136
836.478	5170
836.615	5117
836.753	5189
836.891	5269
837.029	5204
837.167	5181
837.305	5174
837.443	5117
837.58	5071
837.718	5265
837.856	5174
837.993	5136
838.131	5242
838.269	5223
838.406	5147
838.544	5155
838.681	5071
838.819	4965
838.956	4889
839.094	4892
839.231	4949
839.369	5105
839.506	5459
839.643	5288
839.781	5064
839.918	4995
840.055	5086
840.193	5102
840.33	5121
840.467	5090
840.604	5155
840.742	5421
840.879	5048
841.016	5071
841.153	5136
841.29	5326
841.427	5280
841.564	5280
841.701	5242
841.838	5265
841.975	5208
842.112	5227
842.249	5102
842.385	5090
842.522	5383
842.659	5189
842.796	5143
842.933	5105
843.069	5147
843.206	5155
843.343	5315
843.479	5197
843.616	5299
843.752	5056
843.889	5006
844.025	5178
844.162	4965
844.298	5201
844.435	5075
844.571	5022
844.708	5178
844.844	5311
844.98	5299
845.117	5261
845.253	5102
845.389	5033
845.525	5162
845.661	5109
845.798	4999
845.934	5159
846.07	5006
846.206	5181
846.342	5269
846.478	5166
846.614	5048
846.75	4961
846.886	4889
847.022	5174
847.158	5022
847.294	5056
847.429	5037
847.565	5048
847.701	5296
847.837	4858
847.972	4771
848.108	4911
848.244	4900
848.379	4759
848.515	4714
848.65	4687
848.786	4694
848.921	4733
849.057	4843
849.192	4873
849.328	4820
849.463	4786
849.598	4771
849.734	4771
849.869	4672
850.004	4607
850.14	4649
850.275	4584
850.41	4493
850.545	4569
850.68	4596
850.815	4580
850.95	4561
851.085	4805
851.22	4698
851.355	4653
851.49	4634
851.625	4607
851.76	4645
851.895	4542
852.03	4538
852.165	4645
852.299	4710
852.434	4801
852.569	4736
852.703	4793
852.838	4797
852.973	4896
853.107	4854
853.242	4694
853.376	4622
853.511	4558
853.645	4565
853.78	4763
853.914	4687
854.048	4710
854.183	4656
854.317	4744
854.451	4847
854.585	4656
854.72	4577
854.854	4710
854.988	4580
855.122	4622
855.256	4554
855.39	4672
855.524	4744
855.658	4721
855.792	4668
855.926	4725
856.06	4740
856.194	4763
856.327	4618
856.461	4554
856.595	4637
856.729	4634
856.862	4675
856.996	4706
857.13	4683
857.263	4771
857.397	4820
857.53	4668
857.664	4759
857.797	4748
857.931	4759
858.064	4683
858.197	4702
858.331	4694
858.464	4599
858.597	4474
858.731	4615
858.864	4630
858.997	4546
859.13	4660
859.263	4653
859.396	4649
859.529	4558
859.662	4542
859.795	4508
859.928	4615
860.061	4771
860.194	4759
860.327	4550
860.46	4542
860.592	4679
860.725	4691
860.858	4694
860.99	4607
861.123	4489
861.256	4550
861.388	4596
861.521	5166
861.653	4481
861.786	4485
861.918	4455
862.05	4493
862.183	4500
862.315	4615
862.447	4630
862.58	4519
862.712	4424
862.844	4306
862.976	4462
863.108	4443
863.24	4854
863.372	4386
863.504	4432
863.636	4367
863.768	4470
863.9	4413
864.032	4367
864.164	4367
864.296	4451
864.428	4508
864.559	4554
864.691	4519
864.823	4497
864.954	4508
865.086	4508
865.217	4443
865.349	4390
865.48	4424
865.612	4489
865.743	4641
865.875	4474
866.006	4443
866.137	4451
866.269	4443
866.4	4363
866.531	4386
866.662	4352
866.793	4390
866.924	4398
867.055	4466
867.186	4459
867.317	4409
867.448	4371
867.579	4341
867.71	4360
867.841	4356
867.972	4447
868.103	4428
868.233	4424
868.364	4390
868.495	4402
868.625	4691
868.756	4736
868.886	4546
869.017	4599
869.147	4771
869.278	4767
869.408	4637
869.539	4649
869.669	4672
869.799	4599
869.929	4717
870.06	4725
870.19	4953
870.32	4923
870.45	4927
870.58	5006
870.71	5086
870.84	5102
870.97	4904
871.1	4870
871.23	5067
871.36	5086
871.489	4999
871.619	5048
871.749	5121
871.879	5052
872.008	5170
872.138	5014
872.267	4965
872.397	4870
872.526	4797
872.656	4725
872.785	4774
872.915	4946
873.044	4984
873.173	4908
873.303	4927
873.432	4915
873.561	4915
873.69	4873
873.819	4835
873.948	4900
874.077	4835
874.206	4733
874.335	4759
874.464	4889
874.593	5056
874.722	4889
874.851	5056
874.979	5048
875.108	5018
875.237	4831
875.365	4885
875.494	4839
875.623	4995
875.751	4748
875.88	4900
876.008	4953
876.136	5014
876.265	5166
876.393	5337
876.521	5258
876.65	5239
876.778	5159
876.906	5033
877.034	5014
877.162	5037
877.29	4953
877.418	5014
877.546	4984
877.674	4984
877.802	4995
877.93	5018
878.058	4919
878.185	4949
878.313	4961
878.441	4934
878.568	4774
878.696	4854
878.824	4915
878.951	4881
879.079	5140
879.206	5269
879.333	5041
879.461	4946
879.588	5025
879.715	5090
879.842	5189
879.97	4995
880.097	4752
880.224	4698
880.351	4816
880.478	4793
880.605	4778
880.732	4771
880.859	5083
880.986	4866
881.112	4839
881.239	4793
881.366	4634
881.493	4569
881.619	4580
881.746	4630
881.872	4630
881.999	4641
882.125	4672
882.252	4710
882.378	4801
882.505	4942
882.631	4797
882.757	4611
882.883	4740
883.01	4740
883.136	4653
883.262	4611
883.388	4656
883.514	4771
883.64	4816
883.766	4733
883.892	4634
884.018	4725
884.143	4843
884.269	4976
884.395	4664
884.52	4622
884.646	4637
884.772	4580
884.897	4546
885.023	4618
885.148	4805
885.274	4824
885.399	4763
885.524	4660
885.65	4694
885.775	4714
885.9	4694
886.025	4854
886.15	4786
886.275	4706
886.4	4622
886.525	4725
886.65	4706
886.775	4611
886.9	4873
887.025	5022
887.149	4812
887.274	4637
887.399	4535
887.523	4561
887.648	4565
887.773	4573
887.897	4736
888.021	4763
888.146	4668
888.27	4793
888.395	4908
888.519	4812
888.643	4831
888.767	4820
888.891	4607
889.015	4626
889.139	4554
889.263	4637
889.387	4729
889.511	4801
889.635	4786
889.759	4653
889.883	4599
890.006	4649
890.13	4835
890.254	4592
890.377	4672
890.501	4558
890.624	4523
890.748	4649
890.871	4516
890.995	4432
891.118	4428
891.241	4493
891.364	4558
891.488	4668
891.611	4508
891.734	4531
891.857	4592
891.98	4508
892.103	4569
892.226	4558
892.349	4512
892.471	4405
892.594	4489
892.717	4588
892.839	4558
892.962	4596
893.085	4679
893.207	4603
893.33	4459
893.452	4527
893.575	4599
893.697	4538
893.819	4778
893.941	4790
894.064	4717
894.186	4550
894.308	4588
894.43	4740
894.552	4797
894.674	4755
894.796	4577
894.918	4554
895.04	4538
895.161	4683
895.283	4626
895.405	4550
895.526	4634
895.648	4653
895.769	4668
895.891	4683
896.012	4683
896.134	4683
896.255	4641
896.376	4641
896.498	4565
896.619	4615
896.74	4588
896.861	4618
896.982	4854
897.103	5098
897.224	4812
897.345	4733
897.466	4645
897.587	4729
897.708	4820
897.828	4748
897.949	4691
898.07	4542
898.19	4630
898.311	4812
898.431	4672
898.552	4706
898.672	4759
898.792	4782
898.913	4759
899.033	4599
899.153	4474
899.273	4432
899.393	4527
899.513	4516
899.633	4523
899.753	4554
899.873	4508
899.993	4580
900.113	4519
900.232	4577
900.352	4596
900.472	4485
900.591	4394
900.711	4516
900.83	4447
900.95	4634
901.069	4656
901.189	4584
901.308	4421
901.427	4295
901.546	4383
901.665	4504
901.784	4535
901.904	4386
902.023	4375
902.141	4196
902.26	4211
902.379	4322
902.498	4249
902.617	4211
902.735	4417
902.854	4383
902.973	4421
903.091	4204
903.21	4238
903.328	4310
903.446	4265
903.565	4291
903.683	4363
903.801	4265
903.919	4470
904.038	4440
904.156	4337
904.274	4478
904.392	4455
904.51	4455
904.627	4523
904.745	4592
904.863	4675
904.981	4443
905.098	4363
905.216	4356
905.334	4466
905.451	4504
905.569	4481
905.686	4641
905.803	4569
905.921	4478
906.038	4607
906.155	4481
906.272	4481
906.389	4489
906.506	4421
906.623	4386
906.74	4379
906.857	4333
906.974	4405
907.091	4615
907.208	4714
907.324	4588
907.441	4516
907.557	4360
907.674	4405
907.79	4306
907.907	4447
908.023	4546
908.139	4527
908.256	4432
908.372	4546
908.488	4470
908.604	4459
908.72	4348
908.836	4379
908.952	4462
909.068	4436
909.184	4611
909.3	4500
909.415	4622
909.531	4554
909.647	4375
909.762	4394
909.878	4371
909.993	4421
910.108	4481
910.224	4478
910.339	4512
910.454	4409
910.57	4371
910.685	4375
910.8	4702
910.915	4634
911.03	4462
911.145	4344
911.259	4284
911.374	4417
911.489	4325
911.604	4333
911.718	4120
911.833	4227
911.947	4120
912.062	4074
912.176	4238
912.291	4310
912.405	4272
912.519	4542
912.633	4546
912.748	4363
912.862	4337
912.976	4257
913.09	4120
913.204	4196
913.318	4291
913.431	4386
913.545	4455
913.659	4481
913.772	4341
913.886	4295
914	4230
914.113	4398
914.226	4497
914.34	4417
914.453	4265
914.566	4424
914.68	4329
914.793	4352
914.906	4181
915.019	4154
915.132	4074
915.245	4253
915.358	4261
915.47	4287
915.583	4284
915.696	4360
915.809	4413
915.921	4451
916.034	4257
916.146	4272
916.259	4280
916.371	4432
916.483	4341
916.595	4265
916.708	4363
916.82	4356
916.932	4337
917.044	4352
917.156	4367
917.268	4249
917.38	4238
917.491	4272
917.603	4413
917.715	4451
917.826	4451
917.938	4360
918.049	4249
918.161	4402
918.272	4554
918.384	4546
918.495	4512
918.606	4333
918.717	4234
918.828	4325
918.939	4398
919.05	4261
919.161	4341
919.272	4135
919.383	4257
919.494	4440
919.604	4653
919.715	4428
919.826	4341
919.936	4443
920.047	4561
920.157	4527
920.267	4698
920.378	4561
920.488	4561
920.598	4740
920.708	4904
920.818	4805
920.928	4774
921.038	4987
921.148	4976
921.258	4675
921.368	4603
921.477	4497
921.587	4500
921.697	4363
921.806	4527
921.916	4436
922.025	4253
922.134	4318
922.244	4295
922.353	4360
922.462	4147
922.571	4150
922.68	4063
922.789	3953
922.898	4040
923.007	4010
923.116	4139
923.224	4120
923.333	4135
923.442	4036
923.55	3987
923.659	4048
923.767	4109
923.876	4048
923.984	4150
924.092	4021
924.201	4074
924.309	4154
924.417	4185
924.525	4109
924.633	4090
924.741	5094
924.849	3907
924.956	4135
925.064	3972
925.172	3949
925.279	3998
925.387	4074
925.494	4128
925.602	4173
925.709	4219
925.816	4112
925.924	4192
926.031	4268
926.138	4185
926.245	4249
926.352	4105
926.459	4234
926.566	4265
926.673	4188
926.779	4124
926.886	4055
926.993	4002
927.099	3975
927.206	3937
927.312	3991
927.419	4078
927.525	4097
927.631	4101
927.737	3979
927.843	3960
927.95	3888
928.056	3922
928.162	4051
928.267	4105
928.373	4717
928.479	4093
928.585	3930
928.69	4032
928.796	4093
928.901	3964
929.007	3869
929.112	4051
929.218	3998
929.323	3983
929.428	3949
929.533	4139
929.638	3941
929.743	4002
929.848	4074
929.953	4017
930.058	4006
930.163	3816
930.267	3876
930.372	4048
930.477	3827
930.581	4074
930.685	3972
930.79	3850
930.894	3888
930.998	3880
931.103	4048
931.207	3793
931.311	3724
931.415	3736
931.519	3534
931.623	3606
