Data from test_V78500241_2588.txt Node
Date: Fri Mar 25 17:06:59 CST 2022
User: usil
Spectrometer: V785-0024
Trigger mode: 0
Integration Time (sec): 4.000000E-1
Scans to average: 1
Nonlinearity correction enabled: false
Boxcar width: 0
Storing dark spectrum: false
XAxis mode: Wavelengths
Number of Pixels in Spectrum: 1024
>>>>>Begin Spectral Data<<<<<
801.071	7974
801.214	7967
801.356	7898
801.499	7883
801.641	7772
801.783	7803
801.926	7951
802.068	8027
802.211	7970
802.353	7978
802.496	7932
802.638	7875
802.78	7894
802.923	7856
803.065	7902
803.208	7921
803.35	8005
803.492	8046
803.635	8199
803.777	8024
803.919	8183
804.061	8415
804.204	8142
804.346	8081
804.488	7993
804.63	8130
804.773	8046
804.915	8183
805.057	8271
805.199	8161
805.341	8229
805.483	8279
805.626	8256
805.768	8111
805.91	8218
806.052	8248
806.194	8088
806.336	8301
806.478	8092
806.62	8069
806.762	8103
806.904	8271
807.046	8457
807.188	8370
807.33	8347
807.472	8389
807.614	8168
807.756	8149
807.898	8111
808.04	7902
808.182	7856
808.324	7951
808.465	7944
808.607	8161
808.749	8142
808.891	8263
809.033	8309
809.174	8191
809.316	8119
809.458	8073
809.6	8005
809.741	8062
809.883	8050
810.025	8103
810.166	8111
810.308	8012
810.45	8058
810.591	7879
810.733	7765
810.875	7712
811.016	7544
811.158	7491
811.299	7609
811.441	7788
811.582	7677
811.724	7613
811.865	7571
812.007	7677
812.148	7571
812.29	7605
812.431	7765
812.573	7830
812.714	7932
812.855	8195
812.997	8176
813.138	8374
813.279	8271
813.421	8054
813.562	7951
813.703	7852
813.845	7811
813.986	7441
814.127	7232
814.268	7255
814.41	7149
814.551	7209
814.692	7278
814.833	7095
814.974	7103
815.115	7129
815.256	6943
815.397	6913
815.539	6935
815.68	6856
815.821	6829
815.962	6905
816.103	6821
816.244	6798
816.385	6635
816.526	6662
816.666	6532
816.807	6292
816.948	6437
817.089	6498
817.23	6467
817.371	6445
817.512	6395
817.653	6384
817.793	6346
817.934	6441
818.075	6498
818.216	6414
818.356	6403
818.497	6304
818.638	6129
818.778	6140
818.919	6144
819.06	6140
819.2	6399
819.341	6407
819.481	6422
819.622	6509
819.762	6734
819.903	6692
820.043	6669
820.184	6623
820.324	6635
820.465	6711
820.605	6711
820.746	6681
820.886	6608
821.026	6623
821.167	6757
821.307	6825
821.447	6806
821.588	6639
821.728	6578
821.868	6494
822.008	6327
822.149	6350
822.289	6323
822.429	6205
822.569	6083
822.709	6175
822.849	5939
822.99	5935
823.13	5901
823.27	5912
823.41	5802
823.55	5775
823.69	5802
823.83	5752
823.97	5699
824.11	5516
824.25	5520
824.389	5589
824.529	5581
824.669	5558
824.809	5691
824.949	5668
825.089	5623
825.228	5551
825.368	5398
825.508	5429
825.648	5341
825.787	5349
825.927	5406
826.067	5261
826.206	5326
826.346	5360
826.485	5402
826.625	5379
826.765	5547
826.904	5478
827.044	5311
827.183	5250
827.323	5155
827.462	5231
827.601	5132
827.741	5216
827.88	5220
828.02	5113
828.159	5277
828.298	5246
828.437	5387
828.577	5337
828.716	5539
828.855	5360
828.994	5136
829.134	5204
829.273	5235
829.412	5155
829.551	5170
829.69	5147
829.829	5265
829.968	5387
830.107	5265
830.246	5284
830.385	5181
830.524	5147
830.663	5109
830.802	5029
830.941	4911
831.08	4866
831.219	5033
831.357	5037
831.496	5181
831.635	4953
831.774	4820
831.913	4835
832.051	4771
832.19	4820
832.329	4835
832.467	4698
832.606	4653
832.744	4675
832.883	4774
833.022	4744
833.16	4729
833.299	4820
833.437	4828
833.576	4858
833.714	4862
833.852	4904
833.991	4866
834.129	4968
834.267	4957
834.406	4942
834.544	4942
834.682	5003
834.821	4961
834.959	5185
835.097	4957
835.235	5162
835.373	5060
835.511	5147
835.65	5014
835.788	5048
835.926	4881
836.064	4862
836.202	4919
836.34	5193
836.478	5231
836.615	5140
836.753	5223
836.891	5288
837.029	5239
837.167	5227
837.305	5212
837.443	5170
837.58	5064
837.718	5326
837.856	5208
837.993	5170
838.131	5212
838.269	5201
838.406	5235
838.544	5193
838.681	5048
838.819	5018
838.956	4862
839.094	4862
839.231	4999
839.369	5102
839.506	5402
839.643	5284
839.781	5052
839.918	4980
840.055	5094
840.193	5102
840.33	5071
840.467	5204
840.604	5193
840.742	5433
840.879	5102
841.016	5098
841.153	5147
841.29	5376
841.427	5326
841.564	5364
841.701	5368
841.838	5265
841.975	5250
842.112	5265
842.249	5143
842.385	5132
842.522	5360
842.659	5185
842.796	5132
842.933	5166
843.069	5109
843.206	5208
843.343	5258
843.479	5197
843.616	5258
843.752	5071
843.889	5052
844.025	5273
844.162	5018
844.298	5261
844.435	5105
844.571	5022
844.708	5193
844.844	5296
844.98	5330
845.117	5246
845.253	5147
845.389	5109
845.525	5159
845.661	5189
845.798	5052
845.934	5174
846.07	5052
846.206	5223
846.342	5258
846.478	5151
846.614	5067
846.75	4949
846.886	4957
847.022	5105
847.158	4946
847.294	5083
847.429	5140
847.565	5052
847.701	5322
847.837	4900
847.972	4759
848.108	4991
848.244	4972
848.379	4797
848.515	4721
848.65	4717
848.786	4740
848.921	4767
849.057	4877
849.192	4870
849.328	4786
849.463	4831
849.598	4774
849.734	4771
849.869	4660
850.004	4584
850.14	4641
850.275	4634
850.41	4584
850.545	4584
850.68	4626
850.815	4668
850.95	4675
851.085	4809
851.22	4675
851.355	4641
851.49	4607
851.625	4618
851.76	4691
851.895	4561
852.03	4561
852.165	4687
852.299	4755
852.434	4790
852.569	4714
852.703	4774
852.838	4793
852.973	4927
853.107	4915
853.242	4752
853.376	4683
853.511	4546
853.645	4599
853.78	4843
853.914	4691
854.048	4664
854.183	4618
854.317	4615
854.451	4828
854.585	4702
854.72	4599
854.854	4786
854.988	4637
855.122	4618
855.256	4497
855.39	4645
855.524	4774
855.658	4725
855.792	4675
855.926	4702
856.06	4744
856.194	4812
856.327	4717
856.461	4626
856.595	4592
856.729	4660
856.862	4752
856.996	4694
857.13	4763
857.263	4790
857.397	4790
857.53	4694
857.664	4717
857.797	4759
857.931	4797
858.064	4710
858.197	4748
858.331	4687
858.464	4603
858.597	4531
858.731	4634
858.864	4622
858.997	4611
859.13	4641
859.263	4660
859.396	4660
859.529	4569
859.662	4584
859.795	4535
859.928	4615
860.061	4740
860.194	4839
860.327	4607
860.46	4565
860.592	4748
860.725	4740
860.858	4721
860.99	4565
861.123	4554
861.256	4478
861.388	4607
861.521	5341
861.653	4500
861.786	4466
861.918	4459
862.05	4466
862.183	4535
862.315	4569
862.447	4622
862.58	4516
862.712	4405
862.844	4299
862.976	4459
863.108	4474
863.24	4759
863.372	4344
863.504	4451
863.636	4371
863.768	4436
863.9	4455
864.032	4352
864.164	4409
864.296	4447
864.428	4550
864.559	4565
864.691	4554
864.823	4508
864.954	4516
865.086	4504
865.217	4436
865.349	4417
865.48	4527
865.612	4538
865.743	4630
865.875	4474
866.006	4398
866.137	4478
866.269	4432
866.4	4489
866.531	4462
866.662	4432
866.793	4390
866.924	4421
867.055	4459
867.186	4459
867.317	4402
867.448	4398
867.579	4432
867.71	4394
867.841	4386
867.972	4455
868.103	4493
868.233	4432
868.364	4428
868.495	4489
868.625	4649
868.756	4729
868.886	4542
869.017	4603
869.147	4790
869.278	4809
869.408	4672
869.539	4637
869.669	4721
869.799	4694
869.929	4752
870.06	4763
870.19	4980
870.32	4919
870.45	4938
870.58	4995
870.71	5075
870.84	5083
870.97	4946
871.1	4915
871.23	5113
871.36	5086
871.489	5025
871.619	5102
871.749	5045
871.879	5143
872.008	5204
872.138	4995
872.267	4972
872.397	4820
872.526	4809
872.656	4752
872.785	4797
872.915	4991
873.044	4999
873.173	4976
873.303	4946
873.432	4934
873.561	4919
873.69	4870
873.819	4847
873.948	4923
874.077	4797
874.206	4763
874.335	4835
874.464	4980
874.593	5079
874.722	4968
874.851	5155
874.979	5117
875.108	4999
875.237	4870
875.365	4892
875.494	4839
875.623	4961
875.751	4862
875.88	4877
876.008	4957
876.136	5029
876.265	5246
876.393	5383
876.521	5258
876.65	5284
876.778	5140
876.906	5060
877.034	5010
877.162	5083
877.29	4946
877.418	5056
877.546	5067
877.674	5003
877.802	4991
877.93	4980
878.058	4911
878.185	4900
878.313	4953
878.441	4942
878.568	4816
878.696	4843
878.824	4972
878.951	5033
879.079	5121
879.206	5269
879.333	5136
879.461	4984
879.588	5071
879.715	5113
879.842	5220
879.97	5048
880.097	4755
880.224	4759
880.351	4854
880.478	4793
880.605	4805
880.732	4820
880.859	5086
880.986	4801
881.112	4873
881.239	4778
881.366	4721
881.493	4615
881.619	4592
881.746	4664
881.872	4672
881.999	4656
882.125	4710
882.252	4755
882.378	4847
882.505	4923
882.631	4748
882.757	4653
882.883	4717
883.01	4694
883.136	4664
883.262	4607
883.388	4637
883.514	4828
883.64	4812
883.766	4782
883.892	4653
884.018	4721
884.143	4942
884.269	5022
884.395	4672
884.52	4634
884.646	4679
884.772	4588
884.897	4550
885.023	4649
885.148	4759
885.274	4873
885.399	4820
885.524	4721
885.65	4698
885.775	4752
885.9	4740
886.025	4835
886.15	4790
886.275	4706
886.4	4694
886.525	4752
886.65	4660
886.775	4702
886.9	4911
887.025	5071
887.149	4778
887.274	4660
887.399	4569
887.523	4603
887.648	4519
887.773	4596
887.897	4717
888.021	4763
888.146	4683
888.27	4793
888.395	4908
888.519	4786
888.643	4805
888.767	4793
888.891	4702
889.015	4611
889.139	4615
889.263	4645
889.387	4714
889.511	4835
889.635	4778
889.759	4694
889.883	4626
890.006	4725
890.13	4820
890.254	4618
890.377	4675
890.501	4569
890.624	4558
890.748	4615
890.871	4516
890.995	4451
891.118	4375
891.241	4470
891.364	4531
891.488	4664
891.611	4512
891.734	4573
891.857	4596
891.98	4508
892.103	4630
892.226	4565
892.349	4538
892.471	4459
892.594	4542
892.717	4607
892.839	4561
892.962	4588
893.085	4653
893.207	4679
893.33	4470
893.452	4538
893.575	4618
893.697	4554
893.819	4835
893.941	4824
894.064	4782
894.186	4577
894.308	4550
894.43	4710
894.552	4752
894.674	4691
894.796	4565
894.918	4622
895.04	4588
895.161	4698
895.283	4618
895.405	4618
895.526	4634
895.648	4698
895.769	4672
895.891	4717
896.012	4710
896.134	4656
896.255	4675
896.376	4656
896.498	4599
896.619	4721
896.74	4622
896.861	4660
896.982	4927
897.103	5052
897.224	4835
897.345	4717
897.466	4656
897.587	4752
897.708	4816
897.828	4767
897.949	4672
898.07	4577
898.19	4668
898.311	4843
898.431	4656
898.552	4702
898.672	4790
898.792	4771
898.913	4714
899.033	4618
899.153	4542
899.273	4409
899.393	4508
899.513	4497
899.633	4523
899.753	4512
899.873	4527
899.993	4558
900.113	4512
900.232	4626
900.352	4577
900.472	4508
900.591	4432
900.711	4519
900.83	4390
900.95	4615
901.069	4679
901.189	4519
901.308	4360
901.427	4310
901.546	4314
901.665	4523
901.784	4523
901.904	4383
902.023	4295
902.141	4173
902.26	4169
902.379	4325
902.498	4223
902.617	4265
902.735	4363
902.854	4424
902.973	4383
903.091	4230
903.21	4192
903.328	4276
903.446	4246
903.565	4257
903.683	4356
903.801	4284
903.919	4402
904.038	4398
904.156	4299
904.274	4436
904.392	4424
904.51	4436
904.627	4443
904.745	4580
904.863	4645
904.981	4383
905.098	4310
905.216	4360
905.334	4421
905.451	4447
905.569	4443
905.686	4561
905.803	4500
905.921	4443
906.038	4588
906.155	4466
906.272	4421
906.389	4470
906.506	4344
906.623	4356
906.74	4424
906.857	4318
906.974	4386
907.091	4561
907.208	4664
907.324	4622
907.441	4508
907.557	4337
907.674	4341
907.79	4356
907.907	4375
908.023	4485
908.139	4535
908.256	4432
908.372	4493
908.488	4519
908.604	4341
908.72	4325
908.836	4356
908.952	4352
909.068	4447
909.184	4558
909.3	4500
909.415	4588
909.531	4573
909.647	4337
909.762	4386
909.878	4310
909.993	4447
910.108	4409
910.224	4424
910.339	4504
910.454	4432
910.57	4405
910.685	4306
910.8	4660
910.915	4577
911.03	4516
911.145	4348
911.259	4329
911.374	4348
911.489	4318
911.604	4219
911.718	4196
911.833	4242
911.947	4128
912.062	4029
912.176	4192
912.291	4265
912.405	4249
912.519	4451
912.633	4474
912.748	4322
912.862	4287
912.976	4227
913.09	4090
913.204	4188
913.318	4253
913.431	4333
913.545	4348
913.659	4443
913.772	4367
913.886	4234
914	4276
914.113	4379
914.226	4413
914.34	4329
914.453	4257
914.566	4428
914.68	4329
914.793	4329
914.906	4150
915.019	4128
915.132	4059
915.245	4150
915.358	4219
915.47	4192
915.583	4253
915.696	4242
915.809	4428
915.921	4409
916.034	4257
916.146	4272
916.259	4253
916.371	4352
916.483	4405
916.595	4272
916.708	4314
916.82	4344
916.932	4306
917.044	4344
917.156	4363
917.268	4181
917.38	4272
917.491	4280
917.603	4322
917.715	4421
917.826	4436
917.938	4325
918.049	4249
918.161	4440
918.272	4504
918.384	4607
918.495	4504
918.606	4341
918.717	4249
918.828	4329
918.939	4424
919.05	4265
919.161	4367
919.272	4166
919.383	4227
919.494	4405
919.604	4618
919.715	4394
919.826	4341
919.936	4424
920.047	4516
920.157	4470
920.267	4748
920.378	4565
920.488	4470
920.598	4740
920.708	4854
920.818	4771
920.928	4778
921.038	4927
921.148	4911
921.258	4641
921.368	4519
921.477	4485
921.587	4474
921.697	4379
921.806	4561
921.916	4383
922.025	4192
922.134	4265
922.244	4261
922.353	4344
922.462	4154
922.571	4120
922.68	4063
922.789	3968
922.898	4044
923.007	3956
923.116	4059
923.224	4071
923.333	4097
923.442	3972
923.55	3968
923.659	3998
923.767	4067
923.876	4013
923.984	4162
924.092	4036
924.201	4101
924.309	4078
924.417	4101
924.525	4017
924.633	4112
924.741	5067
924.849	3960
924.956	4124
925.064	3926
925.172	3922
925.279	3953
925.387	4044
925.494	4074
925.602	4188
925.709	4173
925.816	4017
925.924	4150
926.031	4207
926.138	4150
926.245	4249
926.352	4116
926.459	4230
926.566	4295
926.673	4166
926.779	4067
926.886	4105
926.993	3964
927.099	3953
927.206	3926
927.312	3964
927.419	4067
927.525	4036
927.631	4071
927.737	3964
927.843	3960
927.95	3816
928.056	3922
928.162	4002
928.267	4051
928.373	4615
928.479	4120
928.585	3854
928.69	4071
928.796	4032
928.901	3998
929.007	3838
929.112	3994
929.218	3979
929.323	3964
929.428	3934
929.533	4131
929.638	3888
929.743	3922
929.848	4071
929.953	4006
930.058	3930
930.163	3804
930.267	3819
930.372	3983
930.477	3857
930.581	4055
930.685	3915
930.79	3827
930.894	3876
930.998	3873
931.103	4010
931.207	3728
931.311	3682
931.415	3682
931.519	3519
931.623	3561
