Data from test_V78500241_1046.txt Node
Date: Fri Mar 25 16:56:16 CST 2022
User: usil
Spectrometer: V785-0024
Trigger mode: 0
Integration Time (sec): 4.000000E-1
Scans to average: 1
Nonlinearity correction enabled: false
Boxcar width: 0
Storing dark spectrum: false
XAxis mode: Wavelengths
Number of Pixels in Spectrum: 1024
>>>>>Begin Spectral Data<<<<<
801.071	8107
801.214	8084
801.356	7902
801.499	7769
801.641	7757
801.783	7818
801.926	7898
802.068	7875
802.211	7944
802.353	7989
802.496	7814
802.638	7761
802.78	7860
802.923	7940
803.065	7909
803.208	7871
803.35	7917
803.492	8065
803.635	8164
803.777	8046
803.919	8084
804.061	8374
804.204	8164
804.346	8119
804.488	7955
804.63	8092
804.773	8027
804.915	8145
805.057	8271
805.199	8157
805.341	8218
805.483	8298
805.626	8176
805.768	8103
805.91	8183
806.052	8214
806.194	8062
806.336	8343
806.478	8111
806.62	8005
806.762	8100
806.904	8275
807.046	8423
807.188	8301
807.33	8355
807.472	8282
807.614	8183
807.756	8103
807.898	7944
808.04	7906
808.182	7871
808.324	7928
808.465	7963
808.607	8065
808.749	8092
808.891	8130
809.033	8275
809.174	8225
809.316	8050
809.458	8035
809.6	7967
809.741	8058
809.883	7978
810.025	8035
810.166	8012
810.308	7997
810.45	7967
810.591	7890
810.733	7704
810.875	7670
811.016	7460
811.158	7472
811.299	7586
811.441	7693
811.582	7639
811.724	7609
811.865	7476
812.007	7495
812.148	7563
812.29	7655
812.431	7750
812.573	7902
812.714	7959
812.855	8111
812.997	8145
813.138	8271
813.279	8187
813.421	8084
813.562	7982
813.703	7944
813.845	7792
813.986	7487
814.127	7228
814.268	7149
814.41	7187
814.551	7072
814.692	7194
814.833	6966
814.974	6977
815.115	7053
815.256	6989
815.397	6875
815.539	6859
815.68	6795
815.821	6726
815.962	6863
816.103	6738
816.244	6696
816.385	6635
816.526	6585
816.666	6452
816.807	6323
816.948	6372
817.089	6437
817.23	6483
817.371	6414
817.512	6357
817.653	6365
817.793	6376
817.934	6403
818.075	6441
818.216	6376
818.356	6388
818.497	6239
818.638	6106
818.778	6144
818.919	6148
819.06	6167
819.2	6273
819.341	6247
819.481	6391
819.622	6479
819.762	6684
819.903	6650
820.043	6627
820.184	6544
820.324	6532
820.465	6681
820.605	6692
820.746	6601
820.886	6506
821.026	6692
821.167	6681
821.307	6741
821.447	6768
821.588	6627
821.728	6582
821.868	6479
822.008	6304
822.149	6319
822.289	6426
822.429	6155
822.569	6068
822.709	6114
822.849	5874
822.99	5874
823.13	5942
823.27	5901
823.41	5748
823.55	5805
823.69	5775
823.83	5805
823.97	5642
824.11	5532
824.25	5474
824.389	5535
824.529	5581
824.669	5505
824.809	5630
824.949	5646
825.089	5608
825.228	5520
825.368	5433
825.508	5292
825.648	5326
825.787	5345
825.927	5383
826.067	5296
826.206	5296
826.346	5322
826.485	5376
826.625	5417
826.765	5524
826.904	5448
827.044	5242
827.183	5166
827.323	5109
827.462	5201
827.601	5151
827.741	5155
827.88	5212
828.02	5113
828.159	5212
828.298	5250
828.437	5368
828.577	5250
828.716	5512
828.855	5303
828.994	5132
829.134	5155
829.273	5204
829.412	5105
829.551	5075
829.69	5128
829.829	5231
829.968	5341
830.107	5250
830.246	5216
830.385	5170
830.524	5128
830.663	5003
830.802	4980
830.941	4820
831.08	4862
831.219	5003
831.357	4938
831.496	5121
831.635	4953
831.774	4809
831.913	4858
832.051	4774
832.19	4744
832.329	4809
832.467	4691
832.606	4645
832.744	4683
832.883	4679
833.022	4725
833.16	4805
833.299	4820
833.437	4793
833.576	4828
833.714	4835
833.852	4862
833.991	4843
834.129	4953
834.267	4900
834.406	4915
834.544	4934
834.682	4965
834.821	4949
834.959	5132
835.097	4942
835.235	5124
835.373	5060
835.511	5136
835.65	4999
835.788	5025
835.926	4934
836.064	4900
836.202	4873
836.34	5147
836.478	5174
836.615	5140
836.753	5155
836.891	5250
837.029	5246
837.167	5170
837.305	5124
837.443	5166
837.58	5075
837.718	5242
837.856	5166
837.993	5147
838.131	5185
838.269	5220
838.406	5197
838.544	5170
838.681	5014
838.819	4991
838.956	4896
839.094	4904
839.231	4980
839.369	5029
839.506	5410
839.643	5296
839.781	5056
839.918	5045
840.055	5079
840.193	5105
840.33	5121
840.467	5086
840.604	5159
840.742	5463
840.879	5083
841.016	5067
841.153	5109
841.29	5326
841.427	5376
841.564	5299
841.701	5326
841.838	5280
841.975	5223
842.112	5269
842.249	5113
842.385	5102
842.522	5337
842.659	5159
842.796	5083
842.933	5140
843.069	5124
843.206	5113
843.343	5307
843.479	5231
843.616	5296
843.752	4984
843.889	4972
844.025	5181
844.162	4991
844.298	5216
844.435	5090
844.571	5006
844.708	5140
844.844	5318
844.98	5318
845.117	5254
845.253	5189
845.389	5067
845.525	5201
845.661	5105
845.798	5010
845.934	5071
846.07	5056
846.206	5136
846.342	5254
846.478	5208
846.614	5014
846.75	4953
846.886	4942
847.022	5098
847.158	4995
847.294	5075
847.429	5109
847.565	5075
847.701	5299
847.837	4831
847.972	4782
848.108	4953
848.244	4911
848.379	4767
848.515	4721
848.65	4725
848.786	4721
848.921	4778
849.057	4835
849.192	4820
849.328	4736
849.463	4828
849.598	4778
849.734	4721
849.869	4702
850.004	4592
850.14	4656
850.275	4611
850.41	4466
850.545	4580
850.68	4618
850.815	4584
850.95	4577
851.085	4843
851.22	4740
851.355	4637
851.49	4573
851.625	4554
851.76	4611
851.895	4512
852.03	4546
852.165	4596
852.299	4694
852.434	4748
852.569	4714
852.703	4744
852.838	4824
852.973	4862
853.107	4900
853.242	4710
853.376	4603
853.511	4512
853.645	4622
853.78	4816
853.914	4622
854.048	4672
854.183	4637
854.317	4637
854.451	4816
854.585	4656
854.72	4561
854.854	4801
854.988	4607
855.122	4637
855.256	4500
855.39	4645
855.524	4793
855.658	4683
855.792	4698
855.926	4706
856.06	4763
856.194	4790
856.327	4702
856.461	4626
856.595	4603
856.729	4634
856.862	4755
856.996	4672
857.13	4736
857.263	4736
857.397	4729
857.53	4645
857.664	4679
857.797	4755
857.931	4801
858.064	4653
858.197	4748
858.331	4599
858.464	4569
858.597	4478
858.731	4603
858.864	4607
858.997	4565
859.13	4622
859.263	4672
859.396	4698
859.529	4599
859.662	4519
859.795	4577
859.928	4615
860.061	4771
860.194	4755
860.327	4611
860.46	4573
860.592	4706
860.725	4710
860.858	4717
860.99	4500
861.123	4561
861.256	4535
861.388	4611
861.521	5334
861.653	4459
861.786	4478
861.918	4455
862.05	4565
862.183	4577
862.315	4607
862.447	4687
862.58	4546
862.712	4390
862.844	4272
862.976	4478
863.108	4432
863.24	4809
863.372	4325
863.504	4383
863.636	4413
863.768	4485
863.9	4402
864.032	4352
864.164	4432
864.296	4493
864.428	4519
864.559	4554
864.691	4519
864.823	4516
864.954	4493
865.086	4447
865.217	4432
865.349	4417
865.48	4432
865.612	4481
865.743	4588
865.875	4451
866.006	4409
866.137	4478
866.269	4451
866.4	4394
866.531	4428
866.662	4322
866.793	4379
866.924	4417
867.055	4470
867.186	4462
867.317	4417
867.448	4371
867.579	4360
867.71	4371
867.841	4348
867.972	4447
868.103	4481
868.233	4436
868.364	4447
868.495	4462
868.625	4618
868.756	4778
868.886	4592
869.017	4634
869.147	4744
869.278	4725
869.408	4630
869.539	4596
869.669	4706
869.799	4630
869.929	4702
870.06	4748
870.19	4885
870.32	4900
870.45	4866
870.58	4976
870.71	5071
870.84	5094
870.97	4873
871.1	4927
871.23	5090
871.36	5128
871.489	5060
871.619	5086
871.749	5052
871.879	5124
872.008	5151
872.138	5025
872.267	4972
872.397	4850
872.526	4790
872.656	4752
872.785	4801
872.915	4961
873.044	4995
873.173	4908
873.303	4965
873.432	4889
873.561	4968
873.69	4828
873.819	4816
873.948	4885
874.077	4854
874.206	4721
874.335	4801
874.464	4866
874.593	5025
874.722	4968
874.851	5064
874.979	5071
875.108	5048
875.237	4904
875.365	4854
875.494	4850
875.623	4984
875.751	4801
875.88	4900
876.008	4953
876.136	4995
876.265	5189
876.393	5307
876.521	5208
876.65	5189
876.778	5128
876.906	4999
877.034	4995
877.162	4991
877.29	4965
877.418	5098
877.546	5006
877.674	5052
877.802	5018
877.93	5014
878.058	4858
878.185	4831
878.313	4892
878.441	4915
878.568	4797
878.696	4847
878.824	4942
878.951	5006
879.079	5083
879.206	5250
879.333	5121
879.461	4968
879.588	4980
879.715	5124
879.842	5250
879.97	4991
880.097	4790
880.224	4767
880.351	4759
880.478	4805
880.605	4850
880.732	4816
880.859	5121
880.986	4896
881.112	4934
881.239	4748
881.366	4615
881.493	4558
881.619	4569
881.746	4637
881.872	4618
881.999	4649
882.125	4683
882.252	4736
882.378	4793
882.505	4927
882.631	4763
882.757	4691
882.883	4714
883.01	4767
883.136	4618
883.262	4622
883.388	4599
883.514	4839
883.64	4862
883.766	4793
883.892	4653
884.018	4774
884.143	4908
884.269	4961
884.395	4634
884.52	4645
884.646	4641
884.772	4550
884.897	4554
885.023	4675
885.148	4763
885.274	4877
885.399	4793
885.524	4660
885.65	4668
885.775	4694
885.9	4702
886.025	4870
886.15	4717
886.275	4672
886.4	4656
886.525	4668
886.65	4687
886.775	4687
886.9	4942
887.025	5052
887.149	4778
887.274	4706
887.399	4558
887.523	4569
887.648	4561
887.773	4603
887.897	4733
888.021	4763
888.146	4687
888.27	4778
888.395	4919
888.519	4824
888.643	4755
888.767	4824
888.891	4615
889.015	4577
889.139	4637
889.263	4573
889.387	4694
889.511	4831
889.635	4801
889.759	4664
889.883	4637
890.006	4729
890.13	4816
890.254	4561
890.377	4641
890.501	4542
890.624	4470
890.748	4645
890.871	4500
890.995	4394
891.118	4402
891.241	4481
891.364	4466
891.488	4618
891.611	4512
891.734	4512
891.857	4573
891.98	4538
892.103	4656
892.226	4603
892.349	4497
892.471	4386
892.594	4577
892.717	4577
892.839	4584
892.962	4558
893.085	4649
893.207	4565
893.33	4459
893.452	4554
893.575	4656
893.697	4558
893.819	4801
893.941	4820
894.064	4767
894.186	4531
894.308	4622
894.43	4710
894.552	4809
894.674	4748
894.796	4603
894.918	4588
895.04	4546
895.161	4687
895.283	4637
895.405	4561
895.526	4615
895.648	4660
895.769	4714
895.891	4710
896.012	4656
896.134	4729
896.255	4641
896.376	4641
896.498	4584
896.619	4656
896.74	4603
896.861	4603
896.982	4915
897.103	5022
897.224	4835
897.345	4740
897.466	4637
897.587	4733
897.708	4850
897.828	4790
897.949	4660
898.07	4561
898.19	4637
898.311	4839
898.431	4687
898.552	4725
898.672	4812
898.792	4782
898.913	4721
899.033	4615
899.153	4462
899.273	4383
899.393	4455
899.513	4508
899.633	4523
899.753	4512
899.873	4519
899.993	4516
900.113	4500
900.232	4561
900.352	4542
900.472	4470
900.591	4402
900.711	4440
900.83	4417
900.95	4603
901.069	4698
901.189	4519
901.308	4341
901.427	4318
901.546	4398
901.665	4436
901.784	4508
901.904	4371
902.023	4329
902.141	4166
902.26	4124
902.379	4333
902.498	4230
902.617	4200
902.735	4375
902.854	4417
902.973	4367
903.091	4181
903.21	4211
903.328	4276
903.446	4238
903.565	4227
903.683	4325
903.801	4204
903.919	4375
904.038	4447
904.156	4284
904.274	4409
904.392	4417
904.51	4424
904.627	4432
904.745	4596
904.863	4573
904.981	4348
905.098	4344
905.216	4318
905.334	4443
905.451	4440
905.569	4443
905.686	4531
905.803	4535
905.921	4405
906.038	4561
906.155	4470
906.272	4371
906.389	4451
906.506	4295
906.623	4375
906.74	4386
906.857	4268
906.974	4348
907.091	4542
907.208	4637
907.324	4558
907.441	4497
907.557	4318
907.674	4379
907.79	4322
907.907	4402
908.023	4500
908.139	4451
908.256	4421
908.372	4432
908.488	4443
908.604	4383
908.72	4306
908.836	4405
908.952	4383
909.068	4436
909.184	4542
909.3	4466
909.415	4569
909.531	4497
909.647	4344
909.762	4390
909.878	4333
909.993	4417
910.108	4390
910.224	4417
910.339	4447
910.454	4356
910.57	4348
910.685	4314
910.8	4637
910.915	4527
911.03	4481
911.145	4272
911.259	4287
911.374	4344
911.489	4272
911.604	4246
911.718	4173
911.833	4223
911.947	4055
912.062	3968
912.176	4211
912.291	4139
912.405	4253
912.519	4447
912.633	4523
912.748	4322
912.862	4284
912.976	4181
913.09	4074
913.204	4150
913.318	4223
913.431	4386
913.545	4363
913.659	4413
913.772	4341
913.886	4261
914	4207
914.113	4352
914.226	4462
914.34	4375
914.453	4238
914.566	4394
914.68	4303
914.793	4284
914.906	4196
915.019	4131
915.132	4025
915.245	4192
915.358	4181
915.47	4223
915.583	4238
915.696	4303
915.809	4383
915.921	4375
916.034	4211
916.146	4261
916.259	4192
916.371	4405
916.483	4318
916.595	4230
916.708	4299
916.82	4291
916.932	4318
917.044	4253
917.156	4337
917.268	4257
917.38	4227
917.491	4249
917.603	4322
917.715	4386
917.826	4443
917.938	4371
918.049	4230
918.161	4405
918.272	4516
918.384	4538
918.495	4421
918.606	4295
918.717	4192
918.828	4299
918.939	4363
919.05	4215
919.161	4314
919.272	4120
919.383	4181
919.494	4424
919.604	4626
919.715	4440
919.826	4341
919.936	4367
920.047	4550
920.157	4516
920.267	4637
920.378	4542
920.488	4459
920.598	4691
920.708	4862
920.818	4767
920.928	4740
921.038	4968
921.148	4854
921.258	4603
921.368	4531
921.477	4504
921.587	4481
921.697	4325
921.806	4531
921.916	4440
922.025	4272
922.134	4261
922.244	4196
922.353	4306
922.462	4150
922.571	4135
922.68	3964
922.789	3956
922.898	3998
923.007	3979
923.116	4067
923.224	4048
923.333	4055
923.442	4013
923.55	4006
923.659	4025
923.767	4139
923.876	3998
923.984	4082
924.092	3960
924.201	4036
924.309	4074
924.417	4112
924.525	4017
924.633	4086
924.741	5056
924.849	3926
924.956	4124
925.064	3941
925.172	3926
925.279	3979
925.387	4055
925.494	4002
925.602	4173
925.709	4204
925.816	4010
925.924	4078
926.031	4188
926.138	4154
926.245	4207
926.352	4063
926.459	4249
926.566	4291
926.673	4173
926.779	4055
926.886	4086
926.993	4010
927.099	3956
927.206	3926
927.312	3907
927.419	4025
927.525	4048
927.631	4059
927.737	3945
927.843	3949
927.95	3835
928.056	3941
928.162	3964
928.267	4090
928.373	4653
928.479	4086
928.585	3850
928.69	4010
928.796	4044
928.901	3994
929.007	3857
929.112	3960
929.218	3972
929.323	3937
929.428	3937
929.533	4078
929.638	3857
929.743	3968
929.848	4074
929.953	3934
930.058	3937
930.163	3770
930.267	3827
930.372	3953
930.477	3789
930.581	4097
930.685	3934
930.79	3823
930.894	3873
930.998	3873
931.103	4021
931.207	3694
931.311	3717
931.415	3625
931.519	3545
931.623	3561
