Data from test_V78500241_2490.txt Node
Date: Fri Mar 25 17:06:18 CST 2022
User: usil
Spectrometer: V785-0024
Trigger mode: 0
Integration Time (sec): 4.000000E-1
Scans to average: 1
Nonlinearity correction enabled: false
Boxcar width: 0
Storing dark spectrum: false
XAxis mode: Wavelengths
Number of Pixels in Spectrum: 1024
>>>>>Begin Spectral Data<<<<<
801.071	8016
801.214	7967
801.356	7814
801.499	7818
801.641	7761
801.783	7822
801.926	7936
802.068	7944
802.211	7970
802.353	8020
802.496	7879
802.638	7883
802.78	7928
802.923	7932
803.065	7932
803.208	7811
803.35	7898
803.492	8001
803.635	8168
803.777	8130
803.919	8126
804.061	8488
804.204	8126
804.346	8084
804.488	8084
804.63	8077
804.773	8027
804.915	8065
805.057	8240
805.199	8183
805.341	8218
805.483	8263
805.626	8290
805.768	8191
805.91	8202
806.052	8218
806.194	8202
806.336	8389
806.478	8123
806.62	8054
806.762	8153
806.904	8263
807.046	8442
807.188	8404
807.33	8290
807.472	8328
807.614	8183
807.756	8180
807.898	7974
808.04	7864
808.182	7864
808.324	7837
808.465	7913
808.607	8088
808.749	8210
808.891	8233
809.033	8347
809.174	8244
809.316	8081
809.458	8126
809.6	8024
809.741	8077
809.883	8046
810.025	8199
810.166	8035
810.308	8035
810.45	8020
810.591	7894
810.733	7814
810.875	7666
811.016	7590
811.158	7468
811.299	7624
811.441	7772
811.582	7731
811.724	7597
811.865	7556
812.007	7632
812.148	7655
812.29	7594
812.431	7780
812.573	7822
812.714	7955
812.855	8183
812.997	8240
813.138	8298
813.279	8115
813.421	8088
813.562	7959
813.703	7849
813.845	7731
813.986	7460
814.127	7282
814.268	7285
814.41	7221
814.551	7209
814.692	7232
814.833	7126
814.974	7103
815.115	7133
815.256	6993
815.397	7012
815.539	7004
815.68	6840
815.821	6764
815.962	6825
816.103	6821
816.244	6787
816.385	6631
816.526	6623
816.666	6479
816.807	6342
816.948	6433
817.089	6536
817.23	6410
817.371	6403
817.512	6410
817.653	6422
817.793	6376
817.934	6391
818.075	6471
818.216	6448
818.356	6414
818.497	6300
818.638	6197
818.778	6167
818.919	6159
819.06	6121
819.2	6353
819.341	6342
819.481	6372
819.622	6593
819.762	6757
819.903	6719
820.043	6627
820.184	6654
820.324	6604
820.465	6692
820.605	6684
820.746	6692
820.886	6555
821.026	6722
821.167	6738
821.307	6814
821.447	6818
821.588	6722
821.728	6589
821.868	6494
822.008	6376
822.149	6399
822.289	6384
822.429	6262
822.569	6110
822.709	6125
822.849	5992
822.99	5901
823.13	5897
823.27	6003
823.41	5802
823.55	5836
823.69	5771
823.83	5764
823.97	5722
824.11	5535
824.25	5558
824.389	5592
824.529	5554
824.669	5516
824.809	5661
824.949	5653
825.089	5657
825.228	5600
825.368	5391
825.508	5341
825.648	5376
825.787	5417
825.927	5391
826.067	5345
826.206	5307
826.346	5406
826.485	5436
826.625	5383
826.765	5493
826.904	5516
827.044	5284
827.183	5250
827.323	5121
827.462	5273
827.601	5220
827.741	5201
827.88	5235
828.02	5124
828.159	5162
828.298	5353
828.437	5387
828.577	5303
828.716	5429
828.855	5360
828.994	5170
829.134	5098
829.273	5174
829.412	5162
829.551	5162
829.69	5151
829.829	5261
829.968	5360
830.107	5288
830.246	5288
830.385	5204
830.524	5170
830.663	5037
830.802	5003
830.941	4942
831.08	4866
831.219	5018
831.357	4987
831.496	5136
831.635	4915
831.774	4812
831.913	4873
832.051	4733
832.19	4790
832.329	4904
832.467	4656
832.606	4626
832.744	4683
832.883	4706
833.022	4721
833.16	4778
833.299	4790
833.437	4854
833.576	4850
833.714	4934
833.852	4923
833.991	4854
834.129	4999
834.267	4957
834.406	4934
834.544	4957
834.682	4999
834.821	4984
834.959	5151
835.097	5048
835.235	5147
835.373	5140
835.511	5117
835.65	5029
835.788	4980
835.926	4870
836.064	4892
836.202	4915
836.34	5143
836.478	5223
836.615	5128
836.753	5178
836.891	5315
837.029	5273
837.167	5197
837.305	5151
837.443	5128
837.58	5109
837.718	5280
837.856	5201
837.993	5189
838.131	5254
838.269	5235
838.406	5193
838.544	5189
838.681	5041
838.819	5029
838.956	4889
839.094	4873
839.231	5033
839.369	5018
839.506	5436
839.643	5277
839.781	5090
839.918	5033
840.055	5052
840.193	5090
840.33	5064
840.467	5166
840.604	5189
840.742	5448
840.879	5109
841.016	5147
841.153	5181
841.29	5349
841.427	5372
841.564	5318
841.701	5326
841.838	5284
841.975	5212
842.112	5178
842.249	5113
842.385	5121
842.522	5357
842.659	5094
842.796	5128
842.933	5227
843.069	5166
843.206	5201
843.343	5307
843.479	5185
843.616	5269
843.752	5079
843.889	5086
844.025	5265
844.162	5090
844.298	5185
844.435	5071
844.571	5079
844.708	5197
844.844	5318
844.98	5337
845.117	5292
845.253	5075
845.389	5102
845.525	5170
845.661	5185
845.798	5090
845.934	5174
846.07	5064
846.206	5231
846.342	5326
846.478	5212
846.614	5018
846.75	4995
846.886	4965
847.022	5143
847.158	4980
847.294	5060
847.429	5121
847.565	5060
847.701	5337
847.837	4843
847.972	4816
848.108	4930
848.244	4942
848.379	4740
848.515	4736
848.65	4717
848.786	4729
848.921	4729
849.057	4850
849.192	4919
849.328	4824
849.463	4911
849.598	4774
849.734	4736
849.869	4687
850.004	4630
850.14	4618
850.275	4622
850.41	4542
850.545	4554
850.68	4588
850.815	4637
850.95	4615
851.085	4816
851.22	4755
851.355	4656
851.49	4603
851.625	4649
851.76	4672
851.895	4588
852.03	4554
852.165	4668
852.299	4736
852.434	4850
852.569	4721
852.703	4755
852.838	4793
852.973	4923
853.107	4923
853.242	4691
853.376	4656
853.511	4584
853.645	4569
853.78	4797
853.914	4691
854.048	4626
854.183	4618
854.317	4717
854.451	4835
854.585	4679
854.72	4618
854.854	4755
854.988	4615
855.122	4603
855.256	4546
855.39	4698
855.524	4805
855.658	4778
855.792	4706
855.926	4740
856.06	4744
856.194	4793
856.327	4668
856.461	4588
856.595	4634
856.729	4660
856.862	4740
856.996	4679
857.13	4721
857.263	4759
857.397	4793
857.53	4664
857.664	4759
857.797	4763
857.931	4729
858.064	4683
858.197	4721
858.331	4683
858.464	4607
858.597	4546
858.731	4645
858.864	4664
858.997	4584
859.13	4702
859.263	4706
859.396	4702
859.529	4603
859.662	4554
859.795	4535
859.928	4634
860.061	4736
860.194	4790
860.327	4649
860.46	4550
860.592	4702
860.725	4649
860.858	4721
860.99	4618
861.123	4550
861.256	4531
861.388	4599
861.521	5235
861.653	4478
861.786	4440
861.918	4459
862.05	4550
862.183	4493
862.315	4588
862.447	4660
862.58	4497
862.712	4405
862.844	4352
862.976	4519
863.108	4455
863.24	4831
863.372	4337
863.504	4436
863.636	4424
863.768	4481
863.9	4455
864.032	4398
864.164	4436
864.296	4470
864.428	4535
864.559	4550
864.691	4550
864.823	4508
864.954	4504
865.086	4508
865.217	4459
865.349	4405
865.48	4485
865.612	4474
865.743	4611
865.875	4428
866.006	4436
866.137	4489
866.269	4436
866.4	4428
866.531	4451
866.662	4432
866.793	4413
866.924	4413
867.055	4489
867.186	4443
867.317	4405
867.448	4379
867.579	4390
867.71	4417
867.841	4398
867.972	4436
868.103	4447
868.233	4459
868.364	4508
868.495	4478
868.625	4637
868.756	4763
868.886	4588
869.017	4603
869.147	4771
869.278	4755
869.408	4675
869.539	4649
869.669	4649
869.799	4645
869.929	4767
870.06	4683
870.19	4889
870.32	4896
870.45	4946
870.58	4984
870.71	5098
870.84	5105
870.97	4934
871.1	4858
871.23	5136
871.36	5128
871.489	5010
871.619	5094
871.749	5052
871.879	5124
872.008	5128
872.138	5041
872.267	4934
872.397	4858
872.526	4835
872.656	4752
872.785	4809
872.915	4972
873.044	5048
873.173	4946
873.303	4946
873.432	4938
873.561	4942
873.69	4885
873.819	4805
873.948	4984
874.077	4801
874.206	4710
874.335	4778
874.464	5018
874.593	5056
874.722	4972
874.851	5090
874.979	5113
875.108	4995
875.237	4930
875.365	4942
875.494	4896
875.623	4949
875.751	4828
875.88	4927
876.008	5045
876.136	5025
876.265	5284
876.393	5315
876.521	5292
876.65	5174
876.778	5223
876.906	5064
877.034	5018
877.162	5052
877.29	5037
877.418	5064
877.546	5029
877.674	5083
877.802	5022
877.93	5037
878.058	4949
878.185	4889
878.313	4934
878.441	4980
878.568	4790
878.696	4911
878.824	4911
878.951	4987
879.079	5136
879.206	5288
879.333	5048
879.461	4991
879.588	4995
879.715	5071
879.842	5227
879.97	5022
880.097	4835
880.224	4706
880.351	4831
880.478	4843
880.605	4786
880.732	4793
880.859	5060
880.986	4843
881.112	4957
881.239	4752
881.366	4660
881.493	4599
881.619	4603
881.746	4649
881.872	4607
881.999	4637
882.125	4675
882.252	4778
882.378	4828
882.505	4965
882.631	4786
882.757	4683
882.883	4687
883.01	4778
883.136	4679
883.262	4580
883.388	4599
883.514	4809
883.64	4850
883.766	4809
883.892	4717
884.018	4717
884.143	4850
884.269	5006
884.395	4675
884.52	4672
884.646	4672
884.772	4634
884.897	4569
885.023	4656
885.148	4797
885.274	4870
885.399	4820
885.524	4717
885.65	4740
885.775	4740
885.9	4748
886.025	4843
886.15	4790
886.275	4714
886.4	4664
886.525	4721
886.65	4672
886.775	4702
886.9	4877
887.025	5033
887.149	4774
887.274	4607
887.399	4580
887.523	4596
887.648	4611
887.773	4618
887.897	4778
888.021	4809
888.146	4653
888.27	4820
888.395	4892
888.519	4816
888.643	4812
888.767	4801
888.891	4656
889.015	4637
889.139	4675
889.263	4550
889.387	4786
889.511	4873
889.635	4831
889.759	4641
889.883	4656
890.006	4755
890.13	4904
890.254	4615
890.377	4710
890.501	4542
890.624	4531
890.748	4675
890.871	4523
890.995	4436
891.118	4375
891.241	4500
891.364	4523
891.488	4622
891.611	4459
891.734	4519
891.857	4641
891.98	4588
892.103	4596
892.226	4588
892.349	4531
892.471	4462
892.594	4577
892.717	4569
892.839	4538
892.962	4615
893.085	4694
893.207	4611
893.33	4504
893.452	4485
893.575	4660
893.697	4569
893.819	4786
893.941	4870
894.064	4755
894.186	4550
894.308	4565
894.43	4782
894.552	4759
894.674	4755
894.796	4535
894.918	4523
895.04	4500
895.161	4717
895.283	4691
895.405	4618
895.526	4641
895.648	4702
895.769	4683
895.891	4706
896.012	4717
896.134	4744
896.255	4687
896.376	4656
896.498	4603
896.619	4626
896.74	4626
896.861	4668
896.982	4984
897.103	5109
897.224	4843
897.345	4748
897.466	4630
897.587	4721
897.708	4843
897.828	4778
897.949	4603
898.07	4565
898.19	4645
898.311	4828
898.431	4656
898.552	4736
898.672	4858
898.792	4801
898.913	4725
899.033	4637
899.153	4481
899.273	4421
899.393	4485
899.513	4542
899.633	4504
899.753	4519
899.873	4512
899.993	4580
900.113	4519
900.232	4565
900.352	4596
900.472	4432
900.591	4421
900.711	4500
900.83	4474
900.95	4615
901.069	4702
901.189	4516
901.308	4402
901.427	4295
901.546	4367
901.665	4478
901.784	4538
901.904	4386
902.023	4253
902.141	4147
902.26	4143
902.379	4284
902.498	4257
902.617	4227
902.735	4375
902.854	4405
902.973	4386
903.091	4173
903.21	4185
903.328	4344
903.446	4268
903.565	4249
903.683	4352
903.801	4261
903.919	4428
904.038	4451
904.156	4322
904.274	4424
904.392	4409
904.51	4405
904.627	4455
904.745	4584
904.863	4588
904.981	4375
905.098	4325
905.216	4375
905.334	4459
905.451	4409
905.569	4436
905.686	4565
905.803	4558
905.921	4421
906.038	4565
906.155	4451
906.272	4390
906.389	4440
906.506	4390
906.623	4371
906.74	4390
906.857	4249
906.974	4348
907.091	4531
907.208	4668
907.324	4554
907.441	4497
907.557	4356
907.674	4322
907.79	4318
907.907	4428
908.023	4466
908.139	4481
908.256	4443
908.372	4512
908.488	4451
908.604	4379
908.72	4306
908.836	4390
908.952	4386
909.068	4436
909.184	4565
909.3	4474
909.415	4634
909.531	4580
909.647	4394
909.762	4398
909.878	4360
909.993	4413
910.108	4390
910.224	4413
910.339	4478
910.454	4356
910.57	4360
910.685	4268
910.8	4641
910.915	4607
911.03	4481
911.145	4310
911.259	4299
911.374	4371
911.489	4291
911.604	4299
911.718	4196
911.833	4185
911.947	4059
912.062	4078
912.176	4162
912.291	4249
912.405	4242
912.519	4413
912.633	4493
912.748	4333
912.862	4310
912.976	4200
913.09	4101
913.204	4200
913.318	4230
913.431	4363
913.545	4337
913.659	4432
913.772	4375
913.886	4268
914	4188
914.113	4390
914.226	4436
914.34	4337
914.453	4246
914.566	4455
914.68	4318
914.793	4303
914.906	4173
915.019	4150
915.132	4074
915.245	4169
915.358	4219
915.47	4227
915.583	4272
915.696	4303
915.809	4421
915.921	4405
916.034	4242
916.146	4219
916.259	4219
916.371	4352
916.483	4329
916.595	4246
916.708	4352
916.82	4322
916.932	4303
917.044	4363
917.156	4295
917.268	4219
917.38	4299
917.491	4249
917.603	4314
917.715	4455
917.826	4398
917.938	4386
918.049	4242
918.161	4352
918.272	4523
918.384	4535
918.495	4383
918.606	4314
918.717	4211
918.828	4280
918.939	4363
919.05	4295
919.161	4325
919.272	4120
919.383	4246
919.494	4432
919.604	4615
919.715	4424
919.826	4383
919.936	4409
920.047	4508
920.157	4451
920.267	4675
920.378	4538
920.488	4516
920.598	4721
920.708	4854
920.818	4729
920.928	4721
921.038	4968
921.148	4923
921.258	4607
921.368	4599
921.477	4470
921.587	4478
921.697	4375
921.806	4500
921.916	4428
922.025	4261
922.134	4280
922.244	4185
922.353	4360
922.462	4204
922.571	4158
922.68	4032
922.789	4013
922.898	4002
923.007	3953
923.116	4051
923.224	4071
923.333	4074
923.442	3953
923.55	4048
923.659	4074
923.767	4105
923.876	3960
923.984	4131
924.092	3968
924.201	4097
924.309	4067
924.417	4101
924.525	4029
924.633	4112
924.741	4812
924.849	3941
924.956	4147
925.064	3968
925.172	3880
925.279	3979
925.387	4029
925.494	4013
925.602	4215
925.709	4143
925.816	4071
925.924	4143
926.031	4230
926.138	4131
926.245	4185
926.352	4135
926.459	4303
926.566	4322
926.673	4128
926.779	4067
926.886	4044
926.993	3987
927.099	3983
927.206	3972
927.312	3972
927.419	4048
927.525	4051
927.631	4120
927.737	3960
927.843	3956
927.95	3808
928.056	3968
928.162	3937
928.267	4040
928.373	4558
928.479	4150
928.585	3861
928.69	4021
928.796	4067
928.901	3975
929.007	3854
929.112	3972
929.218	3968
929.323	3972
929.428	3930
929.533	4124
929.638	3937
929.743	3979
929.848	4029
929.953	4002
930.058	3911
930.163	3804
930.267	3831
930.372	3983
930.477	3797
930.581	4059
930.685	3968
930.79	3762
930.894	3857
930.998	3865
931.103	4048
931.207	3762
931.311	3701
931.415	3644
931.519	3519
931.623	3534
