Data from test_V78500241_250.txt Node
Date: Fri Mar 25 16:50:44 CST 2022
User: usil
Spectrometer: V785-0024
Trigger mode: 0
Integration Time (sec): 4.000000E-1
Scans to average: 1
Nonlinearity correction enabled: false
Boxcar width: 0
Storing dark spectrum: false
XAxis mode: Wavelengths
Number of Pixels in Spectrum: 1024
>>>>>Begin Spectral Data<<<<<
801.071	7974
801.214	7997
801.356	7860
801.499	7788
801.641	7788
801.783	7788
801.926	7993
802.068	7913
802.211	7963
802.353	7982
802.496	7837
802.638	7871
802.78	7928
802.923	7898
803.065	7822
803.208	7792
803.35	7947
803.492	8069
803.635	8084
803.777	7921
803.919	8115
804.061	8473
804.204	8142
804.346	8065
804.488	7928
804.63	8050
804.773	7986
804.915	8084
805.057	8187
805.199	8206
805.341	8145
805.483	8309
805.626	8164
805.768	8088
805.91	8183
806.052	8111
806.194	8046
806.336	8279
806.478	8103
806.62	8069
806.762	8088
806.904	8187
807.046	8492
807.188	8332
807.33	8339
807.472	8351
807.614	8168
807.756	8142
807.898	7955
808.04	7860
808.182	7883
808.324	7833
808.465	7974
808.607	8123
808.749	8134
808.891	8191
809.033	8332
809.174	8202
809.316	8031
809.458	8077
809.6	8005
809.741	8081
809.883	8081
810.025	8130
810.166	8107
810.308	8054
810.45	8024
810.591	7913
810.733	7761
810.875	7662
811.016	7594
811.158	7468
811.299	7628
811.441	7772
811.582	7677
811.724	7533
811.865	7597
812.007	7666
812.148	7597
812.29	7734
812.431	7799
812.573	7932
812.714	8084
812.855	8145
812.997	8305
813.138	8374
813.279	8206
813.421	8111
813.562	8058
813.703	7940
813.845	7807
813.986	7502
814.127	7266
814.268	7225
814.41	7194
814.551	7164
814.692	7171
814.833	7034
814.974	7103
815.115	7122
815.256	7000
815.397	6947
815.539	6985
815.68	6829
815.821	6779
815.962	6939
816.103	6818
816.244	6757
816.385	6700
816.526	6677
816.666	6536
816.807	6327
816.948	6433
817.089	6532
817.23	6483
817.371	6410
817.512	6429
817.653	6418
817.793	6372
817.934	6471
818.075	6490
818.216	6418
818.356	6426
818.497	6300
818.638	6091
818.778	6182
818.919	6167
819.06	6209
819.2	6391
819.341	6395
819.481	6319
819.622	6513
819.762	6749
819.903	6703
820.043	6631
820.184	6593
820.324	6528
820.465	6741
820.605	6642
820.746	6635
820.886	6506
821.026	6673
821.167	6760
821.307	6787
821.447	6783
821.588	6662
821.728	6604
821.868	6506
822.008	6334
822.149	6441
822.289	6372
822.429	6167
822.569	6079
822.709	6079
822.849	5927
822.99	5961
823.13	5950
823.27	5961
823.41	5859
823.55	5805
823.69	5783
823.83	5817
823.97	5684
824.11	5551
824.25	5505
824.389	5585
824.529	5661
824.669	5558
824.809	5668
824.949	5691
825.089	5623
825.228	5589
825.368	5417
825.508	5372
825.648	5318
825.787	5398
825.927	5436
826.067	5334
826.206	5337
826.346	5345
826.485	5414
826.625	5463
826.765	5577
826.904	5524
827.044	5288
827.183	5193
827.323	5155
827.462	5212
827.601	5193
827.741	5197
827.88	5284
828.02	5140
828.159	5273
828.298	5334
828.437	5372
828.577	5364
828.716	5520
828.855	5311
828.994	5155
829.134	5113
829.273	5181
829.412	5181
829.551	5151
829.69	5170
829.829	5254
829.968	5379
830.107	5254
830.246	5307
830.385	5239
830.524	5204
830.663	5102
830.802	5022
830.941	4942
831.08	4923
831.219	5067
831.357	5052
831.496	5124
831.635	4968
831.774	4946
831.913	4866
832.051	4759
832.19	4816
832.329	4892
832.467	4717
832.606	4630
832.744	4733
832.883	4771
833.022	4774
833.16	4839
833.299	4835
833.437	4805
833.576	4847
833.714	4850
833.852	4908
833.991	4896
834.129	5022
834.267	5010
834.406	4957
834.544	4984
834.682	4991
834.821	4980
834.959	5197
835.097	5018
835.235	5162
835.373	5109
835.511	5124
835.65	5094
835.788	5064
835.926	4972
836.064	4881
836.202	4942
836.34	5162
836.478	5280
836.615	5102
836.753	5246
836.891	5330
837.029	5250
837.167	5288
837.305	5185
837.443	5151
837.58	5140
837.718	5197
837.856	5239
837.993	5174
838.131	5258
838.269	5303
838.406	5235
838.544	5227
838.681	5132
838.819	5045
838.956	4999
839.094	4968
839.231	4976
839.369	5155
839.506	5455
839.643	5273
839.781	5102
839.918	5052
840.055	5136
840.193	5136
840.33	5178
840.467	5208
840.604	5235
840.742	5463
840.879	5098
841.016	5166
841.153	5189
841.29	5395
841.427	5414
841.564	5368
841.701	5402
841.838	5337
841.975	5246
842.112	5318
842.249	5155
842.385	5143
842.522	5379
842.659	5220
842.796	5185
842.933	5178
843.069	5147
843.206	5242
843.343	5391
843.479	5261
843.616	5299
843.752	5102
843.889	5022
844.025	5223
844.162	5025
844.298	5212
844.435	5094
844.571	5094
844.708	5242
844.844	5299
844.98	5368
845.117	5349
845.253	5189
845.389	5121
845.525	5159
845.661	5204
845.798	5052
845.934	5227
846.07	5052
846.206	5220
846.342	5311
846.478	5235
846.614	5045
846.75	5003
846.886	4968
847.022	5159
847.158	5052
847.294	5079
847.429	5136
847.565	5094
847.701	5334
847.837	4896
847.972	4759
848.108	4991
848.244	4976
848.379	4828
848.515	4740
848.65	4763
848.786	4767
848.921	4812
849.057	4900
849.192	4972
849.328	4873
849.463	4847
849.598	4812
849.734	4824
849.869	4691
850.004	4637
850.14	4748
850.275	4611
850.41	4554
850.545	4630
850.68	4687
850.815	4653
850.95	4649
851.085	4816
851.22	4805
851.355	4706
851.49	4649
851.625	4611
851.76	4637
851.895	4618
852.03	4599
852.165	4664
852.299	4759
852.434	4812
852.569	4782
852.703	4858
852.838	4873
852.973	4991
853.107	4946
853.242	4778
853.376	4687
853.511	4569
853.645	4611
853.78	4835
853.914	4725
854.048	4729
854.183	4641
854.317	4668
854.451	4873
854.585	4672
854.72	4653
854.854	4816
854.988	4611
855.122	4668
855.256	4561
855.39	4710
855.524	4771
855.658	4759
855.792	4702
855.926	4771
856.06	4782
856.194	4801
856.327	4740
856.461	4649
856.595	4702
856.729	4653
856.862	4740
856.996	4710
857.13	4778
857.263	4782
857.397	4824
857.53	4660
857.664	4725
857.797	4771
857.931	4748
858.064	4683
858.197	4786
858.331	4683
858.464	4645
858.597	4527
858.731	4607
858.864	4672
858.997	4630
859.13	4702
859.263	4687
859.396	4691
859.529	4618
859.662	4653
859.795	4588
859.928	4607
860.061	4774
860.194	4831
860.327	4641
860.46	4558
860.592	4744
860.725	4698
860.858	4752
860.99	4592
861.123	4512
861.256	4577
861.388	4599
861.521	5452
861.653	4466
861.786	4504
861.918	4470
862.05	4554
862.183	4580
862.315	4630
862.447	4706
862.58	4554
862.712	4432
862.844	4318
862.976	4531
863.108	4478
863.24	4919
863.372	4405
863.504	4424
863.636	4413
863.768	4527
863.9	4402
864.032	4447
864.164	4375
864.296	4554
864.428	4580
864.559	4527
864.691	4577
864.823	4519
864.954	4523
865.086	4527
865.217	4516
865.349	4443
865.48	4493
865.612	4527
865.743	4660
865.875	4523
866.006	4485
866.137	4436
866.269	4455
866.4	4512
866.531	4459
866.662	4436
866.793	4443
866.924	4466
867.055	4573
867.186	4500
867.317	4447
867.448	4375
867.579	4417
867.71	4413
867.841	4379
867.972	4481
868.103	4459
868.233	4474
868.364	4485
868.495	4542
868.625	4683
868.756	4786
868.886	4622
869.017	4637
869.147	4752
869.278	4778
869.408	4641
869.539	4687
869.669	4710
869.799	4668
869.929	4790
870.06	4744
870.19	4949
870.32	4919
870.45	4957
870.58	5029
870.71	5143
870.84	5140
870.97	4911
871.1	4927
871.23	5121
871.36	5136
871.489	5033
871.619	5045
871.749	5086
871.879	5159
872.008	5201
872.138	5098
872.267	5003
872.397	4824
872.526	4847
872.656	4736
872.785	4820
872.915	4938
873.044	5045
873.173	4938
873.303	4987
873.432	4991
873.561	5033
873.69	4870
873.819	4850
873.948	4965
874.077	4873
874.206	4752
874.335	4831
874.464	4923
874.593	5098
874.722	4984
874.851	5086
874.979	5071
875.108	5033
875.237	4892
875.365	4911
875.494	4934
875.623	4949
875.751	4862
875.88	4873
876.008	4965
876.136	5052
876.265	5223
876.393	5307
876.521	5208
876.65	5227
876.778	5155
876.906	5098
877.034	5071
877.162	5029
877.29	5018
877.418	5071
877.546	5064
877.674	5094
877.802	5064
877.93	5014
878.058	4968
878.185	4904
878.313	4984
878.441	4999
878.568	4797
878.696	4892
878.824	4995
878.951	5029
879.079	5136
879.206	5322
879.333	5121
879.461	5060
879.588	5090
879.715	5143
879.842	5277
879.97	5083
880.097	4835
880.224	4790
880.351	4850
880.478	4854
880.605	4828
880.732	4896
880.859	5159
880.986	4968
881.112	4991
881.239	4839
881.366	4744
881.493	4672
881.619	4660
881.746	4675
881.872	4683
881.999	4714
882.125	4729
882.252	4828
882.378	4873
882.505	5003
882.631	4873
882.757	4748
882.883	4774
883.01	4793
883.136	4687
883.262	4645
883.388	4710
883.514	4889
883.64	4927
883.766	4858
883.892	4774
884.018	4793
884.143	4946
884.269	5071
884.395	4717
884.52	4660
884.646	4691
884.772	4630
884.897	4592
885.023	4744
885.148	4831
885.274	4896
885.399	4858
885.524	4771
885.65	4736
885.775	4786
885.9	4752
886.025	4873
886.15	4877
886.275	4824
886.4	4782
886.525	4740
886.65	4729
886.775	4748
886.9	5010
887.025	5105
887.149	4885
887.274	4672
887.399	4649
887.523	4649
887.648	4637
887.773	4622
887.897	4835
888.021	4790
888.146	4744
888.27	4854
888.395	4930
888.519	4831
888.643	4896
888.767	4881
888.891	4774
889.015	4687
889.139	4698
889.263	4660
889.387	4790
889.511	4927
889.635	4866
889.759	4706
889.883	4683
890.006	4801
890.13	4911
890.254	4649
890.377	4702
890.501	4607
890.624	4573
890.748	4691
890.871	4580
890.995	4443
891.118	4394
891.241	4573
891.364	4592
891.488	4641
891.611	4527
891.734	4626
891.857	4653
891.98	4599
892.103	4683
892.226	4637
892.349	4573
892.471	4462
892.594	4637
892.717	4618
892.839	4577
892.962	4653
893.085	4675
893.207	4641
893.33	4523
893.452	4577
893.575	4664
893.697	4618
893.819	4824
893.941	4816
894.064	4774
894.186	4641
894.308	4615
894.43	4748
894.552	4919
894.674	4767
894.796	4588
894.918	4607
895.04	4607
895.161	4790
895.283	4691
895.405	4630
895.526	4714
895.648	4740
895.769	4721
895.891	4771
896.012	4740
896.134	4828
896.255	4679
896.376	4714
896.498	4641
896.619	4744
896.74	4653
896.861	4755
896.982	4961
897.103	5079
897.224	4900
897.345	4786
897.466	4740
897.587	4782
897.708	4942
897.828	4809
897.949	4767
898.07	4645
898.19	4736
898.311	4847
898.431	4752
898.552	4778
898.672	4873
898.792	4858
898.913	4759
899.033	4702
899.153	4516
899.273	4440
899.393	4573
899.513	4577
899.633	4573
899.753	4596
899.873	4542
899.993	4599
900.113	4577
900.232	4641
900.352	4531
900.472	4538
900.591	4409
900.711	4550
900.83	4455
900.95	4687
901.069	4729
901.189	4611
901.308	4371
901.427	4318
901.546	4417
901.665	4527
901.784	4584
901.904	4409
902.023	4356
902.141	4253
902.26	4173
902.379	4337
902.498	4284
902.617	4272
902.735	4428
902.854	4451
902.973	4375
903.091	4238
903.21	4242
903.328	4318
903.446	4322
903.565	4276
903.683	4451
903.801	4295
903.919	4428
904.038	4504
904.156	4352
904.274	4474
904.392	4405
904.51	4478
904.627	4508
904.745	4615
904.863	4664
904.981	4398
905.098	4371
905.216	4398
905.334	4455
905.451	4451
905.569	4459
905.686	4645
905.803	4637
905.921	4417
906.038	4603
906.155	4527
906.272	4421
906.389	4516
906.506	4402
906.623	4405
906.74	4447
906.857	4344
906.974	4333
907.091	4637
907.208	4736
907.324	4656
907.441	4538
907.557	4348
907.674	4379
907.79	4363
907.907	4455
908.023	4538
908.139	4527
908.256	4470
908.372	4474
908.488	4512
908.604	4409
908.72	4383
908.836	4398
908.952	4413
909.068	4474
909.184	4599
909.3	4554
909.415	4637
909.531	4546
909.647	4409
909.762	4466
909.878	4383
909.993	4485
910.108	4459
910.224	4455
910.339	4500
910.454	4459
910.57	4383
910.685	4356
910.8	4679
910.915	4672
911.03	4497
911.145	4356
911.259	4367
911.374	4428
911.489	4379
911.604	4295
911.718	4139
911.833	4215
911.947	4124
912.062	4059
912.176	4272
912.291	4234
912.405	4280
912.519	4493
912.633	4523
912.748	4417
912.862	4329
912.976	4249
913.09	4128
913.204	4200
913.318	4310
913.431	4428
913.545	4417
913.659	4497
913.772	4443
913.886	4310
914	4234
914.113	4462
914.226	4485
914.34	4424
914.453	4287
914.566	4489
914.68	4371
914.793	4383
914.906	4230
915.019	4135
915.132	4109
915.245	4219
915.358	4276
915.47	4291
915.583	4318
915.696	4337
915.809	4485
915.921	4421
916.034	4314
916.146	4268
916.259	4310
916.371	4443
916.483	4390
916.595	4276
916.708	4360
916.82	4348
916.932	4333
917.044	4371
917.156	4371
917.268	4295
917.38	4295
917.491	4295
917.603	4394
917.715	4474
917.826	4470
917.938	4413
918.049	4276
918.161	4375
918.272	4588
918.384	4561
918.495	4527
918.606	4363
918.717	4295
918.828	4360
918.939	4383
919.05	4299
919.161	4379
919.272	4128
919.383	4249
919.494	4459
919.604	4710
919.715	4470
919.826	4344
919.936	4455
920.047	4561
920.157	4504
920.267	4767
920.378	4542
920.488	4554
920.598	4774
920.708	4919
920.818	4790
920.928	4786
921.038	4987
921.148	4953
921.258	4679
921.368	4588
921.477	4538
921.587	4500
921.697	4409
921.806	4554
921.916	4459
922.025	4287
922.134	4272
922.244	4280
922.353	4352
922.462	4238
922.571	4105
922.68	3994
922.789	4021
922.898	4078
923.007	3979
923.116	4139
923.224	4105
923.333	4093
923.442	4013
923.55	3979
923.659	4021
923.767	4128
923.876	3994
923.984	4131
924.092	3983
924.201	4101
924.309	4135
924.417	4162
924.525	4090
924.633	4131
924.741	5052
924.849	3918
924.956	4150
925.064	4006
925.172	3937
925.279	3956
925.387	4097
925.494	4055
925.602	4246
925.709	4238
925.816	4051
925.924	4162
926.031	4291
926.138	4188
926.245	4207
926.352	4139
926.459	4303
926.566	4379
926.673	4188
926.779	4078
926.886	4067
926.993	3972
927.099	3979
927.206	3964
927.312	3953
927.419	4086
927.525	4074
927.631	4128
927.737	4029
927.843	4002
927.95	3869
928.056	3979
928.162	4029
928.267	4059
928.373	4637
928.479	4131
928.585	3873
928.69	4051
928.796	4074
928.901	4002
929.007	3861
929.112	4063
929.218	4006
929.323	3953
929.428	4017
929.533	4105
929.638	3934
929.743	3975
929.848	4067
929.953	4101
930.058	3972
930.163	3835
930.267	3835
930.372	3994
930.477	3876
930.581	4147
930.685	3934
930.79	3854
930.894	3888
930.998	3888
931.103	4074
931.207	3766
931.311	3747
931.415	3709
931.519	3530
931.623	3561
