Data from test_V78500241_1111.txt Node
Date: Fri Mar 25 16:56:43 CST 2022
User: usil
Spectrometer: V785-0024
Trigger mode: 0
Integration Time (sec): 4.000000E-1
Scans to average: 1
Nonlinearity correction enabled: false
Boxcar width: 0
Storing dark spectrum: false
XAxis mode: Wavelengths
Number of Pixels in Spectrum: 1024
>>>>>Begin Spectral Data<<<<<
801.071	7986
801.214	7986
801.356	7890
801.499	7860
801.641	7753
801.783	7841
801.926	7967
802.068	7890
802.211	7947
802.353	7970
802.496	7795
802.638	7883
802.78	7868
802.923	7902
803.065	7860
803.208	7887
803.35	7967
803.492	8103
803.635	8164
803.777	7993
803.919	8115
804.061	8427
804.204	8161
804.346	7970
804.488	7967
804.63	8084
804.773	8035
804.915	8096
805.057	8244
805.199	8115
805.341	8248
805.483	8214
805.626	8138
805.768	8043
805.91	8187
806.052	8183
806.194	8088
806.336	8301
806.478	8092
806.62	8043
806.762	8103
806.904	8240
807.046	8423
807.188	8343
807.33	8233
807.472	8290
807.614	8218
807.756	8100
807.898	8001
808.04	7868
808.182	7849
808.324	7951
808.465	7879
808.607	8024
808.749	8039
808.891	8126
809.033	8240
809.174	8123
809.316	8005
809.458	7944
809.6	8005
809.741	8005
809.883	7974
810.025	8008
810.166	8016
810.308	8024
810.45	8073
810.591	7852
810.733	7658
810.875	7658
811.016	7521
811.158	7441
811.299	7639
811.441	7685
811.582	7639
811.724	7590
811.865	7506
812.007	7518
812.148	7537
812.29	7616
812.431	7761
812.573	7849
812.714	7993
812.855	8107
812.997	8176
813.138	8298
813.279	8084
813.421	8073
813.562	7967
813.703	7852
813.845	7784
813.986	7506
814.127	7259
814.268	7209
814.41	7160
814.551	7164
814.692	7149
814.833	7042
814.974	7069
815.115	7076
815.256	6951
815.397	6844
815.539	6928
815.68	6787
815.821	6749
815.962	6901
816.103	6833
816.244	6715
816.385	6593
816.526	6616
816.666	6483
816.807	6311
816.948	6418
817.089	6429
817.23	6422
817.371	6262
817.512	6384
817.653	6361
817.793	6346
817.934	6426
818.075	6395
818.216	6448
818.356	6388
818.497	6190
818.638	6159
818.778	6106
818.919	6121
819.06	6155
819.2	6285
819.341	6350
819.481	6296
819.622	6517
819.762	6650
819.903	6741
820.043	6627
820.184	6506
820.324	6513
820.465	6669
820.605	6635
820.746	6582
820.886	6437
821.026	6627
821.167	6665
821.307	6760
821.447	6715
821.588	6650
821.728	6544
821.868	6467
822.008	6247
822.149	6361
822.289	6315
822.429	6098
822.569	6091
822.709	6083
822.849	5885
822.99	5939
823.13	5920
823.27	5847
823.41	5794
823.55	5790
823.69	5767
823.83	5771
823.97	5634
824.11	5490
824.25	5524
824.389	5547
824.529	5627
824.669	5558
824.809	5589
824.949	5627
825.089	5611
825.228	5573
825.368	5436
825.508	5326
825.648	5318
825.787	5353
825.927	5334
826.067	5292
826.206	5277
826.346	5406
826.485	5391
826.625	5433
826.765	5581
826.904	5486
827.044	5315
827.183	5193
827.323	5117
827.462	5269
827.601	5197
827.741	5212
827.88	5235
828.02	5124
828.159	5296
828.298	5337
828.437	5395
828.577	5379
828.716	5467
828.855	5303
828.994	5170
829.134	5166
829.273	5208
829.412	5189
829.551	5189
829.69	5220
829.829	5258
829.968	5414
830.107	5330
830.246	5299
830.385	5166
830.524	5121
830.663	5143
830.802	5033
830.941	4870
831.08	4896
831.219	4984
831.357	4999
831.496	5166
831.635	4927
831.774	4877
831.913	4870
832.051	4778
832.19	4809
832.329	4862
832.467	4710
832.606	4664
832.744	4714
832.883	4774
833.022	4752
833.16	4759
833.299	4850
833.437	4881
833.576	4850
833.714	4911
833.852	4862
833.991	4908
834.129	5010
834.267	4991
834.406	4881
834.544	5048
834.682	4991
834.821	4991
834.959	5185
835.097	5003
835.235	5159
835.373	5136
835.511	5090
835.65	5029
835.788	5064
835.926	4881
836.064	4904
836.202	4885
836.34	5231
836.478	5273
836.615	5159
836.753	5208
836.891	5353
837.029	5269
837.167	5201
837.305	5185
837.443	5201
837.58	5121
837.718	5265
837.856	5178
837.993	5155
838.131	5231
838.269	5193
838.406	5242
838.544	5140
838.681	5067
838.819	5083
838.956	4942
839.094	4938
839.231	5010
839.369	5132
839.506	5490
839.643	5265
839.781	5060
839.918	5037
840.055	5128
840.193	5086
840.33	5140
840.467	5155
840.604	5197
840.742	5486
840.879	5102
841.016	5102
841.153	5166
841.29	5410
841.427	5357
841.564	5345
841.701	5379
841.838	5288
841.975	5227
842.112	5311
842.249	5197
842.385	5086
842.522	5383
842.659	5235
842.796	5143
842.933	5242
843.069	5159
843.206	5181
843.343	5372
843.479	5231
843.616	5246
843.752	5048
843.889	5010
844.025	5220
844.162	5022
844.298	5242
844.435	5128
844.571	5102
844.708	5212
844.844	5265
844.98	5349
845.117	5280
845.253	5117
845.389	5075
845.525	5151
845.661	5147
845.798	5045
845.934	5155
846.07	5105
846.206	5181
846.342	5280
846.478	5212
846.614	5052
846.75	5022
846.886	4968
847.022	5162
847.158	5064
847.294	5025
847.429	5121
847.565	5086
847.701	5345
847.837	4927
847.972	4877
848.108	5041
848.244	4946
848.379	4862
848.515	4717
848.65	4752
848.786	4736
848.921	4805
849.057	4843
849.192	4915
849.328	4816
849.463	4866
849.598	4835
849.734	4771
849.869	4691
850.004	4607
850.14	4679
850.275	4653
850.41	4554
850.545	4565
850.68	4634
850.815	4653
850.95	4649
851.085	4873
851.22	4736
851.355	4714
851.49	4641
851.625	4607
851.76	4611
851.895	4580
852.03	4542
852.165	4630
852.299	4725
852.434	4820
852.569	4755
852.703	4812
852.838	4850
852.973	4908
853.107	4938
853.242	4748
853.376	4702
853.511	4596
853.645	4672
853.78	4831
853.914	4717
854.048	4687
854.183	4584
854.317	4710
854.451	4900
854.585	4710
854.72	4656
854.854	4767
854.988	4599
855.122	4668
855.256	4500
855.39	4664
855.524	4801
855.658	4740
855.792	4710
855.926	4759
856.06	4759
856.194	4820
856.327	4683
856.461	4645
856.595	4653
856.729	4675
856.862	4790
856.996	4736
857.13	4782
857.263	4729
857.397	4843
857.53	4691
857.664	4748
857.797	4771
857.931	4831
858.064	4763
858.197	4733
858.331	4649
858.464	4645
858.597	4554
858.731	4607
858.864	4660
858.997	4626
859.13	4679
859.263	4626
859.396	4679
859.529	4588
859.662	4599
859.795	4550
859.928	4653
860.061	4805
860.194	4793
860.327	4649
860.46	4519
860.592	4725
860.725	4744
860.858	4748
860.99	4630
861.123	4611
861.256	4542
861.388	4634
861.521	5444
861.653	4478
861.786	4466
861.918	4500
862.05	4558
862.183	4550
862.315	4611
862.447	4634
862.58	4535
862.712	4398
862.844	4363
862.976	4504
863.108	4504
863.24	4812
863.372	4352
863.504	4394
863.636	4405
863.768	4493
863.9	4447
864.032	4379
864.164	4402
864.296	4470
864.428	4561
864.559	4603
864.691	4573
864.823	4535
864.954	4519
865.086	4500
865.217	4436
865.349	4440
865.48	4500
865.612	4519
865.743	4641
865.875	4462
866.006	4428
866.137	4485
866.269	4466
866.4	4428
866.531	4386
866.662	4394
866.793	4417
866.924	4417
867.055	4512
867.186	4455
867.317	4390
867.448	4413
867.579	4424
867.71	4402
867.841	4371
867.972	4451
868.103	4523
868.233	4421
868.364	4462
868.495	4512
868.625	4694
868.756	4752
868.886	4504
869.017	4630
869.147	4805
869.278	4771
869.408	4694
869.539	4637
869.669	4748
869.799	4672
869.929	4755
870.06	4763
870.19	4953
870.32	4904
870.45	4923
870.58	4980
870.71	5124
870.84	5056
870.97	4927
871.1	4858
871.23	5174
871.36	5117
871.489	5045
871.619	5105
871.749	5113
871.879	5132
872.008	5162
872.138	5090
872.267	5006
872.397	4850
872.526	4870
872.656	4679
872.785	4858
872.915	4934
873.044	4980
873.173	4927
873.303	4949
873.432	4980
873.561	4987
873.69	4915
873.819	4896
873.948	4873
874.077	4862
874.206	4748
874.335	4778
874.464	4892
874.593	5037
874.722	4942
874.851	5102
874.979	5056
875.108	5067
875.237	4934
875.365	4908
875.494	4904
875.623	4968
875.751	4854
875.88	4873
876.008	4934
876.136	5048
876.265	5166
876.393	5364
876.521	5227
876.65	5201
876.778	5143
876.906	5075
877.034	5064
877.162	5029
877.29	4991
877.418	5083
877.546	5048
877.674	5075
877.802	5056
877.93	5033
878.058	4915
878.185	4892
878.313	4957
878.441	4946
878.568	4771
878.696	4938
878.824	4934
878.951	4991
879.079	5170
879.206	5326
879.333	5083
879.461	4972
879.588	4976
879.715	5105
879.842	5265
879.97	4991
880.097	4816
880.224	4759
880.351	4831
880.478	4816
880.605	4801
880.732	4824
880.859	5071
880.986	4919
881.112	4923
881.239	4824
881.366	4714
881.493	4634
881.619	4558
881.746	4664
881.872	4653
881.999	4660
882.125	4702
882.252	4767
882.378	4862
882.505	4987
882.631	4801
882.757	4698
882.883	4767
883.01	4744
883.136	4660
883.262	4599
883.388	4592
883.514	4843
883.64	4873
883.766	4820
883.892	4706
884.018	4778
884.143	4850
884.269	5025
884.395	4672
884.52	4618
884.646	4668
884.772	4516
884.897	4512
885.023	4664
885.148	4812
885.274	4843
885.399	4816
885.524	4706
885.65	4706
885.775	4752
885.9	4702
886.025	4824
886.15	4786
886.275	4736
886.4	4660
886.525	4736
886.65	4698
886.775	4714
886.9	4938
887.025	5048
887.149	4790
887.274	4611
887.399	4618
887.523	4611
887.648	4603
887.773	4550
887.897	4771
888.021	4793
888.146	4691
888.27	4828
888.395	4892
888.519	4809
888.643	4835
888.767	4843
888.891	4660
889.015	4607
889.139	4660
889.263	4649
889.387	4778
889.511	4862
889.635	4767
889.759	4626
889.883	4679
890.006	4748
890.13	4858
890.254	4622
890.377	4710
890.501	4542
890.624	4504
890.748	4679
890.871	4519
890.995	4459
891.118	4402
891.241	4531
891.364	4546
891.488	4626
891.611	4516
891.734	4558
891.857	4580
891.98	4512
892.103	4668
892.226	4603
892.349	4523
892.471	4459
892.594	4535
892.717	4584
892.839	4588
892.962	4558
893.085	4675
893.207	4577
893.33	4440
893.452	4554
893.575	4649
893.697	4599
893.819	4812
893.941	4797
894.064	4767
894.186	4565
894.308	4561
894.43	4763
894.552	4812
894.674	4778
894.796	4573
894.918	4603
895.04	4577
895.161	4736
895.283	4656
895.405	4615
895.526	4634
895.648	4725
895.769	4675
895.891	4698
896.012	4748
896.134	4782
896.255	4683
896.376	4596
896.498	4641
896.619	4694
896.74	4596
896.861	4668
896.982	4892
897.103	5094
897.224	4904
897.345	4748
897.466	4664
897.587	4714
897.708	4870
897.828	4755
897.949	4656
898.07	4527
898.19	4626
898.311	4854
898.431	4672
898.552	4694
898.672	4801
898.792	4805
898.913	4736
899.033	4599
899.153	4489
899.273	4398
899.393	4497
899.513	4538
899.633	4512
899.753	4535
899.873	4500
899.993	4500
900.113	4519
900.232	4634
900.352	4554
900.472	4474
900.591	4421
900.711	4504
900.83	4459
900.95	4599
901.069	4683
901.189	4512
901.308	4367
901.427	4356
901.546	4356
901.665	4455
901.784	4500
901.904	4371
902.023	4291
902.141	4166
902.26	4200
902.379	4303
902.498	4272
902.617	4211
902.735	4409
902.854	4413
902.973	4360
903.091	4219
903.21	4249
903.328	4306
903.446	4276
903.565	4325
903.683	4356
903.801	4306
903.919	4440
904.038	4470
904.156	4356
904.274	4455
904.392	4424
904.51	4462
904.627	4512
904.745	4596
904.863	4649
904.981	4421
905.098	4379
905.216	4390
905.334	4455
905.451	4489
905.569	4462
905.686	4615
905.803	4588
905.921	4451
906.038	4573
906.155	4569
906.272	4462
906.389	4500
906.506	4363
906.623	4440
906.74	4428
906.857	4322
906.974	4363
907.091	4622
907.208	4755
907.324	4634
907.441	4550
907.557	4390
907.674	4409
907.79	4367
907.907	4417
908.023	4573
908.139	4500
908.256	4462
908.372	4466
908.488	4474
908.604	4337
908.72	4337
908.836	4405
908.952	4394
909.068	4466
909.184	4615
909.3	4542
909.415	4611
909.531	4599
909.647	4398
909.762	4428
909.878	4360
909.993	4466
910.108	4417
910.224	4455
910.339	4561
910.454	4466
910.57	4356
910.685	4367
910.8	4714
910.915	4637
911.03	4516
911.145	4371
911.259	4322
911.374	4417
911.489	4344
911.604	4284
911.718	4223
911.833	4238
911.947	4135
912.062	4044
912.176	4219
912.291	4272
912.405	4261
912.519	4447
912.633	4577
912.748	4447
912.862	4303
912.976	4314
913.09	4135
913.204	4166
913.318	4287
913.431	4390
913.545	4398
913.659	4470
913.772	4409
913.886	4299
914	4261
914.113	4367
914.226	4466
914.34	4398
914.453	4295
914.566	4462
914.68	4352
914.793	4383
914.906	4116
915.019	4135
915.132	4101
915.245	4215
915.358	4261
915.47	4295
915.583	4291
915.696	4325
915.809	4402
915.921	4459
916.034	4325
916.146	4303
916.259	4272
916.371	4360
916.483	4363
916.595	4329
916.708	4413
916.82	4344
916.932	4325
917.044	4322
917.156	4383
917.268	4284
917.38	4329
917.491	4314
917.603	4344
917.715	4474
917.826	4421
917.938	4360
918.049	4280
918.161	4424
918.272	4588
918.384	4580
918.495	4462
918.606	4280
918.717	4246
918.828	4363
918.939	4375
919.05	4249
919.161	4356
919.272	4154
919.383	4303
919.494	4493
919.604	4615
919.715	4462
919.826	4363
919.936	4481
920.047	4558
920.157	4527
920.267	4698
920.378	4550
920.488	4558
920.598	4809
920.708	4923
920.818	4797
920.928	4763
921.038	4965
921.148	4949
921.258	4626
921.368	4558
921.477	4527
921.587	4485
921.697	4451
921.806	4615
921.916	4497
922.025	4322
922.134	4284
922.244	4280
922.353	4386
922.462	4238
922.571	4147
922.68	4063
922.789	4006
922.898	4059
923.007	4021
923.116	4143
923.224	4112
923.333	4074
923.442	4044
923.55	4025
923.659	4032
923.767	4128
923.876	4040
923.984	4147
924.092	4036
924.201	4093
924.309	4067
924.417	4150
924.525	4116
924.633	4173
924.741	4927
924.849	3964
924.956	4147
925.064	4036
925.172	3918
925.279	3968
925.387	4036
925.494	4097
925.602	4234
925.709	4230
925.816	4101
925.924	4131
926.031	4211
926.138	4238
926.245	4219
926.352	4128
926.459	4268
926.566	4318
926.673	4166
926.779	4097
926.886	4090
926.993	3968
927.099	4025
927.206	3964
927.312	3968
927.419	4093
927.525	4082
927.631	4097
927.737	3968
927.843	3968
927.95	3861
928.056	3987
928.162	4013
928.267	4055
928.373	4683
928.479	4169
928.585	3915
928.69	4078
928.796	4112
928.901	4010
929.007	3850
929.112	4051
929.218	4029
929.323	3991
929.428	3968
929.533	4109
929.638	3941
929.743	3960
929.848	4093
929.953	4006
930.058	3937
930.163	3766
930.267	3816
930.372	3994
930.477	3819
930.581	4162
930.685	3975
930.79	3812
930.894	3899
930.998	3907
931.103	4082
931.207	3724
931.311	3755
931.415	3709
931.519	3504
931.623	3584
