Data from test_V78500241_2177.txt Node
Date: Fri Mar 25 17:04:08 CST 2022
User: usil
Spectrometer: V785-0024
Trigger mode: 0
Integration Time (sec): 4.000000E-1
Scans to average: 1
Nonlinearity correction enabled: false
Boxcar width: 0
Storing dark spectrum: false
XAxis mode: Wavelengths
Number of Pixels in Spectrum: 1024
>>>>>Begin Spectral Data<<<<<
801.071	7989
801.214	7936
801.356	7890
801.499	7814
801.641	7731
801.783	7883
801.926	7944
802.068	7974
802.211	7986
802.353	8008
802.496	7776
802.638	7898
802.78	7909
802.923	7875
803.065	7890
803.208	7860
803.35	7951
803.492	8092
803.635	8172
803.777	7982
803.919	8115
804.061	8415
804.204	8187
804.346	8043
804.488	7928
804.63	8096
804.773	8008
804.915	8039
805.057	8275
805.199	8134
805.341	8149
805.483	8225
805.626	8290
805.768	8180
805.91	8180
806.052	8187
806.194	8164
806.336	8267
806.478	8138
806.62	8119
806.762	8210
806.904	8248
807.046	8476
807.188	8415
807.33	8339
807.472	8317
807.614	8107
807.756	8130
807.898	8020
808.04	7887
808.182	7871
808.324	7906
808.465	7970
808.607	8073
808.749	8123
808.891	8240
809.033	8305
809.174	8263
809.316	8077
809.458	8062
809.6	8081
809.741	8050
809.883	8050
810.025	8126
810.166	7993
810.308	7997
810.45	8016
810.591	7852
810.733	7704
810.875	7689
811.016	7537
811.158	7514
811.299	7628
811.441	7693
811.582	7681
811.724	7662
811.865	7525
812.007	7670
812.148	7636
812.29	7628
812.431	7746
812.573	7928
812.714	8005
812.855	8183
812.997	8214
813.138	8282
813.279	8176
813.421	8054
813.562	8005
813.703	7830
813.845	7750
813.986	7457
814.127	7289
814.268	7194
814.41	7190
814.551	7175
814.692	7312
814.833	7095
814.974	7118
815.115	7110
815.256	6973
815.397	7008
815.539	6966
815.68	6856
815.821	6814
815.962	6878
816.103	6844
816.244	6741
816.385	6646
816.526	6639
816.666	6521
816.807	6331
816.948	6441
817.089	6502
817.23	6464
817.371	6361
817.512	6346
817.653	6448
817.793	6437
817.934	6448
818.075	6479
818.216	6441
818.356	6456
818.497	6251
818.638	6114
818.778	6197
818.919	6159
819.06	6266
819.2	6319
819.341	6350
819.481	6380
819.622	6593
819.762	6768
819.903	6734
820.043	6563
820.184	6627
820.324	6601
820.465	6681
820.605	6730
820.746	6700
820.886	6536
821.026	6707
821.167	6764
821.307	6791
821.447	6783
821.588	6703
821.728	6616
821.868	6513
822.008	6395
822.149	6464
822.289	6319
822.429	6190
822.569	6114
822.709	6144
822.849	5980
822.99	5904
823.13	5904
823.27	5939
823.41	5813
823.55	5809
823.69	5817
823.83	5775
823.97	5684
824.11	5543
824.25	5528
824.389	5554
824.529	5573
824.669	5539
824.809	5688
824.949	5672
825.089	5611
825.228	5604
825.368	5440
825.508	5433
825.648	5376
825.787	5368
825.927	5391
826.067	5349
826.206	5280
826.346	5398
826.485	5414
826.625	5471
826.765	5524
826.904	5497
827.044	5280
827.183	5223
827.323	5181
827.462	5280
827.601	5242
827.741	5162
827.88	5296
828.02	5090
828.159	5269
828.298	5326
828.437	5395
828.577	5326
828.716	5455
828.855	5337
828.994	5170
829.134	5185
829.273	5258
829.412	5189
829.551	5136
829.69	5174
829.829	5265
829.968	5414
830.107	5280
830.246	5235
830.385	5178
830.524	5216
830.663	5083
830.802	4991
830.941	4911
831.08	4930
831.219	5029
831.357	5025
831.496	5193
831.635	4923
831.774	4885
831.913	4908
832.051	4759
832.19	4774
832.329	4866
832.467	4721
832.606	4626
832.744	4790
832.883	4786
833.022	4755
833.16	4801
833.299	4843
833.437	4824
833.576	4854
833.714	4816
833.852	4850
833.991	4946
834.129	4961
834.267	4961
834.406	4870
834.544	5025
834.682	4942
834.821	4968
834.959	5189
835.097	5006
835.235	5159
835.373	5064
835.511	5136
835.65	5064
835.788	5041
835.926	4927
836.064	4949
836.202	4946
836.34	5136
836.478	5258
836.615	5162
836.753	5201
836.891	5273
837.029	5239
837.167	5246
837.305	5159
837.443	5204
837.58	5155
837.718	5258
837.856	5231
837.993	5143
838.131	5265
838.269	5235
838.406	5261
838.544	5246
838.681	5086
838.819	5083
838.956	4877
839.094	4919
839.231	5041
839.369	5117
839.506	5436
839.643	5258
839.781	5098
839.918	5037
840.055	5128
840.193	5121
840.33	5155
840.467	5140
840.604	5147
840.742	5478
840.879	5045
841.016	5136
841.153	5181
841.29	5395
841.427	5383
841.564	5341
841.701	5368
841.838	5292
841.975	5261
842.112	5322
842.249	5128
842.385	5162
842.522	5337
842.659	5197
842.796	5181
842.933	5208
843.069	5162
843.206	5155
843.343	5345
843.479	5250
843.616	5292
843.752	5079
843.889	5029
844.025	5227
844.162	5037
844.298	5193
844.435	5045
844.571	5090
844.708	5216
844.844	5296
844.98	5345
845.117	5326
845.253	5136
845.389	5083
845.525	5143
845.661	5143
845.798	5006
845.934	5197
846.07	5079
846.206	5227
846.342	5254
846.478	5162
846.614	5064
846.75	4976
846.886	4942
847.022	5151
847.158	5037
847.294	5098
847.429	5136
847.565	5109
847.701	5395
847.837	4904
847.972	4854
848.108	4987
848.244	4999
848.379	4809
848.515	4736
848.65	4717
848.786	4778
848.921	4835
849.057	4862
849.192	4896
849.328	4847
849.463	4828
849.598	4828
849.734	4744
849.869	4679
850.004	4706
850.14	4691
850.275	4592
850.41	4561
850.545	4558
850.68	4622
850.815	4653
850.95	4611
851.085	4831
851.22	4774
851.355	4664
851.49	4626
851.625	4641
851.76	4637
851.895	4550
852.03	4592
852.165	4683
852.299	4710
852.434	4801
852.569	4729
852.703	4797
852.838	4896
852.973	4911
853.107	4923
853.242	4771
853.376	4615
853.511	4584
853.645	4641
853.78	4870
853.914	4687
854.048	4698
854.183	4660
854.317	4740
854.451	4877
854.585	4679
854.72	4641
854.854	4721
854.988	4596
855.122	4660
855.256	4535
855.39	4653
855.524	4801
855.658	4710
855.792	4675
855.926	4752
856.06	4767
856.194	4843
856.327	4664
856.461	4634
856.595	4656
856.729	4603
856.862	4755
856.996	4698
857.13	4759
857.263	4797
857.397	4744
857.53	4645
857.664	4729
857.797	4748
857.931	4828
858.064	4683
858.197	4763
858.331	4656
858.464	4641
858.597	4538
858.731	4656
858.864	4694
858.997	4584
859.13	4691
859.263	4653
859.396	4710
859.529	4599
859.662	4584
859.795	4622
859.928	4577
860.061	4763
860.194	4771
860.327	4672
860.46	4584
860.592	4706
860.725	4740
860.858	4694
860.99	4622
861.123	4531
861.256	4527
861.388	4660
861.521	5395
861.653	4481
861.786	4451
861.918	4508
862.05	4538
862.183	4550
862.315	4615
862.447	4645
862.58	4542
862.712	4409
862.844	4383
862.976	4554
863.108	4493
863.24	4812
863.372	4348
863.504	4405
863.636	4409
863.768	4470
863.9	4432
864.032	4341
864.164	4440
864.296	4497
864.428	4538
864.559	4554
864.691	4558
864.823	4493
864.954	4531
865.086	4561
865.217	4447
865.349	4398
865.48	4470
865.612	4523
865.743	4626
865.875	4474
866.006	4447
866.137	4481
866.269	4481
866.4	4451
866.531	4398
866.662	4386
866.793	4413
866.924	4394
867.055	4497
867.186	4440
867.317	4443
867.448	4386
867.579	4352
867.71	4379
867.841	4379
867.972	4432
868.103	4478
868.233	4481
868.364	4459
868.495	4481
868.625	4660
868.756	4748
868.886	4558
869.017	4622
869.147	4740
869.278	4767
869.408	4691
869.539	4607
869.669	4675
869.799	4668
869.929	4767
870.06	4702
870.19	4934
870.32	4949
870.45	4934
870.58	5041
870.71	5071
870.84	5143
870.97	4972
871.1	4911
871.23	5094
871.36	5162
871.489	5018
871.619	5098
871.749	5140
871.879	5136
872.008	5178
872.138	5037
872.267	4984
872.397	4866
872.526	4790
872.656	4736
872.785	4809
872.915	4976
873.044	5071
873.173	4934
873.303	4961
873.432	4927
873.561	5033
873.69	4862
873.819	4816
873.948	4938
874.077	4839
874.206	4774
874.335	4850
874.464	4934
874.593	5022
874.722	4999
874.851	5056
874.979	5086
875.108	5052
875.237	4904
875.365	4885
875.494	4862
875.623	5018
875.751	4854
875.88	4870
876.008	4991
876.136	5045
876.265	5208
876.393	5383
876.521	5246
876.65	5189
876.778	5121
876.906	5132
877.034	5037
877.162	5048
877.29	4995
877.418	5056
877.546	5033
877.674	5022
877.802	5071
877.93	5003
878.058	5006
878.185	4877
878.313	4968
878.441	4953
878.568	4820
878.696	4900
878.824	5003
878.951	4999
879.079	5113
879.206	5330
879.333	5113
879.461	4991
879.588	5014
879.715	5117
879.842	5231
879.97	4968
880.097	4778
880.224	4729
880.351	4797
880.478	4820
880.605	4805
880.732	4782
880.859	5045
880.986	4965
881.112	4927
881.239	4790
881.366	4649
881.493	4596
881.619	4603
881.746	4656
881.872	4618
881.999	4694
882.125	4668
882.252	4759
882.378	4805
882.505	4991
882.631	4824
882.757	4675
882.883	4763
883.01	4725
883.136	4672
883.262	4580
883.388	4653
883.514	4801
883.64	4843
883.766	4816
883.892	4683
884.018	4683
884.143	4873
884.269	4980
884.395	4672
884.52	4664
884.646	4622
884.772	4577
884.897	4607
885.023	4668
885.148	4805
885.274	4858
885.399	4774
885.524	4687
885.65	4679
885.775	4771
885.9	4694
886.025	4892
886.15	4801
886.275	4809
886.4	4618
886.525	4687
886.65	4675
886.775	4683
886.9	4854
887.025	5041
887.149	4812
887.274	4611
887.399	4634
887.523	4577
887.648	4577
887.773	4573
887.897	4771
888.021	4786
888.146	4691
888.27	4797
888.395	4946
888.519	4717
888.643	4835
888.767	4816
888.891	4649
889.015	4607
889.139	4649
889.263	4618
889.387	4744
889.511	4911
889.635	4778
889.759	4668
889.883	4577
890.006	4687
890.13	4835
890.254	4634
890.377	4717
890.501	4554
890.624	4554
890.748	4637
890.871	4523
890.995	4417
891.118	4398
891.241	4478
891.364	4523
891.488	4611
891.611	4512
891.734	4558
891.857	4641
891.98	4527
892.103	4645
892.226	4596
892.349	4489
892.471	4405
892.594	4554
892.717	4611
892.839	4504
892.962	4599
893.085	4672
893.207	4584
893.33	4481
893.452	4504
893.575	4634
893.697	4596
893.819	4805
893.941	4809
894.064	4767
894.186	4588
894.308	4596
894.43	4736
894.552	4850
894.674	4717
894.796	4535
894.918	4580
895.04	4550
895.161	4725
895.283	4660
895.405	4603
895.526	4645
895.648	4698
895.769	4698
895.891	4725
896.012	4736
896.134	4714
896.255	4683
896.376	4653
896.498	4615
896.619	4660
896.74	4622
896.861	4653
896.982	4911
897.103	5060
897.224	4873
897.345	4748
897.466	4683
897.587	4706
897.708	4862
897.828	4801
897.949	4660
898.07	4546
898.19	4626
898.311	4809
898.431	4637
898.552	4706
898.672	4885
898.792	4801
898.913	4782
899.033	4588
899.153	4531
899.273	4436
899.393	4466
899.513	4550
899.633	4512
899.753	4546
899.873	4527
899.993	4611
900.113	4538
900.232	4603
900.352	4538
900.472	4481
900.591	4337
900.711	4489
900.83	4443
900.95	4577
901.069	4679
901.189	4588
901.308	4363
901.427	4314
901.546	4371
901.665	4440
901.784	4466
901.904	4402
902.023	4318
902.141	4124
902.26	4185
902.379	4322
902.498	4223
902.617	4257
902.735	4371
902.854	4424
902.973	4367
903.091	4196
903.21	4242
903.328	4284
903.446	4272
903.565	4249
903.683	4375
903.801	4310
903.919	4375
904.038	4440
904.156	4306
904.274	4398
904.392	4424
904.51	4466
904.627	4455
904.745	4565
904.863	4561
904.981	4386
905.098	4341
905.216	4360
905.334	4432
905.451	4481
905.569	4455
905.686	4603
905.803	4561
905.921	4432
906.038	4558
906.155	4470
906.272	4421
906.389	4443
906.506	4325
906.623	4409
906.74	4379
906.857	4291
906.974	4413
907.091	4565
907.208	4664
907.324	4565
907.441	4493
907.557	4314
907.674	4348
907.79	4356
907.907	4424
908.023	4497
908.139	4462
908.256	4470
908.372	4462
908.488	4451
908.604	4413
908.72	4280
908.836	4363
908.952	4367
909.068	4440
909.184	4500
909.3	4451
909.415	4546
909.531	4561
909.647	4432
909.762	4348
909.878	4344
909.993	4386
910.108	4424
910.224	4424
910.339	4489
910.454	4413
910.57	4341
910.685	4310
910.8	4675
910.915	4622
911.03	4504
911.145	4310
911.259	4341
911.374	4363
911.489	4253
911.604	4238
911.718	4158
911.833	4215
911.947	4071
912.062	4071
912.176	4207
912.291	4238
912.405	4227
912.519	4470
912.633	4489
912.748	4325
912.862	4272
912.976	4166
913.09	4082
913.204	4188
913.318	4306
913.431	4325
913.545	4371
913.659	4421
913.772	4360
913.886	4223
914	4192
914.113	4333
914.226	4360
914.34	4360
914.453	4257
914.566	4371
914.68	4306
914.793	4265
914.906	4181
915.019	4147
915.132	4044
915.245	4185
915.358	4207
915.47	4230
915.583	4287
915.696	4291
915.809	4398
915.921	4424
916.034	4227
916.146	4261
916.259	4227
916.371	4409
916.483	4318
916.595	4257
916.708	4322
916.82	4325
916.932	4318
917.044	4299
917.156	4329
917.268	4188
917.38	4242
917.491	4287
917.603	4352
917.715	4428
917.826	4440
917.938	4329
918.049	4257
918.161	4367
918.272	4554
918.384	4516
918.495	4413
918.606	4287
918.717	4200
918.828	4314
918.939	4386
919.05	4253
919.161	4333
919.272	4139
919.383	4223
919.494	4459
919.604	4641
919.715	4432
919.826	4363
919.936	4417
920.047	4538
920.157	4462
920.267	4725
920.378	4558
920.488	4474
920.598	4729
920.708	4870
920.818	4733
920.928	4782
921.038	4949
921.148	4900
921.258	4577
921.368	4573
921.477	4478
921.587	4440
921.697	4375
921.806	4538
921.916	4409
922.025	4299
922.134	4280
922.244	4188
922.353	4341
922.462	4150
922.571	4128
922.68	3987
922.789	4002
922.898	4051
923.007	4021
923.116	4097
923.224	4067
923.333	4059
923.442	4021
923.55	3991
923.659	4006
923.767	4139
923.876	3987
923.984	4074
924.092	3956
924.201	4048
924.309	4051
924.417	4082
924.525	4029
924.633	4040
924.741	5052
924.849	3945
924.956	4147
925.064	3983
925.172	3896
925.279	3941
925.387	4067
925.494	4044
925.602	4211
925.709	4177
925.816	3998
925.924	4128
926.031	4200
926.138	4116
926.245	4204
926.352	4082
926.459	4291
926.566	4318
926.673	4131
926.779	4063
926.886	4078
926.993	3956
927.099	3903
927.206	3934
927.312	3911
927.419	4082
927.525	4010
927.631	4071
927.737	3949
927.843	3937
927.95	3812
928.056	3949
928.162	3960
928.267	4055
928.373	4668
928.479	4101
928.585	3854
928.69	4040
928.796	4044
928.901	3964
929.007	3831
929.112	3956
929.218	3964
929.323	3922
929.428	3907
929.533	4074
929.638	3922
929.743	3968
929.848	3998
929.953	3987
930.058	3987
930.163	3789
930.267	3876
930.372	3998
930.477	3816
930.581	4101
930.685	3960
930.79	3785
930.894	3899
930.998	3804
931.103	4029
931.207	3740
931.311	3694
931.415	3686
931.519	3507
931.623	3576
