Data from test_V78500241_2525.txt Node
Date: Fri Mar 25 17:06:33 CST 2022
User: usil
Spectrometer: V785-0024
Trigger mode: 0
Integration Time (sec): 4.000000E-1
Scans to average: 1
Nonlinearity correction enabled: false
Boxcar width: 0
Storing dark spectrum: false
XAxis mode: Wavelengths
Number of Pixels in Spectrum: 1024
>>>>>Begin Spectral Data<<<<<
801.071	8016
801.214	7997
801.356	7883
801.499	7868
801.641	7811
801.783	7830
801.926	7959
802.068	7963
802.211	7978
802.353	8016
802.496	7807
802.638	7868
802.78	7917
802.923	7864
803.065	7856
803.208	7890
803.35	7963
803.492	8043
803.635	8172
803.777	7989
803.919	8168
804.061	8298
804.204	8244
804.346	8046
804.488	7932
804.63	8126
804.773	7974
804.915	8092
805.057	8221
805.199	8149
805.341	8183
805.483	8244
805.626	8248
805.768	8168
805.91	8183
806.052	8149
806.194	8103
806.336	8298
806.478	8123
806.62	8065
806.762	8088
806.904	8252
807.046	8381
807.188	8404
807.33	8305
807.472	8324
807.614	8130
807.756	8164
807.898	7997
808.04	7925
808.182	7906
808.324	7913
808.465	7890
808.607	8054
808.749	8062
808.891	8221
809.033	8313
809.174	8218
809.316	8077
809.458	8088
809.6	8054
809.741	8138
809.883	8046
810.025	8100
810.166	8096
810.308	8081
810.45	8005
810.591	7879
810.733	7780
810.875	7601
811.016	7575
811.158	7506
811.299	7632
811.441	7700
811.582	7731
811.724	7609
811.865	7594
812.007	7590
812.148	7594
812.29	7658
812.431	7696
812.573	7883
812.714	7951
812.855	8183
812.997	8195
813.138	8259
813.279	8145
813.421	8088
813.562	7944
813.703	7822
813.845	7765
813.986	7457
814.127	7301
814.268	7171
814.41	7247
814.551	7198
814.692	7141
814.833	7126
814.974	7179
815.115	7084
815.256	6939
815.397	7034
815.539	6943
815.68	6806
815.821	6726
815.962	6818
816.103	6840
816.244	6707
816.385	6612
816.526	6620
816.666	6506
816.807	6361
816.948	6452
817.089	6494
817.23	6418
817.371	6410
817.512	6376
817.653	6437
817.793	6391
817.934	6498
818.075	6536
818.216	6429
818.356	6410
818.497	6281
818.638	6098
818.778	6175
818.919	6159
819.06	6178
819.2	6429
819.341	6292
819.481	6372
819.622	6650
819.762	6749
819.903	6738
820.043	6620
820.184	6601
820.324	6570
820.465	6738
820.605	6741
820.746	6696
820.886	6509
821.026	6688
821.167	6707
821.307	6760
821.447	6833
821.588	6696
821.728	6608
821.868	6494
822.008	6395
822.149	6369
822.289	6372
822.429	6110
822.569	6060
822.709	6178
822.849	5965
822.99	5939
823.13	5977
823.27	5923
823.41	5767
823.55	5836
823.69	5775
823.83	5783
823.97	5672
824.11	5558
824.25	5497
824.389	5558
824.529	5649
824.669	5562
824.809	5718
824.949	5627
825.089	5543
825.228	5585
825.368	5357
825.508	5372
825.648	5311
825.787	5353
825.927	5414
826.067	5265
826.206	5322
826.346	5398
826.485	5410
826.625	5406
826.765	5532
826.904	5493
827.044	5242
827.183	5166
827.323	5155
827.462	5261
827.601	5166
827.741	5189
827.88	5242
828.02	5060
828.159	5227
828.298	5337
828.437	5345
828.577	5307
828.716	5440
828.855	5349
828.994	5193
829.134	5147
829.273	5136
829.412	5102
829.551	5136
829.69	5140
829.829	5273
829.968	5372
830.107	5307
830.246	5277
830.385	5185
830.524	5124
830.663	5045
830.802	4972
830.941	4889
831.08	4862
831.219	4946
831.357	4972
831.496	5117
831.635	4930
831.774	4896
831.913	4850
832.051	4744
832.19	4717
832.329	4847
832.467	4630
832.606	4664
832.744	4725
832.883	4721
833.022	4740
833.16	4816
833.299	4797
833.437	4812
833.576	4828
833.714	4847
833.852	4877
833.991	4892
834.129	4896
834.267	4984
834.406	4885
834.544	4972
834.682	4968
834.821	4965
834.959	5181
835.097	5029
835.235	5136
835.373	4995
835.511	5113
835.65	5048
835.788	5003
835.926	4915
836.064	4942
836.202	4927
836.34	5220
836.478	5197
836.615	5124
836.753	5258
836.891	5265
837.029	5242
837.167	5159
837.305	5166
837.443	5155
837.58	5155
837.718	5197
837.856	5174
837.993	5098
838.131	5197
838.269	5193
838.406	5254
838.544	5189
838.681	5045
838.819	4961
838.956	4828
839.094	4881
839.231	4961
839.369	5128
839.506	5391
839.643	5284
839.781	5056
839.918	5014
840.055	5124
840.193	5071
840.33	5121
840.467	5181
840.604	5181
840.742	5425
840.879	5048
841.016	5079
841.153	5162
841.29	5357
841.427	5368
841.564	5318
841.701	5368
841.838	5296
841.975	5235
842.112	5265
842.249	5086
842.385	5170
842.522	5318
842.659	5162
842.796	5121
842.933	5197
843.069	5121
843.206	5170
843.343	5299
843.479	5223
843.616	5307
843.752	5060
843.889	5022
844.025	5159
844.162	5048
844.298	5223
844.435	5022
844.571	5067
844.708	5185
844.844	5288
844.98	5360
845.117	5288
845.253	5136
845.389	5052
845.525	5105
845.661	5124
845.798	5003
845.934	5124
846.07	5071
846.206	5204
846.342	5284
846.478	5140
846.614	5014
846.75	4930
846.886	4972
847.022	5136
847.158	5010
847.294	5086
847.429	5124
847.565	4995
847.701	5337
847.837	4881
847.972	4831
848.108	4923
848.244	4972
848.379	4786
848.515	4725
848.65	4717
848.786	4786
848.921	4790
849.057	4854
849.192	4889
849.328	4812
849.463	4892
849.598	4778
849.734	4778
849.869	4733
850.004	4611
850.14	4675
850.275	4653
850.41	4512
850.545	4500
850.68	4577
850.815	4630
850.95	4569
851.085	4805
851.22	4748
851.355	4668
851.49	4622
851.625	4622
851.76	4622
851.895	4531
852.03	4538
852.165	4664
852.299	4675
852.434	4778
852.569	4702
852.703	4797
852.838	4900
852.973	4896
853.107	4927
853.242	4721
853.376	4634
853.511	4538
853.645	4603
853.78	4809
853.914	4683
854.048	4702
854.183	4683
854.317	4714
854.451	4843
854.585	4649
854.72	4653
854.854	4721
854.988	4630
855.122	4656
855.256	4531
855.39	4641
855.524	4805
855.658	4721
855.792	4733
855.926	4786
856.06	4721
856.194	4816
856.327	4656
856.461	4596
856.595	4634
856.729	4615
856.862	4759
856.996	4736
857.13	4698
857.263	4778
857.397	4778
857.53	4626
857.664	4717
857.797	4763
857.931	4801
858.064	4733
858.197	4679
858.331	4660
858.464	4596
858.597	4474
858.731	4615
858.864	4664
858.997	4596
859.13	4660
859.263	4630
859.396	4733
859.529	4611
859.662	4580
859.795	4538
859.928	4656
860.061	4736
860.194	4801
860.327	4588
860.46	4542
860.592	4683
860.725	4725
860.858	4755
860.99	4538
861.123	4561
861.256	4523
861.388	4618
861.521	5185
861.653	4474
861.786	4440
861.918	4455
862.05	4527
862.183	4535
862.315	4592
862.447	4653
862.58	4546
862.712	4390
862.844	4341
862.976	4470
863.108	4466
863.24	4774
863.372	4322
863.504	4417
863.636	4367
863.768	4489
863.9	4466
864.032	4379
864.164	4386
864.296	4500
864.428	4588
864.559	4542
864.691	4493
864.823	4497
864.954	4481
865.086	4481
865.217	4428
865.349	4447
865.48	4443
865.612	4470
865.743	4618
865.875	4466
866.006	4405
866.137	4466
866.269	4459
866.4	4436
866.531	4405
866.662	4413
866.793	4379
866.924	4432
867.055	4459
867.186	4440
867.317	4390
867.448	4360
867.579	4383
867.71	4402
867.841	4379
867.972	4470
868.103	4489
868.233	4424
868.364	4497
868.495	4531
868.625	4626
868.756	4755
868.886	4554
869.017	4622
869.147	4782
869.278	4774
869.408	4679
869.539	4641
869.669	4714
869.799	4645
869.929	4736
870.06	4698
870.19	4953
870.32	4976
870.45	4927
870.58	4976
870.71	5075
870.84	5124
870.97	4980
871.1	4923
871.23	5124
871.36	5094
871.489	5048
871.619	5045
871.749	5083
871.879	5136
872.008	5166
872.138	5033
872.267	4991
872.397	4831
872.526	4801
872.656	4755
872.785	4801
872.915	4968
873.044	4987
873.173	4915
873.303	4968
873.432	4972
873.561	4942
873.69	4889
873.819	4892
873.948	4866
874.077	4854
874.206	4771
874.335	4831
874.464	4877
874.593	5086
874.722	4980
874.851	5102
874.979	5025
875.108	5037
875.237	4896
875.365	4892
875.494	4847
875.623	4915
875.751	4820
875.88	4873
876.008	4976
876.136	4987
876.265	5166
876.393	5372
876.521	5269
876.65	5227
876.778	5155
876.906	5075
877.034	5006
877.162	5048
877.29	5014
877.418	5045
877.546	5025
877.674	5056
877.802	5045
877.93	4980
878.058	4908
878.185	4858
878.313	4942
878.441	4976
878.568	4782
878.696	4900
878.824	4953
878.951	4995
879.079	5136
879.206	5303
879.333	5102
879.461	4987
879.588	5029
879.715	5105
879.842	5265
879.97	4976
880.097	4793
880.224	4767
880.351	4793
880.478	4790
880.605	4820
880.732	4805
880.859	5098
880.986	4877
881.112	4889
881.239	4767
881.366	4679
881.493	4611
881.619	4622
881.746	4641
881.872	4668
881.999	4622
882.125	4664
882.252	4797
882.378	4831
882.505	4976
882.631	4812
882.757	4660
882.883	4733
883.01	4668
883.136	4702
883.262	4592
883.388	4630
883.514	4771
883.64	4881
883.766	4767
883.892	4710
884.018	4725
884.143	4850
884.269	5037
884.395	4672
884.52	4618
884.646	4679
884.772	4584
884.897	4516
885.023	4637
885.148	4774
885.274	4835
885.399	4847
885.524	4664
885.65	4691
885.775	4763
885.9	4683
886.025	4831
886.15	4729
886.275	4675
886.4	4584
886.525	4729
886.65	4706
886.775	4710
886.9	4858
887.025	5018
887.149	4862
887.274	4634
887.399	4584
887.523	4592
887.648	4653
887.773	4634
887.897	4748
888.021	4782
888.146	4691
888.27	4831
888.395	4870
888.519	4790
888.643	4835
888.767	4854
888.891	4664
889.015	4626
889.139	4626
889.263	4653
889.387	4767
889.511	4900
889.635	4831
889.759	4694
889.883	4668
890.006	4736
890.13	4854
890.254	4607
890.377	4687
890.501	4569
890.624	4519
890.748	4615
890.871	4565
890.995	4436
891.118	4379
891.241	4504
891.364	4538
891.488	4672
891.611	4516
891.734	4569
891.857	4637
891.98	4561
892.103	4637
892.226	4558
892.349	4554
892.471	4462
892.594	4538
892.717	4588
892.839	4561
892.962	4618
893.085	4653
893.207	4569
893.33	4462
893.452	4512
893.575	4645
893.697	4607
893.819	4778
893.941	4812
894.064	4790
894.186	4561
894.308	4561
894.43	4748
894.552	4835
894.674	4733
894.796	4584
894.918	4584
895.04	4500
895.161	4668
895.283	4721
895.405	4584
895.526	4611
895.648	4656
895.769	4752
895.891	4759
896.012	4721
896.134	4717
896.255	4694
896.376	4653
896.498	4653
896.619	4683
896.74	4542
896.861	4660
896.982	4892
897.103	5121
897.224	4843
897.345	4706
897.466	4672
897.587	4729
897.708	4820
897.828	4748
897.949	4618
898.07	4554
898.19	4637
898.311	4809
898.431	4710
898.552	4744
898.672	4828
898.792	4805
898.913	4763
899.033	4630
899.153	4485
899.273	4379
899.393	4462
899.513	4523
899.633	4512
899.753	4546
899.873	4497
899.993	4607
900.113	4519
900.232	4596
900.352	4577
900.472	4485
900.591	4436
900.711	4493
900.83	4459
900.95	4599
901.069	4660
901.189	4489
901.308	4360
901.427	4337
901.546	4386
901.665	4443
901.784	4459
901.904	4398
902.023	4348
902.141	4223
902.26	4154
902.379	4303
902.498	4284
902.617	4185
902.735	4390
902.854	4375
902.973	4363
903.091	4215
903.21	4246
903.328	4280
903.446	4227
903.565	4280
903.683	4348
903.801	4291
903.919	4383
904.038	4428
904.156	4333
904.274	4440
904.392	4428
904.51	4455
904.627	4459
904.745	4558
904.863	4672
904.981	4398
905.098	4295
905.216	4405
905.334	4402
905.451	4417
905.569	4459
905.686	4554
905.803	4561
905.921	4451
906.038	4542
906.155	4474
906.272	4348
906.389	4421
906.506	4329
906.623	4337
906.74	4390
906.857	4344
906.974	4356
907.091	4554
907.208	4664
907.324	4565
907.441	4462
907.557	4325
907.674	4402
907.79	4344
907.907	4383
908.023	4497
908.139	4481
908.256	4417
908.372	4447
908.488	4405
908.604	4371
908.72	4371
908.836	4371
908.952	4348
909.068	4428
909.184	4573
909.3	4508
909.415	4599
909.531	4489
909.647	4371
909.762	4341
909.878	4348
909.993	4451
910.108	4379
910.224	4409
910.339	4527
910.454	4417
910.57	4337
910.685	4310
910.8	4641
910.915	4634
911.03	4497
911.145	4299
911.259	4310
911.374	4398
911.489	4280
911.604	4276
911.718	4143
911.833	4219
911.947	4101
912.062	4029
912.176	4219
912.291	4204
912.405	4272
912.519	4459
912.633	4485
912.748	4360
912.862	4299
912.976	4257
913.09	4048
913.204	4173
913.318	4230
913.431	4386
913.545	4337
913.659	4459
913.772	4360
913.886	4227
914	4219
914.113	4352
914.226	4481
914.34	4375
914.453	4234
914.566	4455
914.68	4344
914.793	4322
914.906	4158
915.019	4116
915.132	4059
915.245	4192
915.358	4207
915.47	4261
915.583	4268
915.696	4299
915.809	4417
915.921	4440
916.034	4249
916.146	4272
916.259	4227
916.371	4348
916.483	4379
916.595	4291
916.708	4322
916.82	4291
916.932	4284
917.044	4303
917.156	4337
917.268	4211
917.38	4253
917.491	4299
917.603	4337
917.715	4428
917.826	4474
917.938	4295
918.049	4219
918.161	4367
918.272	4561
918.384	4519
918.495	4421
918.606	4268
918.717	4253
918.828	4295
918.939	4367
919.05	4284
919.161	4329
919.272	4120
919.383	4230
919.494	4459
919.604	4592
919.715	4424
919.826	4310
919.936	4402
920.047	4523
920.157	4527
920.267	4729
920.378	4527
920.488	4481
920.598	4744
920.708	4862
920.818	4714
920.928	4759
921.038	4885
921.148	4927
921.258	4611
921.368	4569
921.477	4538
921.587	4424
921.697	4379
921.806	4516
921.916	4451
922.025	4314
922.134	4276
922.244	4188
922.353	4310
922.462	4158
922.571	4128
922.68	3979
922.789	3975
922.898	4025
923.007	3983
923.116	4135
923.224	4036
923.333	4032
923.442	3991
923.55	3926
923.659	4002
923.767	4078
923.876	3975
923.984	4135
924.092	3964
924.201	4032
924.309	4101
924.417	4112
924.525	4040
924.633	4101
924.741	5109
924.849	3911
924.956	4169
925.064	3968
925.172	3934
925.279	3941
925.387	4048
925.494	4078
925.602	4196
925.709	4120
925.816	4051
925.924	4128
926.031	4242
926.138	4139
926.245	4192
926.352	4097
926.459	4268
926.566	4265
926.673	4192
926.779	4093
926.886	4128
926.993	3994
927.099	3949
927.206	3926
927.312	3941
927.419	4055
927.525	4025
927.631	4158
927.737	3983
927.843	3968
927.95	3873
928.056	3949
928.162	4002
928.267	4063
928.373	4580
928.479	4135
928.585	3911
928.69	4044
928.796	4078
928.901	3968
929.007	3823
929.112	4006
929.218	3937
929.323	3991
929.428	3922
929.533	4097
929.638	3869
929.743	3911
929.848	4025
929.953	3998
930.058	3937
930.163	3766
930.267	3785
930.372	3960
930.477	3797
930.581	4055
930.685	3922
930.79	3850
930.894	3930
930.998	3831
931.103	4040
931.207	3751
931.311	3690
931.415	3648
931.519	3492
931.623	3549
