Data from test_V78500241_139.txt Node
Date: Fri Mar 25 16:49:58 CST 2022
User: usil
Spectrometer: V785-0024
Trigger mode: 0
Integration Time (sec): 4.000000E-1
Scans to average: 1
Nonlinearity correction enabled: false
Boxcar width: 0
Storing dark spectrum: false
XAxis mode: Wavelengths
Number of Pixels in Spectrum: 1024
>>>>>Begin Spectral Data<<<<<
801.071	8077
801.214	8024
801.356	7940
801.499	7928
801.641	7925
801.783	7841
801.926	7982
802.068	7974
802.211	7959
802.353	8020
802.496	7826
802.638	7944
802.78	7955
802.923	7974
803.065	7902
803.208	7906
803.35	7940
803.492	8031
803.635	8191
803.777	7974
803.919	8081
804.061	8381
804.204	8096
804.346	7951
804.488	7940
804.63	8134
804.773	8031
804.915	8142
805.057	8256
805.199	8103
805.341	8126
805.483	8294
805.626	8183
805.768	8001
805.91	8195
806.052	8210
806.194	8088
806.336	8218
806.478	8077
806.62	8168
806.762	8149
806.904	8290
807.046	8469
807.188	8332
807.33	8351
807.472	8305
807.614	8210
807.756	8134
807.898	8020
808.04	7928
808.182	7944
808.324	7925
808.465	7932
808.607	8069
808.749	8164
808.891	8191
809.033	8290
809.174	8214
809.316	8107
809.458	8145
809.6	7963
809.741	8081
809.883	8020
810.025	8202
810.166	8183
810.308	8065
810.45	8043
810.591	7928
810.733	7746
810.875	7723
811.016	7567
811.158	7487
811.299	7620
811.441	7750
811.582	7727
811.724	7601
811.865	7594
812.007	7636
812.148	7609
812.29	7704
812.431	7826
812.573	7936
812.714	8092
812.855	8210
812.997	8317
813.138	8389
813.279	8275
813.421	8191
813.562	8088
813.703	7898
813.845	7727
813.986	7476
814.127	7327
814.268	7282
814.41	7251
814.551	7228
814.692	7217
814.833	7152
814.974	7168
815.115	7168
815.256	7050
815.397	6989
815.539	7012
815.68	6878
815.821	6783
815.962	6859
816.103	6802
816.244	6738
816.385	6597
816.526	6650
816.666	6563
816.807	6376
816.948	6525
817.089	6475
817.23	6498
817.371	6479
817.512	6414
817.653	6399
817.793	6380
817.934	6422
818.075	6429
818.216	6502
818.356	6445
818.497	6262
818.638	6133
818.778	6152
818.919	6144
819.06	6140
819.2	6361
819.341	6388
819.481	6399
819.622	6563
819.762	6768
819.903	6753
820.043	6589
820.184	6627
820.324	6566
820.465	6722
820.605	6677
820.746	6589
820.886	6551
821.026	6726
821.167	6726
821.307	6802
821.447	6753
821.588	6715
821.728	6585
821.868	6471
822.008	6422
822.149	6357
822.289	6353
822.429	6228
822.569	6091
822.709	6182
822.849	5946
822.99	5965
823.13	5980
823.27	5863
823.41	5798
823.55	5844
823.69	5783
823.83	5859
823.97	5668
824.11	5589
824.25	5520
824.389	5573
824.529	5634
824.669	5566
824.809	5676
824.949	5718
825.089	5653
825.228	5543
825.368	5463
825.508	5372
825.648	5364
825.787	5398
825.927	5398
826.067	5307
826.206	5292
826.346	5402
826.485	5421
826.625	5364
826.765	5554
826.904	5440
827.044	5269
827.183	5242
827.323	5121
827.462	5269
827.601	5201
827.741	5227
827.88	5220
828.02	5178
828.159	5277
828.298	5345
828.437	5376
828.577	5368
828.716	5463
828.855	5410
828.994	5193
829.134	5159
829.273	5227
829.412	5174
829.551	5140
829.69	5181
829.829	5265
829.968	5376
830.107	5292
830.246	5273
830.385	5227
830.524	5151
830.663	5052
830.802	4984
830.941	4896
831.08	4968
831.219	5045
831.357	5006
831.496	5185
831.635	4911
831.774	4862
831.913	4831
832.051	4767
832.19	4820
832.329	4877
832.467	4759
832.606	4637
832.744	4710
832.883	4714
833.022	4744
833.16	4774
833.299	4790
833.437	4870
833.576	4866
833.714	4854
833.852	4862
833.991	4862
834.129	4965
834.267	4942
834.406	4946
834.544	5041
834.682	4991
834.821	4968
834.959	5159
835.097	5022
835.235	5132
835.373	5124
835.511	5060
835.65	5037
835.788	5022
835.926	4870
836.064	4896
836.202	4968
836.34	5208
836.478	5208
836.615	5143
836.753	5280
836.891	5299
837.029	5258
837.167	5201
837.305	5204
837.443	5162
837.58	5064
837.718	5334
837.856	5185
837.993	5166
838.131	5288
838.269	5269
838.406	5246
838.544	5216
838.681	5052
838.819	5022
838.956	4892
839.094	4904
839.231	4976
839.369	5117
839.506	5455
839.643	5273
839.781	5098
839.918	5052
840.055	5109
840.193	5075
840.33	5067
840.467	5166
840.604	5193
840.742	5509
840.879	5083
841.016	5102
841.153	5174
841.29	5436
841.427	5357
841.564	5334
841.701	5391
841.838	5299
841.975	5242
842.112	5318
842.249	5159
842.385	5155
842.522	5341
842.659	5162
842.796	5185
842.933	5162
843.069	5159
843.206	5185
843.343	5318
843.479	5246
843.616	5235
843.752	5037
843.889	5003
844.025	5258
844.162	5029
844.298	5212
844.435	5105
844.571	5071
844.708	5250
844.844	5368
844.98	5303
845.117	5341
845.253	5159
845.389	5071
845.525	5227
845.661	5181
845.798	5006
845.934	5136
846.07	5064
846.206	5223
846.342	5284
846.478	5174
846.614	5003
846.75	5010
846.886	4968
847.022	5151
847.158	5090
847.294	5052
847.429	5105
847.565	5105
847.701	5357
847.837	4908
847.972	4843
848.108	5022
848.244	4919
848.379	4786
848.515	4752
848.65	4721
848.786	4736
848.921	4786
849.057	4881
849.192	4908
849.328	4824
849.463	4870
849.598	4805
849.734	4736
849.869	4725
850.004	4649
850.14	4664
850.275	4611
850.41	4531
850.545	4561
850.68	4615
850.815	4634
850.95	4706
851.085	4850
851.22	4759
851.355	4714
851.49	4641
851.625	4656
851.76	4683
851.895	4618
852.03	4481
852.165	4660
852.299	4736
852.434	4771
852.569	4786
852.703	4793
852.838	4839
852.973	4923
853.107	4938
853.242	4774
853.376	4679
853.511	4550
853.645	4615
853.78	4812
853.914	4729
854.048	4729
854.183	4656
854.317	4698
854.451	4831
854.585	4679
854.72	4664
854.854	4740
854.988	4554
855.122	4706
855.256	4508
855.39	4664
855.524	4816
855.658	4752
855.792	4698
855.926	4809
856.06	4755
856.194	4816
856.327	4694
856.461	4634
856.595	4596
856.729	4653
856.862	4786
856.996	4683
857.13	4744
857.263	4759
857.397	4767
857.53	4668
857.664	4755
857.797	4729
857.931	4782
858.064	4691
858.197	4759
858.331	4702
858.464	4645
858.597	4584
858.731	4592
858.864	4645
858.997	4584
859.13	4660
859.263	4687
859.396	4664
859.529	4645
859.662	4641
859.795	4512
859.928	4611
860.061	4778
860.194	4805
860.327	4630
860.46	4634
860.592	4710
860.725	4755
860.858	4759
860.99	4599
861.123	4535
861.256	4535
861.388	4656
861.521	5417
861.653	4512
861.786	4466
861.918	4478
862.05	4546
862.183	4546
862.315	4611
862.447	4675
862.58	4577
862.712	4421
862.844	4333
862.976	4546
863.108	4432
863.24	4889
863.372	4280
863.504	4424
863.636	4451
863.768	4504
863.9	4481
864.032	4356
864.164	4443
864.296	4504
864.428	4527
864.559	4580
864.691	4558
864.823	4603
864.954	4466
865.086	4558
865.217	4481
865.349	4443
865.48	4455
865.612	4550
865.743	4611
865.875	4489
866.006	4409
866.137	4512
866.269	4485
866.4	4470
866.531	4451
866.662	4386
866.793	4405
866.924	4409
867.055	4519
867.186	4481
867.317	4432
867.448	4421
867.579	4413
867.71	4402
867.841	4405
867.972	4474
868.103	4474
868.233	4424
868.364	4493
868.495	4489
868.625	4729
868.756	4744
868.886	4580
869.017	4641
869.147	4782
869.278	4717
869.408	4702
869.539	4618
869.669	4748
869.799	4691
869.929	4755
870.06	4744
870.19	5014
870.32	4892
870.45	4953
870.58	5010
870.71	5071
870.84	5178
870.97	4930
871.1	4938
871.23	5170
871.36	5113
871.489	5022
871.619	5132
871.749	5121
871.879	5170
872.008	5201
872.138	5083
872.267	5037
872.397	4858
872.526	4850
872.656	4721
872.785	4824
872.915	5003
873.044	5010
873.173	5006
873.303	4934
873.432	4908
873.561	4995
873.69	4831
873.819	4873
873.948	4915
874.077	4854
874.206	4782
874.335	4816
874.464	4953
874.593	5056
874.722	5003
874.851	5121
874.979	5079
875.108	5060
875.237	4934
875.365	4927
875.494	4828
875.623	4999
875.751	4847
875.88	4870
876.008	5018
876.136	5018
876.265	5212
876.393	5368
876.521	5280
876.65	5250
876.778	5178
876.906	5064
877.034	5010
877.162	5071
877.29	5006
877.418	5006
877.546	5041
877.674	5079
877.802	5006
877.93	5025
878.058	4942
878.185	4858
878.313	4949
878.441	4927
878.568	4816
878.696	4881
878.824	4965
878.951	4995
879.079	5140
879.206	5311
879.333	5128
879.461	4980
879.588	5041
879.715	5124
879.842	5254
879.97	5052
880.097	4812
880.224	4740
880.351	4812
880.478	4824
880.605	4790
880.732	4831
880.859	5102
880.986	4930
881.112	4908
881.239	4793
881.366	4683
881.493	4618
881.619	4611
881.746	4607
881.872	4698
881.999	4653
882.125	4675
882.252	4793
882.378	4858
882.505	5010
882.631	4866
882.757	4626
882.883	4740
883.01	4740
883.136	4653
883.262	4592
883.388	4668
883.514	4839
883.64	4877
883.766	4793
883.892	4683
884.018	4782
884.143	4904
884.269	5041
884.395	4694
884.52	4679
884.646	4630
884.772	4561
884.897	4565
885.023	4721
885.148	4816
885.274	4896
885.399	4790
885.524	4729
885.65	4725
885.775	4721
885.9	4691
886.025	4885
886.15	4816
886.275	4694
886.4	4626
886.525	4687
886.65	4714
886.775	4698
886.9	4915
887.025	5045
887.149	4862
887.274	4653
887.399	4618
887.523	4599
887.648	4592
887.773	4584
887.897	4786
888.021	4816
888.146	4645
888.27	4858
888.395	4961
888.519	4790
888.643	4843
888.767	4870
888.891	4736
889.015	4596
889.139	4710
889.263	4596
889.387	4782
889.511	4877
889.635	4809
889.759	4611
889.883	4694
890.006	4736
890.13	4835
890.254	4630
890.377	4698
890.501	4531
890.624	4485
890.748	4599
890.871	4535
890.995	4466
891.118	4417
891.241	4523
891.364	4588
891.488	4626
891.611	4500
891.734	4577
891.857	4645
891.98	4535
892.103	4637
892.226	4599
892.349	4542
892.471	4409
892.594	4531
892.717	4565
892.839	4611
892.962	4630
893.085	4694
893.207	4596
893.33	4443
893.452	4542
893.575	4702
893.697	4542
893.819	4816
893.941	4835
894.064	4782
894.186	4660
894.308	4554
894.43	4740
894.552	4847
894.674	4763
894.796	4603
894.918	4634
895.04	4538
895.161	4740
895.283	4649
895.405	4584
895.526	4611
895.648	4675
895.769	4672
895.891	4733
896.012	4740
896.134	4755
896.255	4725
896.376	4645
896.498	4637
896.619	4679
896.74	4626
896.861	4634
896.982	4965
897.103	5071
897.224	4866
897.345	4740
897.466	4675
897.587	4790
897.708	4885
897.828	4828
897.949	4653
898.07	4634
898.19	4645
898.311	4854
898.431	4691
898.552	4774
898.672	4820
898.792	4790
898.913	4752
899.033	4645
899.153	4558
899.273	4485
899.393	4512
899.513	4554
899.633	4538
899.753	4558
899.873	4554
899.993	4626
900.113	4558
900.232	4611
900.352	4573
900.472	4508
900.591	4432
900.711	4500
900.83	4466
900.95	4645
901.069	4706
901.189	4603
901.308	4375
901.427	4363
901.546	4352
901.665	4485
901.784	4523
901.904	4379
902.023	4367
902.141	4196
902.26	4219
902.379	4291
902.498	4230
902.617	4230
902.735	4386
902.854	4436
902.973	4398
903.091	4253
903.21	4207
903.328	4306
903.446	4276
903.565	4268
903.683	4386
903.801	4303
903.919	4443
904.038	4424
904.156	4341
904.274	4447
904.392	4451
904.51	4417
904.627	4466
904.745	4561
904.863	4687
904.981	4424
905.098	4348
905.216	4375
905.334	4474
905.451	4474
905.569	4455
905.686	4531
905.803	4565
905.921	4432
906.038	4584
906.155	4470
906.272	4394
906.389	4500
906.506	4398
906.623	4379
906.74	4462
906.857	4318
906.974	4443
907.091	4546
907.208	4740
907.324	4561
907.441	4542
907.557	4341
907.674	4402
907.79	4341
907.907	4402
908.023	4519
908.139	4497
908.256	4440
908.372	4519
908.488	4485
908.604	4287
908.72	4329
908.836	4344
908.952	4341
909.068	4432
909.184	4599
909.3	4508
909.415	4603
909.531	4577
909.647	4341
909.762	4417
909.878	4424
909.993	4447
910.108	4413
910.224	4440
910.339	4493
910.454	4447
910.57	4428
910.685	4348
910.8	4691
910.915	4599
911.03	4516
911.145	4371
911.259	4356
911.374	4386
911.489	4291
911.604	4310
911.718	4185
911.833	4238
911.947	4112
912.062	4055
912.176	4181
912.291	4295
912.405	4299
912.519	4546
912.633	4512
912.748	4363
912.862	4291
912.976	4200
913.09	4112
913.204	4181
913.318	4181
913.431	4405
913.545	4383
913.659	4478
913.772	4390
913.886	4257
914	4223
914.113	4428
914.226	4462
914.34	4390
914.453	4257
914.566	4481
914.68	4314
914.793	4341
914.906	4204
915.019	4181
915.132	4078
915.245	4173
915.358	4246
915.47	4265
915.583	4265
915.696	4310
915.809	4432
915.921	4432
916.034	4284
916.146	4261
916.259	4211
916.371	4383
916.483	4337
916.595	4276
916.708	4371
916.82	4333
916.932	4337
917.044	4318
917.156	4367
917.268	4261
917.38	4276
917.491	4310
917.603	4375
917.715	4436
917.826	4436
917.938	4344
918.049	4291
918.161	4443
918.272	4542
918.384	4588
918.495	4481
918.606	4276
918.717	4246
918.828	4352
918.939	4383
919.05	4306
919.161	4318
919.272	4169
919.383	4238
919.494	4478
919.604	4641
919.715	4474
919.826	4390
919.936	4409
920.047	4508
920.157	4481
920.267	4725
920.378	4588
920.488	4580
920.598	4786
920.708	4900
920.818	4759
920.928	4740
921.038	4987
921.148	4923
921.258	4607
921.368	4554
921.477	4519
921.587	4466
921.697	4329
921.806	4584
921.916	4451
922.025	4314
922.134	4314
922.244	4249
922.353	4341
922.462	4173
922.571	4116
922.68	3994
922.789	3991
922.898	4013
923.007	4036
923.116	4086
923.224	4063
923.333	4120
923.442	3987
923.55	4006
923.659	4048
923.767	4086
923.876	4021
923.984	4109
924.092	3991
924.201	4086
924.309	4124
924.417	4097
924.525	4097
924.633	4120
924.741	4839
924.849	3937
924.956	4181
925.064	3968
925.172	3934
925.279	3956
925.387	4093
925.494	4112
925.602	4219
925.709	4185
925.816	4097
925.924	4173
926.031	4207
926.138	4147
926.245	4219
926.352	4109
926.459	4268
926.566	4348
926.673	4173
926.779	4051
926.886	4128
926.993	3964
927.099	4025
927.206	3964
927.312	3979
927.419	4101
927.525	4036
927.631	4078
927.737	3975
927.843	3987
927.95	3861
928.056	3964
928.162	4006
928.267	4040
928.373	4660
928.479	4135
928.585	3876
928.69	4051
928.796	4090
928.901	3983
929.007	3850
929.112	4044
929.218	3983
929.323	3945
929.428	3937
929.533	4109
929.638	3964
929.743	3991
929.848	4063
929.953	4036
930.058	3926
930.163	3838
930.267	3854
930.372	3991
930.477	3812
930.581	4128
930.685	3930
930.79	3823
930.894	3930
930.998	3865
931.103	4048
931.207	3682
931.311	3736
931.415	3629
931.519	3511
931.623	3523
