Data from test_V78500241_468.txt Node
Date: Fri Mar 25 16:52:15 CST 2022
User: usil
Spectrometer: V785-0024
Trigger mode: 0
Integration Time (sec): 4.000000E-1
Scans to average: 1
Nonlinearity correction enabled: false
Boxcar width: 0
Storing dark spectrum: false
XAxis mode: Wavelengths
Number of Pixels in Spectrum: 1024
>>>>>Begin Spectral Data<<<<<
801.071	8020
801.214	8058
801.356	7826
801.499	7837
801.641	7822
801.783	7856
801.926	7982
802.068	8062
802.211	7963
802.353	8046
802.496	7906
802.638	7974
802.78	7883
802.923	7913
803.065	7864
803.208	7887
803.35	7932
803.492	8062
803.635	8065
803.777	7982
803.919	8153
804.061	8381
804.204	8088
804.346	7986
804.488	7917
804.63	8107
804.773	8012
804.915	8069
805.057	8343
805.199	8183
805.341	8199
805.483	8161
805.626	8157
805.768	8020
805.91	8145
806.052	8153
806.194	8145
806.336	8317
806.478	8161
806.62	8043
806.762	8161
806.904	8221
807.046	8400
807.188	8248
807.33	8248
807.472	8252
807.614	8115
807.756	8111
807.898	7913
808.04	7849
808.182	7925
808.324	7925
808.465	7856
808.607	8065
808.749	8046
808.891	8221
809.033	8244
809.174	8199
809.316	8039
809.458	8046
809.6	8035
809.741	7913
809.883	8035
810.025	8126
810.166	8096
810.308	7997
810.45	7982
810.591	7830
810.733	7738
810.875	7677
811.016	7514
811.158	7563
811.299	7613
811.441	7734
811.582	7708
811.724	7552
811.865	7552
812.007	7590
812.148	7643
812.29	7624
812.431	7734
812.573	7883
812.714	7982
812.855	8244
812.997	8233
813.138	8332
813.279	8237
813.421	8168
813.562	8065
813.703	7898
813.845	7757
813.986	7495
814.127	7327
814.268	7305
814.41	7183
814.551	7156
814.692	7202
814.833	7095
814.974	7091
815.115	7141
815.256	6920
815.397	6909
815.539	6935
815.68	6833
815.821	6837
815.962	6901
816.103	6852
816.244	6806
816.385	6612
816.526	6631
816.666	6532
816.807	6369
816.948	6452
817.089	6498
817.23	6372
817.371	6410
817.512	6346
817.653	6448
817.793	6342
817.934	6365
818.075	6467
818.216	6490
818.356	6437
818.497	6209
818.638	6083
818.778	6144
818.919	6144
819.06	6182
819.2	6323
819.341	6277
819.481	6258
819.622	6490
819.762	6711
819.903	6646
820.043	6642
820.184	6540
820.324	6585
820.465	6684
820.605	6623
820.746	6631
820.886	6521
821.026	6726
821.167	6684
821.307	6795
821.447	6711
821.588	6627
821.728	6650
821.868	6471
822.008	6376
822.149	6353
822.289	6350
822.429	6163
822.569	6098
822.709	6140
822.849	6011
822.99	5901
823.13	5927
823.27	5950
823.41	5748
823.55	5741
823.69	5802
823.83	5798
823.97	5657
824.11	5501
824.25	5501
824.389	5592
824.529	5558
824.669	5589
824.809	5619
824.949	5676
825.089	5600
825.228	5581
825.368	5406
825.508	5364
825.648	5326
825.787	5368
825.927	5414
826.067	5284
826.206	5322
826.346	5406
826.485	5463
826.625	5414
826.765	5528
826.904	5471
827.044	5250
827.183	5201
827.323	5113
827.462	5223
827.601	5162
827.741	5121
827.88	5223
828.02	5132
828.159	5201
828.298	5315
828.437	5410
828.577	5292
828.716	5486
828.855	5303
828.994	5147
829.134	5151
829.273	5216
829.412	5155
829.551	5140
829.69	5162
829.829	5258
829.968	5379
830.107	5250
830.246	5246
830.385	5166
830.524	5170
830.663	5067
830.802	5033
830.941	4870
831.08	4892
831.219	4999
831.357	4980
831.496	5212
831.635	4957
831.774	4854
831.913	4870
832.051	4706
832.19	4778
832.329	4843
832.467	4729
832.606	4679
832.744	4755
832.883	4740
833.022	4733
833.16	4816
833.299	4812
833.437	4805
833.576	4793
833.714	4904
833.852	4870
833.991	4915
834.129	4942
834.267	4896
834.406	4900
834.544	4957
834.682	4946
834.821	4980
834.959	5185
835.097	4984
835.235	5155
835.373	5075
835.511	5094
835.65	5056
835.788	5006
835.926	4904
836.064	4881
836.202	4957
836.34	5155
836.478	5197
836.615	5079
836.753	5250
836.891	5254
837.029	5250
837.167	5189
837.305	5136
837.443	5151
837.58	5102
837.718	5242
837.856	5201
837.993	5151
838.131	5258
838.269	5201
838.406	5197
838.544	5132
838.681	5018
838.819	5006
838.956	4923
839.094	4938
839.231	4995
839.369	5124
839.506	5463
839.643	5223
839.781	5075
839.918	5048
840.055	5075
840.193	5124
840.33	5136
840.467	5151
840.604	5189
840.742	5455
840.879	5105
841.016	5109
841.153	5136
841.29	5368
841.427	5353
841.564	5307
841.701	5345
841.838	5299
841.975	5250
842.112	5258
842.249	5121
842.385	5132
842.522	5311
842.659	5181
842.796	5121
842.933	5174
843.069	5094
843.206	5185
843.343	5311
843.479	5250
843.616	5235
843.752	5018
843.889	4957
844.025	5223
844.162	5014
844.298	5193
844.435	5105
844.571	5025
844.708	5155
844.844	5307
844.98	5280
845.117	5315
845.253	5151
845.389	5064
845.525	5178
845.661	5102
845.798	5056
845.934	5151
846.07	5022
846.206	5201
846.342	5261
846.478	5181
846.614	5067
846.75	4968
846.886	4965
847.022	5117
847.158	5102
847.294	5086
847.429	5079
847.565	5064
847.701	5280
847.837	4858
847.972	4805
848.108	4957
848.244	4957
848.379	4797
848.515	4752
848.65	4687
848.786	4748
848.921	4801
849.057	4835
849.192	4885
849.328	4809
849.463	4850
849.598	4763
849.734	4736
849.869	4679
850.004	4603
850.14	4683
850.275	4634
850.41	4474
850.545	4573
850.68	4622
850.815	4630
850.95	4599
851.085	4847
851.22	4748
851.355	4653
851.49	4634
851.625	4660
851.76	4649
851.895	4538
852.03	4561
852.165	4668
852.299	4714
852.434	4812
852.569	4733
852.703	4797
852.838	4831
852.973	4934
853.107	4927
853.242	4744
853.376	4672
853.511	4546
853.645	4618
853.78	4831
853.914	4649
854.048	4645
854.183	4664
854.317	4698
854.451	4835
854.585	4675
854.72	4565
854.854	4740
854.988	4573
855.122	4622
855.256	4527
855.39	4634
855.524	4786
855.658	4725
855.792	4683
855.926	4782
856.06	4733
856.194	4809
856.327	4660
856.461	4588
856.595	4603
856.729	4641
856.862	4744
856.996	4706
857.13	4714
857.263	4748
857.397	4793
857.53	4637
857.664	4725
857.797	4782
857.931	4793
858.064	4683
858.197	4740
858.331	4630
858.464	4618
858.597	4512
858.731	4683
858.864	4641
858.997	4607
859.13	4668
859.263	4622
859.396	4698
859.529	4596
859.662	4592
859.795	4535
859.928	4637
860.061	4744
860.194	4755
860.327	4558
860.46	4577
860.592	4702
860.725	4725
860.858	4755
860.99	4573
861.123	4474
861.256	4573
861.388	4607
861.521	5357
861.653	4523
861.786	4443
861.918	4459
862.05	4493
862.183	4527
862.315	4569
862.447	4683
862.58	4607
862.712	4432
862.844	4314
862.976	4455
863.108	4459
863.24	4786
863.372	4348
863.504	4402
863.636	4379
863.768	4481
863.9	4398
864.032	4375
864.164	4398
864.296	4459
864.428	4550
864.559	4554
864.691	4538
864.823	4516
864.954	4493
865.086	4565
865.217	4428
865.349	4398
865.48	4504
865.612	4489
865.743	4622
865.875	4485
866.006	4481
866.137	4474
866.269	4413
866.4	4402
866.531	4405
866.662	4402
866.793	4405
866.924	4402
867.055	4489
867.186	4428
867.317	4432
867.448	4394
867.579	4398
867.71	4379
867.841	4379
867.972	4485
868.103	4447
868.233	4474
868.364	4421
868.495	4466
868.625	4691
868.756	4725
868.886	4561
869.017	4641
869.147	4744
869.278	4816
869.408	4706
869.539	4565
869.669	4706
869.799	4637
869.929	4710
870.06	4736
870.19	4911
870.32	4911
870.45	4892
870.58	4999
870.71	5117
870.84	5136
870.97	4923
871.1	4908
871.23	5147
871.36	5178
871.489	5022
871.619	5102
871.749	5045
871.879	5109
872.008	5242
872.138	5041
872.267	5022
872.397	4831
872.526	4767
872.656	4706
872.785	4831
872.915	4976
873.044	4999
873.173	4915
873.303	4976
873.432	4980
873.561	5014
873.69	4831
873.819	4870
873.948	4900
874.077	4816
874.206	4729
874.335	4797
874.464	4904
874.593	5086
874.722	4976
874.851	5105
874.979	5064
875.108	5048
875.237	4908
875.365	4896
875.494	4889
875.623	5018
875.751	4809
875.88	4911
876.008	4957
876.136	5056
876.265	5151
876.393	5341
876.521	5258
876.65	5216
876.778	5128
876.906	5090
877.034	5045
877.162	5056
877.29	5037
877.418	5033
877.546	5060
877.674	5048
877.802	5025
877.93	5045
878.058	4946
878.185	4904
878.313	4946
878.441	4976
878.568	4877
878.696	4915
878.824	5037
878.951	4991
879.079	5151
879.206	5280
879.333	5086
879.461	5014
879.588	4980
879.715	5086
879.842	5254
879.97	5006
880.097	4797
880.224	4809
880.351	4774
880.478	4824
880.605	4854
880.732	4812
880.859	5105
880.986	4896
881.112	4919
881.239	4812
881.366	4660
881.493	4611
881.619	4569
881.746	4592
881.872	4687
881.999	4641
882.125	4687
882.252	4774
882.378	4809
882.505	4953
882.631	4793
882.757	4694
882.883	4729
883.01	4687
883.136	4645
883.262	4679
883.388	4618
883.514	4843
883.64	4889
883.766	4797
883.892	4641
884.018	4691
884.143	4934
884.269	4957
884.395	4672
884.52	4622
884.646	4668
884.772	4577
884.897	4569
885.023	4660
885.148	4801
885.274	4843
885.399	4786
885.524	4740
885.65	4721
885.775	4729
885.9	4675
886.025	4915
886.15	4820
886.275	4755
886.4	4672
886.525	4744
886.65	4694
886.775	4694
886.9	4892
887.025	5090
887.149	4839
887.274	4668
887.399	4573
887.523	4592
887.648	4634
887.773	4603
887.897	4790
888.021	4801
888.146	4725
888.27	4831
888.395	4889
888.519	4786
888.643	4782
888.767	4839
888.891	4698
889.015	4561
889.139	4664
889.263	4611
889.387	4771
889.511	4896
889.635	4816
889.759	4584
889.883	4672
890.006	4687
890.13	4816
890.254	4626
890.377	4630
890.501	4500
890.624	4554
890.748	4618
890.871	4462
890.995	4493
891.118	4428
891.241	4500
891.364	4535
891.488	4622
891.611	4504
891.734	4542
891.857	4569
891.98	4554
892.103	4645
892.226	4622
892.349	4596
892.471	4428
892.594	4512
892.717	4592
892.839	4584
892.962	4584
893.085	4641
893.207	4588
893.33	4440
893.452	4519
893.575	4698
893.697	4561
893.819	4820
893.941	4805
894.064	4759
894.186	4584
894.308	4611
894.43	4759
894.552	4793
894.674	4721
894.796	4565
894.918	4641
895.04	4611
895.161	4752
895.283	4702
895.405	4588
895.526	4615
895.648	4679
895.769	4691
895.891	4706
896.012	4763
896.134	4725
896.255	4664
896.376	4649
896.498	4611
896.619	4687
896.74	4577
896.861	4660
896.982	4923
897.103	5102
897.224	4793
897.345	4729
897.466	4660
897.587	4771
897.708	4835
897.828	4767
897.949	4687
898.07	4580
898.19	4622
898.311	4828
898.431	4714
898.552	4691
898.672	4797
898.792	4805
898.913	4748
899.033	4656
899.153	4554
899.273	4443
899.393	4451
899.513	4519
899.633	4489
899.753	4558
899.873	4500
899.993	4615
900.113	4493
900.232	4577
900.352	4565
900.472	4493
900.591	4413
900.711	4546
900.83	4489
900.95	4607
901.069	4675
901.189	4531
901.308	4375
901.427	4333
901.546	4375
901.665	4459
901.784	4504
901.904	4390
902.023	4363
902.141	4166
902.26	4147
902.379	4310
902.498	4230
902.617	4207
902.735	4352
902.854	4367
902.973	4329
903.091	4177
903.21	4200
903.328	4261
903.446	4211
903.565	4291
903.683	4367
903.801	4261
903.919	4424
904.038	4466
904.156	4318
904.274	4413
904.392	4379
904.51	4409
904.627	4459
904.745	4596
904.863	4645
904.981	4413
905.098	4284
905.216	4379
905.334	4436
905.451	4485
905.569	4409
905.686	4580
905.803	4558
905.921	4451
906.038	4531
906.155	4489
906.272	4367
906.389	4417
906.506	4356
906.623	4344
906.74	4367
906.857	4344
906.974	4421
907.091	4558
907.208	4656
907.324	4554
907.441	4542
907.557	4379
907.674	4363
907.79	4341
907.907	4352
908.023	4500
908.139	4504
908.256	4421
908.372	4466
908.488	4451
908.604	4375
908.72	4318
908.836	4428
908.952	4371
909.068	4424
909.184	4573
909.3	4459
909.415	4584
909.531	4546
909.647	4341
909.762	4375
909.878	4360
909.993	4451
910.108	4459
910.224	4371
910.339	4466
910.454	4440
910.57	4356
910.685	4314
910.8	4679
910.915	4607
911.03	4485
911.145	4318
911.259	4325
911.374	4371
911.489	4303
911.604	4287
911.718	4116
911.833	4196
911.947	4082
912.062	4044
912.176	4215
912.291	4234
912.405	4253
912.519	4447
912.633	4478
912.748	4363
912.862	4325
912.976	4219
913.09	4124
913.204	4192
913.318	4272
913.431	4360
913.545	4394
913.659	4466
913.772	4356
913.886	4284
914	4238
914.113	4383
914.226	4459
914.34	4356
914.453	4238
914.566	4398
914.68	4318
914.793	4341
914.906	4177
915.019	4124
915.132	4109
915.245	4158
915.358	4169
915.47	4276
915.583	4306
915.696	4272
915.809	4436
915.921	4455
916.034	4215
916.146	4295
916.259	4276
916.371	4375
916.483	4348
916.595	4215
916.708	4295
916.82	4329
916.932	4276
917.044	4360
917.156	4314
917.268	4234
917.38	4280
917.491	4246
917.603	4333
917.715	4405
917.826	4443
917.938	4333
918.049	4284
918.161	4360
918.272	4550
918.384	4512
918.495	4459
918.606	4303
918.717	4211
918.828	4379
918.939	4371
919.05	4272
919.161	4341
919.272	4169
919.383	4242
919.494	4424
919.604	4599
919.715	4417
919.826	4337
919.936	4428
920.047	4527
920.157	4485
920.267	4649
920.378	4577
920.488	4500
920.598	4729
920.708	4824
920.818	4778
920.928	4763
921.038	4987
921.148	4911
921.258	4622
921.368	4565
921.477	4561
921.587	4504
921.697	4386
921.806	4580
921.916	4451
922.025	4265
922.134	4242
922.244	4249
922.353	4356
922.462	4112
922.571	4120
922.68	3987
922.789	3922
922.898	4032
923.007	3994
923.116	4086
923.224	4078
923.333	4082
923.442	3983
923.55	3968
923.659	4067
923.767	4131
923.876	4021
923.984	4090
924.092	4002
924.201	4082
924.309	4071
924.417	4139
924.525	4044
924.633	4139
924.741	5048
924.849	3960
924.956	4150
925.064	3956
925.172	3915
925.279	3960
925.387	4059
925.494	4036
925.602	4192
925.709	4162
925.816	4032
925.924	4105
926.031	4162
926.138	4173
926.245	4181
926.352	4086
926.459	4268
926.566	4306
926.673	4143
926.779	4093
926.886	4029
926.993	3968
927.099	3991
927.206	3915
927.312	3956
927.419	4059
927.525	4017
927.631	4097
927.737	4013
927.843	3941
927.95	3846
928.056	3968
928.162	3983
928.267	4074
928.373	4752
928.479	4120
928.585	3846
928.69	4017
928.796	4051
928.901	3972
929.007	3816
929.112	3991
929.218	3975
929.323	3922
929.428	3979
929.533	4143
929.638	3915
929.743	3941
929.848	4101
929.953	3994
930.058	3926
930.163	3774
930.267	3819
930.372	3953
930.477	3835
930.581	4086
930.685	3972
930.79	3812
930.894	3876
930.998	3846
931.103	4032
931.207	3682
931.311	3656
931.415	3603
931.519	3500
931.623	3553
