Data from test_V78500241_1520.txt Node
Date: Fri Mar 25 16:59:34 CST 2022
User: usil
Spectrometer: V785-0024
Trigger mode: 0
Integration Time (sec): 4.000000E-1
Scans to average: 1
Nonlinearity correction enabled: false
Boxcar width: 0
Storing dark spectrum: false
XAxis mode: Wavelengths
Number of Pixels in Spectrum: 1024
>>>>>Begin Spectral Data<<<<<
801.071	7974
801.214	8031
801.356	7887
801.499	7875
801.641	7757
801.783	7818
801.926	7913
802.068	7959
802.211	7970
802.353	7967
802.496	7890
802.638	7871
802.78	7928
802.923	7879
803.065	7909
803.208	7894
803.35	7989
803.492	8062
803.635	8157
803.777	8096
803.919	8054
804.061	8457
804.204	8103
804.346	8065
804.488	8012
804.63	8065
804.773	8031
804.915	8119
805.057	8240
805.199	8195
805.341	8195
805.483	8275
805.626	8259
805.768	8096
805.91	8187
806.052	8256
806.194	8096
806.336	8195
806.478	8111
806.62	8073
806.762	8187
806.904	8313
807.046	8465
807.188	8389
807.33	8355
807.472	8324
807.614	8206
807.756	8142
807.898	8024
808.04	7925
808.182	7913
808.324	7860
808.465	7906
808.607	8050
808.749	8119
808.891	8275
809.033	8400
809.174	8279
809.316	8069
809.458	8096
809.6	8039
809.741	8020
809.883	8046
810.025	8024
810.166	8043
810.308	7978
810.45	7967
810.591	7814
810.733	7833
810.875	7666
811.016	7476
811.158	7480
811.299	7540
811.441	7750
811.582	7685
811.724	7597
811.865	7506
812.007	7571
812.148	7620
812.29	7715
812.431	7712
812.573	7932
812.714	8031
812.855	8065
812.997	8195
813.138	8366
813.279	8221
813.421	8088
813.562	7947
813.703	7833
813.845	7727
813.986	7419
814.127	7247
814.268	7217
814.41	7213
814.551	7190
814.692	7240
814.833	7099
814.974	7057
815.115	7164
815.256	6996
815.397	6875
815.539	6905
815.68	6844
815.821	6745
815.962	6848
816.103	6890
816.244	6700
816.385	6662
816.526	6597
816.666	6475
816.807	6346
816.948	6460
817.089	6464
817.23	6388
817.371	6372
817.512	6369
817.653	6346
817.793	6369
817.934	6456
818.075	6498
818.216	6426
818.356	6388
818.497	6254
818.638	6159
818.778	6144
818.919	6136
819.06	6167
819.2	6353
819.341	6323
819.481	6399
819.622	6547
819.762	6711
819.903	6669
820.043	6582
820.184	6608
820.324	6574
820.465	6726
820.605	6711
820.746	6654
820.886	6498
821.026	6608
821.167	6696
821.307	6795
821.447	6810
821.588	6711
821.728	6593
821.868	6517
822.008	6334
822.149	6388
822.289	6342
822.429	6121
822.569	6083
822.709	6114
822.849	5942
822.99	5885
823.13	5916
823.27	5935
823.41	5771
823.55	5752
823.69	5756
823.83	5741
823.97	5653
824.11	5512
824.25	5528
824.389	5512
824.529	5543
824.669	5512
824.809	5619
824.949	5668
825.089	5589
825.228	5581
825.368	5414
825.508	5383
825.648	5345
825.787	5402
825.927	5376
826.067	5269
826.206	5307
826.346	5364
826.485	5349
826.625	5410
826.765	5554
826.904	5486
827.044	5250
827.183	5136
827.323	5159
827.462	5254
827.601	5143
827.741	5231
827.88	5242
828.02	5140
828.159	5265
828.298	5227
828.437	5364
828.577	5269
828.716	5459
828.855	5280
828.994	5162
829.134	5174
829.273	5174
829.412	5083
829.551	5136
829.69	5166
829.829	5239
829.968	5402
830.107	5265
830.246	5280
830.385	5201
830.524	5121
830.663	5067
830.802	4980
830.941	4923
831.08	4847
831.219	4999
831.357	4991
831.496	5155
831.635	4915
831.774	4812
831.913	4847
832.051	4721
832.19	4725
832.329	4847
832.467	4668
832.606	4634
832.744	4691
832.883	4679
833.022	4774
833.16	4771
833.299	4812
833.437	4782
833.576	4854
833.714	4881
833.852	4862
833.991	4873
834.129	4946
834.267	4968
834.406	4908
834.544	4946
834.682	4949
834.821	4957
834.959	5193
835.097	4984
835.235	5155
835.373	5086
835.511	5132
835.65	5033
835.788	4995
835.926	4854
836.064	4854
836.202	4892
836.34	5155
836.478	5223
836.615	5083
836.753	5178
836.891	5254
837.029	5201
837.167	5159
837.305	5159
837.443	5140
837.58	5117
837.718	5280
837.856	5204
837.993	5170
838.131	5208
838.269	5239
838.406	5254
838.544	5159
838.681	5018
838.819	4980
838.956	4881
839.094	4908
839.231	4984
839.369	5067
839.506	5410
839.643	5296
839.781	5086
839.918	5045
840.055	5098
840.193	5079
840.33	5064
840.467	5121
840.604	5159
840.742	5471
840.879	5075
841.016	5083
841.153	5185
841.29	5368
841.427	5311
841.564	5341
841.701	5341
841.838	5254
841.975	5212
842.112	5250
842.249	5060
842.385	5109
842.522	5345
842.659	5143
842.796	5162
842.933	5189
843.069	5128
843.206	5136
843.343	5250
843.479	5277
843.616	5265
843.752	5067
843.889	5010
844.025	5201
844.162	5022
844.298	5189
844.435	5098
844.571	5037
844.708	5193
844.844	5345
844.98	5322
845.117	5299
845.253	5121
845.389	5045
845.525	5201
845.661	5136
845.798	5010
845.934	5067
846.07	5037
846.206	5181
846.342	5269
846.478	5155
846.614	4999
846.75	4961
846.886	4942
847.022	5086
847.158	5041
847.294	5113
847.429	5113
847.565	5037
847.701	5273
847.837	4873
847.972	4828
848.108	4953
848.244	4965
848.379	4694
848.515	4702
848.65	4736
848.786	4752
848.921	4774
849.057	4850
849.192	4908
849.328	4786
849.463	4809
849.598	4828
849.734	4748
849.869	4717
850.004	4656
850.14	4653
850.275	4592
850.41	4493
850.545	4615
850.68	4611
850.815	4599
850.95	4645
851.085	4801
851.22	4774
851.355	4653
851.49	4630
851.625	4630
851.76	4656
851.895	4554
852.03	4538
852.165	4668
852.299	4717
852.434	4752
852.569	4755
852.703	4752
852.838	4816
852.973	4930
853.107	4847
853.242	4748
853.376	4721
853.511	4558
853.645	4592
853.78	4782
853.914	4702
854.048	4660
854.183	4649
854.317	4675
854.451	4767
854.585	4694
854.72	4634
854.854	4725
854.988	4637
855.122	4637
855.256	4508
855.39	4649
855.524	4801
855.658	4710
855.792	4683
855.926	4691
856.06	4752
856.194	4790
856.327	4637
856.461	4596
856.595	4573
856.729	4679
856.862	4771
856.996	4698
857.13	4717
857.263	4725
857.397	4782
857.53	4626
857.664	4721
857.797	4733
857.931	4816
858.064	4687
858.197	4710
858.331	4656
858.464	4634
858.597	4531
858.731	4615
858.864	4603
858.997	4569
859.13	4637
859.263	4634
859.396	4710
859.529	4558
859.662	4588
859.795	4466
859.928	4637
860.061	4691
860.194	4771
860.327	4603
860.46	4561
860.592	4702
860.725	4710
860.858	4740
860.99	4565
861.123	4523
861.256	4516
861.388	4618
861.521	5315
861.653	4493
861.786	4432
861.918	4466
862.05	4493
862.183	4561
862.315	4622
862.447	4634
862.58	4558
862.712	4371
862.844	4287
862.976	4474
863.108	4459
863.24	4759
863.372	4310
863.504	4375
863.636	4428
863.768	4497
863.9	4451
864.032	4348
864.164	4402
864.296	4489
864.428	4538
864.559	4531
864.691	4527
864.823	4508
864.954	4489
865.086	4527
865.217	4470
865.349	4379
865.48	4440
865.612	4516
865.743	4626
865.875	4481
866.006	4424
866.137	4474
866.269	4386
866.4	4398
866.531	4421
866.662	4367
866.793	4417
866.924	4421
867.055	4478
867.186	4455
867.317	4390
867.448	4371
867.579	4398
867.71	4405
867.841	4394
867.972	4485
868.103	4493
868.233	4478
868.364	4424
868.495	4481
868.625	4683
868.756	4725
868.886	4550
869.017	4603
869.147	4793
869.278	4790
869.408	4653
869.539	4603
869.669	4702
869.799	4622
869.929	4702
870.06	4702
870.19	4930
870.32	4934
870.45	4965
870.58	4999
870.71	5117
870.84	5067
870.97	4949
871.1	4850
871.23	5132
871.36	5147
871.489	5010
871.619	5094
871.749	5102
871.879	5159
872.008	5132
872.138	5018
872.267	4965
872.397	4889
872.526	4820
872.656	4729
872.785	4759
872.915	4911
873.044	5033
873.173	4919
873.303	4942
873.432	4919
873.561	4942
873.69	4896
873.819	4847
873.948	4873
874.077	4828
874.206	4748
874.335	4809
874.464	4927
874.593	5037
874.722	4938
874.851	5090
874.979	5010
875.108	4991
875.237	4915
875.365	4873
875.494	4892
875.623	4923
875.751	4820
875.88	4866
876.008	4949
876.136	4984
876.265	5181
876.393	5292
876.521	5201
876.65	5208
876.778	5162
876.906	5075
877.034	4984
877.162	4984
877.29	5010
877.418	5045
877.546	5075
877.674	5037
877.802	5003
877.93	5029
878.058	4904
878.185	4820
878.313	4919
878.441	4938
878.568	4809
878.696	4911
878.824	4938
878.951	4987
879.079	5132
879.206	5303
879.333	5170
879.461	4972
879.588	4991
879.715	5079
879.842	5201
879.97	4987
880.097	4797
880.224	4755
880.351	4839
880.478	4801
880.605	4824
880.732	4786
880.859	5094
880.986	4885
881.112	4873
881.239	4824
881.366	4645
881.493	4634
881.619	4565
881.746	4634
881.872	4641
881.999	4637
882.125	4672
882.252	4748
882.378	4866
882.505	4946
882.631	4771
882.757	4691
882.883	4706
883.01	4752
883.136	4611
883.262	4542
883.388	4580
883.514	4782
883.64	4854
883.766	4805
883.892	4660
884.018	4687
884.143	4892
884.269	4980
884.395	4687
884.52	4653
884.646	4672
884.772	4596
884.897	4519
885.023	4668
885.148	4767
885.274	4858
885.399	4809
885.524	4672
885.65	4717
885.775	4714
885.9	4698
886.025	4850
886.15	4805
886.275	4733
886.4	4618
886.525	4733
886.65	4694
886.775	4698
886.9	4946
887.025	5006
887.149	4790
887.274	4649
887.399	4584
887.523	4599
887.648	4565
887.773	4580
887.897	4755
888.021	4786
888.146	4714
888.27	4824
888.395	4908
888.519	4820
888.643	4782
888.767	4801
888.891	4714
889.015	4584
889.139	4660
889.263	4561
889.387	4717
889.511	4843
889.635	4816
889.759	4622
889.883	4611
890.006	4710
890.13	4816
890.254	4630
890.377	4679
890.501	4516
890.624	4504
890.748	4569
890.871	4523
890.995	4409
891.118	4413
891.241	4504
891.364	4588
891.488	4607
891.611	4531
891.734	4538
891.857	4611
891.98	4546
892.103	4588
892.226	4550
892.349	4558
892.471	4409
892.594	4565
892.717	4615
892.839	4561
892.962	4558
893.085	4649
893.207	4603
893.33	4497
893.452	4538
893.575	4706
893.697	4592
893.819	4755
893.941	4858
894.064	4748
894.186	4573
894.308	4599
894.43	4782
894.552	4771
894.674	4767
894.796	4542
894.918	4596
895.04	4531
895.161	4698
895.283	4622
895.405	4596
895.526	4641
895.648	4630
895.769	4714
895.891	4725
896.012	4736
896.134	4740
896.255	4683
896.376	4599
896.498	4618
896.619	4618
896.74	4645
896.861	4660
896.982	4892
897.103	5052
897.224	4805
897.345	4740
897.466	4691
897.587	4725
897.708	4839
897.828	4771
897.949	4637
898.07	4577
898.19	4687
898.311	4820
898.431	4645
898.552	4740
898.672	4831
898.792	4778
898.913	4725
899.033	4618
899.153	4523
899.273	4443
899.393	4481
899.513	4523
899.633	4561
899.753	4558
899.873	4504
899.993	4592
900.113	4508
900.232	4588
900.352	4523
900.472	4478
900.591	4390
900.711	4451
900.83	4424
900.95	4641
901.069	4668
901.189	4527
901.308	4390
901.427	4310
901.546	4367
901.665	4497
901.784	4523
901.904	4375
902.023	4310
902.141	4181
902.26	4185
902.379	4272
902.498	4261
902.617	4234
902.735	4394
902.854	4402
902.973	4356
903.091	4238
903.21	4200
903.328	4306
903.446	4249
903.565	4249
903.683	4310
903.801	4253
903.919	4375
904.038	4413
904.156	4341
904.274	4443
904.392	4398
904.51	4455
904.627	4443
904.745	4554
904.863	4607
904.981	4394
905.098	4322
905.216	4341
905.334	4409
905.451	4447
905.569	4398
905.686	4527
905.803	4542
905.921	4367
906.038	4504
906.155	4390
906.272	4360
906.389	4466
906.506	4344
906.623	4337
906.74	4352
906.857	4303
906.974	4360
907.091	4573
907.208	4691
907.324	4611
907.441	4497
907.557	4325
907.674	4295
907.79	4280
907.907	4329
908.023	4481
908.139	4519
908.256	4436
908.372	4470
908.488	4443
908.604	4413
908.72	4306
908.836	4379
908.952	4360
909.068	4428
909.184	4550
909.3	4478
909.415	4558
909.531	4535
909.647	4375
909.762	4371
909.878	4390
909.993	4428
910.108	4462
910.224	4424
910.339	4489
910.454	4394
910.57	4360
910.685	4280
910.8	4615
910.915	4603
911.03	4481
911.145	4333
911.259	4341
911.374	4379
911.489	4287
911.604	4299
911.718	4169
911.833	4147
911.947	4093
912.062	3994
912.176	4196
912.291	4219
912.405	4246
912.519	4470
912.633	4478
912.748	4344
912.862	4306
912.976	4200
913.09	4105
913.204	4177
913.318	4268
913.431	4348
913.545	4367
913.659	4451
913.772	4356
913.886	4291
914	4253
914.113	4379
914.226	4459
914.34	4337
914.453	4234
914.566	4428
914.68	4303
914.793	4272
914.906	4196
915.019	4109
915.132	4093
915.245	4143
915.358	4227
915.47	4200
915.583	4207
915.696	4284
915.809	4394
915.921	4443
916.034	4261
916.146	4207
916.259	4227
916.371	4322
916.483	4325
916.595	4265
916.708	4272
916.82	4303
916.932	4287
917.044	4299
917.156	4276
917.268	4238
917.38	4261
917.491	4276
917.603	4329
917.715	4421
917.826	4451
917.938	4333
918.049	4223
918.161	4363
918.272	4508
918.384	4527
918.495	4440
918.606	4234
918.717	4230
918.828	4333
918.939	4329
919.05	4253
919.161	4325
919.272	4112
919.383	4200
919.494	4417
919.604	4622
919.715	4424
919.826	4371
919.936	4386
920.047	4470
920.157	4481
920.267	4672
920.378	4527
920.488	4523
920.598	4706
920.708	4885
920.818	4774
920.928	4744
921.038	4919
921.148	4900
921.258	4656
921.368	4558
921.477	4516
921.587	4470
921.697	4394
921.806	4538
921.916	4436
922.025	4268
922.134	4246
922.244	4200
922.353	4356
922.462	4131
922.571	4150
922.68	4010
922.789	3960
922.898	4021
923.007	4006
923.116	4090
923.224	4051
923.333	4044
923.442	4002
923.55	4017
923.659	4040
923.767	4128
923.876	3979
923.984	4116
924.092	3960
924.201	4067
924.309	4112
924.417	4131
924.525	4093
924.633	4078
924.741	4870
924.849	3899
924.956	4143
925.064	3968
925.172	3869
925.279	3934
925.387	4017
925.494	4063
925.602	4158
925.709	4177
925.816	4055
925.924	4044
926.031	4238
926.138	4154
926.245	4181
926.352	4105
926.459	4215
926.566	4310
926.673	4150
926.779	4044
926.886	4067
926.993	3949
927.099	3945
927.206	3941
927.312	3911
927.419	4074
927.525	4006
927.631	4128
927.737	3960
927.843	3930
927.95	3854
928.056	3911
928.162	3975
928.267	4063
928.373	4584
928.479	4082
928.585	3873
928.69	4006
928.796	4082
928.901	3945
929.007	3850
929.112	3994
929.218	3975
929.323	3922
929.428	3926
929.533	4097
929.638	3907
929.743	3930
929.848	4029
929.953	4013
930.058	3888
930.163	3781
930.267	3838
930.372	3945
930.477	3793
930.581	4078
930.685	3953
930.79	3804
930.894	3869
930.998	3903
931.103	4013
931.207	3705
931.311	3656
931.415	3694
931.519	3523
931.623	3564
