Data from test_V78500241_2257.txt Node
Date: Fri Mar 25 17:04:41 CST 2022
User: usil
Spectrometer: V785-0024
Trigger mode: 0
Integration Time (sec): 4.000000E-1
Scans to average: 1
Nonlinearity correction enabled: false
Boxcar width: 0
Storing dark spectrum: false
XAxis mode: Wavelengths
Number of Pixels in Spectrum: 1024
>>>>>Begin Spectral Data<<<<<
801.071	7955
801.214	7967
801.356	7883
801.499	7898
801.641	7826
801.783	7807
801.926	8024
802.068	7997
802.211	7913
802.353	7982
802.496	7792
802.638	7875
802.78	7909
802.923	7947
803.065	7940
803.208	7875
803.35	7944
803.492	8149
803.635	8119
803.777	8039
803.919	8119
804.061	8450
804.204	8126
804.346	8077
804.488	7978
804.63	8153
804.773	8020
804.915	8039
805.057	8275
805.199	8092
805.341	8168
805.483	8214
805.626	8290
805.768	8138
805.91	8218
806.052	8233
806.194	8100
806.336	8256
806.478	8077
806.62	8031
806.762	8168
806.904	8256
807.046	8499
807.188	8339
807.33	8290
807.472	8324
807.614	8149
807.756	8161
807.898	8020
808.04	7868
808.182	7875
808.324	7856
808.465	7902
808.607	8081
808.749	8096
808.891	8221
809.033	8271
809.174	8172
809.316	8100
809.458	8050
809.6	8077
809.741	8008
809.883	8054
810.025	8073
810.166	8077
810.308	7967
810.45	7963
810.591	7830
810.733	7757
810.875	7696
811.016	7563
811.158	7468
811.299	7518
811.441	7670
811.582	7693
811.724	7556
811.865	7521
812.007	7605
812.148	7590
812.29	7636
812.431	7765
812.573	7868
812.714	7940
812.855	8130
812.997	8191
813.138	8282
813.279	8111
813.421	8050
813.562	7963
813.703	7784
813.845	7769
813.986	7441
814.127	7266
814.268	7164
814.41	7282
814.551	7129
814.692	7183
814.833	7019
814.974	7069
815.115	7137
815.256	7015
815.397	6916
815.539	6958
815.68	6776
815.821	6791
815.962	6852
816.103	6833
816.244	6703
816.385	6642
816.526	6574
816.666	6464
816.807	6319
816.948	6418
817.089	6494
817.23	6445
817.371	6391
817.512	6372
817.653	6376
817.793	6395
817.934	6410
818.075	6441
818.216	6467
818.356	6395
818.497	6266
818.638	6175
818.778	6152
818.919	6148
819.06	6213
819.2	6350
819.341	6296
819.481	6353
819.622	6593
819.762	6730
819.903	6684
820.043	6620
820.184	6578
820.324	6616
820.465	6684
820.605	6673
820.746	6604
820.886	6502
821.026	6673
821.167	6715
821.307	6863
821.447	6726
821.588	6734
821.728	6639
821.868	6498
822.008	6289
822.149	6361
822.289	6376
822.429	6171
822.569	6102
822.709	6098
822.849	5931
822.99	5889
823.13	5920
823.27	5920
823.41	5775
823.55	5798
823.69	5726
823.83	5809
823.97	5661
824.11	5471
824.25	5452
824.389	5505
824.529	5585
824.669	5558
824.809	5638
824.949	5596
825.089	5573
825.228	5558
825.368	5429
825.508	5330
825.648	5307
825.787	5402
825.927	5364
826.067	5284
826.206	5318
826.346	5383
826.485	5410
826.625	5414
826.765	5543
826.904	5493
827.044	5181
827.183	5208
827.323	5155
827.462	5277
827.601	5201
827.741	5155
827.88	5212
828.02	5094
828.159	5265
828.298	5277
828.437	5318
828.577	5250
828.716	5505
828.855	5315
828.994	5166
829.134	5193
829.273	5197
829.412	5143
829.551	5086
829.69	5166
829.829	5189
829.968	5379
830.107	5311
830.246	5265
830.385	5140
830.524	5140
830.663	5060
830.802	4934
830.941	4858
831.08	4881
831.219	5014
831.357	4965
831.496	5166
831.635	4938
831.774	4858
831.913	4831
832.051	4729
832.19	4782
832.329	4847
832.467	4641
832.606	4615
832.744	4736
832.883	4691
833.022	4710
833.16	4763
833.299	4801
833.437	4748
833.576	4870
833.714	4801
833.852	4873
833.991	4885
834.129	4923
834.267	4972
834.406	4892
834.544	4957
834.682	4949
834.821	4984
834.959	5162
835.097	4987
835.235	5083
835.373	5052
835.511	5083
835.65	5060
835.788	4999
835.926	4870
836.064	4870
836.202	4904
836.34	5197
836.478	5208
836.615	5136
836.753	5208
836.891	5299
837.029	5299
837.167	5231
837.305	5155
837.443	5185
837.58	5090
837.718	5258
837.856	5155
837.993	5109
838.131	5227
838.269	5239
838.406	5193
838.544	5204
838.681	4984
838.819	5003
838.956	4885
839.094	4889
839.231	4995
839.369	5102
839.506	5395
839.643	5280
839.781	5003
839.918	4976
840.055	5124
840.193	5090
840.33	5098
840.467	5113
840.604	5216
840.742	5395
840.879	5102
841.016	5075
841.153	5162
841.29	5383
841.427	5303
841.564	5318
841.701	5349
841.838	5246
841.975	5235
842.112	5254
842.249	5117
842.385	5056
842.522	5299
842.659	5155
842.796	5147
842.933	5181
843.069	5166
843.206	5109
843.343	5258
843.479	5254
843.616	5280
843.752	5014
843.889	5006
844.025	5174
844.162	5029
844.298	5178
844.435	5098
844.571	5079
844.708	5201
844.844	5299
844.98	5349
845.117	5307
845.253	5132
845.389	5071
845.525	5235
845.661	5124
845.798	5067
845.934	5117
846.07	5067
846.206	5170
846.342	5311
846.478	5143
846.614	5006
846.75	4999
846.886	4904
847.022	5155
847.158	5029
847.294	5102
847.429	5132
847.565	5056
847.701	5269
847.837	4900
847.972	4839
848.108	4930
848.244	4946
848.379	4752
848.515	4714
848.65	4729
848.786	4759
848.921	4782
849.057	4862
849.192	4885
849.328	4828
849.463	4797
849.598	4801
849.734	4755
849.869	4706
850.004	4630
850.14	4618
850.275	4611
850.41	4538
850.545	4569
850.68	4569
850.815	4573
850.95	4618
851.085	4816
851.22	4733
851.355	4714
851.49	4596
851.625	4611
851.76	4634
851.895	4550
852.03	4535
852.165	4607
852.299	4698
852.434	4763
852.569	4759
852.703	4755
852.838	4771
852.973	4965
853.107	4942
853.242	4740
853.376	4645
853.511	4584
853.645	4596
853.78	4801
853.914	4721
854.048	4691
854.183	4615
854.317	4725
854.451	4835
854.585	4694
854.72	4580
854.854	4793
854.988	4622
855.122	4607
855.256	4523
855.39	4675
855.524	4782
855.658	4698
855.792	4691
855.926	4748
856.06	4782
856.194	4790
856.327	4706
856.461	4653
856.595	4588
856.729	4607
856.862	4721
856.996	4634
857.13	4733
857.263	4748
857.397	4793
857.53	4698
857.664	4755
857.797	4771
857.931	4774
858.064	4649
858.197	4786
858.331	4618
858.464	4558
858.597	4527
858.731	4626
858.864	4618
858.997	4592
859.13	4634
859.263	4634
859.396	4660
859.529	4565
859.662	4531
859.795	4558
859.928	4622
860.061	4786
860.194	4725
860.327	4618
860.46	4577
860.592	4714
860.725	4687
860.858	4721
860.99	4565
861.123	4462
861.256	4508
861.388	4630
861.521	5315
861.653	4500
861.786	4466
861.918	4428
862.05	4519
862.183	4569
862.315	4622
862.447	4656
862.58	4542
862.712	4375
862.844	4337
862.976	4451
863.108	4424
863.24	4915
863.372	4318
863.504	4474
863.636	4424
863.768	4440
863.9	4405
864.032	4329
864.164	4409
864.296	4455
864.428	4493
864.559	4531
864.691	4607
864.823	4531
864.954	4466
865.086	4523
865.217	4436
865.349	4424
865.48	4440
865.612	4470
865.743	4660
865.875	4485
866.006	4363
866.137	4451
866.269	4417
866.4	4424
866.531	4375
866.662	4379
866.793	4421
866.924	4417
867.055	4523
867.186	4424
867.317	4398
867.448	4383
867.579	4360
867.71	4363
867.841	4360
867.972	4447
868.103	4455
868.233	4481
868.364	4424
868.495	4523
868.625	4683
868.756	4786
868.886	4569
869.017	4592
869.147	4740
869.278	4797
869.408	4653
869.539	4656
869.669	4698
869.799	4641
869.929	4755
870.06	4683
870.19	4938
870.32	4896
870.45	4949
870.58	5048
870.71	5075
870.84	5117
870.97	4980
871.1	4881
871.23	5132
871.36	5128
871.489	5048
871.619	5037
871.749	5052
871.879	5067
872.008	5220
872.138	5010
872.267	5006
872.397	4835
872.526	4820
872.656	4748
872.785	4843
872.915	4934
873.044	5048
873.173	4938
873.303	4972
873.432	4942
873.561	4991
873.69	4862
873.819	4923
873.948	4862
874.077	4809
874.206	4755
874.335	4774
874.464	4927
874.593	5064
874.722	4938
874.851	5105
874.979	5018
875.108	5006
875.237	4900
875.365	4854
875.494	4911
875.623	4991
875.751	4774
875.88	4904
876.008	4949
876.136	5052
876.265	5204
876.393	5299
876.521	5246
876.65	5231
876.778	5178
876.906	5056
877.034	5022
877.162	5029
877.29	4987
877.418	5121
877.546	5041
877.674	5033
877.802	5041
877.93	4999
878.058	4911
878.185	4892
878.313	4995
878.441	4927
878.568	4805
878.696	4870
878.824	4934
878.951	5003
879.079	5143
879.206	5299
879.333	5045
879.461	4927
879.588	5014
879.715	5136
879.842	5212
879.97	4984
880.097	4725
880.224	4717
880.351	4812
880.478	4843
880.605	4824
880.732	4786
880.859	5071
880.986	4942
881.112	4885
881.239	4759
881.366	4641
881.493	4645
881.619	4573
881.746	4634
881.872	4672
881.999	4664
882.125	4675
882.252	4755
882.378	4824
882.505	4987
882.631	4809
882.757	4641
882.883	4767
883.01	4736
883.136	4683
883.262	4603
883.388	4588
883.514	4774
883.64	4911
883.766	4782
883.892	4694
884.018	4782
884.143	4877
884.269	5029
884.395	4683
884.52	4607
884.646	4634
884.772	4592
884.897	4500
885.023	4672
885.148	4793
885.274	4828
885.399	4771
885.524	4717
885.65	4721
885.775	4672
885.9	4675
886.025	4854
886.15	4793
886.275	4767
886.4	4664
886.525	4698
886.65	4634
886.775	4717
886.9	4908
887.025	5052
887.149	4786
887.274	4645
887.399	4584
887.523	4618
887.648	4592
887.773	4565
887.897	4763
888.021	4797
888.146	4687
888.27	4797
888.395	4873
888.519	4759
888.643	4843
888.767	4805
888.891	4687
889.015	4596
889.139	4672
889.263	4596
889.387	4714
889.511	4831
889.635	4763
889.759	4668
889.883	4637
890.006	4702
890.13	4801
890.254	4580
890.377	4630
890.501	4546
890.624	4481
890.748	4611
890.871	4519
890.995	4409
891.118	4371
891.241	4527
891.364	4500
891.488	4641
891.611	4516
891.734	4504
891.857	4580
891.98	4565
892.103	4630
892.226	4554
892.349	4451
892.471	4421
892.594	4497
892.717	4569
892.839	4603
892.962	4618
893.085	4645
893.207	4611
893.33	4417
893.452	4516
893.575	4660
893.697	4550
893.819	4797
893.941	4831
894.064	4767
894.186	4588
894.308	4577
894.43	4721
894.552	4771
894.674	4725
894.796	4527
894.918	4584
895.04	4519
895.161	4668
895.283	4656
895.405	4611
895.526	4622
895.648	4660
895.769	4698
895.891	4702
896.012	4793
896.134	4698
896.255	4649
896.376	4599
896.498	4637
896.619	4664
896.74	4569
896.861	4649
896.982	4942
897.103	5045
897.224	4843
897.345	4763
897.466	4641
897.587	4679
897.708	4858
897.828	4759
897.949	4653
898.07	4561
898.19	4580
898.311	4843
898.431	4706
898.552	4752
898.672	4774
898.792	4824
898.913	4664
899.033	4656
899.153	4481
899.273	4428
899.393	4466
899.513	4542
899.633	4508
899.753	4554
899.873	4527
899.993	4527
900.113	4554
900.232	4588
900.352	4573
900.472	4470
900.591	4383
900.711	4500
900.83	4462
900.95	4615
901.069	4660
901.189	4535
901.308	4356
901.427	4287
901.546	4371
901.665	4447
901.784	4455
901.904	4363
902.023	4325
902.141	4200
902.26	4158
902.379	4325
902.498	4257
902.617	4207
902.735	4348
902.854	4440
902.973	4344
903.091	4188
903.21	4219
903.328	4306
903.446	4238
903.565	4246
903.683	4291
903.801	4287
903.919	4402
904.038	4424
904.156	4303
904.274	4394
904.392	4405
904.51	4417
904.627	4436
904.745	4573
904.863	4626
904.981	4363
905.098	4299
905.216	4375
905.334	4428
905.451	4390
905.569	4409
905.686	4504
905.803	4508
905.921	4398
906.038	4577
906.155	4455
906.272	4379
906.389	4417
906.506	4341
906.623	4303
906.74	4386
906.857	4341
906.974	4363
907.091	4519
907.208	4668
907.324	4603
907.441	4443
907.557	4310
907.674	4344
907.79	4363
907.907	4306
908.023	4497
908.139	4436
908.256	4398
908.372	4481
908.488	4440
908.604	4386
908.72	4276
908.836	4409
908.952	4379
909.068	4489
909.184	4554
909.3	4474
909.415	4542
909.531	4577
909.647	4371
909.762	4421
909.878	4360
909.993	4390
910.108	4383
910.224	4424
910.339	4462
910.454	4402
910.57	4379
910.685	4280
910.8	4622
910.915	4603
911.03	4504
911.145	4383
911.259	4363
911.374	4344
911.489	4272
911.604	4306
911.718	4097
911.833	4169
911.947	4090
912.062	4006
912.176	4181
912.291	4261
912.405	4257
912.519	4478
912.633	4519
912.748	4383
912.862	4253
912.976	4219
913.09	4078
913.204	4207
913.318	4276
913.431	4344
913.545	4402
913.659	4413
913.772	4337
913.886	4234
914	4234
914.113	4352
914.226	4363
914.34	4375
914.453	4223
914.566	4432
914.68	4276
914.793	4322
914.906	4177
915.019	4090
915.132	4086
915.245	4215
915.358	4192
915.47	4215
915.583	4261
915.696	4284
915.809	4428
915.921	4409
916.034	4246
916.146	4265
916.259	4223
916.371	4386
916.483	4344
916.595	4261
916.708	4287
916.82	4333
916.932	4303
917.044	4322
917.156	4291
917.268	4219
917.38	4287
917.491	4261
917.603	4337
917.715	4390
917.826	4443
917.938	4329
918.049	4238
918.161	4409
918.272	4561
918.384	4516
918.495	4474
918.606	4303
918.717	4242
918.828	4329
918.939	4398
919.05	4223
919.161	4303
919.272	4112
919.383	4215
919.494	4421
919.604	4573
919.715	4432
919.826	4322
919.936	4375
920.047	4561
920.157	4512
920.267	4679
920.378	4542
920.488	4500
920.598	4717
920.708	4843
920.818	4729
920.928	4763
921.038	4919
921.148	4915
921.258	4588
921.368	4550
921.477	4497
921.587	4451
921.697	4341
921.806	4535
921.916	4443
922.025	4272
922.134	4287
922.244	4249
922.353	4322
922.462	4204
922.571	4112
922.68	4013
922.789	3979
922.898	4025
923.007	4010
923.116	4109
923.224	4051
923.333	4055
923.442	3975
923.55	3968
923.659	3956
923.767	4067
923.876	3979
923.984	4173
924.092	3991
924.201	4082
924.309	4116
924.417	4139
924.525	3991
924.633	4082
924.741	5056
924.849	3907
924.956	4093
925.064	3956
925.172	3941
925.279	3892
925.387	4032
925.494	4063
925.602	4200
925.709	4192
925.816	4032
925.924	4131
926.031	4234
926.138	4162
926.245	4196
926.352	4116
926.459	4207
926.566	4344
926.673	4109
926.779	4116
926.886	4093
926.993	3987
927.099	3972
927.206	3960
927.312	3979
927.419	4036
927.525	4051
927.631	4112
927.737	3979
927.843	3903
927.95	3846
928.056	3953
928.162	4032
928.267	4093
928.373	4721
928.479	4071
928.585	3854
928.69	4010
928.796	4090
928.901	3975
929.007	3869
929.112	4006
929.218	3975
929.323	3903
929.428	3926
929.533	4101
929.638	3838
929.743	3930
929.848	4044
929.953	4017
930.058	3926
930.163	3766
930.267	3819
930.372	3964
930.477	3774
930.581	4090
930.685	3964
930.79	3831
930.894	3865
930.998	3884
931.103	4021
931.207	3686
931.311	3690
931.415	3686
931.519	3496
931.623	3568
