Data from test_V78500241_269.txt Node
Date: Fri Mar 25 16:50:52 CST 2022
User: usil
Spectrometer: V785-0024
Trigger mode: 0
Integration Time (sec): 4.000000E-1
Scans to average: 1
Nonlinearity correction enabled: false
Boxcar width: 0
Storing dark spectrum: false
XAxis mode: Wavelengths
Number of Pixels in Spectrum: 1024
>>>>>Begin Spectral Data<<<<<
801.071	8153
801.214	8073
801.356	7913
801.499	7890
801.641	7883
801.783	7902
801.926	8046
802.068	8054
802.211	8050
802.353	8046
802.496	7894
802.638	7940
802.78	8012
802.923	7978
803.065	7925
803.208	7890
803.35	8035
803.492	8062
803.635	8244
803.777	8073
803.919	8100
804.061	8526
804.204	8237
804.346	8088
804.488	7947
804.63	8077
804.773	8031
804.915	8107
805.057	8286
805.199	8164
805.341	8206
805.483	8282
805.626	8172
805.768	8123
805.91	8145
806.052	8221
806.194	8035
806.336	8324
806.478	8149
806.62	8153
806.762	8164
806.904	8294
807.046	8518
807.188	8374
807.33	8381
807.472	8358
807.614	8168
807.756	8149
807.898	7967
808.04	7860
808.182	7921
808.324	7913
808.465	7940
808.607	8073
808.749	8096
808.891	8252
809.033	8343
809.174	8282
809.316	8058
809.458	8077
809.6	8016
809.741	8054
809.883	7997
810.025	8111
810.166	8092
810.308	7997
810.45	8024
810.591	7887
810.733	7814
810.875	7674
811.016	7525
811.158	7533
811.299	7636
811.441	7727
811.582	7700
811.724	7636
811.865	7571
812.007	7636
812.148	7628
812.29	7647
812.431	7761
812.573	7944
812.714	7974
812.855	8157
812.997	8157
813.138	8347
813.279	8138
813.421	8157
813.562	7978
813.703	7890
813.845	7792
813.986	7457
814.127	7354
814.268	7206
814.41	7232
814.551	7141
814.692	7282
814.833	7126
814.974	7164
815.115	7129
815.256	6939
815.397	6973
815.539	6993
815.68	6837
815.821	6844
815.962	6867
816.103	6859
816.244	6745
816.385	6677
816.526	6707
816.666	6528
816.807	6376
816.948	6509
817.089	6452
817.23	6456
817.371	6422
817.512	6353
817.653	6467
817.793	6388
817.934	6365
818.075	6467
818.216	6426
818.356	6437
818.497	6213
818.638	6121
818.778	6102
818.919	6182
819.06	6129
819.2	6331
819.341	6277
819.481	6384
819.622	6559
819.762	6787
819.903	6772
820.043	6604
820.184	6559
820.324	6601
820.465	6692
820.605	6703
820.746	6650
820.886	6521
821.026	6631
821.167	6692
821.307	6783
821.447	6764
821.588	6688
821.728	6608
821.868	6555
822.008	6399
822.149	6395
822.289	6422
822.429	6190
822.569	6129
822.709	6087
822.849	5977
822.99	5980
823.13	5980
823.27	5961
823.41	5775
823.55	5802
823.69	5737
823.83	5859
823.97	5688
824.11	5528
824.25	5539
824.389	5589
824.529	5581
824.669	5608
824.809	5714
824.949	5688
825.089	5570
825.228	5581
825.368	5379
825.508	5322
825.648	5341
825.787	5372
825.927	5376
826.067	5326
826.206	5341
826.346	5417
826.485	5402
826.625	5436
826.765	5604
826.904	5455
827.044	5231
827.183	5204
827.323	5166
827.462	5239
827.601	5197
827.741	5181
827.88	5227
828.02	5155
828.159	5250
828.298	5376
828.437	5425
828.577	5307
828.716	5573
828.855	5387
828.994	5181
829.134	5178
829.273	5227
829.412	5166
829.551	5159
829.69	5174
829.829	5258
829.968	5452
830.107	5341
830.246	5261
830.385	5220
830.524	5174
830.663	5075
830.802	4987
830.941	4919
831.08	4896
831.219	5022
831.357	4961
831.496	5223
831.635	4949
831.774	4873
831.913	4915
832.051	4771
832.19	4755
832.329	4858
832.467	4714
832.606	4668
832.744	4717
832.883	4790
833.022	4752
833.16	4793
833.299	4843
833.437	4870
833.576	4820
833.714	4889
833.852	4923
833.991	4934
834.129	4991
834.267	4900
834.406	4949
834.544	4987
834.682	4987
834.821	5003
834.959	5166
835.097	4999
835.235	5147
835.373	5098
835.511	5117
835.65	5124
835.788	5064
835.926	4934
836.064	4881
836.202	4927
836.34	5208
836.478	5223
836.615	5136
836.753	5193
836.891	5322
837.029	5299
837.167	5246
837.305	5208
837.443	5166
837.58	5075
837.718	5277
837.856	5212
837.993	5155
838.131	5235
838.269	5307
838.406	5246
838.544	5181
838.681	5037
838.819	5022
838.956	4957
839.094	4923
839.231	4976
839.369	5098
839.506	5448
839.643	5334
839.781	5105
839.918	5075
840.055	5052
840.193	5159
840.33	5162
840.467	5193
840.604	5235
840.742	5509
840.879	5090
841.016	5075
841.153	5162
841.29	5357
841.427	5357
841.564	5387
841.701	5364
841.838	5311
841.975	5239
842.112	5231
842.249	5136
842.385	5121
842.522	5387
842.659	5136
842.796	5090
842.933	5220
843.069	5140
843.206	5208
843.343	5341
843.479	5197
843.616	5311
843.752	5060
843.889	5037
844.025	5231
844.162	5006
844.298	5189
844.435	5075
844.571	5071
844.708	5265
844.844	5311
844.98	5326
845.117	5376
845.253	5239
845.389	5090
845.525	5159
845.661	5079
845.798	5041
845.934	5155
846.07	5121
846.206	5185
846.342	5330
846.478	5178
846.614	5067
846.75	4953
846.886	4930
847.022	5170
847.158	5014
847.294	5102
847.429	5128
847.565	5113
847.701	5349
847.837	4858
847.972	4820
848.108	5025
848.244	4984
848.379	4858
848.515	4733
848.65	4740
848.786	4755
848.921	4812
849.057	4881
849.192	4911
849.328	4809
849.463	4877
849.598	4778
849.734	4744
849.869	4687
850.004	4656
850.14	4714
850.275	4656
850.41	4580
850.545	4550
850.68	4675
850.815	4634
850.95	4694
851.085	4839
851.22	4736
851.355	4714
851.49	4599
851.625	4641
851.76	4725
851.895	4611
852.03	4538
852.165	4668
852.299	4717
852.434	4801
852.569	4729
852.703	4733
852.838	4854
852.973	4972
853.107	4911
853.242	4790
853.376	4740
853.511	4580
853.645	4615
853.78	4797
853.914	4668
854.048	4698
854.183	4702
854.317	4748
854.451	4850
854.585	4656
854.72	4622
854.854	4755
854.988	4569
855.122	4675
855.256	4546
855.39	4626
855.524	4805
855.658	4752
855.792	4679
855.926	4797
856.06	4752
856.194	4862
856.327	4687
856.461	4641
856.595	4634
856.729	4596
856.862	4725
856.996	4656
857.13	4767
857.263	4767
857.397	4809
857.53	4656
857.664	4744
857.797	4759
857.931	4744
858.064	4706
858.197	4740
858.331	4706
858.464	4710
858.597	4558
858.731	4675
858.864	4664
858.997	4615
859.13	4698
859.263	4675
859.396	4740
859.529	4565
859.662	4577
859.795	4565
859.928	4615
860.061	4816
860.194	4778
860.327	4607
860.46	4592
860.592	4687
860.725	4759
860.858	4740
860.99	4615
861.123	4554
861.256	4531
861.388	4656
861.521	5417
861.653	4497
861.786	4493
861.918	4500
862.05	4546
862.183	4592
862.315	4592
862.447	4706
862.58	4558
862.712	4443
862.844	4314
862.976	4481
863.108	4474
863.24	4843
863.372	4341
863.504	4402
863.636	4417
863.768	4500
863.9	4470
864.032	4383
864.164	4402
864.296	4451
864.428	4546
864.559	4561
864.691	4569
864.823	4519
864.954	4489
865.086	4599
865.217	4516
865.349	4413
865.48	4462
865.612	4497
865.743	4622
865.875	4455
866.006	4459
866.137	4489
866.269	4500
866.4	4447
866.531	4440
866.662	4417
866.793	4432
866.924	4451
867.055	4493
867.186	4493
867.317	4413
867.448	4405
867.579	4333
867.71	4402
867.841	4386
867.972	4466
868.103	4504
868.233	4436
868.364	4455
868.495	4508
868.625	4687
868.756	4790
868.886	4584
869.017	4626
869.147	4809
869.278	4793
869.408	4664
869.539	4672
869.669	4748
869.799	4679
869.929	4733
870.06	4778
870.19	4919
870.32	4930
870.45	4987
870.58	5033
870.71	5128
870.84	5098
870.97	4938
871.1	4946
871.23	5121
871.36	5151
871.489	5025
871.619	5090
871.749	5071
871.879	5113
872.008	5174
872.138	5098
872.267	5041
872.397	4843
872.526	4831
872.656	4748
872.785	4809
872.915	4930
873.044	5022
873.173	4915
873.303	4987
873.432	4946
873.561	4972
873.69	4892
873.819	4877
873.948	4911
874.077	4824
874.206	4759
874.335	4801
874.464	4942
874.593	5025
874.722	4968
874.851	5105
874.979	5014
875.108	5025
875.237	4942
875.365	4900
875.494	4873
875.623	4972
875.751	4908
875.88	4923
876.008	5003
876.136	4995
876.265	5189
876.393	5334
876.521	5280
876.65	5223
876.778	5170
876.906	5025
877.034	5006
877.162	5102
877.29	4995
877.418	5060
877.546	5037
877.674	5064
877.802	4995
877.93	5033
878.058	4915
878.185	4866
878.313	4976
878.441	4946
878.568	4812
878.696	4870
878.824	4980
878.951	4980
879.079	5216
879.206	5258
879.333	5143
879.461	4949
879.588	4987
879.715	5064
879.842	5227
879.97	5045
880.097	4839
880.224	4797
880.351	4767
880.478	4885
880.605	4782
880.732	4828
880.859	5056
880.986	4831
881.112	4953
881.239	4809
881.366	4668
881.493	4656
881.619	4618
881.746	4691
881.872	4649
881.999	4672
882.125	4656
882.252	4824
882.378	4885
882.505	4927
882.631	4778
882.757	4702
882.883	4729
883.01	4748
883.136	4668
883.262	4592
883.388	4577
883.514	4839
883.64	4862
883.766	4774
883.892	4649
884.018	4755
884.143	4850
884.269	5037
884.395	4691
884.52	4603
884.646	4706
884.772	4580
884.897	4603
885.023	4649
885.148	4759
885.274	4915
885.399	4828
885.524	4687
885.65	4694
885.775	4740
885.9	4710
886.025	4828
886.15	4835
886.275	4710
886.4	4649
886.525	4740
886.65	4672
886.775	4672
886.9	4870
887.025	4999
887.149	4824
887.274	4660
887.399	4599
887.523	4577
887.648	4592
887.773	4588
887.897	4774
888.021	4767
888.146	4710
888.27	4767
888.395	4904
888.519	4805
888.643	4831
888.767	4812
888.891	4668
889.015	4611
889.139	4698
889.263	4588
889.387	4767
889.511	4927
889.635	4839
889.759	4675
889.883	4618
890.006	4767
890.13	4809
890.254	4630
890.377	4634
890.501	4561
890.624	4573
890.748	4649
890.871	4538
890.995	4455
891.118	4424
891.241	4481
891.364	4546
891.488	4664
891.611	4523
891.734	4558
891.857	4637
891.98	4546
892.103	4660
892.226	4599
892.349	4558
892.471	4481
892.594	4565
892.717	4565
892.839	4558
892.962	4599
893.085	4637
893.207	4626
893.33	4466
893.452	4546
893.575	4656
893.697	4580
893.819	4797
893.941	4870
894.064	4729
894.186	4558
894.308	4596
894.43	4706
894.552	4816
894.674	4736
894.796	4599
894.918	4603
895.04	4516
895.161	4702
895.283	4649
895.405	4603
895.526	4660
895.648	4698
895.769	4637
895.891	4763
896.012	4752
896.134	4710
896.255	4664
896.376	4615
896.498	4660
896.619	4645
896.74	4649
896.861	4653
896.982	4942
897.103	5060
897.224	4839
897.345	4748
897.466	4668
897.587	4740
897.708	4835
897.828	4755
897.949	4702
898.07	4558
898.19	4656
898.311	4847
898.431	4679
898.552	4710
898.672	4828
898.792	4786
898.913	4767
899.033	4584
899.153	4535
899.273	4489
899.393	4504
899.513	4474
899.633	4607
899.753	4508
899.873	4554
899.993	4577
900.113	4516
900.232	4550
900.352	4508
900.472	4489
900.591	4432
900.711	4481
900.83	4432
900.95	4603
901.069	4653
901.189	4550
901.308	4379
901.427	4253
901.546	4398
901.665	4481
901.784	4512
901.904	4451
902.023	4325
902.141	4185
902.26	4162
902.379	4314
902.498	4227
902.617	4215
902.735	4383
902.854	4413
902.973	4356
903.091	4223
903.21	4257
903.328	4314
903.446	4249
903.565	4230
903.683	4390
903.801	4360
903.919	4417
904.038	4451
904.156	4310
904.274	4443
904.392	4428
904.51	4443
904.627	4504
904.745	4592
904.863	4702
904.981	4421
905.098	4291
905.216	4360
905.334	4447
905.451	4409
905.569	4462
905.686	4558
905.803	4580
905.921	4386
906.038	4500
906.155	4485
906.272	4409
906.389	4470
906.506	4379
906.623	4390
906.74	4390
906.857	4344
906.974	4402
907.091	4558
907.208	4679
907.324	4611
907.441	4504
907.557	4356
907.674	4363
907.79	4318
907.907	4424
908.023	4481
908.139	4565
908.256	4428
908.372	4481
908.488	4470
908.604	4375
908.72	4367
908.836	4394
908.952	4371
909.068	4443
909.184	4546
909.3	4474
909.415	4607
909.531	4527
909.647	4390
909.762	4417
909.878	4356
909.993	4443
910.108	4409
910.224	4447
910.339	4455
910.454	4379
910.57	4413
910.685	4333
910.8	4691
910.915	4592
911.03	4500
911.145	4299
911.259	4344
911.374	4306
911.489	4306
911.604	4272
911.718	4169
911.833	4181
911.947	4109
912.062	4051
912.176	4192
912.291	4280
912.405	4268
912.519	4512
912.633	4519
912.748	4367
912.862	4276
912.976	4204
913.09	4086
913.204	4177
913.318	4223
913.431	4352
913.545	4432
913.659	4417
913.772	4329
913.886	4272
914	4215
914.113	4379
914.226	4455
914.34	4367
914.453	4223
914.566	4398
914.68	4310
914.793	4344
914.906	4154
915.019	4147
915.132	4074
915.245	4200
915.358	4219
915.47	4242
915.583	4287
915.696	4322
915.809	4413
915.921	4424
916.034	4253
916.146	4318
916.259	4261
916.371	4413
916.483	4390
916.595	4291
916.708	4284
916.82	4344
916.932	4314
917.044	4352
917.156	4363
917.268	4257
917.38	4268
917.491	4306
917.603	4295
917.715	4371
917.826	4466
917.938	4322
918.049	4276
918.161	4424
918.272	4508
918.384	4607
918.495	4451
918.606	4333
918.717	4230
918.828	4295
918.939	4375
919.05	4257
919.161	4287
919.272	4124
919.383	4246
919.494	4451
919.604	4618
919.715	4478
919.826	4402
919.936	4383
920.047	4523
920.157	4550
920.267	4675
920.378	4569
920.488	4508
920.598	4778
920.708	4885
920.818	4782
920.928	4771
921.038	4923
921.148	4984
921.258	4664
921.368	4558
921.477	4523
921.587	4451
921.697	4402
921.806	4565
921.916	4462
922.025	4268
922.134	4230
922.244	4200
922.353	4352
922.462	4177
922.571	4173
922.68	4029
922.789	3979
922.898	4025
923.007	4029
923.116	4124
923.224	4051
923.333	4093
923.442	4029
923.55	3972
923.659	4040
923.767	4116
923.876	3972
923.984	4112
924.092	3994
924.201	4086
924.309	4090
924.417	4131
924.525	4101
924.633	4109
924.741	5064
924.849	3899
924.956	4097
925.064	3949
925.172	3926
925.279	3956
925.387	4109
925.494	4093
925.602	4196
925.709	4139
925.816	4021
925.924	4135
926.031	4188
926.138	4192
926.245	4181
926.352	4063
926.459	4223
926.566	4314
926.673	4128
926.779	4074
926.886	4078
926.993	3975
927.099	3964
927.206	3937
927.312	3953
927.419	4071
927.525	4029
927.631	4086
927.737	3968
927.843	3918
927.95	3854
928.056	3941
928.162	3979
928.267	4036
928.373	4683
928.479	4105
928.585	3888
928.69	4010
928.796	4086
928.901	3964
929.007	3876
929.112	4010
929.218	3972
929.323	3888
929.428	3937
929.533	4101
929.638	3873
929.743	3956
929.848	4040
929.953	3960
930.058	3937
930.163	3808
930.267	3804
930.372	4021
930.477	3778
930.581	4120
930.685	3975
930.79	3823
930.894	3850
930.998	3888
931.103	4071
931.207	3720
931.311	3648
931.415	3690
931.519	3545
931.623	3545
