Data from test_V78500241_1002.txt Node
Date: Fri Mar 25 16:55:58 CST 2022
User: usil
Spectrometer: V785-0024
Trigger mode: 0
Integration Time (sec): 4.000000E-1
Scans to average: 1
Nonlinearity correction enabled: false
Boxcar width: 0
Storing dark spectrum: false
XAxis mode: Wavelengths
Number of Pixels in Spectrum: 1024
>>>>>Begin Spectral Data<<<<<
801.071	8027
801.214	7970
801.356	7833
801.499	7871
801.641	7792
801.783	7776
801.926	7909
802.068	7913
802.211	7852
802.353	7902
802.496	7757
802.638	7811
802.78	7925
802.923	7894
803.065	7898
803.208	7807
803.35	7997
803.492	8035
803.635	8130
803.777	8008
803.919	8096
804.061	8438
804.204	8111
804.346	8054
804.488	7932
804.63	8142
804.773	7963
804.915	8065
805.057	8229
805.199	8206
805.341	8187
805.483	8210
805.626	8153
805.768	8103
805.91	8138
806.052	8145
806.194	8031
806.336	8294
806.478	8077
806.62	8046
806.762	8142
806.904	8240
807.046	8507
807.188	8313
807.33	8267
807.472	8336
807.614	8054
807.756	8157
807.898	7993
808.04	7860
808.182	7890
808.324	7883
808.465	7906
808.607	8031
808.749	8039
808.891	8237
809.033	8225
809.174	8248
809.316	8012
809.458	8027
809.6	7928
809.741	8035
809.883	8031
810.025	8100
810.166	8035
810.308	8001
810.45	7986
810.591	7807
810.733	7727
810.875	7685
811.016	7552
811.158	7495
811.299	7582
811.441	7662
811.582	7655
811.724	7533
811.865	7559
812.007	7518
812.148	7571
812.29	7605
812.431	7674
812.573	7833
812.714	8016
812.855	8103
812.997	8187
813.138	8252
813.279	8172
813.421	8115
813.562	7955
813.703	7871
813.845	7693
813.986	7480
814.127	7247
814.268	7217
814.41	7175
814.551	7122
814.692	7114
814.833	7034
814.974	7084
815.115	7088
815.256	6962
815.397	6939
815.539	6973
815.68	6837
815.821	6749
815.962	6867
816.103	6829
816.244	6764
816.385	6631
816.526	6620
816.666	6479
816.807	6327
816.948	6464
817.089	6479
817.23	6433
817.371	6308
817.512	6376
817.653	6380
817.793	6323
817.934	6414
818.075	6486
818.216	6445
818.356	6388
818.497	6262
818.638	6167
818.778	6171
818.919	6106
819.06	6148
819.2	6262
819.341	6311
819.481	6346
819.622	6475
819.762	6749
819.903	6719
820.043	6616
820.184	6570
820.324	6525
820.465	6681
820.605	6623
820.746	6593
820.886	6551
821.026	6612
821.167	6715
821.307	6806
821.447	6772
821.588	6646
821.728	6582
821.868	6517
822.008	6311
822.149	6315
822.289	6353
822.429	6121
822.569	6133
822.709	6079
822.849	5908
822.99	5920
823.13	5954
823.27	5973
823.41	5737
823.55	5756
823.69	5733
823.83	5836
823.97	5646
824.11	5524
824.25	5433
824.389	5600
824.529	5551
824.669	5539
824.809	5615
824.949	5630
825.089	5585
825.228	5562
825.368	5360
825.508	5277
825.648	5315
825.787	5288
825.927	5368
826.067	5235
826.206	5261
826.346	5387
826.485	5429
826.625	5383
826.765	5532
826.904	5455
827.044	5273
827.183	5178
827.323	5083
827.462	5265
827.601	5181
827.741	5178
827.88	5250
828.02	5090
828.159	5181
828.298	5288
828.437	5315
828.577	5318
828.716	5535
828.855	5284
828.994	5151
829.134	5143
829.273	5204
829.412	5140
829.551	5079
829.69	5147
829.829	5242
829.968	5353
830.107	5353
830.246	5258
830.385	5170
830.524	5113
830.663	5128
830.802	4957
830.941	4854
831.08	4870
831.219	4957
831.357	4949
831.496	5136
831.635	4904
831.774	4831
831.913	4812
832.051	4706
832.19	4725
832.329	4835
832.467	4740
832.606	4618
832.744	4721
832.883	4675
833.022	4694
833.16	4763
833.299	4820
833.437	4771
833.576	4793
833.714	4843
833.852	4862
833.991	4877
834.129	4976
834.267	4987
834.406	4850
834.544	4942
834.682	4957
834.821	4923
834.959	5159
835.097	5014
835.235	5090
835.373	4999
835.511	5083
835.65	5022
835.788	4999
835.926	4854
836.064	4881
836.202	4896
836.34	5113
836.478	5197
836.615	5140
836.753	5208
836.891	5231
837.029	5197
837.167	5197
837.305	5140
837.443	5143
837.58	5022
837.718	5231
837.856	5201
837.993	5075
838.131	5246
838.269	5220
838.406	5162
838.544	5170
838.681	4980
838.819	4965
838.956	4911
839.094	4961
839.231	4968
839.369	5048
839.506	5417
839.643	5197
839.781	5018
839.918	4999
840.055	5098
840.193	5117
840.33	5086
840.467	5109
840.604	5143
840.742	5368
840.879	5079
841.016	5064
841.153	5174
841.29	5280
841.427	5349
841.564	5337
841.701	5307
841.838	5311
841.975	5239
842.112	5220
842.249	5102
842.385	5048
842.522	5368
842.659	5121
842.796	5143
842.933	5174
843.069	5143
843.206	5155
843.343	5269
843.479	5231
843.616	5269
843.752	5014
843.889	5048
844.025	5223
844.162	4987
844.298	5223
844.435	5041
844.571	4987
844.708	5140
844.844	5307
844.98	5318
845.117	5292
845.253	5140
845.389	5086
845.525	5121
845.661	5109
845.798	5067
845.934	5109
846.07	5029
846.206	5166
846.342	5197
846.478	5105
846.614	5006
846.75	4987
846.886	4957
847.022	5128
847.158	5010
847.294	5041
847.429	5056
847.565	5018
847.701	5269
847.837	4805
847.972	4797
848.108	4900
848.244	4927
848.379	4797
848.515	4710
848.65	4744
848.786	4744
848.921	4725
849.057	4873
849.192	4896
849.328	4786
849.463	4843
849.598	4740
849.734	4733
849.869	4706
850.004	4626
850.14	4668
850.275	4588
850.41	4462
850.545	4561
850.68	4596
850.815	4607
850.95	4603
851.085	4824
851.22	4729
851.355	4645
851.49	4542
851.625	4634
851.76	4607
851.895	4535
852.03	4519
852.165	4618
852.299	4729
852.434	4748
852.569	4774
852.703	4786
852.838	4820
852.973	4923
853.107	4877
853.242	4717
853.376	4626
853.511	4550
853.645	4641
853.78	4793
853.914	4660
854.048	4649
854.183	4618
854.317	4702
854.451	4835
854.585	4698
854.72	4637
854.854	4740
854.988	4546
855.122	4580
855.256	4538
855.39	4653
855.524	4748
855.658	4721
855.792	4660
855.926	4702
856.06	4702
856.194	4767
856.327	4660
856.461	4634
856.595	4573
856.729	4611
856.862	4721
856.996	4687
857.13	4687
857.263	4740
857.397	4797
857.53	4634
857.664	4710
857.797	4702
857.931	4805
858.064	4702
858.197	4778
858.331	4603
858.464	4596
858.597	4519
858.731	4656
858.864	4653
858.997	4573
859.13	4615
859.263	4683
859.396	4656
859.529	4592
859.662	4561
859.795	4573
859.928	4588
860.061	4752
860.194	4759
860.327	4615
860.46	4558
860.592	4714
860.725	4649
860.858	4710
860.99	4573
861.123	4447
861.256	4523
861.388	4611
861.521	5246
861.653	4440
861.786	4443
861.918	4421
862.05	4497
862.183	4573
862.315	4618
862.447	4637
862.58	4531
862.712	4432
862.844	4375
862.976	4447
863.108	4386
863.24	4946
863.372	4299
863.504	4337
863.636	4413
863.768	4470
863.9	4398
864.032	4360
864.164	4417
864.296	4443
864.428	4546
864.559	4481
864.691	4542
864.823	4455
864.954	4462
865.086	4489
865.217	4405
865.349	4352
865.48	4436
865.612	4481
865.743	4596
865.875	4531
866.006	4440
866.137	4421
866.269	4409
866.4	4417
866.531	4409
866.662	4329
866.793	4371
866.924	4432
867.055	4462
867.186	4424
867.317	4367
867.448	4303
867.579	4402
867.71	4432
867.841	4402
867.972	4432
868.103	4413
868.233	4417
868.364	4409
868.495	4481
868.625	4668
868.756	4729
868.886	4573
869.017	4584
869.147	4714
869.278	4740
869.408	4630
869.539	4664
869.669	4736
869.799	4649
869.929	4725
870.06	4725
870.19	4957
870.32	4911
870.45	4923
870.58	4961
870.71	5029
870.84	5075
870.97	4965
871.1	4854
871.23	5124
871.36	5132
871.489	5033
871.619	5086
871.749	5132
871.879	5090
872.008	5208
872.138	5060
872.267	4999
872.397	4870
872.526	4839
872.656	4725
872.785	4774
872.915	4968
873.044	4991
873.173	4946
873.303	4987
873.432	4949
873.561	4984
873.69	4908
873.819	4873
873.948	4938
874.077	4866
874.206	4782
874.335	4831
874.464	4904
874.593	5083
874.722	5003
874.851	5102
874.979	5090
875.108	5045
875.237	4972
875.365	4915
875.494	4938
875.623	5056
875.751	4843
875.88	4904
876.008	5014
876.136	5083
876.265	5216
876.393	5326
876.521	5265
876.65	5258
876.778	5166
876.906	5162
877.034	5113
877.162	5105
877.29	4995
877.418	5098
877.546	5086
877.674	5048
877.802	5064
877.93	5029
878.058	4972
878.185	4923
878.313	4949
878.441	4927
878.568	4885
878.696	4915
878.824	4976
878.951	4999
879.079	5178
879.206	5273
879.333	5109
879.461	5025
879.588	5033
879.715	5170
879.842	5227
879.97	5025
880.097	4801
880.224	4801
880.351	4839
880.478	4896
880.605	4778
880.732	4820
880.859	5098
880.986	4938
881.112	4930
881.239	4755
881.366	4679
881.493	4615
881.619	4637
881.746	4698
881.872	4622
881.999	4694
882.125	4729
882.252	4782
882.378	4820
882.505	4976
882.631	4850
882.757	4721
882.883	4725
883.01	4774
883.136	4706
883.262	4596
883.388	4622
883.514	4812
883.64	4866
883.766	4858
883.892	4660
884.018	4702
884.143	4889
884.269	5037
884.395	4733
884.52	4679
884.646	4645
884.772	4622
884.897	4546
885.023	4675
885.148	4771
885.274	4839
885.399	4831
885.524	4725
885.65	4702
885.775	4759
885.9	4733
886.025	4877
886.15	4774
886.275	4725
886.4	4755
886.525	4763
886.65	4725
886.775	4691
886.9	4889
887.025	5075
887.149	4843
887.274	4668
887.399	4626
887.523	4603
887.648	4634
887.773	4618
887.897	4767
888.021	4793
888.146	4687
888.27	4812
888.395	4900
888.519	4839
888.643	4847
888.767	4877
888.891	4714
889.015	4664
889.139	4645
889.263	4599
889.387	4771
889.511	4877
889.635	4778
889.759	4668
889.883	4672
890.006	4767
890.13	4847
890.254	4596
890.377	4679
890.501	4561
890.624	4588
890.748	4603
890.871	4508
890.995	4462
891.118	4394
891.241	4554
891.364	4584
891.488	4634
891.611	4535
891.734	4546
891.857	4649
891.98	4546
892.103	4675
892.226	4618
892.349	4561
892.471	4447
892.594	4535
892.717	4615
892.839	4599
892.962	4615
893.085	4721
893.207	4634
893.33	4481
893.452	4538
893.575	4717
893.697	4592
893.819	4824
893.941	4866
894.064	4774
894.186	4580
894.308	4611
894.43	4694
894.552	4892
894.674	4763
894.796	4577
894.918	4622
895.04	4569
895.161	4702
895.283	4672
895.405	4622
895.526	4679
895.648	4752
895.769	4672
895.891	4729
896.012	4736
896.134	4733
896.255	4698
896.376	4694
896.498	4622
896.619	4679
896.74	4664
896.861	4679
896.982	4900
897.103	5083
897.224	4885
897.345	4759
897.466	4694
897.587	4790
897.708	4877
897.828	4812
897.949	4706
898.07	4538
898.19	4649
898.311	4847
898.431	4706
898.552	4740
898.672	4812
898.792	4812
898.913	4759
899.033	4637
899.153	4512
899.273	4432
899.393	4535
899.513	4531
899.633	4550
899.753	4577
899.873	4550
899.993	4637
900.113	4527
900.232	4626
900.352	4554
900.472	4535
900.591	4409
900.711	4489
900.83	4485
900.95	4626
901.069	4744
901.189	4554
901.308	4402
901.427	4344
901.546	4413
901.665	4497
901.784	4504
901.904	4386
902.023	4344
902.141	4227
902.26	4207
902.379	4291
902.498	4280
902.617	4227
902.735	4363
902.854	4424
902.973	4363
903.091	4211
903.21	4223
903.328	4333
903.446	4287
903.565	4295
903.683	4379
903.801	4280
903.919	4409
904.038	4451
904.156	4348
904.274	4474
904.392	4432
904.51	4432
904.627	4432
904.745	4596
904.863	4653
904.981	4413
905.098	4360
905.216	4360
905.334	4485
905.451	4432
905.569	4478
905.686	4584
905.803	4615
905.921	4443
906.038	4550
906.155	4527
906.272	4462
906.389	4451
906.506	4363
906.623	4394
906.74	4413
906.857	4325
906.974	4341
907.091	4588
907.208	4649
907.324	4588
907.441	4485
907.557	4360
907.674	4329
907.79	4333
907.907	4390
908.023	4493
908.139	4497
908.256	4459
908.372	4519
908.488	4459
908.604	4390
908.72	4291
908.836	4417
908.952	4383
909.068	4424
909.184	4580
909.3	4497
909.415	4577
909.531	4558
909.647	4371
909.762	4371
909.878	4318
909.993	4440
910.108	4417
910.224	4424
910.339	4481
910.454	4390
910.57	4386
910.685	4333
910.8	4615
910.915	4603
911.03	4504
911.145	4306
911.259	4322
911.374	4394
911.489	4291
911.604	4276
911.718	4192
911.833	4211
911.947	4124
912.062	4071
912.176	4246
912.291	4227
912.405	4280
912.519	4478
912.633	4485
912.748	4413
912.862	4352
912.976	4230
913.09	4124
913.204	4192
913.318	4291
913.431	4344
913.545	4360
913.659	4443
913.772	4417
913.886	4265
914	4196
914.113	4390
914.226	4470
914.34	4402
914.453	4246
914.566	4447
914.68	4325
914.793	4329
914.906	4200
915.019	4188
915.132	4090
915.245	4234
915.358	4215
915.47	4238
915.583	4249
915.696	4337
915.809	4405
915.921	4447
916.034	4299
916.146	4276
916.259	4200
916.371	4421
916.483	4333
916.595	4265
916.708	4344
916.82	4360
916.932	4337
917.044	4333
917.156	4333
917.268	4192
917.38	4287
917.491	4268
917.603	4329
917.715	4451
917.826	4428
917.938	4379
918.049	4246
918.161	4402
918.272	4531
918.384	4531
918.495	4493
918.606	4295
918.717	4257
918.828	4371
918.939	4409
919.05	4272
919.161	4318
919.272	4150
919.383	4234
919.494	4413
919.604	4637
919.715	4409
919.826	4375
919.936	4405
920.047	4577
920.157	4527
920.267	4759
920.378	4538
920.488	4519
920.598	4710
920.708	4911
920.818	4771
920.928	4774
921.038	4900
921.148	4942
921.258	4607
921.368	4618
921.477	4508
921.587	4459
921.697	4398
921.806	4573
921.916	4405
922.025	4249
922.134	4215
922.244	4204
922.353	4344
922.462	4227
922.571	4131
922.68	4025
922.789	3972
922.898	4051
923.007	4006
923.116	4090
923.224	4090
923.333	4131
923.442	4036
923.55	3964
923.659	4021
923.767	4131
923.876	3994
923.984	4143
924.092	4025
924.201	4036
924.309	4101
924.417	4135
924.525	4036
924.633	4109
924.741	5060
924.849	3945
924.956	4143
925.064	4002
925.172	3899
925.279	4010
925.387	4048
925.494	4082
925.602	4242
925.709	4200
925.816	4044
925.924	4143
926.031	4230
926.138	4173
926.245	4234
926.352	4086
926.459	4268
926.566	4303
926.673	4158
926.779	4082
926.886	4124
926.993	3979
927.099	3987
927.206	3918
927.312	3956
927.419	4082
927.525	4029
927.631	4086
927.737	3953
927.843	3949
927.95	3888
928.056	3991
928.162	4025
928.267	4101
928.373	4634
928.479	4109
928.585	3926
928.69	4029
928.796	4048
928.901	3968
929.007	3857
929.112	4025
929.218	4051
929.323	4017
929.428	3960
929.533	4131
929.638	3953
929.743	3956
929.848	4086
929.953	4010
930.058	3975
930.163	3838
930.267	3861
930.372	3972
930.477	3808
930.581	4078
930.685	3956
930.79	3812
930.894	3892
930.998	3884
931.103	4040
931.207	3724
931.311	3740
931.415	3622
931.519	3526
931.623	3549
