Data from test_V78500241_2840.txt Node
Date: Fri Mar 25 17:08:44 CST 2022
User: usil
Spectrometer: V785-0024
Trigger mode: 0
Integration Time (sec): 4.000000E-1
Scans to average: 1
Nonlinearity correction enabled: false
Boxcar width: 0
Storing dark spectrum: false
XAxis mode: Wavelengths
Number of Pixels in Spectrum: 1024
>>>>>Begin Spectral Data<<<<<
801.071	8043
801.214	8054
801.356	7909
801.499	7906
801.641	7875
801.783	7883
801.926	8012
802.068	8016
802.211	7955
802.353	8016
802.496	7803
802.638	7955
802.78	7974
802.923	7894
803.065	7898
803.208	7856
803.35	8020
803.492	8126
803.635	8180
803.777	8012
803.919	8214
804.061	8415
804.204	8126
804.346	8054
804.488	8031
804.63	8130
804.773	8054
804.915	8168
805.057	8256
805.199	8073
805.341	8210
805.483	8290
805.626	8202
805.768	8142
805.91	8206
806.052	8202
806.194	8161
806.336	8320
806.478	8062
806.62	8020
806.762	8130
806.904	8320
807.046	8419
807.188	8404
807.33	8282
807.472	8396
807.614	8176
807.756	8214
807.898	7982
808.04	7921
808.182	7909
808.324	7909
808.465	7970
808.607	8107
808.749	8157
808.891	8271
809.033	8286
809.174	8248
809.316	8092
809.458	8046
809.6	7947
809.741	8058
809.883	8031
810.025	8183
810.166	8077
810.308	8073
810.45	8024
810.591	7856
810.733	7719
810.875	7636
811.016	7521
811.158	7502
811.299	7586
811.441	7776
811.582	7757
811.724	7624
811.865	7521
812.007	7609
812.148	7597
812.29	7636
812.431	7795
812.573	7887
812.714	8027
812.855	8183
812.997	8218
813.138	8328
813.279	8199
813.421	8111
813.562	8050
813.703	7909
813.845	7757
813.986	7476
814.127	7221
814.268	7236
814.41	7232
814.551	7152
814.692	7190
814.833	7103
814.974	7110
815.115	7080
815.256	6939
815.397	6935
815.539	6928
815.68	6783
815.821	6749
815.962	6886
816.103	6867
816.244	6700
816.385	6631
816.526	6673
816.666	6555
816.807	6365
816.948	6456
817.089	6403
817.23	6452
817.371	6418
817.512	6331
817.653	6403
817.793	6327
817.934	6441
818.075	6486
818.216	6490
818.356	6426
818.497	6266
818.638	6091
818.778	6133
818.919	6136
819.06	6209
819.2	6273
819.341	6311
819.481	6369
819.622	6490
819.762	6768
819.903	6749
820.043	6635
820.184	6585
820.324	6597
820.465	6639
820.605	6620
820.746	6650
820.886	6528
821.026	6650
821.167	6764
821.307	6783
821.447	6837
821.588	6662
821.728	6582
821.868	6479
822.008	6327
822.149	6361
822.289	6429
822.429	6190
822.569	6106
822.709	6117
822.849	5916
822.99	5908
823.13	5942
823.27	5931
823.41	5737
823.55	5790
823.69	5783
823.83	5783
823.97	5649
824.11	5566
824.25	5524
824.389	5566
824.529	5551
824.669	5501
824.809	5649
824.949	5592
825.089	5600
825.228	5577
825.368	5410
825.508	5299
825.648	5345
825.787	5395
825.927	5383
826.067	5292
826.206	5258
826.346	5402
826.485	5414
826.625	5414
826.765	5520
826.904	5482
827.044	5220
827.183	5189
827.323	5128
827.462	5223
827.601	5174
827.741	5174
827.88	5223
828.02	5147
828.159	5227
828.298	5280
828.437	5357
828.577	5273
828.716	5493
828.855	5345
828.994	5178
829.134	5178
829.273	5079
829.412	5170
829.551	5117
829.69	5216
829.829	5261
829.968	5334
830.107	5231
830.246	5280
830.385	5189
830.524	5102
830.663	5075
830.802	4965
830.941	4885
831.08	4889
831.219	4972
831.357	4976
831.496	5159
831.635	4942
831.774	4858
831.913	4835
832.051	4790
832.19	4752
832.329	4854
832.467	4714
832.606	4645
832.744	4725
832.883	4691
833.022	4744
833.16	4736
833.299	4843
833.437	4828
833.576	4828
833.714	4839
833.852	4889
833.991	4866
834.129	4999
834.267	4961
834.406	4858
834.544	4965
834.682	5022
834.821	4957
834.959	5140
835.097	4995
835.235	5128
835.373	5083
835.511	5064
835.65	5025
835.788	5025
835.926	4919
836.064	4896
836.202	4927
836.34	5147
836.478	5223
836.615	5113
836.753	5246
836.891	5280
837.029	5250
837.167	5212
837.305	5147
837.443	5193
837.58	5083
837.718	5239
837.856	5201
837.993	5159
838.131	5239
838.269	5174
838.406	5162
838.544	5204
838.681	5022
838.819	5029
838.956	4885
839.094	4923
839.231	4984
839.369	5079
839.506	5417
839.643	5227
839.781	5083
839.918	4980
840.055	5083
840.193	5025
840.33	5083
840.467	5143
840.604	5189
840.742	5440
840.879	5067
841.016	5056
841.153	5174
841.29	5406
841.427	5353
841.564	5349
841.701	5353
841.838	5273
841.975	5227
842.112	5216
842.249	5193
842.385	5132
842.522	5330
842.659	5170
842.796	5151
842.933	5254
843.069	5121
843.206	5143
843.343	5284
843.479	5223
843.616	5261
843.752	5006
843.889	5014
844.025	5174
844.162	4999
844.298	5216
844.435	5048
844.571	5014
844.708	5178
844.844	5307
844.98	5284
845.117	5242
845.253	5121
845.389	5079
845.525	5147
845.661	5090
845.798	5045
845.934	5128
846.07	5075
846.206	5223
846.342	5341
846.478	5159
846.614	5003
846.75	4965
846.886	4934
847.022	5178
847.158	5041
847.294	5067
847.429	5109
847.565	5079
847.701	5379
847.837	4866
847.972	4778
848.108	4930
848.244	4904
848.379	4778
848.515	4702
848.65	4706
848.786	4710
848.921	4771
849.057	4896
849.192	4877
849.328	4790
849.463	4881
849.598	4786
849.734	4740
849.869	4649
850.004	4634
850.14	4679
850.275	4588
850.41	4538
850.545	4558
850.68	4588
850.815	4618
850.95	4649
851.085	4805
851.22	4778
851.355	4653
851.49	4630
851.625	4603
851.76	4630
851.895	4554
852.03	4508
852.165	4645
852.299	4698
852.434	4812
852.569	4744
852.703	4748
852.838	4809
852.973	4923
853.107	4942
853.242	4736
853.376	4698
853.511	4584
853.645	4660
853.78	4877
853.914	4649
854.048	4653
854.183	4656
854.317	4687
854.451	4831
854.585	4637
854.72	4630
854.854	4786
854.988	4649
855.122	4592
855.256	4512
855.39	4687
855.524	4771
855.658	4725
855.792	4717
855.926	4740
856.06	4767
856.194	4812
856.327	4664
856.461	4626
856.595	4599
856.729	4656
856.862	4744
856.996	4683
857.13	4691
857.263	4774
857.397	4797
857.53	4634
857.664	4714
857.797	4793
857.931	4763
858.064	4679
858.197	4740
858.331	4630
858.464	4580
858.597	4531
858.731	4641
858.864	4584
858.997	4599
859.13	4683
859.263	4717
859.396	4683
859.529	4596
859.662	4596
859.795	4523
859.928	4626
860.061	4793
860.194	4744
860.327	4596
860.46	4554
860.592	4664
860.725	4759
860.858	4714
860.99	4554
861.123	4512
861.256	4497
861.388	4641
861.521	5421
861.653	4519
861.786	4405
861.918	4474
862.05	4527
862.183	4542
862.315	4550
862.447	4634
862.58	4542
862.712	4371
862.844	4325
862.976	4455
863.108	4405
863.24	4786
863.372	4348
863.504	4394
863.636	4360
863.768	4493
863.9	4447
864.032	4360
864.164	4402
864.296	4470
864.428	4542
864.559	4542
864.691	4527
864.823	4554
864.954	4519
865.086	4516
865.217	4451
865.349	4386
865.48	4409
865.612	4531
865.743	4618
865.875	4424
866.006	4424
866.137	4424
866.269	4497
866.4	4440
866.531	4386
866.662	4402
866.793	4390
866.924	4405
867.055	4508
867.186	4504
867.317	4371
867.448	4424
867.579	4390
867.71	4417
867.841	4386
867.972	4451
868.103	4436
868.233	4504
868.364	4462
868.495	4447
868.625	4634
868.756	4740
868.886	4603
869.017	4626
869.147	4790
869.278	4755
869.408	4645
869.539	4672
869.669	4717
869.799	4679
869.929	4740
870.06	4717
870.19	4953
870.32	4908
870.45	4896
870.58	5014
870.71	5136
870.84	5067
870.97	4976
871.1	4900
871.23	5136
871.36	5151
871.489	5010
871.619	5060
871.749	5105
871.879	5170
872.008	5193
872.138	5098
872.267	4995
872.397	4881
872.526	4820
872.656	4763
872.785	4774
872.915	4946
873.044	5018
873.173	4927
873.303	4991
873.432	4995
873.561	4927
873.69	4866
873.819	4904
873.948	4930
874.077	4873
874.206	4725
874.335	4843
874.464	4858
874.593	5048
874.722	4961
874.851	5113
874.979	5075
875.108	5094
875.237	4923
875.365	4892
875.494	4911
875.623	5006
875.751	4809
875.88	4896
876.008	4999
876.136	5056
876.265	5201
876.393	5334
876.521	5303
876.65	5201
876.778	5193
876.906	5003
877.034	5045
877.162	5079
877.29	5029
877.418	5090
877.546	5075
877.674	5064
877.802	5048
877.93	5003
878.058	4923
878.185	4850
878.313	4965
878.441	4957
878.568	4774
878.696	4889
878.824	4961
878.951	4953
879.079	5147
879.206	5273
879.333	5113
879.461	4987
879.588	5010
879.715	5109
879.842	5231
879.97	4984
880.097	4820
880.224	4763
880.351	4816
880.478	4816
880.605	4850
880.732	4850
880.859	5102
880.986	4942
881.112	4908
881.239	4790
881.366	4618
881.493	4637
881.619	4637
881.746	4675
881.872	4634
881.999	4649
882.125	4702
882.252	4797
882.378	4782
882.505	5006
882.631	4790
882.757	4679
882.883	4748
883.01	4710
883.136	4615
883.262	4584
883.388	4599
883.514	4778
883.64	4843
883.766	4801
883.892	4645
884.018	4702
884.143	4919
884.269	5037
884.395	4641
884.52	4588
884.646	4660
884.772	4592
884.897	4550
885.023	4649
885.148	4820
885.274	4892
885.399	4850
885.524	4721
885.65	4694
885.775	4729
885.9	4710
886.025	4839
886.15	4767
886.275	4683
886.4	4664
886.525	4763
886.65	4641
886.775	4748
886.9	4881
887.025	5056
887.149	4850
887.274	4649
887.399	4611
887.523	4599
887.648	4580
887.773	4569
887.897	4710
888.021	4778
888.146	4698
888.27	4793
888.395	4919
888.519	4793
888.643	4831
888.767	4831
888.891	4649
889.015	4656
889.139	4675
889.263	4599
889.387	4748
889.511	4892
889.635	4778
889.759	4611
889.883	4622
890.006	4721
890.13	4816
890.254	4634
890.377	4672
890.501	4592
890.624	4519
890.748	4656
890.871	4561
890.995	4451
891.118	4341
891.241	4519
891.364	4546
891.488	4653
891.611	4516
891.734	4531
891.857	4626
891.98	4569
892.103	4641
892.226	4569
892.349	4531
892.471	4386
892.594	4508
892.717	4554
892.839	4592
892.962	4558
893.085	4649
893.207	4626
893.33	4417
893.452	4512
893.575	4626
893.697	4577
893.819	4793
893.941	4809
894.064	4786
894.186	4622
894.308	4558
894.43	4717
894.552	4835
894.674	4790
894.796	4550
894.918	4622
895.04	4558
895.161	4679
895.283	4656
895.405	4523
895.526	4626
895.648	4679
895.769	4706
895.891	4744
896.012	4702
896.134	4729
896.255	4653
896.376	4580
896.498	4611
896.619	4622
896.74	4618
896.861	4660
896.982	4873
897.103	5067
897.224	4835
897.345	4767
897.466	4702
897.587	4725
897.708	4900
897.828	4828
897.949	4645
898.07	4577
898.19	4580
898.311	4801
898.431	4637
898.552	4748
898.672	4782
898.792	4809
898.913	4763
899.033	4607
899.153	4500
899.273	4417
899.393	4455
899.513	4523
899.633	4550
899.753	4554
899.873	4493
899.993	4630
900.113	4527
900.232	4584
900.352	4512
900.472	4485
900.591	4390
900.711	4474
900.83	4432
900.95	4630
901.069	4736
901.189	4512
901.308	4371
901.427	4318
901.546	4360
901.665	4466
901.784	4535
901.904	4394
902.023	4337
902.141	4227
902.26	4147
902.379	4352
902.498	4223
902.617	4192
902.735	4329
902.854	4413
902.973	4360
903.091	4211
903.21	4223
903.328	4268
903.446	4272
903.565	4211
903.683	4318
903.801	4246
903.919	4337
904.038	4447
904.156	4344
904.274	4466
904.392	4390
904.51	4417
904.627	4481
904.745	4599
904.863	4637
904.981	4367
905.098	4360
905.216	4344
905.334	4379
905.451	4474
905.569	4436
905.686	4573
905.803	4569
905.921	4417
906.038	4561
906.155	4466
906.272	4455
906.389	4478
906.506	4344
906.623	4363
906.74	4402
906.857	4276
906.974	4390
907.091	4546
907.208	4656
907.324	4592
907.441	4466
907.557	4379
907.674	4363
907.79	4329
907.907	4341
908.023	4523
908.139	4470
908.256	4398
908.372	4481
908.488	4478
908.604	4341
908.72	4306
908.836	4413
908.952	4367
909.068	4428
909.184	4542
909.3	4489
909.415	4596
909.531	4569
909.647	4409
909.762	4322
909.878	4360
909.993	4421
910.108	4383
910.224	4455
910.339	4417
910.454	4474
910.57	4421
910.685	4299
910.8	4694
910.915	4615
911.03	4470
911.145	4360
911.259	4310
911.374	4371
911.489	4295
911.604	4287
911.718	4169
911.833	4219
911.947	4067
912.062	4082
912.176	4242
912.291	4230
912.405	4253
912.519	4459
912.633	4500
912.748	4367
912.862	4310
912.976	4177
913.09	4109
913.204	4162
913.318	4230
913.431	4379
913.545	4325
913.659	4424
913.772	4360
913.886	4261
914	4253
914.113	4329
914.226	4405
914.34	4356
914.453	4230
914.566	4394
914.68	4295
914.793	4303
914.906	4124
915.019	4116
915.132	4063
915.245	4162
915.358	4223
915.47	4188
915.583	4268
915.696	4318
915.809	4417
915.921	4379
916.034	4219
916.146	4249
916.259	4234
916.371	4363
916.483	4310
916.595	4230
916.708	4303
916.82	4306
916.932	4325
917.044	4356
917.156	4371
917.268	4234
917.38	4303
917.491	4287
917.603	4363
917.715	4390
917.826	4398
917.938	4344
918.049	4261
918.161	4386
918.272	4599
918.384	4527
918.495	4481
918.606	4318
918.717	4219
918.828	4287
918.939	4344
919.05	4287
919.161	4325
919.272	4124
919.383	4249
919.494	4489
919.604	4653
919.715	4451
919.826	4348
919.936	4428
920.047	4485
920.157	4500
920.267	4675
920.378	4527
920.488	4462
920.598	4691
920.708	4866
920.818	4759
920.928	4774
921.038	4919
921.148	4934
921.258	4664
921.368	4519
921.477	4478
921.587	4390
921.697	4394
921.806	4535
921.916	4428
922.025	4291
922.134	4215
922.244	4265
922.353	4280
922.462	4192
922.571	4158
922.68	4032
922.789	3998
922.898	4078
923.007	4002
923.116	4090
923.224	4116
923.333	4032
923.442	3968
923.55	3979
923.659	4036
923.767	4074
923.876	3975
923.984	4097
924.092	3994
924.201	4139
924.309	4048
924.417	4147
924.525	4048
924.633	4120
924.741	4896
924.849	3934
924.956	4154
925.064	3998
925.172	3964
925.279	3956
925.387	4082
925.494	4051
925.602	4261
925.709	4162
925.816	4067
925.924	4154
926.031	4261
926.138	4143
926.245	4204
926.352	4071
926.459	4272
926.566	4299
926.673	4139
926.779	4093
926.886	4071
926.993	3960
927.099	3983
927.206	3975
927.312	3945
927.419	4040
927.525	3987
927.631	4051
927.737	3998
927.843	3907
927.95	3865
928.056	3930
928.162	4025
928.267	4078
928.373	4645
928.479	4116
928.585	3865
928.69	4055
928.796	4067
928.901	3960
929.007	3838
929.112	3987
929.218	3979
929.323	3926
929.428	3975
929.533	4120
929.638	3899
929.743	3972
929.848	4036
929.953	4013
930.058	3926
930.163	3774
930.267	3842
930.372	3994
930.477	3797
930.581	4086
930.685	4006
930.79	3827
930.894	3930
930.998	3869
931.103	4055
931.207	3720
931.311	3675
931.415	3679
931.519	3496
931.623	3584
