Data from test_V78500241_2763.txt Node
Date: Fri Mar 25 17:08:12 CST 2022
User: usil
Spectrometer: V785-0024
Trigger mode: 0
Integration Time (sec): 4.000000E-1
Scans to average: 1
Nonlinearity correction enabled: false
Boxcar width: 0
Storing dark spectrum: false
XAxis mode: Wavelengths
Number of Pixels in Spectrum: 1024
>>>>>Begin Spectral Data<<<<<
801.071	7970
801.214	7959
801.356	7849
801.499	7830
801.641	7807
801.783	7890
801.926	8058
802.068	8008
802.211	7993
802.353	7978
802.496	7879
802.638	7917
802.78	7944
802.923	7974
803.065	7955
803.208	7883
803.35	7986
803.492	8111
803.635	8187
803.777	8088
803.919	8180
804.061	8514
804.204	8195
804.346	8096
804.488	8005
804.63	8115
804.773	8031
804.915	8134
805.057	8271
805.199	8195
805.341	8210
805.483	8309
805.626	8210
805.768	8153
805.91	8259
806.052	8259
806.194	8149
806.336	8385
806.478	8138
806.62	8126
806.762	8191
806.904	8210
807.046	8450
807.188	8377
807.33	8294
807.472	8370
807.614	8115
807.756	8164
807.898	8024
808.04	7890
808.182	7906
808.324	7921
808.465	7898
808.607	8119
808.749	8195
808.891	8252
809.033	8343
809.174	8176
809.316	8050
809.458	8092
809.6	8088
809.741	8031
809.883	8020
810.025	8233
810.166	8050
810.308	8100
810.45	8001
810.591	7978
810.733	7799
810.875	7647
811.016	7449
811.158	7464
811.299	7643
811.441	7715
811.582	7738
811.724	7544
811.865	7609
812.007	7620
812.148	7609
812.29	7723
812.431	7799
812.573	7913
812.714	8008
812.855	8168
812.997	8271
813.138	8324
813.279	8195
813.421	8157
813.562	8035
813.703	7875
813.845	7757
813.986	7499
814.127	7316
814.268	7244
814.41	7152
814.551	7251
814.692	7232
814.833	7095
814.974	7114
815.115	7141
815.256	6947
815.397	6958
815.539	6977
815.68	6837
815.821	6863
815.962	6821
816.103	6882
816.244	6741
816.385	6684
816.526	6646
816.666	6509
816.807	6338
816.948	6502
817.089	6502
817.23	6475
817.371	6414
817.512	6395
817.653	6456
817.793	6376
817.934	6448
818.075	6460
818.216	6460
818.356	6422
818.497	6235
818.638	6167
818.778	6190
818.919	6186
819.06	6197
819.2	6369
819.341	6350
819.481	6311
819.622	6559
819.762	6719
819.903	6734
820.043	6620
820.184	6547
820.324	6620
820.465	6669
820.605	6684
820.746	6692
820.886	6555
821.026	6646
821.167	6779
821.307	6787
821.447	6764
821.588	6608
821.728	6589
821.868	6490
822.008	6342
822.149	6376
822.289	6361
822.429	6190
822.569	6129
822.709	6098
822.849	5939
822.99	5931
823.13	5935
823.27	5897
823.41	5809
823.55	5844
823.69	5813
823.83	5767
823.97	5707
824.11	5505
824.25	5585
824.389	5532
824.529	5596
824.669	5558
824.809	5680
824.949	5699
825.089	5604
825.228	5600
825.368	5406
825.508	5330
825.648	5318
825.787	5421
825.927	5330
826.067	5315
826.206	5334
826.346	5334
826.485	5414
826.625	5421
826.765	5558
826.904	5558
827.044	5223
827.183	5246
827.323	5140
827.462	5311
827.601	5185
827.741	5189
827.88	5258
828.02	5174
828.159	5242
828.298	5334
828.437	5360
828.577	5303
828.716	5452
828.855	5334
828.994	5140
829.134	5185
829.273	5178
829.412	5159
829.551	5128
829.69	5174
829.829	5231
829.968	5387
830.107	5280
830.246	5345
830.385	5201
830.524	5117
830.663	5083
830.802	4980
830.941	4911
831.08	4873
831.219	4976
831.357	4999
831.496	5151
831.635	4938
831.774	4805
831.913	4892
832.051	4744
832.19	4763
832.329	4870
832.467	4748
832.606	4626
832.744	4687
832.883	4755
833.022	4679
833.16	4774
833.299	4812
833.437	4866
833.576	4835
833.714	4843
833.852	4870
833.991	4908
834.129	4953
834.267	4915
834.406	4919
834.544	4999
834.682	5025
834.821	4930
834.959	5174
835.097	4991
835.235	5155
835.373	5105
835.511	5083
835.65	5064
835.788	5014
835.926	4911
836.064	4858
836.202	4892
836.34	5204
836.478	5208
836.615	5094
836.753	5174
836.891	5307
837.029	5250
837.167	5212
837.305	5159
837.443	5170
837.58	5102
837.718	5254
837.856	5178
837.993	5128
838.131	5235
838.269	5178
838.406	5178
838.544	5170
838.681	5033
838.819	5010
838.956	4923
839.094	4911
839.231	5029
839.369	5033
839.506	5395
839.643	5250
839.781	5045
839.918	5025
840.055	5067
840.193	5105
840.33	5113
840.467	5086
840.604	5227
840.742	5444
840.879	5075
841.016	5067
841.153	5136
841.29	5353
841.427	5322
841.564	5326
841.701	5349
841.838	5288
841.975	5193
842.112	5296
842.249	5147
842.385	5136
842.522	5368
842.659	5227
842.796	5147
842.933	5223
843.069	5132
843.206	5162
843.343	5284
843.479	5212
843.616	5273
843.752	5067
843.889	5025
844.025	5216
844.162	5090
844.298	5261
844.435	5086
844.571	5071
844.708	5185
844.844	5307
844.98	5379
845.117	5315
845.253	5136
845.389	5094
845.525	5181
845.661	5124
845.798	5029
845.934	5193
846.07	5025
846.206	5197
846.342	5292
846.478	5113
846.614	5033
846.75	4991
846.886	4972
847.022	5151
847.158	4999
847.294	5071
847.429	5060
847.565	5022
847.701	5303
847.837	4881
847.972	4850
848.108	4938
848.244	4972
848.379	4774
848.515	4763
848.65	4771
848.786	4771
848.921	4755
849.057	4870
849.192	4892
849.328	4828
849.463	4839
849.598	4812
849.734	4744
849.869	4683
850.004	4622
850.14	4660
850.275	4592
850.41	4588
850.545	4542
850.68	4615
850.815	4649
850.95	4641
851.085	4839
851.22	4774
851.355	4687
851.49	4618
851.625	4622
851.76	4641
851.895	4558
852.03	4478
852.165	4675
852.299	4668
852.434	4797
852.569	4771
852.703	4755
852.838	4870
852.973	4908
853.107	4919
853.242	4771
853.376	4653
853.511	4542
853.645	4618
853.78	4812
853.914	4656
854.048	4675
854.183	4611
854.317	4706
854.451	4850
854.585	4702
854.72	4603
854.854	4786
854.988	4645
855.122	4641
855.256	4481
855.39	4687
855.524	4793
855.658	4664
855.792	4683
855.926	4721
856.06	4729
856.194	4797
856.327	4729
856.461	4607
856.595	4634
856.729	4626
856.862	4736
856.996	4656
857.13	4694
857.263	4729
857.397	4820
857.53	4653
857.664	4729
857.797	4748
857.931	4759
858.064	4664
858.197	4729
858.331	4649
858.464	4611
858.597	4535
858.731	4618
858.864	4626
858.997	4546
859.13	4668
859.263	4664
859.396	4698
859.529	4588
859.662	4561
859.795	4535
859.928	4596
860.061	4744
860.194	4782
860.327	4603
860.46	4542
860.592	4725
860.725	4721
860.858	4702
860.99	4618
861.123	4542
861.256	4535
861.388	4577
861.521	5318
861.653	4459
861.786	4413
861.918	4443
862.05	4512
862.183	4508
862.315	4615
862.447	4615
862.58	4607
862.712	4417
862.844	4341
862.976	4466
863.108	4478
863.24	4778
863.372	4303
863.504	4447
863.636	4386
863.768	4489
863.9	4451
864.032	4352
864.164	4402
864.296	4478
864.428	4531
864.559	4577
864.691	4523
864.823	4527
864.954	4481
865.086	4485
865.217	4459
865.349	4466
865.48	4455
865.612	4485
865.743	4618
865.875	4493
866.006	4443
866.137	4459
866.269	4421
866.4	4432
866.531	4417
866.662	4375
866.793	4447
866.924	4417
867.055	4493
867.186	4436
867.317	4443
867.448	4375
867.579	4363
867.71	4371
867.841	4356
867.972	4481
868.103	4462
868.233	4455
868.364	4432
868.495	4478
868.625	4668
868.756	4805
868.886	4615
869.017	4634
869.147	4793
869.278	4782
869.408	4653
869.539	4691
869.669	4694
869.799	4675
869.929	4763
870.06	4664
870.19	4957
870.32	4881
870.45	4919
870.58	5022
870.71	5132
870.84	5121
870.97	4976
871.1	4938
871.23	5151
871.36	5094
871.489	5041
871.619	5109
871.749	5136
871.879	5132
872.008	5151
872.138	5045
872.267	4930
872.397	4797
872.526	4782
872.656	4740
872.785	4797
872.915	4965
873.044	5056
873.173	4927
873.303	4942
873.432	4938
873.561	4908
873.69	4877
873.819	4854
873.948	4942
874.077	4866
874.206	4793
874.335	4774
874.464	4900
874.593	5056
874.722	5003
874.851	5124
874.979	5048
875.108	5041
875.237	4934
875.365	4892
875.494	4839
875.623	4984
875.751	4866
875.88	4850
876.008	4991
876.136	5025
876.265	5227
876.393	5364
876.521	5250
876.65	5261
876.778	5185
876.906	5083
877.034	5048
877.162	5003
877.29	5025
877.418	5045
877.546	5033
877.674	5037
877.802	5090
877.93	4995
878.058	4919
878.185	4908
878.313	4923
878.441	4999
878.568	4790
878.696	4923
878.824	4961
878.951	4991
879.079	5124
879.206	5299
879.333	5083
879.461	5041
879.588	4972
879.715	5109
879.842	5220
879.97	5014
880.097	4820
880.224	4763
880.351	4797
880.478	4873
880.605	4797
880.732	4805
880.859	5094
880.986	4896
881.112	4904
881.239	4820
881.366	4664
881.493	4622
881.619	4611
881.746	4637
881.872	4656
881.999	4656
882.125	4717
882.252	4812
882.378	4835
882.505	4987
882.631	4805
882.757	4656
882.883	4721
883.01	4740
883.136	4645
883.262	4584
883.388	4603
883.514	4854
883.64	4892
883.766	4820
883.892	4634
884.018	4698
884.143	4908
884.269	5022
884.395	4691
884.52	4653
884.646	4668
884.772	4592
884.897	4584
885.023	4687
885.148	4793
885.274	4847
885.399	4820
885.524	4740
885.65	4641
885.775	4774
885.9	4748
886.025	4873
886.15	4729
886.275	4740
886.4	4618
886.525	4694
886.65	4706
886.775	4691
886.9	4942
887.025	5056
887.149	4816
887.274	4641
887.399	4584
887.523	4580
887.648	4565
887.773	4542
887.897	4782
888.021	4740
888.146	4675
888.27	4748
888.395	4877
888.519	4801
888.643	4809
888.767	4778
888.891	4672
889.015	4611
889.139	4645
889.263	4599
889.387	4767
889.511	4854
889.635	4805
889.759	4634
889.883	4618
890.006	4721
890.13	4900
890.254	4618
890.377	4675
890.501	4554
890.624	4512
890.748	4634
890.871	4519
890.995	4447
891.118	4394
891.241	4523
891.364	4519
891.488	4656
891.611	4519
891.734	4500
891.857	4641
891.98	4516
892.103	4630
892.226	4603
892.349	4504
892.471	4421
892.594	4565
892.717	4626
892.839	4599
892.962	4580
893.085	4683
893.207	4584
893.33	4497
893.452	4508
893.575	4725
893.697	4546
893.819	4850
893.941	4759
894.064	4831
894.186	4588
894.308	4588
894.43	4748
894.552	4801
894.674	4729
894.796	4584
894.918	4596
895.04	4542
895.161	4740
895.283	4679
895.405	4622
895.526	4649
895.648	4675
895.769	4710
895.891	4714
896.012	4721
896.134	4721
896.255	4683
896.376	4653
896.498	4634
896.619	4706
896.74	4660
896.861	4668
896.982	4965
897.103	5098
897.224	4858
897.345	4759
897.466	4664
897.587	4717
897.708	4881
897.828	4812
897.949	4672
898.07	4538
898.19	4691
898.311	4809
898.431	4710
898.552	4736
898.672	4828
898.792	4812
898.913	4771
899.033	4641
899.153	4535
899.273	4432
899.393	4558
899.513	4558
899.633	4531
899.753	4504
899.873	4466
899.993	4599
900.113	4550
900.232	4615
900.352	4504
900.472	4508
900.591	4413
900.711	4459
900.83	4485
900.95	4615
901.069	4687
901.189	4527
901.308	4348
901.427	4325
901.546	4428
901.665	4481
901.784	4535
901.904	4337
902.023	4371
902.141	4196
902.26	4139
902.379	4306
902.498	4268
902.617	4230
902.735	4386
902.854	4390
902.973	4375
903.091	4207
903.21	4192
903.328	4325
903.446	4276
903.565	4249
903.683	4367
903.801	4272
903.919	4386
904.038	4451
904.156	4344
904.274	4428
904.392	4402
904.51	4413
904.627	4474
904.745	4546
904.863	4607
904.981	4348
905.098	4280
905.216	4379
905.334	4428
905.451	4432
905.569	4462
905.686	4508
905.803	4565
905.921	4402
906.038	4523
906.155	4497
906.272	4390
906.389	4462
906.506	4402
906.623	4383
906.74	4409
906.857	4356
906.974	4329
907.091	4584
907.208	4664
907.324	4611
907.441	4466
907.557	4325
907.674	4371
907.79	4325
907.907	4443
908.023	4504
908.139	4462
908.256	4443
908.372	4504
908.488	4436
908.604	4367
908.72	4322
908.836	4348
908.952	4421
909.068	4440
909.184	4561
909.3	4466
909.415	4592
909.531	4554
909.647	4383
909.762	4367
909.878	4318
909.993	4440
910.108	4398
910.224	4337
910.339	4512
910.454	4394
910.57	4356
910.685	4325
910.8	4679
910.915	4599
911.03	4443
911.145	4329
911.259	4325
911.374	4322
911.489	4318
911.604	4257
911.718	4154
911.833	4188
911.947	4063
912.062	4029
912.176	4246
912.291	4242
912.405	4219
912.519	4459
912.633	4561
912.748	4371
912.862	4318
912.976	4211
913.09	4093
913.204	4185
913.318	4227
913.431	4402
913.545	4348
913.659	4436
913.772	4371
913.886	4261
914	4246
914.113	4390
914.226	4432
914.34	4402
914.453	4211
914.566	4447
914.68	4310
914.793	4329
914.906	4154
915.019	4139
915.132	4086
915.245	4219
915.358	4219
915.47	4215
915.583	4272
915.696	4265
915.809	4394
915.921	4394
916.034	4280
916.146	4249
916.259	4204
916.371	4436
916.483	4367
916.595	4249
916.708	4318
916.82	4314
916.932	4337
917.044	4341
917.156	4341
917.268	4230
917.38	4318
917.491	4287
917.603	4356
917.715	4383
917.826	4451
917.938	4352
918.049	4246
918.161	4356
918.272	4546
918.384	4535
918.495	4455
918.606	4261
918.717	4219
918.828	4325
918.939	4440
919.05	4253
919.161	4303
919.272	4124
919.383	4223
919.494	4443
919.604	4687
919.715	4402
919.826	4363
919.936	4409
920.047	4538
920.157	4455
920.267	4706
920.378	4546
920.488	4535
920.598	4710
920.708	4873
920.818	4740
920.928	4714
921.038	4934
921.148	4900
921.258	4637
921.368	4519
921.477	4481
921.587	4440
921.697	4405
921.806	4535
921.916	4398
922.025	4291
922.134	4246
922.244	4215
922.353	4363
922.462	4169
922.571	4135
922.68	3994
922.789	3960
922.898	4010
923.007	4010
923.116	4082
923.224	4074
923.333	4044
923.442	3998
923.55	4021
923.659	4036
923.767	4071
923.876	4013
923.984	4128
924.092	4006
924.201	4063
924.309	4036
924.417	4139
924.525	4044
924.633	4086
924.741	5041
924.849	3922
924.956	4109
925.064	4021
925.172	3941
925.279	3930
925.387	4044
925.494	4010
925.602	4192
925.709	4135
925.816	4074
925.924	4173
926.031	4234
926.138	4173
926.245	4234
926.352	4082
926.459	4253
926.566	4306
926.673	4139
926.779	4044
926.886	4078
926.993	3972
927.099	3968
927.206	3975
927.312	3922
927.419	4082
927.525	4017
927.631	4067
927.737	3998
927.843	3964
927.95	3838
928.056	3953
928.162	4002
928.267	4055
928.373	4691
928.479	4078
928.585	3888
928.69	4006
928.796	4078
928.901	3983
929.007	3846
929.112	4010
929.218	3960
929.323	3964
929.428	3945
929.533	4143
929.638	3915
929.743	3937
929.848	4006
929.953	4017
930.058	3915
930.163	3793
930.267	3819
930.372	3941
930.477	3762
930.581	4124
930.685	3888
930.79	3812
930.894	3907
930.998	3838
931.103	4040
931.207	3694
931.311	3679
931.415	3679
931.519	3515
931.623	3553
