Data from test_V78500241_489.txt Node
Date: Fri Mar 25 16:52:24 CST 2022
User: usil
Spectrometer: V785-0024
Trigger mode: 0
Integration Time (sec): 4.000000E-1
Scans to average: 1
Nonlinearity correction enabled: false
Boxcar width: 0
Storing dark spectrum: false
XAxis mode: Wavelengths
Number of Pixels in Spectrum: 1024
>>>>>Begin Spectral Data<<<<<
801.071	8065
801.214	7986
801.356	7837
801.499	7845
801.641	7761
801.783	7864
801.926	7951
802.068	7970
802.211	8031
802.353	7986
802.496	7925
802.638	7875
802.78	7830
802.923	7879
803.065	7822
803.208	7822
803.35	7963
803.492	8054
803.635	8149
803.777	8027
803.919	8153
804.061	8454
804.204	8088
804.346	8054
804.488	7868
804.63	8069
804.773	7986
804.915	8020
805.057	8256
805.199	8145
805.341	8183
805.483	8195
805.626	8180
805.768	8016
805.91	8069
806.052	8161
806.194	8111
806.336	8252
806.478	8157
806.62	8088
806.762	8123
806.904	8210
807.046	8419
807.188	8275
807.33	8180
807.472	8248
807.614	8126
807.756	8092
807.898	7936
808.04	7890
808.182	7902
808.324	7936
808.465	7906
808.607	8046
808.749	8092
808.891	8210
809.033	8298
809.174	8218
809.316	7982
809.458	7951
809.6	8001
809.741	7970
809.883	8031
810.025	8134
810.166	8027
810.308	7967
810.45	8020
810.591	7841
810.733	7677
810.875	7693
811.016	7552
811.158	7495
811.299	7590
811.441	7795
811.582	7666
811.724	7567
811.865	7521
812.007	7620
812.148	7624
812.29	7590
812.431	7746
812.573	7947
812.714	8039
812.855	8172
812.997	8206
813.138	8263
813.279	8157
813.421	8149
813.562	8058
813.703	7909
813.845	7803
813.986	7487
814.127	7331
814.268	7274
814.41	7240
814.551	7236
814.692	7156
814.833	7099
814.974	7057
815.115	7065
815.256	7000
815.397	6901
815.539	6985
815.68	6844
815.821	6798
815.962	6856
816.103	6852
816.244	6688
816.385	6601
816.526	6540
816.666	6483
816.807	6277
816.948	6414
817.089	6448
817.23	6426
817.371	6433
817.512	6353
817.653	6376
817.793	6361
817.934	6403
818.075	6448
818.216	6437
818.356	6353
818.497	6201
818.638	6167
818.778	6152
818.919	6114
819.06	6117
819.2	6319
819.341	6350
819.481	6315
819.622	6547
819.762	6738
819.903	6711
820.043	6582
820.184	6631
820.324	6585
820.465	6635
820.605	6639
820.746	6604
820.886	6460
821.026	6620
821.167	6715
821.307	6821
821.447	6779
821.588	6608
821.728	6563
821.868	6452
822.008	6296
822.149	6266
822.289	6361
822.429	6125
822.569	6022
822.709	6083
822.849	5901
822.99	5935
823.13	5897
823.27	5908
823.41	5840
823.55	5771
823.69	5771
823.83	5813
823.97	5665
824.11	5539
824.25	5532
824.389	5562
824.529	5486
824.669	5589
824.809	5668
824.949	5680
825.089	5592
825.228	5474
825.368	5391
825.508	5318
825.648	5315
825.787	5383
825.927	5337
826.067	5284
826.206	5311
826.346	5372
826.485	5391
826.625	5414
826.765	5547
826.904	5444
827.044	5223
827.183	5105
827.323	5174
827.462	5204
827.601	5185
827.741	5170
827.88	5246
828.02	5102
828.159	5250
828.298	5250
828.437	5376
828.577	5265
828.716	5463
828.855	5288
828.994	5178
829.134	5159
829.273	5140
829.412	5121
829.551	5083
829.69	5185
829.829	5166
829.968	5368
830.107	5231
830.246	5273
830.385	5128
830.524	5121
830.663	5052
830.802	5006
830.941	4911
831.08	4850
831.219	5006
831.357	4942
831.496	5143
831.635	4904
831.774	4843
831.913	4847
832.051	4748
832.19	4706
832.329	4828
832.467	4679
832.606	4630
832.744	4679
832.883	4668
833.022	4740
833.16	4778
833.299	4847
833.437	4828
833.576	4923
833.714	4900
833.852	4938
833.991	4908
834.129	4995
834.267	5003
834.406	4934
834.544	5029
834.682	4976
834.821	4999
834.959	5201
835.097	5018
835.235	5181
835.373	5094
835.511	5143
835.65	5067
835.788	5094
835.926	4911
836.064	4870
836.202	4957
836.34	5174
836.478	5197
836.615	5185
836.753	5273
836.891	5280
837.029	5284
837.167	5227
837.305	5143
837.443	5155
837.58	5105
837.718	5292
837.856	5193
837.993	5143
838.131	5246
838.269	5201
838.406	5216
838.544	5220
838.681	5014
838.819	5064
838.956	4889
839.094	4930
839.231	4999
839.369	5132
839.506	5452
839.643	5303
839.781	5132
839.918	5006
840.055	5162
840.193	5162
840.33	5170
840.467	5170
840.604	5208
840.742	5436
840.879	5132
841.016	5178
841.153	5193
841.29	5440
841.427	5391
841.564	5383
841.701	5425
841.838	5261
841.975	5265
842.112	5288
842.249	5212
842.385	5102
842.522	5357
842.659	5197
842.796	5178
842.933	5143
843.069	5197
843.206	5166
843.343	5368
843.479	5277
843.616	5337
843.752	5071
843.889	4991
844.025	5280
844.162	5033
844.298	5242
844.435	5132
844.571	5109
844.708	5246
844.844	5284
844.98	5387
845.117	5326
845.253	5181
845.389	5159
845.525	5212
845.661	5212
845.798	5143
845.934	5098
846.07	5090
846.206	5235
846.342	5326
846.478	5223
846.614	5079
846.75	4995
846.886	4972
847.022	5185
847.158	5098
847.294	5079
847.429	5128
847.565	5124
847.701	5349
847.837	4911
847.972	4835
848.108	4972
848.244	4965
848.379	4809
848.515	4763
848.65	4752
848.786	4790
848.921	4816
849.057	4908
849.192	4904
849.328	4835
849.463	4896
849.598	4858
849.734	4850
849.869	4725
850.004	4615
850.14	4714
850.275	4656
850.41	4592
850.545	4615
850.68	4668
850.815	4698
850.95	4660
851.085	4843
851.22	4805
851.355	4660
851.49	4653
851.625	4668
851.76	4672
851.895	4516
852.03	4584
852.165	4679
852.299	4801
852.434	4805
852.569	4778
852.703	4805
852.838	4843
852.973	4968
853.107	4915
853.242	4763
853.376	4656
853.511	4592
853.645	4637
853.78	4805
853.914	4714
854.048	4698
854.183	4694
854.317	4767
854.451	4900
854.585	4710
854.72	4653
854.854	4786
854.988	4630
855.122	4694
855.256	4592
855.39	4714
855.524	4801
855.658	4797
855.792	4736
855.926	4782
856.06	4835
856.194	4839
856.327	4752
856.461	4653
856.595	4607
856.729	4656
856.862	4812
856.996	4714
857.13	4744
857.263	4748
857.397	4820
857.53	4672
857.664	4755
857.797	4771
857.931	4782
858.064	4759
858.197	4797
858.331	4687
858.464	4592
858.597	4531
858.731	4641
858.864	4626
858.997	4645
859.13	4641
859.263	4714
859.396	4729
859.529	4573
859.662	4588
859.795	4584
859.928	4698
860.061	4835
860.194	4793
860.327	4660
860.46	4573
860.592	4786
860.725	4733
860.858	4782
860.99	4649
861.123	4592
861.256	4554
861.388	4637
861.521	5341
861.653	4535
861.786	4489
861.918	4462
862.05	4596
862.183	4592
862.315	4603
862.447	4649
862.58	4573
862.712	4424
862.844	4318
862.976	4500
863.108	4497
863.24	4816
863.372	4341
863.504	4470
863.636	4440
863.768	4527
863.9	4485
864.032	4383
864.164	4455
864.296	4493
864.428	4554
864.559	4599
864.691	4603
864.823	4531
864.954	4497
865.086	4512
865.217	4523
865.349	4447
865.48	4500
865.612	4478
865.743	4668
865.875	4504
866.006	4489
866.137	4478
866.269	4561
866.4	4455
866.531	4451
866.662	4421
866.793	4451
866.924	4428
867.055	4558
867.186	4451
867.317	4405
867.448	4390
867.579	4409
867.71	4440
867.841	4379
867.972	4523
868.103	4527
868.233	4569
868.364	4500
868.495	4527
868.625	4694
868.756	4786
868.886	4577
869.017	4706
869.147	4816
869.278	4790
869.408	4736
869.539	4672
869.669	4752
869.799	4675
869.929	4816
870.06	4763
870.19	4999
870.32	4923
870.45	4961
870.58	4987
870.71	5105
870.84	5170
870.97	4930
871.1	4942
871.23	5174
871.36	5147
871.489	5041
871.619	5124
871.749	5128
871.879	5197
872.008	5212
872.138	5071
872.267	5010
872.397	4881
872.526	4847
872.656	4771
872.785	4820
872.915	4957
873.044	5105
873.173	4987
873.303	4999
873.432	5014
873.561	5006
873.69	4938
873.819	4900
873.948	4957
874.077	4934
874.206	4755
874.335	4793
874.464	4965
874.593	5136
874.722	4972
874.851	5102
874.979	5086
875.108	5083
875.237	4949
875.365	4915
875.494	4938
875.623	5022
875.751	4892
875.88	4862
876.008	5018
876.136	5025
876.265	5216
876.393	5368
876.521	5311
876.65	5284
876.778	5185
876.906	5048
877.034	5067
877.162	5086
877.29	5056
877.418	5094
877.546	5079
877.674	5060
877.802	5064
877.93	5083
878.058	4953
878.185	4854
878.313	4987
878.441	4991
878.568	4793
878.696	4938
878.824	4972
878.951	5022
879.079	5193
879.206	5334
879.333	5102
879.461	4987
879.588	5003
879.715	5185
879.842	5296
879.97	4995
880.097	4786
880.224	4805
880.351	4850
880.478	4847
880.605	4812
880.732	4854
880.859	5121
880.986	4881
881.112	4949
881.239	4824
881.366	4694
881.493	4611
881.619	4603
881.746	4664
881.872	4656
881.999	4672
882.125	4778
882.252	4801
882.378	4847
882.505	4953
882.631	4870
882.757	4683
882.883	4793
883.01	4759
883.136	4687
883.262	4618
883.388	4641
883.514	4896
883.64	4923
883.766	4858
883.892	4736
884.018	4736
884.143	4843
884.269	5033
884.395	4721
884.52	4634
884.646	4664
884.772	4630
884.897	4561
885.023	4698
885.148	4828
885.274	4862
885.399	4877
885.524	4744
885.65	4706
885.775	4778
885.9	4733
886.025	4915
886.15	4866
886.275	4767
886.4	4634
886.525	4752
886.65	4736
886.775	4694
886.9	4930
887.025	5079
887.149	4839
887.274	4714
887.399	4592
887.523	4630
887.648	4561
887.773	4618
887.897	4755
888.021	4774
888.146	4733
888.27	4835
888.395	4938
888.519	4805
888.643	4831
888.767	4847
888.891	4725
889.015	4596
889.139	4675
889.263	4611
889.387	4786
889.511	4881
889.635	4793
889.759	4668
889.883	4698
890.006	4725
890.13	4858
890.254	4672
890.377	4759
890.501	4577
890.624	4561
890.748	4660
890.871	4542
890.995	4462
891.118	4383
891.241	4565
891.364	4550
891.488	4634
891.611	4527
891.734	4531
891.857	4630
891.98	4637
892.103	4683
892.226	4584
892.349	4596
892.471	4504
892.594	4538
892.717	4607
892.839	4626
892.962	4573
893.085	4714
893.207	4618
893.33	4451
893.452	4535
893.575	4672
893.697	4599
893.819	4843
893.941	4873
894.064	4809
894.186	4622
894.308	4588
894.43	4717
894.552	4816
894.674	4721
894.796	4565
894.918	4611
895.04	4607
895.161	4752
895.283	4660
895.405	4637
895.526	4679
895.648	4687
895.769	4702
895.891	4698
896.012	4744
896.134	4736
896.255	4668
896.376	4641
896.498	4645
896.619	4672
896.74	4649
896.861	4675
896.982	4919
897.103	5071
897.224	4847
897.345	4797
897.466	4744
897.587	4755
897.708	4919
897.828	4782
897.949	4694
898.07	4580
898.19	4668
898.311	4854
898.431	4691
898.552	4755
898.672	4870
898.792	4828
898.913	4828
899.033	4637
899.153	4489
899.273	4466
899.393	4500
899.513	4516
899.633	4558
899.753	4527
899.873	4527
899.993	4615
900.113	4554
900.232	4618
900.352	4519
900.472	4523
900.591	4413
900.711	4535
900.83	4455
900.95	4603
901.069	4672
901.189	4596
901.308	4390
901.427	4295
901.546	4421
901.665	4440
901.784	4504
901.904	4386
902.023	4375
902.141	4196
902.26	4227
902.379	4325
902.498	4276
902.617	4268
902.735	4421
902.854	4383
902.973	4367
903.091	4249
903.21	4242
903.328	4310
903.446	4310
903.565	4291
903.683	4367
903.801	4265
903.919	4356
904.038	4421
904.156	4337
904.274	4451
904.392	4402
904.51	4440
904.627	4493
904.745	4565
904.863	4615
904.981	4405
905.098	4329
905.216	4356
905.334	4478
905.451	4451
905.569	4466
905.686	4546
905.803	4588
905.921	4405
906.038	4546
906.155	4470
906.272	4424
906.389	4462
906.506	4352
906.623	4417
906.74	4386
906.857	4352
906.974	4405
907.091	4611
907.208	4714
907.324	4634
907.441	4542
907.557	4348
907.674	4341
907.79	4322
907.907	4409
908.023	4519
908.139	4447
908.256	4451
908.372	4493
908.488	4527
908.604	4383
908.72	4348
908.836	4417
908.952	4417
909.068	4500
909.184	4561
909.3	4535
909.415	4653
909.531	4611
909.647	4402
909.762	4390
909.878	4371
909.993	4485
910.108	4398
910.224	4432
910.339	4538
910.454	4447
910.57	4417
910.685	4329
910.8	4675
910.915	4630
911.03	4538
911.145	4352
911.259	4394
911.374	4417
911.489	4341
911.604	4348
911.718	4246
911.833	4276
911.947	4116
912.062	4078
912.176	4272
912.291	4265
912.405	4291
912.519	4512
912.633	4535
912.748	4443
912.862	4402
912.976	4265
913.09	4097
913.204	4227
913.318	4284
913.431	4478
913.545	4424
913.659	4535
913.772	4398
913.886	4280
914	4291
914.113	4405
914.226	4466
914.34	4481
914.453	4310
914.566	4440
914.68	4383
914.793	4363
914.906	4227
915.019	4169
915.132	4120
915.245	4242
915.358	4268
915.47	4291
915.583	4363
915.696	4322
915.809	4443
915.921	4459
916.034	4272
916.146	4295
916.259	4322
916.371	4443
916.483	4413
916.595	4360
916.708	4352
916.82	4379
916.932	4371
917.044	4424
917.156	4344
917.268	4257
917.38	4314
917.491	4291
917.603	4394
917.715	4497
917.826	4459
917.938	4421
918.049	4272
918.161	4455
918.272	4596
918.384	4603
918.495	4527
918.606	4360
918.717	4284
918.828	4402
918.939	4394
919.05	4318
919.161	4413
919.272	4158
919.383	4268
919.494	4462
919.604	4691
919.715	4485
919.826	4394
919.936	4428
920.047	4558
920.157	4527
920.267	4805
920.378	4569
920.488	4577
920.598	4706
920.708	4942
920.818	4797
920.928	4793
921.038	4965
921.148	4961
921.258	4706
921.368	4588
921.477	4531
921.587	4462
921.697	4428
921.806	4588
921.916	4481
922.025	4303
922.134	4341
922.244	4291
922.353	4398
922.462	4238
922.571	4200
922.68	4010
922.789	4006
922.898	4032
923.007	3972
923.116	4135
923.224	4090
923.333	4120
923.442	4078
923.55	4025
923.659	4086
923.767	4109
923.876	4059
923.984	4128
924.092	4032
924.201	4166
924.309	4086
924.417	4112
924.525	4150
924.633	4150
924.741	5151
924.849	3998
924.956	4185
925.064	4029
925.172	3945
925.279	3991
925.387	4059
925.494	4029
925.602	4223
925.709	4215
925.816	4105
925.924	4166
926.031	4284
926.138	4219
926.245	4211
926.352	4097
926.459	4306
926.566	4348
926.673	4188
926.779	4154
926.886	4109
926.993	4040
927.099	4025
927.206	3953
927.312	3987
927.419	4093
927.525	4071
927.631	4120
927.737	4029
927.843	3975
927.95	3880
928.056	3998
928.162	4021
928.267	4101
928.373	4710
928.479	4150
928.585	3918
928.69	4032
928.796	4082
928.901	3983
929.007	3903
929.112	4067
929.218	4002
929.323	3983
929.428	3979
929.533	4116
929.638	3926
929.743	4017
929.848	4067
929.953	4055
930.058	3991
930.163	3789
930.267	3865
930.372	4017
930.477	3827
930.581	4124
930.685	4013
930.79	3819
930.894	3937
930.998	3903
931.103	4067
931.207	3751
931.311	3740
931.415	3709
931.519	3549
931.623	3622
