Data from test_V78500241_2092.txt Node
Date: Fri Mar 25 17:03:32 CST 2022
User: usil
Spectrometer: V785-0024
Trigger mode: 0
Integration Time (sec): 4.000000E-1
Scans to average: 1
Nonlinearity correction enabled: false
Boxcar width: 0
Storing dark spectrum: false
XAxis mode: Wavelengths
Number of Pixels in Spectrum: 1024
>>>>>Begin Spectral Data<<<<<
801.071	7925
801.214	7959
801.356	7837
801.499	7887
801.641	7837
801.783	7826
801.926	8031
802.068	7898
802.211	7925
802.353	7982
802.496	7841
802.638	7909
802.78	7837
802.923	7909
803.065	7864
803.208	7864
803.35	7932
803.492	7997
803.635	8084
803.777	8001
803.919	8096
804.061	8404
804.204	8077
804.346	8073
804.488	7917
804.63	8103
804.773	8016
804.915	8024
805.057	8328
805.199	8164
805.341	8172
805.483	8294
805.626	8161
805.768	8119
805.91	8252
806.052	8172
806.194	8111
806.336	8324
806.478	8024
806.62	8046
806.762	8126
806.904	8206
807.046	8427
807.188	8294
807.33	8305
807.472	8320
807.614	8058
807.756	8134
807.898	7974
808.04	7928
808.182	7864
808.324	7811
808.465	7921
808.607	8016
808.749	8077
808.891	8210
809.033	8286
809.174	8206
809.316	8073
809.458	8100
809.6	8024
809.741	8027
809.883	8046
810.025	8096
810.166	8031
810.308	7978
810.45	7974
810.591	7928
810.733	7776
810.875	7681
811.016	7506
811.158	7472
811.299	7601
811.441	7700
811.582	7658
811.724	7586
811.865	7586
812.007	7613
812.148	7571
812.29	7632
812.431	7792
812.573	7894
812.714	8062
812.855	8153
812.997	8176
813.138	8366
813.279	8199
813.421	8119
813.562	7963
813.703	7830
813.845	7772
813.986	7449
814.127	7236
814.268	7202
814.41	7232
814.551	7145
814.692	7190
814.833	7046
814.974	7160
815.115	7103
815.256	6954
815.397	6901
815.539	6909
815.68	6867
815.821	6700
815.962	6852
816.103	6783
816.244	6696
816.385	6642
816.526	6532
816.666	6471
816.807	6270
816.948	6429
817.089	6502
817.23	6414
817.371	6308
817.512	6323
817.653	6380
817.793	6342
817.934	6422
818.075	6479
818.216	6357
818.356	6395
818.497	6251
818.638	6155
818.778	6133
818.919	6087
819.06	6136
819.2	6315
819.341	6281
819.481	6384
819.622	6521
819.762	6730
819.903	6696
820.043	6623
820.184	6532
820.324	6604
820.465	6646
820.605	6627
820.746	6620
820.886	6506
821.026	6715
821.167	6707
821.307	6795
821.447	6734
821.588	6711
821.728	6536
821.868	6517
822.008	6338
822.149	6357
822.289	6369
822.429	6148
822.569	6057
822.709	6121
822.849	5927
822.99	5916
823.13	5882
823.27	5958
823.41	5764
823.55	5824
823.69	5771
823.83	5729
823.97	5672
824.11	5486
824.25	5463
824.389	5497
824.529	5600
824.669	5516
824.809	5642
824.949	5680
825.089	5592
825.228	5551
825.368	5398
825.508	5318
825.648	5364
825.787	5379
825.927	5364
826.067	5353
826.206	5284
826.346	5349
826.485	5379
826.625	5417
826.765	5581
826.904	5467
827.044	5201
827.183	5197
827.323	5147
827.462	5315
827.601	5185
827.741	5170
827.88	5250
828.02	5105
828.159	5280
828.298	5299
828.437	5357
828.577	5223
828.716	5486
828.855	5326
828.994	5216
829.134	5105
829.273	5204
829.412	5185
829.551	5185
829.69	5170
829.829	5231
829.968	5414
830.107	5280
830.246	5288
830.385	5197
830.524	5155
830.663	5098
830.802	5052
830.941	4896
831.08	4915
831.219	5037
831.357	5003
831.496	5197
831.635	4980
831.774	4908
831.913	4892
832.051	4778
832.19	4820
832.329	4892
832.467	4694
832.606	4664
832.744	4767
832.883	4793
833.022	4782
833.16	4824
833.299	4843
833.437	4843
833.576	4873
833.714	4870
833.852	4949
833.991	4961
834.129	4984
834.267	5018
834.406	4987
834.544	5041
834.682	5018
834.821	5014
834.959	5212
835.097	5022
835.235	5132
835.373	5128
835.511	5136
835.65	5067
835.788	5083
835.926	4911
836.064	4873
836.202	4934
836.34	5151
836.478	5220
836.615	5159
836.753	5227
836.891	5322
837.029	5261
837.167	5288
837.305	5223
837.443	5189
837.58	5174
837.718	5330
837.856	5193
837.993	5170
838.131	5277
838.269	5242
838.406	5201
838.544	5204
838.681	5060
838.819	5014
838.956	4923
839.094	4946
839.231	5041
839.369	5136
839.506	5425
839.643	5303
839.781	5071
839.918	5067
840.055	5132
840.193	5094
840.33	5128
840.467	5128
840.604	5239
840.742	5528
840.879	5124
841.016	5128
841.153	5181
841.29	5425
841.427	5387
841.564	5364
841.701	5360
841.838	5284
841.975	5273
842.112	5284
842.249	5166
842.385	5121
842.522	5341
842.659	5220
842.796	5189
842.933	5220
843.069	5201
843.206	5124
843.343	5337
843.479	5288
843.616	5299
843.752	5083
843.889	5041
844.025	5216
844.162	5079
844.298	5242
844.435	5079
844.571	5121
844.708	5197
844.844	5353
844.98	5391
845.117	5364
845.253	5162
845.389	5121
845.525	5174
845.661	5170
845.798	5075
845.934	5155
846.07	5151
846.206	5242
846.342	5288
846.478	5212
846.614	5006
846.75	5045
846.886	5025
847.022	5159
847.158	5067
847.294	5079
847.429	5166
847.565	5048
847.701	5337
847.837	4885
847.972	4850
848.108	4968
848.244	4980
848.379	4831
848.515	4725
848.65	4812
848.786	4767
848.921	4801
849.057	4889
849.192	4938
849.328	4831
849.463	4889
849.598	4816
849.734	4835
849.869	4774
850.004	4687
850.14	4710
850.275	4653
850.41	4596
850.545	4611
850.68	4622
850.815	4664
850.95	4660
851.085	4870
851.22	4828
851.355	4679
851.49	4649
851.625	4656
851.76	4702
851.895	4577
852.03	4569
852.165	4634
852.299	4694
852.434	4809
852.569	4740
852.703	4805
852.838	4858
852.973	4949
853.107	4984
853.242	4748
853.376	4721
853.511	4535
853.645	4672
853.78	4805
853.914	4656
854.048	4733
854.183	4706
854.317	4714
854.451	4866
854.585	4733
854.72	4698
854.854	4786
854.988	4637
855.122	4668
855.256	4531
855.39	4698
855.524	4854
855.658	4733
855.792	4759
855.926	4786
856.06	4805
856.194	4858
856.327	4725
856.461	4668
856.595	4675
856.729	4668
856.862	4805
856.996	4752
857.13	4774
857.263	4755
857.397	4831
857.53	4683
857.664	4706
857.797	4790
857.931	4824
858.064	4698
858.197	4752
858.331	4653
858.464	4649
858.597	4523
858.731	4649
858.864	4687
858.997	4596
859.13	4706
859.263	4694
859.396	4740
859.529	4599
859.662	4580
859.795	4546
859.928	4611
860.061	4748
860.194	4805
860.327	4626
860.46	4584
860.592	4771
860.725	4721
860.858	4736
860.99	4580
861.123	4577
861.256	4554
861.388	4649
861.521	5387
861.653	4523
861.786	4493
861.918	4523
862.05	4512
862.183	4599
862.315	4580
862.447	4702
862.58	4569
862.712	4462
862.844	4371
862.976	4466
863.108	4508
863.24	4790
863.372	4394
863.504	4440
863.636	4413
863.768	4478
863.9	4493
864.032	4383
864.164	4379
864.296	4512
864.428	4569
864.559	4596
864.691	4527
864.823	4550
864.954	4489
865.086	4561
865.217	4493
865.349	4432
865.48	4500
865.612	4489
865.743	4641
865.875	4470
866.006	4443
866.137	4436
866.269	4516
866.4	4424
866.531	4447
866.662	4436
866.793	4470
866.924	4481
867.055	4531
867.186	4466
867.317	4417
867.448	4402
867.579	4375
867.71	4383
867.841	4424
867.972	4504
868.103	4489
868.233	4478
868.364	4489
868.495	4512
868.625	4683
868.756	4797
868.886	4599
869.017	4656
869.147	4774
869.278	4820
869.408	4698
869.539	4622
869.669	4736
869.799	4660
869.929	4801
870.06	4778
870.19	4938
870.32	4968
870.45	4930
870.58	5045
870.71	5117
870.84	5109
870.97	4972
871.1	4949
871.23	5201
871.36	5121
871.489	5045
871.619	5098
871.749	5143
871.879	5166
872.008	5258
872.138	5124
872.267	4949
872.397	4900
872.526	4839
872.656	4736
872.785	4831
872.915	4976
873.044	5052
873.173	4987
873.303	4995
873.432	4946
873.561	4980
873.69	4900
873.819	4870
873.948	4911
874.077	4885
874.206	4790
874.335	4797
874.464	4927
874.593	5086
874.722	5029
874.851	5098
874.979	5060
875.108	5052
875.237	4965
875.365	4877
875.494	4889
875.623	5018
875.751	4843
875.88	4908
876.008	4949
876.136	4987
876.265	5239
876.393	5337
876.521	5261
876.65	5193
876.778	5212
876.906	5105
877.034	5029
877.162	5075
877.29	5010
877.418	5033
877.546	5090
877.674	5098
877.802	5056
877.93	5018
878.058	4972
878.185	4881
878.313	4949
878.441	5006
878.568	4843
878.696	4881
878.824	4942
878.951	5037
879.079	5132
879.206	5307
879.333	5128
879.461	4976
879.588	4995
879.715	5128
879.842	5307
879.97	5003
880.097	4797
880.224	4786
880.351	4843
880.478	4820
880.605	4790
880.732	4786
880.859	5090
880.986	4908
881.112	4938
881.239	4805
881.366	4679
881.493	4607
881.619	4599
881.746	4653
881.872	4687
881.999	4694
882.125	4717
882.252	4854
882.378	4889
882.505	4972
882.631	4755
882.757	4694
882.883	4714
883.01	4816
883.136	4679
883.262	4615
883.388	4615
883.514	4801
883.64	4892
883.766	4771
883.892	4672
884.018	4759
884.143	4911
884.269	5037
884.395	4740
884.52	4649
884.646	4710
884.772	4618
884.897	4596
885.023	4679
885.148	4839
885.274	4843
885.399	4847
885.524	4774
885.65	4698
885.775	4710
885.9	4706
886.025	4896
886.15	4786
886.275	4774
886.4	4679
886.525	4725
886.65	4698
886.775	4679
886.9	4927
887.025	5090
887.149	4816
887.274	4691
887.399	4611
887.523	4577
887.648	4588
887.773	4584
887.897	4778
888.021	4767
888.146	4717
888.27	4828
888.395	4854
888.519	4828
888.643	4847
888.767	4892
888.891	4706
889.015	4596
889.139	4668
889.263	4607
889.387	4790
889.511	4870
889.635	4763
889.759	4656
889.883	4675
890.006	4725
890.13	4828
890.254	4664
890.377	4721
890.501	4538
890.624	4535
890.748	4660
890.871	4504
890.995	4405
891.118	4405
891.241	4535
891.364	4546
891.488	4611
891.611	4504
891.734	4577
891.857	4607
891.98	4580
892.103	4683
892.226	4596
892.349	4577
892.471	4417
892.594	4561
892.717	4611
892.839	4618
892.962	4626
893.085	4721
893.207	4611
893.33	4497
893.452	4497
893.575	4683
893.697	4630
893.819	4797
893.941	4824
894.064	4759
894.186	4599
894.308	4546
894.43	4759
894.552	4820
894.674	4702
894.796	4580
894.918	4615
895.04	4569
895.161	4736
895.283	4668
895.405	4599
895.526	4653
895.648	4710
895.769	4691
895.891	4706
896.012	4797
896.134	4725
896.255	4664
896.376	4675
896.498	4611
896.619	4679
896.74	4664
896.861	4645
896.982	4942
897.103	5098
897.224	4786
897.345	4740
897.466	4694
897.587	4717
897.708	4889
897.828	4828
897.949	4714
898.07	4603
898.19	4649
898.311	4782
898.431	4702
898.552	4752
898.672	4812
898.792	4847
898.913	4755
899.033	4634
899.153	4546
899.273	4413
899.393	4538
899.513	4523
899.633	4531
899.753	4538
899.873	4485
899.993	4584
900.113	4538
900.232	4584
900.352	4527
900.472	4455
900.591	4421
900.711	4504
900.83	4470
900.95	4645
901.069	4687
901.189	4554
901.308	4386
901.427	4314
901.546	4417
901.665	4462
901.784	4550
901.904	4398
902.023	4303
902.141	4188
902.26	4200
902.379	4333
902.498	4227
902.617	4219
902.735	4447
902.854	4383
902.973	4363
903.091	4227
903.21	4219
903.328	4329
903.446	4299
903.565	4284
903.683	4367
903.801	4329
903.919	4432
904.038	4451
904.156	4341
904.274	4421
904.392	4390
904.51	4398
904.627	4459
904.745	4523
904.863	4630
904.981	4405
905.098	4337
905.216	4329
905.334	4402
905.451	4470
905.569	4455
905.686	4573
905.803	4577
905.921	4417
906.038	4584
906.155	4519
906.272	4409
906.389	4470
906.506	4356
906.623	4356
906.74	4398
906.857	4344
906.974	4432
907.091	4550
907.208	4561
907.324	4611
907.441	4538
907.557	4337
907.674	4402
907.79	4318
907.907	4459
908.023	4500
908.139	4512
908.256	4402
908.372	4485
908.488	4443
908.604	4379
908.72	4303
908.836	4367
908.952	4356
909.068	4413
909.184	4596
909.3	4523
909.415	4599
909.531	4546
909.647	4375
909.762	4428
909.878	4371
909.993	4459
910.108	4428
910.224	4424
910.339	4485
910.454	4398
910.57	4337
910.685	4341
910.8	4694
910.915	4592
911.03	4489
911.145	4344
911.259	4352
911.374	4390
911.489	4348
911.604	4325
911.718	4196
911.833	4207
911.947	4139
912.062	4059
912.176	4211
912.291	4242
912.405	4227
912.519	4508
912.633	4550
912.748	4371
912.862	4356
912.976	4204
913.09	4143
913.204	4211
913.318	4223
913.431	4383
913.545	4402
913.659	4478
913.772	4398
913.886	4272
914	4261
914.113	4379
914.226	4386
914.34	4386
914.453	4227
914.566	4421
914.68	4272
914.793	4284
914.906	4192
915.019	4120
915.132	4063
915.245	4219
915.358	4215
915.47	4230
915.583	4261
915.696	4318
915.809	4367
915.921	4440
916.034	4280
916.146	4299
916.259	4268
916.371	4367
916.483	4333
916.595	4291
916.708	4329
916.82	4344
916.932	4310
917.044	4341
917.156	4360
917.268	4261
917.38	4253
917.491	4261
917.603	4303
917.715	4405
917.826	4455
917.938	4325
918.049	4242
918.161	4356
918.272	4519
918.384	4573
918.495	4440
918.606	4337
918.717	4253
918.828	4379
918.939	4371
919.05	4257
919.161	4371
919.272	4116
919.383	4230
919.494	4470
919.604	4637
919.715	4443
919.826	4341
919.936	4398
920.047	4550
920.157	4500
920.267	4694
920.378	4565
920.488	4531
920.598	4721
920.708	4911
920.818	4793
920.928	4793
921.038	4953
921.148	4900
921.258	4603
921.368	4569
921.477	4500
921.587	4474
921.697	4413
921.806	4565
921.916	4428
922.025	4272
922.134	4253
922.244	4257
922.353	4344
922.462	4169
922.571	4128
922.68	4013
922.789	4010
922.898	4029
923.007	3949
923.116	4078
923.224	4093
923.333	4051
923.442	3991
923.55	3941
923.659	4044
923.767	4120
923.876	4036
923.984	4124
924.092	3972
924.201	4002
924.309	4105
924.417	4112
924.525	4086
924.633	4112
924.741	4984
924.849	3915
924.956	4101
925.064	3930
925.172	3903
925.279	4013
925.387	3998
925.494	4051
925.602	4242
925.709	4181
925.816	4082
925.924	4139
926.031	4200
926.138	4177
926.245	4227
926.352	4086
926.459	4227
926.566	4371
926.673	4162
926.779	4090
926.886	4097
926.993	3937
927.099	3964
927.206	3960
927.312	3949
927.419	4120
927.525	4051
927.631	4071
927.737	3926
927.843	3922
927.95	3854
928.056	3972
928.162	3991
928.267	4059
928.373	4592
928.479	4128
928.585	3880
928.69	4036
928.796	4090
928.901	3983
929.007	3873
929.112	3964
929.218	3945
929.323	3915
929.428	3956
929.533	4116
929.638	3884
929.743	3987
929.848	4051
929.953	4036
930.058	3941
930.163	3705
930.267	3842
930.372	4010
930.477	3785
930.581	4093
930.685	3934
930.79	3850
930.894	3850
930.998	3899
931.103	4051
931.207	3747
931.311	3705
931.415	3637
931.519	3526
931.623	3545
