Data from test_V78500241_164.txt Node
Date: Fri Mar 25 16:50:08 CST 2022
User: usil
Spectrometer: V785-0024
Trigger mode: 0
Integration Time (sec): 4.000000E-1
Scans to average: 1
Nonlinearity correction enabled: false
Boxcar width: 0
Storing dark spectrum: false
XAxis mode: Wavelengths
Number of Pixels in Spectrum: 1024
>>>>>Begin Spectral Data<<<<<
801.071	8043
801.214	7986
801.356	7841
801.499	7814
801.641	7765
801.783	7795
801.926	7970
802.068	7986
802.211	8005
802.353	8031
802.496	7868
802.638	7947
802.78	7944
802.923	7864
803.065	7902
803.208	7788
803.35	7951
803.492	8031
803.635	8111
803.777	7963
803.919	8130
804.061	8431
804.204	8058
804.346	7921
804.488	7928
804.63	8020
804.773	8012
804.915	8054
805.057	8282
805.199	8130
805.341	8187
805.483	8233
805.626	8145
805.768	8073
805.91	8100
806.052	8187
806.194	8145
806.336	8309
806.478	8100
806.62	8103
806.762	8065
806.904	8180
807.046	8389
807.188	8263
807.33	8286
807.472	8351
807.614	8202
807.756	8172
807.898	7917
808.04	7902
808.182	7928
808.324	7947
808.465	7909
808.607	8005
808.749	8115
808.891	8240
809.033	8282
809.174	8199
809.316	8039
809.458	7978
809.6	8081
809.741	8035
809.883	8016
810.025	8073
810.166	8092
810.308	8046
810.45	8005
810.591	7849
810.733	7761
810.875	7700
811.016	7533
811.158	7483
811.299	7571
811.441	7715
811.582	7651
811.724	7559
811.865	7582
812.007	7613
812.148	7594
812.29	7715
812.431	7780
812.573	7928
812.714	7906
812.855	8199
812.997	8290
813.138	8370
813.279	8149
813.421	8119
813.562	8020
813.703	7928
813.845	7753
813.986	7453
814.127	7301
814.268	7244
814.41	7247
814.551	7236
814.692	7244
814.833	7141
814.974	7118
815.115	7114
815.256	6993
815.397	6890
815.539	6920
815.68	6867
815.821	6738
815.962	6825
816.103	6863
816.244	6715
816.385	6681
816.526	6654
816.666	6547
816.807	6338
816.948	6483
817.089	6536
817.23	6471
817.371	6426
817.512	6395
817.653	6422
817.793	6372
817.934	6445
818.075	6448
818.216	6391
818.356	6388
818.497	6194
818.638	6083
818.778	6076
818.919	6110
819.06	6102
819.2	6342
819.341	6197
819.481	6372
819.622	6467
819.762	6726
819.903	6715
820.043	6578
820.184	6601
820.324	6589
820.465	6696
820.605	6700
820.746	6612
820.886	6563
821.026	6669
821.167	6700
821.307	6810
821.447	6738
821.588	6745
821.728	6616
821.868	6494
822.008	6350
822.149	6384
822.289	6395
822.429	6220
822.569	6140
822.709	6114
822.849	5980
822.99	5916
823.13	5923
823.27	5988
823.41	5844
823.55	5798
823.69	5809
823.83	5775
823.97	5668
824.11	5554
824.25	5509
824.389	5619
824.529	5630
824.669	5501
824.809	5665
824.949	5714
825.089	5623
825.228	5581
825.368	5402
825.508	5372
825.648	5410
825.787	5368
825.927	5383
826.067	5269
826.206	5292
826.346	5414
826.485	5421
826.625	5455
826.765	5535
826.904	5474
827.044	5220
827.183	5201
827.323	5136
827.462	5258
827.601	5178
827.741	5197
827.88	5235
828.02	5136
828.159	5235
828.298	5284
828.437	5391
828.577	5292
828.716	5463
828.855	5322
828.994	5178
829.134	5166
829.273	5143
829.412	5162
829.551	5136
829.69	5197
829.829	5231
829.968	5345
830.107	5269
830.246	5246
830.385	5174
830.524	5128
830.663	5151
830.802	5033
830.941	4873
831.08	4847
831.219	5006
831.357	4957
831.496	5159
831.635	4949
831.774	4854
831.913	4873
832.051	4755
832.19	4790
832.329	4850
832.467	4687
832.606	4649
832.744	4694
832.883	4698
833.022	4687
833.16	4782
833.299	4835
833.437	4801
833.576	4847
833.714	4801
833.852	4877
833.991	4949
834.129	4976
834.267	4987
834.406	4873
834.544	5006
834.682	5018
834.821	4976
834.959	5220
835.097	4995
835.235	5178
835.373	5121
835.511	5094
835.65	5041
835.788	5014
835.926	4930
836.064	4885
836.202	4965
836.34	5185
836.478	5227
836.615	5124
836.753	5208
836.891	5307
837.029	5265
837.167	5235
837.305	5212
837.443	5136
837.58	5064
837.718	5273
837.856	5197
837.993	5185
838.131	5246
838.269	5273
838.406	5216
838.544	5239
838.681	5067
838.819	5045
838.956	4911
839.094	4953
839.231	5003
839.369	5083
839.506	5398
839.643	5318
839.781	5079
839.918	4991
840.055	5067
840.193	5117
840.33	5117
840.467	5102
840.604	5162
840.742	5448
840.879	5102
841.016	5064
841.153	5204
841.29	5383
841.427	5330
841.564	5376
841.701	5414
841.838	5288
841.975	5273
842.112	5231
842.249	5162
842.385	5113
842.522	5299
842.659	5181
842.796	5121
842.933	5216
843.069	5147
843.206	5185
843.343	5334
843.479	5216
843.616	5246
843.752	5018
843.889	5041
844.025	5185
844.162	5025
844.298	5159
844.435	5067
844.571	5071
844.708	5223
844.844	5326
844.98	5395
845.117	5315
845.253	5128
845.389	5159
845.525	5181
845.661	5140
845.798	5056
845.934	5181
846.07	5060
846.206	5178
846.342	5357
846.478	5201
846.614	5102
846.75	4949
846.886	5022
847.022	5121
847.158	5045
847.294	5056
847.429	5098
847.565	5056
847.701	5337
847.837	4828
847.972	4828
848.108	4995
848.244	4968
848.379	4809
848.515	4736
848.65	4721
848.786	4729
848.921	4812
849.057	4889
849.192	4946
849.328	4873
849.463	4915
849.598	4778
849.734	4839
849.869	4706
850.004	4634
850.14	4736
850.275	4607
850.41	4558
850.545	4577
850.68	4649
850.815	4641
850.95	4645
851.085	4877
851.22	4744
851.355	4717
851.49	4637
851.625	4637
851.76	4634
851.895	4622
852.03	4512
852.165	4679
852.299	4717
852.434	4805
852.569	4672
852.703	4755
852.838	4866
852.973	4908
853.107	4942
853.242	4710
853.376	4664
853.511	4592
853.645	4622
853.78	4809
853.914	4668
854.048	4679
854.183	4653
854.317	4691
854.451	4816
854.585	4664
854.72	4675
854.854	4717
854.988	4622
855.122	4630
855.256	4523
855.39	4679
855.524	4797
855.658	4767
855.792	4717
855.926	4767
856.06	4759
856.194	4771
856.327	4729
856.461	4649
856.595	4641
856.729	4649
856.862	4801
856.996	4721
857.13	4763
857.263	4752
857.397	4790
857.53	4664
857.664	4717
857.797	4778
857.931	4790
858.064	4725
858.197	4763
858.331	4679
858.464	4645
858.597	4531
858.731	4626
858.864	4698
858.997	4577
859.13	4637
859.263	4717
859.396	4725
859.529	4611
859.662	4599
859.795	4531
859.928	4656
860.061	4752
860.194	4736
860.327	4603
860.46	4599
860.592	4752
860.725	4763
860.858	4755
860.99	4584
861.123	4527
861.256	4535
861.388	4645
861.521	5376
861.653	4474
861.786	4432
861.918	4466
862.05	4538
862.183	4516
862.315	4599
862.447	4710
862.58	4569
862.712	4375
862.844	4341
862.976	4516
863.108	4470
863.24	4889
863.372	4360
863.504	4424
863.636	4367
863.768	4497
863.9	4451
864.032	4367
864.164	4451
864.296	4527
864.428	4523
864.559	4584
864.691	4542
864.823	4561
864.954	4516
865.086	4504
865.217	4493
865.349	4402
865.48	4459
865.612	4485
865.743	4611
865.875	4489
866.006	4451
866.137	4470
866.269	4455
866.4	4428
866.531	4451
866.662	4405
866.793	4459
866.924	4459
867.055	4519
867.186	4470
867.317	4459
867.448	4375
867.579	4386
867.71	4371
867.841	4360
867.972	4485
868.103	4478
868.233	4489
868.364	4417
868.495	4565
868.625	4672
868.756	4752
868.886	4542
869.017	4584
869.147	4793
869.278	4774
869.408	4611
869.539	4626
869.669	4729
869.799	4714
869.929	4782
870.06	4778
870.19	4953
870.32	4877
870.45	4889
870.58	4968
870.71	5109
870.84	5083
870.97	4995
871.1	4938
871.23	5098
871.36	5124
871.489	4980
871.619	5079
871.749	5094
871.879	5086
872.008	5201
872.138	5102
872.267	4987
872.397	4904
872.526	4820
872.656	4714
872.785	4877
872.915	4984
873.044	5010
873.173	4946
873.303	4938
873.432	4995
873.561	5006
873.69	4866
873.819	4908
873.948	4946
874.077	4759
874.206	4786
874.335	4801
874.464	4961
874.593	5029
874.722	4976
874.851	5124
874.979	5090
875.108	5014
875.237	4934
875.365	4919
875.494	4980
875.623	4968
875.751	4866
875.88	4908
876.008	4953
876.136	5094
876.265	5223
876.393	5341
876.521	5246
876.65	5227
876.778	5174
876.906	5083
877.034	4987
877.162	5025
877.29	4968
877.418	5052
877.546	4995
877.674	5033
877.802	5086
877.93	5010
878.058	4930
878.185	4900
878.313	5006
878.441	4995
878.568	4767
878.696	4889
878.824	4991
878.951	5029
879.079	5117
879.206	5315
879.333	5155
879.461	4995
879.588	5018
879.715	5113
879.842	5223
879.97	5010
880.097	4790
880.224	4717
880.351	4828
880.478	4847
880.605	4809
880.732	4774
880.859	5083
880.986	4892
881.112	4972
881.239	4778
881.366	4687
881.493	4626
881.619	4588
881.746	4592
881.872	4622
881.999	4672
882.125	4740
882.252	4778
882.378	4904
882.505	4930
882.631	4828
882.757	4702
882.883	4706
883.01	4778
883.136	4698
883.262	4603
883.388	4615
883.514	4820
883.64	4877
883.766	4797
883.892	4675
884.018	4694
884.143	4915
884.269	5010
884.395	4668
884.52	4634
884.646	4634
884.772	4599
884.897	4538
885.023	4729
885.148	4835
885.274	4889
885.399	4748
885.524	4714
885.65	4687
885.775	4752
885.9	4706
886.025	4843
886.15	4816
886.275	4752
886.4	4691
886.525	4729
886.65	4729
886.775	4679
886.9	4965
887.025	5067
887.149	4797
887.274	4634
887.399	4611
887.523	4641
887.648	4554
887.773	4630
887.897	4774
888.021	4759
888.146	4649
888.27	4839
888.395	4919
888.519	4790
888.643	4824
888.767	4816
888.891	4660
889.015	4592
889.139	4694
889.263	4592
889.387	4782
889.511	4835
889.635	4759
889.759	4683
889.883	4664
890.006	4736
890.13	4801
890.254	4645
890.377	4672
890.501	4569
890.624	4550
890.748	4645
890.871	4573
890.995	4432
891.118	4371
891.241	4542
891.364	4523
891.488	4653
891.611	4531
891.734	4558
891.857	4592
891.98	4542
892.103	4660
892.226	4618
892.349	4538
892.471	4481
892.594	4554
892.717	4611
892.839	4599
892.962	4645
893.085	4706
893.207	4607
893.33	4481
893.452	4535
893.575	4714
893.697	4573
893.819	4782
893.941	4824
894.064	4767
894.186	4573
894.308	4554
894.43	4755
894.552	4862
894.674	4717
894.796	4592
894.918	4611
895.04	4599
895.161	4683
895.283	4649
895.405	4584
895.526	4653
895.648	4694
895.769	4679
895.891	4717
896.012	4744
896.134	4694
896.255	4668
896.376	4645
896.498	4645
896.619	4622
896.74	4618
896.861	4645
896.982	4942
897.103	5109
897.224	4862
897.345	4774
897.466	4698
897.587	4744
897.708	4877
897.828	4725
897.949	4691
898.07	4561
898.19	4675
898.311	4820
898.431	4717
898.552	4805
898.672	4812
898.792	4816
898.913	4759
899.033	4660
899.153	4542
899.273	4424
899.393	4470
899.513	4531
899.633	4527
899.753	4588
899.873	4569
899.993	4569
900.113	4546
900.232	4607
900.352	4527
900.472	4527
900.591	4440
900.711	4554
900.83	4466
900.95	4592
901.069	4679
901.189	4554
901.308	4409
901.427	4318
901.546	4402
901.665	4500
901.784	4508
901.904	4405
902.023	4371
902.141	4181
902.26	4166
902.379	4344
902.498	4238
902.617	4257
902.735	4405
902.854	4383
902.973	4409
903.091	4219
903.21	4284
903.328	4306
903.446	4234
903.565	4227
903.683	4341
903.801	4253
903.919	4432
904.038	4459
904.156	4314
904.274	4398
904.392	4405
904.51	4466
904.627	4466
904.745	4588
904.863	4637
904.981	4432
905.098	4314
905.216	4371
905.334	4428
905.451	4459
905.569	4455
905.686	4596
905.803	4603
905.921	4379
906.038	4554
906.155	4459
906.272	4394
906.389	4421
906.506	4356
906.623	4348
906.74	4417
906.857	4303
906.974	4363
907.091	4542
907.208	4675
907.324	4603
907.441	4535
907.557	4379
907.674	4360
907.79	4337
907.907	4390
908.023	4523
908.139	4493
908.256	4462
908.372	4527
908.488	4497
908.604	4325
908.72	4344
908.836	4402
908.952	4367
909.068	4428
909.184	4607
909.3	4474
909.415	4596
909.531	4554
909.647	4371
909.762	4421
909.878	4363
909.993	4409
910.108	4409
910.224	4428
910.339	4508
910.454	4398
910.57	4367
910.685	4303
910.8	4694
910.915	4592
911.03	4531
911.145	4329
911.259	4379
911.374	4409
911.489	4333
911.604	4303
911.718	4192
911.833	4173
911.947	4086
912.062	4017
912.176	4227
912.291	4257
912.405	4207
912.519	4508
912.633	4512
912.748	4367
912.862	4306
912.976	4219
913.09	4101
913.204	4158
913.318	4265
913.431	4375
913.545	4421
913.659	4443
913.772	4322
913.886	4291
914	4223
914.113	4432
914.226	4451
914.34	4424
914.453	4227
914.566	4474
914.68	4341
914.793	4333
914.906	4188
915.019	4177
915.132	4128
915.245	4200
915.358	4196
915.47	4280
915.583	4303
915.696	4352
915.809	4462
915.921	4409
916.034	4276
916.146	4265
916.259	4265
916.371	4417
916.483	4363
916.595	4284
916.708	4379
916.82	4306
916.932	4299
917.044	4371
917.156	4310
917.268	4223
917.38	4325
917.491	4295
917.603	4360
917.715	4417
917.826	4405
917.938	4367
918.049	4242
918.161	4424
918.272	4554
918.384	4561
918.495	4440
918.606	4280
918.717	4227
918.828	4371
918.939	4348
919.05	4265
919.161	4333
919.272	4162
919.383	4280
919.494	4474
919.604	4649
919.715	4443
919.826	4360
919.936	4421
920.047	4550
920.157	4493
920.267	4725
920.378	4542
920.488	4504
920.598	4698
920.708	4900
920.818	4759
920.928	4755
921.038	4934
921.148	4904
921.258	4596
921.368	4577
921.477	4508
921.587	4428
921.697	4417
921.806	4588
921.916	4440
922.025	4344
922.134	4276
922.244	4242
922.353	4363
922.462	4223
922.571	4154
922.68	4010
922.789	3964
922.898	4063
923.007	4036
923.116	4101
923.224	4044
923.333	4093
923.442	3998
923.55	3968
923.659	4071
923.767	4139
923.876	3998
923.984	4131
924.092	3983
924.201	4116
924.309	4105
924.417	4135
924.525	4078
924.633	4158
924.741	4881
924.849	3926
924.956	4158
925.064	3968
925.172	3956
925.279	3968
925.387	4048
925.494	4059
925.602	4230
925.709	4215
925.816	4048
925.924	4116
926.031	4276
926.138	4169
926.245	4223
926.352	4063
926.459	4276
926.566	4322
926.673	4196
926.779	4112
926.886	4105
926.993	3987
927.099	3945
927.206	3937
927.312	3991
927.419	4112
927.525	4090
927.631	4090
927.737	3949
927.843	3926
927.95	3842
928.056	3949
928.162	3991
928.267	4097
928.373	4679
928.479	4135
928.585	3903
928.69	4025
928.796	4116
928.901	3998
929.007	3857
929.112	4051
929.218	4032
929.323	3975
929.428	3968
929.533	4112
929.638	3918
929.743	3930
929.848	4029
929.953	4032
930.058	3899
930.163	3816
930.267	3869
930.372	4021
930.477	3827
930.581	4097
930.685	3979
930.79	3846
930.894	3899
930.998	3892
931.103	4021
931.207	3736
931.311	3679
931.415	3713
931.519	3576
931.623	3572
