Data from test_V78500241_2462.txt Node
Date: Fri Mar 25 17:06:07 CST 2022
User: usil
Spectrometer: V785-0024
Trigger mode: 0
Integration Time (sec): 4.000000E-1
Scans to average: 1
Nonlinearity correction enabled: false
Boxcar width: 0
Storing dark spectrum: false
XAxis mode: Wavelengths
Number of Pixels in Spectrum: 1024
>>>>>Begin Spectral Data<<<<<
801.071	8012
801.214	8058
801.356	7875
801.499	7837
801.641	7769
801.783	7784
801.926	7932
802.068	7928
802.211	7917
802.353	7974
802.496	7852
802.638	7902
802.78	7898
802.923	7841
803.065	7845
803.208	7822
803.35	7932
803.492	8069
803.635	8123
803.777	8020
803.919	8149
804.061	8480
804.204	8107
804.346	8001
804.488	7978
804.63	8092
804.773	7978
804.915	8058
805.057	8210
805.199	8130
805.341	8225
805.483	8279
805.626	8214
805.768	8218
805.91	8153
806.052	8229
806.194	8092
806.336	8313
806.478	8039
806.62	8031
806.762	8157
806.904	8210
807.046	8396
807.188	8336
807.33	8256
807.472	8259
807.614	8142
807.756	8096
807.898	8027
808.04	7818
808.182	7871
808.324	7837
808.465	7902
808.607	8115
808.749	8126
808.891	8168
809.033	8271
809.174	8195
809.316	8027
809.458	8027
809.6	7947
809.741	8012
809.883	7978
810.025	8062
810.166	8069
810.308	7967
810.45	7944
810.591	7951
810.733	7704
810.875	7605
811.016	7468
811.158	7434
811.299	7529
811.441	7624
811.582	7674
811.724	7552
811.865	7563
812.007	7597
812.148	7563
812.29	7597
812.431	7693
812.573	7799
812.714	7913
812.855	8092
812.997	8252
813.138	8301
813.279	8088
813.421	8084
813.562	7932
813.703	7814
813.845	7734
813.986	7426
814.127	7259
814.268	7240
814.41	7206
814.551	7145
814.692	7194
814.833	7023
814.974	7171
815.115	7129
815.256	6947
815.397	6924
815.539	7019
815.68	6779
815.821	6726
815.962	6935
816.103	6749
816.244	6734
816.385	6604
816.526	6566
816.666	6525
816.807	6372
816.948	6464
817.089	6426
817.23	6437
817.371	6422
817.512	6380
817.653	6388
817.793	6319
817.934	6380
818.075	6460
818.216	6380
818.356	6391
818.497	6232
818.638	6144
818.778	6186
818.919	6125
819.06	6186
819.2	6281
819.341	6376
819.481	6361
819.622	6578
819.762	6730
819.903	6688
820.043	6559
820.184	6578
820.324	6597
820.465	6669
820.605	6673
820.746	6623
820.886	6544
821.026	6669
821.167	6654
821.307	6795
821.447	6741
821.588	6681
821.728	6498
821.868	6544
822.008	6285
822.149	6292
822.289	6331
822.429	6159
822.569	6117
822.709	6106
822.849	5897
822.99	5904
823.13	5927
823.27	5908
823.41	5771
823.55	5824
823.69	5741
823.83	5767
823.97	5630
824.11	5474
824.25	5440
824.389	5535
824.529	5551
824.669	5509
824.809	5604
824.949	5653
825.089	5596
825.228	5532
825.368	5376
825.508	5337
825.648	5307
825.787	5334
825.927	5395
826.067	5277
826.206	5296
826.346	5326
826.485	5425
826.625	5410
826.765	5570
826.904	5455
827.044	5254
827.183	5174
827.323	5090
827.462	5269
827.601	5197
827.741	5185
827.88	5239
828.02	5136
828.159	5280
828.298	5345
828.437	5383
828.577	5303
828.716	5520
828.855	5345
828.994	5181
829.134	5181
829.273	5185
829.412	5174
829.551	5113
829.69	5147
829.829	5307
829.968	5417
830.107	5307
830.246	5303
830.385	5261
830.524	5193
830.663	5132
830.802	5029
830.941	4946
831.08	4885
831.219	5018
831.357	4976
831.496	5239
831.635	4957
831.774	4923
831.913	4885
832.051	4755
832.19	4809
832.329	4896
832.467	4740
832.606	4714
832.744	4721
832.883	4725
833.022	4755
833.16	4778
833.299	4839
833.437	4892
833.576	4946
833.714	4866
833.852	4877
833.991	4892
834.129	5006
834.267	5014
834.406	4900
834.544	5056
834.682	5033
834.821	5056
834.959	5239
835.097	5052
835.235	5204
835.373	5143
835.511	5155
835.65	5128
835.788	5102
835.926	4938
836.064	4942
836.202	4946
836.34	5193
836.478	5265
836.615	5147
836.753	5254
836.891	5345
837.029	5307
837.167	5235
837.305	5143
837.443	5269
837.58	5117
837.718	5261
837.856	5239
837.993	5185
838.131	5254
838.269	5181
838.406	5284
838.544	5212
838.681	5094
838.819	5083
838.956	4915
839.094	4946
839.231	5006
839.369	5121
839.506	5474
839.643	5334
839.781	5094
839.918	5079
840.055	5132
840.193	5170
840.33	5159
840.467	5201
840.604	5250
840.742	5478
840.879	5166
841.016	5098
841.153	5254
841.29	5379
841.427	5379
841.564	5318
841.701	5414
841.838	5353
841.975	5250
842.112	5349
842.249	5151
842.385	5147
842.522	5406
842.659	5178
842.796	5159
842.933	5258
843.069	5151
843.206	5162
843.343	5330
843.479	5269
843.616	5318
843.752	4999
843.889	5132
844.025	5273
844.162	5098
844.298	5220
844.435	5113
844.571	5056
844.708	5212
844.844	5326
844.98	5337
845.117	5303
845.253	5124
845.389	5098
845.525	5166
845.661	5193
845.798	5105
845.934	5170
846.07	5121
846.206	5193
846.342	5353
846.478	5181
846.614	5117
846.75	4991
846.886	4938
847.022	5124
847.158	5048
847.294	5102
847.429	5162
847.565	5064
847.701	5341
847.837	4919
847.972	4850
848.108	4976
848.244	4968
848.379	4816
848.515	4725
848.65	4755
848.786	4828
848.921	4809
849.057	4911
849.192	4938
849.328	4843
849.463	4877
849.598	4812
849.734	4820
849.869	4752
850.004	4634
850.14	4717
850.275	4641
850.41	4588
850.545	4592
850.68	4641
850.815	4656
850.95	4683
851.085	4858
851.22	4805
851.355	4698
851.49	4634
851.625	4641
851.76	4634
851.895	4603
852.03	4584
852.165	4706
852.299	4752
852.434	4843
852.569	4801
852.703	4812
852.838	4911
852.973	4987
853.107	4987
853.242	4812
853.376	4634
853.511	4588
853.645	4603
853.78	4835
853.914	4725
854.048	4721
854.183	4656
854.317	4729
854.451	4885
854.585	4725
854.72	4645
854.854	4831
854.988	4603
855.122	4649
855.256	4603
855.39	4653
855.524	4824
855.658	4740
855.792	4778
855.926	4755
856.06	4782
856.194	4835
856.327	4691
856.461	4641
856.595	4653
856.729	4672
856.862	4778
856.996	4744
857.13	4736
857.263	4755
857.397	4816
857.53	4694
857.664	4740
857.797	4801
857.931	4767
858.064	4733
858.197	4759
858.331	4683
858.464	4592
858.597	4527
858.731	4615
858.864	4694
858.997	4630
859.13	4736
859.263	4675
859.396	4694
859.529	4615
859.662	4641
859.795	4535
859.928	4672
860.061	4771
860.194	4759
860.327	4637
860.46	4618
860.592	4782
860.725	4767
860.858	4805
860.99	4596
861.123	4535
861.256	4538
861.388	4634
861.521	5254
861.653	4481
861.786	4459
861.918	4478
862.05	4527
862.183	4588
862.315	4656
862.447	4660
862.58	4637
862.712	4405
862.844	4367
862.976	4508
863.108	4474
863.24	4908
863.372	4367
863.504	4443
863.636	4409
863.768	4497
863.9	4481
864.032	4390
864.164	4451
864.296	4523
864.428	4596
864.559	4561
864.691	4561
864.823	4531
864.954	4535
865.086	4569
865.217	4512
865.349	4405
865.48	4542
865.612	4527
865.743	4599
865.875	4489
866.006	4443
866.137	4497
866.269	4462
866.4	4447
866.531	4447
866.662	4428
866.793	4440
866.924	4443
867.055	4497
867.186	4481
867.317	4436
867.448	4413
867.579	4421
867.71	4405
867.841	4375
867.972	4493
868.103	4462
868.233	4455
868.364	4489
868.495	4493
868.625	4653
868.756	4809
868.886	4573
869.017	4660
869.147	4774
869.278	4763
869.408	4679
869.539	4675
869.669	4774
869.799	4675
869.929	4759
870.06	4755
870.19	4976
870.32	4972
870.45	4915
870.58	5033
870.71	5166
870.84	5128
870.97	4991
871.1	4938
871.23	5174
871.36	5113
871.489	5041
871.619	5048
871.749	5113
871.879	5170
872.008	5235
872.138	5075
872.267	5045
872.397	4870
872.526	4797
872.656	4752
872.785	4843
872.915	4972
873.044	5067
873.173	4965
873.303	4946
873.432	4965
873.561	4972
873.69	4892
873.819	4923
873.948	4904
874.077	4896
874.206	4797
874.335	4831
874.464	4923
874.593	5075
874.722	5014
874.851	5189
874.979	5117
875.108	5025
875.237	4904
875.365	4904
875.494	4870
875.623	4968
875.751	4870
875.88	4889
876.008	4938
876.136	5025
876.265	5231
876.393	5353
876.521	5311
876.65	5250
876.778	5102
876.906	5079
877.034	5064
877.162	5060
877.29	5048
877.418	5090
877.546	5083
877.674	5071
877.802	5064
877.93	5064
878.058	4942
878.185	4919
878.313	4957
878.441	5018
878.568	4839
878.696	4900
878.824	4968
878.951	5041
879.079	5170
879.206	5277
879.333	5105
879.461	5014
879.588	5064
879.715	5140
879.842	5220
879.97	5079
880.097	4793
880.224	4782
880.351	4824
880.478	4824
880.605	4816
880.732	4805
880.859	5094
880.986	4911
881.112	4930
881.239	4809
881.366	4702
881.493	4603
881.619	4592
881.746	4630
881.872	4683
881.999	4694
882.125	4660
882.252	4725
882.378	4797
882.505	4984
882.631	4797
882.757	4721
882.883	4771
883.01	4786
883.136	4698
883.262	4656
883.388	4656
883.514	4839
883.64	4870
883.766	4828
883.892	4717
884.018	4691
884.143	4942
884.269	4980
884.395	4740
884.52	4653
884.646	4634
884.772	4615
884.897	4561
885.023	4649
885.148	4774
885.274	4862
885.399	4873
885.524	4736
885.65	4698
885.775	4706
885.9	4672
886.025	4915
886.15	4786
886.275	4721
886.4	4675
886.525	4710
886.65	4675
886.775	4725
886.9	4965
887.025	5037
887.149	4858
887.274	4675
887.399	4558
887.523	4622
887.648	4561
887.773	4611
887.897	4797
888.021	4778
888.146	4698
888.27	4805
888.395	4919
888.519	4793
888.643	4847
888.767	4831
888.891	4725
889.015	4641
889.139	4668
889.263	4672
889.387	4733
889.511	4866
889.635	4812
889.759	4683
889.883	4641
890.006	4714
890.13	4831
890.254	4637
890.377	4706
890.501	4596
890.624	4546
890.748	4675
890.871	4538
890.995	4421
891.118	4443
891.241	4538
891.364	4569
891.488	4637
891.611	4531
891.734	4592
891.857	4626
891.98	4603
892.103	4656
892.226	4558
892.349	4531
892.471	4447
892.594	4550
892.717	4580
892.839	4599
892.962	4672
893.085	4656
893.207	4611
893.33	4481
893.452	4527
893.575	4679
893.697	4599
893.819	4801
893.941	4828
894.064	4774
894.186	4554
894.308	4565
894.43	4717
894.552	4790
894.674	4778
894.796	4599
894.918	4577
895.04	4588
895.161	4717
895.283	4653
895.405	4664
895.526	4607
895.648	4706
895.769	4687
895.891	4733
896.012	4752
896.134	4733
896.255	4698
896.376	4630
896.498	4596
896.619	4668
896.74	4611
896.861	4668
896.982	4930
897.103	5113
897.224	4824
897.345	4752
897.466	4660
897.587	4706
897.708	4850
897.828	4721
897.949	4691
898.07	4565
898.19	4607
898.311	4854
898.431	4653
898.552	4714
898.672	4805
898.792	4763
898.913	4733
899.033	4615
899.153	4485
899.273	4402
899.393	4527
899.513	4584
899.633	4519
899.753	4546
899.873	4470
899.993	4584
900.113	4497
900.232	4577
900.352	4558
900.472	4538
900.591	4428
900.711	4493
900.83	4455
900.95	4607
901.069	4694
901.189	4527
901.308	4386
901.427	4295
901.546	4337
901.665	4516
901.784	4542
901.904	4363
902.023	4379
902.141	4234
902.26	4196
902.379	4322
902.498	4249
902.617	4215
902.735	4424
902.854	4390
902.973	4413
903.091	4219
903.21	4238
903.328	4299
903.446	4310
903.565	4299
903.683	4375
903.801	4314
903.919	4428
904.038	4470
904.156	4333
904.274	4436
904.392	4428
904.51	4459
904.627	4550
904.745	4584
904.863	4679
904.981	4348
905.098	4306
905.216	4436
905.334	4489
905.451	4512
905.569	4527
905.686	4573
905.803	4596
905.921	4398
906.038	4656
906.155	4508
906.272	4390
906.389	4516
906.506	4413
906.623	4436
906.74	4440
906.857	4398
906.974	4432
907.091	4611
907.208	4717
907.324	4637
907.441	4580
907.557	4409
907.674	4383
907.79	4360
907.907	4466
908.023	4538
908.139	4512
908.256	4516
908.372	4523
908.488	4504
908.604	4432
908.72	4356
908.836	4428
908.952	4436
909.068	4466
909.184	4641
909.3	4535
909.415	4637
909.531	4588
909.647	4413
909.762	4440
909.878	4371
909.993	4462
910.108	4436
910.224	4447
910.339	4542
910.454	4455
910.57	4363
910.685	4367
910.8	4691
910.915	4615
911.03	4538
911.145	4360
911.259	4348
911.374	4375
911.489	4363
911.604	4306
911.718	4238
911.833	4246
911.947	4120
912.062	4086
912.176	4268
912.291	4306
912.405	4295
912.519	4516
912.633	4569
912.748	4379
912.862	4371
912.976	4284
913.09	4120
913.204	4219
913.318	4280
913.431	4417
913.545	4390
913.659	4500
913.772	4371
913.886	4287
914	4253
914.113	4424
914.226	4535
914.34	4421
914.453	4272
914.566	4470
914.68	4295
914.793	4341
914.906	4230
915.019	4158
915.132	4116
915.245	4253
915.358	4230
915.47	4284
915.583	4337
915.696	4299
915.809	4451
915.921	4451
916.034	4306
916.146	4299
916.259	4257
916.371	4394
916.483	4417
916.595	4303
916.708	4344
916.82	4390
916.932	4341
917.044	4341
917.156	4356
917.268	4276
917.38	4314
917.491	4265
917.603	4375
917.715	4516
917.826	4459
917.938	4360
918.049	4291
918.161	4451
918.272	4573
918.384	4577
918.495	4516
918.606	4314
918.717	4265
918.828	4352
918.939	4375
919.05	4284
919.161	4348
919.272	4211
919.383	4291
919.494	4462
919.604	4694
919.715	4500
919.826	4421
919.936	4405
920.047	4527
920.157	4535
920.267	4717
920.378	4634
920.488	4546
920.598	4752
920.708	4889
920.818	4828
920.928	4774
921.038	5003
921.148	4946
921.258	4694
921.368	4569
921.477	4512
921.587	4497
921.697	4421
921.806	4550
921.916	4489
922.025	4276
922.134	4272
922.244	4265
922.353	4390
922.462	4211
922.571	4112
922.68	4025
922.789	3972
922.898	4074
923.007	4006
923.116	4150
923.224	4143
923.333	4090
923.442	4017
923.55	4013
923.659	4078
923.767	4135
923.876	4086
923.984	4112
924.092	4017
924.201	4131
924.309	4105
924.417	4158
924.525	4135
924.633	4158
924.741	5086
924.849	3934
924.956	4173
925.064	3979
925.172	3937
925.279	3983
925.387	4090
925.494	4059
925.602	4257
925.709	4207
925.816	4071
925.924	4147
926.031	4238
926.138	4188
926.245	4223
926.352	4131
926.459	4284
926.566	4310
926.673	4147
926.779	4086
926.886	4139
926.993	4017
927.099	3975
927.206	4002
927.312	3960
927.419	4097
927.525	4067
927.631	4143
927.737	4006
927.843	3987
927.95	3865
928.056	4002
928.162	4036
928.267	4067
928.373	4691
928.479	4120
928.585	3873
928.69	4067
928.796	4116
928.901	4032
929.007	3896
929.112	4002
929.218	4032
929.323	3949
929.428	3953
929.533	4162
929.638	3956
929.743	3979
929.848	4055
929.953	4055
930.058	3983
930.163	3865
930.267	3838
930.372	4048
930.477	3812
930.581	4124
930.685	4006
930.79	3842
930.894	3918
930.998	3903
931.103	4082
931.207	3762
931.311	3701
931.415	3736
931.519	3572
931.623	3595
