Data from test_V78500241_770.txt Node
Date: Fri Mar 25 16:54:21 CST 2022
User: usil
Spectrometer: V785-0024
Trigger mode: 0
Integration Time (sec): 4.000000E-1
Scans to average: 1
Nonlinearity correction enabled: false
Boxcar width: 0
Storing dark spectrum: false
XAxis mode: Wavelengths
Number of Pixels in Spectrum: 1024
>>>>>Begin Spectral Data<<<<<
801.071	8016
801.214	8031
801.356	7902
801.499	7921
801.641	7852
801.783	7917
801.926	8012
802.068	7955
802.211	8039
802.353	8020
802.496	7890
802.638	7986
802.78	7932
802.923	7906
803.065	7909
803.208	7894
803.35	8050
803.492	8191
803.635	8199
803.777	8058
803.919	8065
804.061	8423
804.204	8221
804.346	8103
804.488	7997
804.63	8176
804.773	8058
804.915	8130
805.057	8275
805.199	8115
805.341	8214
805.483	8286
805.626	8237
805.768	8225
805.91	8233
806.052	8252
806.194	8142
806.336	8317
806.478	8149
806.62	8103
806.762	8142
806.904	8320
807.046	8465
807.188	8404
807.33	8294
807.472	8328
807.614	8191
807.756	8233
807.898	7997
808.04	7959
808.182	7909
808.324	7871
808.465	7913
808.607	8172
808.749	8134
808.891	8199
809.033	8336
809.174	8172
809.316	8100
809.458	8065
809.6	8035
809.741	8084
809.883	8077
810.025	8111
810.166	8100
810.308	8065
810.45	8084
810.591	7898
810.733	7814
810.875	7769
811.016	7597
811.158	7491
811.299	7525
811.441	7734
811.582	7708
811.724	7597
811.865	7605
812.007	7567
812.148	7609
812.29	7594
812.431	7734
812.573	7837
812.714	8005
812.855	8130
812.997	8225
813.138	8336
813.279	8248
813.421	8111
813.562	8062
813.703	7826
813.845	7750
813.986	7476
814.127	7343
814.268	7232
814.41	7209
814.551	7194
814.692	7187
814.833	7004
814.974	7099
815.115	7046
815.256	7000
815.397	6913
815.539	7000
815.68	6791
815.821	6814
815.962	6878
816.103	6840
816.244	6779
816.385	6631
816.526	6681
816.666	6490
816.807	6285
816.948	6426
817.089	6475
817.23	6486
817.371	6391
817.512	6395
817.653	6414
817.793	6376
817.934	6448
818.075	6479
818.216	6407
818.356	6380
818.497	6292
818.638	6171
818.778	6178
818.919	6201
819.06	6136
819.2	6300
819.341	6346
819.481	6433
819.622	6532
819.762	6726
819.903	6730
820.043	6589
820.184	6627
820.324	6642
820.465	6589
820.605	6700
820.746	6665
820.886	6544
821.026	6719
821.167	6730
821.307	6787
821.447	6700
821.588	6734
821.728	6589
821.868	6467
822.008	6334
822.149	6361
822.289	6403
822.429	6167
822.569	6087
822.709	6114
822.849	5912
822.99	5939
823.13	5931
823.27	5916
823.41	5832
823.55	5783
823.69	5775
823.83	5828
823.97	5627
824.11	5463
824.25	5535
824.389	5589
824.529	5589
824.669	5581
824.809	5657
824.949	5611
825.089	5642
825.228	5509
825.368	5448
825.508	5364
825.648	5334
825.787	5402
825.927	5368
826.067	5360
826.206	5330
826.346	5398
826.485	5372
826.625	5459
826.765	5516
826.904	5493
827.044	5208
827.183	5227
827.323	5113
827.462	5254
827.601	5193
827.741	5208
827.88	5246
828.02	5170
828.159	5223
828.298	5208
828.437	5349
828.577	5299
828.716	5505
828.855	5288
828.994	5223
829.134	5166
829.273	5235
829.412	5147
829.551	5132
829.69	5174
829.829	5201
829.968	5448
830.107	5242
830.246	5303
830.385	5178
830.524	5162
830.663	5124
830.802	5056
830.941	4904
831.08	4885
831.219	5014
831.357	4976
831.496	5151
831.635	4965
831.774	4866
831.913	4862
832.051	4771
832.19	4725
832.329	4862
832.467	4733
832.606	4656
832.744	4694
832.883	4778
833.022	4759
833.16	4767
833.299	4782
833.437	4873
833.576	4847
833.714	4873
833.852	4873
833.991	4881
834.129	4991
834.267	4942
834.406	4942
834.544	4972
834.682	4984
834.821	4987
834.959	5140
835.097	4976
835.235	5216
835.373	5079
835.511	5102
835.65	4999
835.788	5083
835.926	4942
836.064	4885
836.202	4946
836.34	5204
836.478	5242
836.615	5143
836.753	5242
836.891	5326
837.029	5223
837.167	5212
837.305	5201
837.443	5189
837.58	5140
837.718	5273
837.856	5189
837.993	5140
838.131	5250
838.269	5242
838.406	5223
838.544	5246
838.681	5075
838.819	5052
838.956	4919
839.094	4911
839.231	4965
839.369	5105
839.506	5448
839.643	5341
839.781	5121
839.918	5029
840.055	5105
840.193	5102
840.33	5121
840.467	5155
840.604	5185
840.742	5459
840.879	5117
841.016	5067
841.153	5166
841.29	5368
841.427	5311
841.564	5353
841.701	5368
841.838	5284
841.975	5311
842.112	5296
842.249	5147
842.385	5090
842.522	5307
842.659	5193
842.796	5193
842.933	5216
843.069	5143
843.206	5197
843.343	5261
843.479	5273
843.616	5280
843.752	5010
843.889	5003
844.025	5201
844.162	5010
844.298	5204
844.435	5098
844.571	5056
844.708	5235
844.844	5273
844.98	5387
845.117	5258
845.253	5181
845.389	5105
845.525	5128
845.661	5155
845.798	5033
845.934	5121
846.07	5090
846.206	5231
846.342	5299
846.478	5220
846.614	5022
846.75	4961
846.886	4942
847.022	5159
847.158	5003
847.294	5060
847.429	5121
847.565	5025
847.701	5303
847.837	4885
847.972	4850
848.108	4927
848.244	4949
848.379	4812
848.515	4793
848.65	4725
848.786	4759
848.921	4858
849.057	4870
849.192	4911
849.328	4828
849.463	4843
849.598	4824
849.734	4752
849.869	4687
850.004	4672
850.14	4668
850.275	4672
850.41	4546
850.545	4577
850.68	4634
850.815	4637
850.95	4668
851.085	4816
851.22	4782
851.355	4679
851.49	4626
851.625	4622
851.76	4675
851.895	4603
852.03	4580
852.165	4649
852.299	4702
852.434	4755
852.569	4782
852.703	4816
852.838	4847
852.973	4976
853.107	4930
853.242	4733
853.376	4702
853.511	4538
853.645	4641
853.78	4812
853.914	4641
854.048	4656
854.183	4656
854.317	4668
854.451	4820
854.585	4637
854.72	4679
854.854	4778
854.988	4561
855.122	4634
855.256	4542
855.39	4683
855.524	4755
855.658	4759
855.792	4721
855.926	4744
856.06	4729
856.194	4774
856.327	4744
856.461	4660
856.595	4622
856.729	4641
856.862	4748
856.996	4691
857.13	4702
857.263	4790
857.397	4824
857.53	4694
857.664	4740
857.797	4790
857.931	4790
858.064	4691
858.197	4740
858.331	4649
858.464	4645
858.597	4489
858.731	4645
858.864	4596
858.997	4592
859.13	4683
859.263	4664
859.396	4698
859.529	4603
859.662	4542
859.795	4546
859.928	4634
860.061	4744
860.194	4748
860.327	4558
860.46	4573
860.592	4748
860.725	4725
860.858	4721
860.99	4538
861.123	4523
861.256	4497
861.388	4607
861.521	5376
861.653	4478
861.786	4440
861.918	4447
862.05	4531
862.183	4550
862.315	4603
862.447	4660
862.58	4554
862.712	4436
862.844	4337
862.976	4470
863.108	4421
863.24	4870
863.372	4310
863.504	4421
863.636	4424
863.768	4531
863.9	4428
864.032	4379
864.164	4424
864.296	4462
864.428	4535
864.559	4554
864.691	4489
864.823	4512
864.954	4516
865.086	4485
865.217	4485
865.349	4398
865.48	4459
865.612	4497
865.743	4637
865.875	4497
866.006	4466
866.137	4466
866.269	4459
866.4	4470
866.531	4459
866.662	4417
866.793	4371
866.924	4424
867.055	4481
867.186	4466
867.317	4386
867.448	4352
867.579	4409
867.71	4398
867.841	4383
867.972	4519
868.103	4489
868.233	4451
868.364	4443
868.495	4500
868.625	4649
868.756	4744
868.886	4577
869.017	4649
869.147	4733
869.278	4778
869.408	4653
869.539	4668
869.669	4656
869.799	4702
869.929	4763
870.06	4717
870.19	4923
870.32	4946
870.45	4957
870.58	5060
870.71	5155
870.84	5067
870.97	4938
871.1	4908
871.23	5143
871.36	5109
871.489	5041
871.619	5105
871.749	5102
871.879	5128
872.008	5166
872.138	5041
872.267	4946
872.397	4862
872.526	4812
872.656	4714
872.785	4824
872.915	4957
873.044	5003
873.173	4965
873.303	4927
873.432	4957
873.561	4930
873.69	4885
873.819	4862
873.948	4904
874.077	4900
874.206	4744
874.335	4778
874.464	4919
874.593	5014
874.722	4987
874.851	5113
874.979	5041
875.108	5018
875.237	4938
875.365	4839
875.494	4904
875.623	4965
875.751	4854
875.88	4900
876.008	4965
876.136	5037
876.265	5223
876.393	5334
876.521	5273
876.65	5193
876.778	5155
876.906	5136
877.034	5006
877.162	5029
877.29	4999
877.418	5067
877.546	5056
877.674	5048
877.802	5071
877.93	5052
878.058	4976
878.185	4900
878.313	4949
878.441	4942
878.568	4778
878.696	4900
878.824	4976
878.951	5056
879.079	5136
879.206	5326
879.333	5121
879.461	4942
879.588	5003
879.715	5128
879.842	5208
879.97	5048
880.097	4778
880.224	4759
880.351	4759
880.478	4858
880.605	4862
880.732	4778
880.859	5033
880.986	4877
881.112	4889
881.239	4793
881.366	4637
881.493	4641
881.619	4622
881.746	4645
881.872	4634
881.999	4698
882.125	4683
882.252	4828
882.378	4870
882.505	4965
882.631	4801
882.757	4664
882.883	4748
883.01	4721
883.136	4653
883.262	4645
883.388	4653
883.514	4778
883.64	4858
883.766	4793
883.892	4714
884.018	4694
884.143	4896
884.269	4965
884.395	4664
884.52	4630
884.646	4637
884.772	4584
884.897	4607
885.023	4687
885.148	4812
885.274	4858
885.399	4850
885.524	4694
885.65	4679
885.775	4748
885.9	4698
886.025	4866
886.15	4805
886.275	4687
886.4	4645
886.525	4748
886.65	4687
886.775	4736
886.9	4938
887.025	5003
887.149	4809
887.274	4656
887.399	4596
887.523	4584
887.648	4618
887.773	4637
887.897	4790
888.021	4771
888.146	4641
888.27	4793
888.395	4892
888.519	4839
888.643	4793
888.767	4786
888.891	4637
889.015	4607
889.139	4645
889.263	4637
889.387	4725
889.511	4847
889.635	4782
889.759	4634
889.883	4626
890.006	4744
890.13	4816
890.254	4626
890.377	4698
890.501	4577
890.624	4527
890.748	4618
890.871	4493
890.995	4436
891.118	4394
891.241	4538
891.364	4527
891.488	4634
891.611	4516
891.734	4573
891.857	4615
891.98	4565
892.103	4622
892.226	4550
892.349	4504
892.471	4432
892.594	4584
892.717	4603
892.839	4569
892.962	4573
893.085	4679
893.207	4599
893.33	4443
893.452	4516
893.575	4702
893.697	4531
893.819	4801
893.941	4839
894.064	4782
894.186	4596
894.308	4569
894.43	4729
894.552	4835
894.674	4717
894.796	4504
894.918	4588
895.04	4538
895.161	4725
895.283	4634
895.405	4573
895.526	4615
895.648	4691
895.769	4656
895.891	4717
896.012	4809
896.134	4763
896.255	4702
896.376	4649
896.498	4626
896.619	4721
896.74	4580
896.861	4668
896.982	4934
897.103	5060
897.224	4816
897.345	4729
897.466	4618
897.587	4710
897.708	4831
897.828	4786
897.949	4668
898.07	4538
898.19	4645
898.311	4763
898.431	4641
898.552	4755
898.672	4824
898.792	4797
898.913	4717
899.033	4641
899.153	4432
899.273	4421
899.393	4497
899.513	4542
899.633	4512
899.753	4504
899.873	4523
899.993	4588
900.113	4554
900.232	4630
900.352	4527
900.472	4535
900.591	4409
900.711	4489
900.83	4443
900.95	4599
901.069	4656
901.189	4554
901.308	4344
901.427	4341
901.546	4402
901.665	4478
901.784	4481
901.904	4367
902.023	4318
902.141	4177
902.26	4169
902.379	4333
902.498	4219
902.617	4215
902.735	4367
902.854	4405
902.973	4367
903.091	4166
903.21	4211
903.328	4238
903.446	4287
903.565	4265
903.683	4356
903.801	4284
903.919	4413
904.038	4451
904.156	4360
904.274	4375
904.392	4417
904.51	4447
904.627	4493
904.745	4596
904.863	4641
904.981	4398
905.098	4276
905.216	4383
905.334	4402
905.451	4428
905.569	4474
905.686	4550
905.803	4546
905.921	4432
906.038	4550
906.155	4466
906.272	4398
906.389	4436
906.506	4352
906.623	4371
906.74	4402
906.857	4318
906.974	4379
907.091	4554
907.208	4683
907.324	4558
907.441	4466
907.557	4352
907.674	4379
907.79	4299
907.907	4356
908.023	4466
908.139	4478
908.256	4417
908.372	4447
908.488	4466
908.604	4318
908.72	4337
908.836	4337
908.952	4371
909.068	4455
909.184	4519
909.3	4451
909.415	4577
909.531	4504
909.647	4360
909.762	4394
909.878	4356
909.993	4421
910.108	4455
910.224	4421
910.339	4405
910.454	4409
910.57	4421
910.685	4272
910.8	4649
910.915	4626
911.03	4508
911.145	4314
911.259	4341
911.374	4383
911.489	4295
911.604	4253
911.718	4154
911.833	4185
911.947	4048
912.062	4029
912.176	4200
912.291	4284
912.405	4204
912.519	4417
912.633	4512
912.748	4386
912.862	4322
912.976	4188
913.09	4116
913.204	4215
913.318	4272
913.431	4405
913.545	4436
913.659	4421
913.772	4398
913.886	4211
914	4169
914.113	4348
914.226	4421
914.34	4428
914.453	4238
914.566	4394
914.68	4333
914.793	4386
914.906	4109
915.019	4124
915.132	4059
915.245	4215
915.358	4219
915.47	4272
915.583	4268
915.696	4306
915.809	4367
915.921	4440
916.034	4280
916.146	4230
916.259	4261
916.371	4360
916.483	4367
916.595	4238
916.708	4318
916.82	4322
916.932	4310
917.044	4287
917.156	4299
917.268	4181
917.38	4280
917.491	4261
917.603	4367
917.715	4413
917.826	4451
917.938	4344
918.049	4253
918.161	4367
918.272	4527
918.384	4603
918.495	4443
918.606	4268
918.717	4207
918.828	4352
918.939	4383
919.05	4234
919.161	4344
919.272	4173
919.383	4242
919.494	4455
919.604	4649
919.715	4409
919.826	4375
919.936	4455
920.047	4508
920.157	4497
920.267	4702
920.378	4527
920.488	4481
920.598	4694
920.708	4881
920.818	4759
920.928	4721
921.038	4923
921.148	4930
921.258	4634
921.368	4573
921.477	4462
921.587	4466
921.697	4295
921.806	4527
921.916	4459
922.025	4257
922.134	4303
922.244	4188
922.353	4310
922.462	4173
922.571	4131
922.68	3994
922.789	3975
922.898	4032
923.007	3972
923.116	4059
923.224	4067
923.333	4112
923.442	3987
923.55	3945
923.659	4032
923.767	4093
923.876	4013
923.984	4131
924.092	3987
924.201	4109
924.309	4086
924.417	4124
924.525	4059
924.633	4090
924.741	4892
924.849	3941
924.956	4139
925.064	3945
925.172	3926
925.279	3987
925.387	4051
925.494	4078
925.602	4200
925.709	4173
925.816	4025
925.924	4143
926.031	4230
926.138	4207
926.245	4211
926.352	4044
926.459	4242
926.566	4318
926.673	4150
926.779	4071
926.886	4071
926.993	3968
927.099	3926
927.206	3983
927.312	3975
927.419	4082
927.525	4010
927.631	4078
927.737	3960
927.843	3949
927.95	3812
928.056	3975
928.162	3979
928.267	4071
928.373	4683
928.479	4105
928.585	3865
928.69	4013
928.796	4051
928.901	3975
929.007	3808
929.112	4002
929.218	3991
929.323	3926
929.428	3975
929.533	4074
929.638	3926
929.743	3975
929.848	4036
929.953	3972
930.058	3888
930.163	3842
930.267	3808
930.372	3949
930.477	3831
930.581	4078
930.685	3907
930.79	3827
930.894	3934
930.998	3865
931.103	4040
931.207	3728
931.311	3720
931.415	3671
931.519	3507
931.623	3568
