Data from test_V78500241_1003.txt Node
Date: Fri Mar 25 16:55:58 CST 2022
User: usil
Spectrometer: V785-0024
Trigger mode: 0
Integration Time (sec): 4.000000E-1
Scans to average: 1
Nonlinearity correction enabled: false
Boxcar width: 0
Storing dark spectrum: false
XAxis mode: Wavelengths
Number of Pixels in Spectrum: 1024
>>>>>Begin Spectral Data<<<<<
801.071	8069
801.214	8016
801.356	7818
801.499	7826
801.641	7769
801.783	7818
801.926	7944
802.068	7917
802.211	7917
802.353	7963
802.496	7723
802.638	7856
802.78	7833
802.923	7917
803.065	7780
803.208	7871
803.35	7997
803.492	8111
803.635	8161
803.777	7989
803.919	8035
804.061	8442
804.204	8107
804.346	8058
804.488	8012
804.63	8043
804.773	7947
804.915	8069
805.057	8244
805.199	8138
805.341	8195
805.483	8225
805.626	8180
805.768	8050
805.91	8164
806.052	8138
806.194	8065
806.336	8309
806.478	8130
806.62	8054
806.762	8119
806.904	8237
807.046	8446
807.188	8343
807.33	8290
807.472	8240
807.614	8130
807.756	8084
807.898	7944
808.04	7917
808.182	7845
808.324	7951
808.465	7883
808.607	8069
808.749	8092
808.891	8168
809.033	8248
809.174	8210
809.316	8062
809.458	8062
809.6	7936
809.741	8024
809.883	8062
810.025	8096
810.166	8027
810.308	7940
810.45	7986
810.591	7890
810.733	7731
810.875	7666
811.016	7529
811.158	7441
811.299	7647
811.441	7662
811.582	7632
811.724	7571
811.865	7476
812.007	7548
812.148	7578
812.29	7616
812.431	7704
812.573	7864
812.714	7967
812.855	8100
812.997	8187
813.138	8305
813.279	8210
813.421	8062
813.562	8039
813.703	7818
813.845	7788
813.986	7460
814.127	7247
814.268	7274
814.41	7141
814.551	7129
814.692	7145
814.833	7065
814.974	7107
815.115	7110
815.256	6962
815.397	6905
815.539	6947
815.68	6806
815.821	6707
815.962	6886
816.103	6795
816.244	6726
816.385	6635
816.526	6578
816.666	6464
816.807	6304
816.948	6433
817.089	6441
817.23	6445
817.371	6365
817.512	6365
817.653	6369
817.793	6350
817.934	6437
818.075	6486
818.216	6445
818.356	6391
818.497	6228
818.638	6068
818.778	6201
818.919	6076
819.06	6098
819.2	6353
819.341	6289
819.481	6357
819.622	6563
819.762	6692
819.903	6677
820.043	6559
820.184	6551
820.324	6559
820.465	6669
820.605	6692
820.746	6608
820.886	6479
821.026	6658
821.167	6650
821.307	6818
821.447	6722
821.588	6688
821.728	6669
821.868	6536
822.008	6311
822.149	6350
822.289	6357
822.429	6129
822.569	6083
822.709	6159
822.849	5946
822.99	5863
823.13	5912
823.27	5878
823.41	5767
823.55	5760
823.69	5779
823.83	5824
823.97	5665
824.11	5516
824.25	5520
824.389	5554
824.529	5604
824.669	5490
824.809	5604
824.949	5627
825.089	5638
825.228	5570
825.368	5372
825.508	5299
825.648	5322
825.787	5341
825.927	5318
826.067	5318
826.206	5246
826.346	5379
826.485	5315
826.625	5433
826.765	5520
826.904	5467
827.044	5212
827.183	5201
827.323	5136
827.462	5216
827.601	5235
827.741	5193
827.88	5208
828.02	5056
828.159	5239
828.298	5273
828.437	5334
828.577	5223
828.716	5436
828.855	5269
828.994	5124
829.134	5140
829.273	5189
829.412	5147
829.551	5086
829.69	5166
829.829	5181
829.968	5292
830.107	5239
830.246	5269
830.385	5117
830.524	5109
830.663	5014
830.802	4984
830.941	4828
831.08	4885
831.219	4946
831.357	4930
831.496	5159
831.635	4923
831.774	4793
831.913	4854
832.051	4755
832.19	4714
832.329	4812
832.467	4687
832.606	4615
832.744	4694
832.883	4710
833.022	4763
833.16	4797
833.299	4847
833.437	4805
833.576	4854
833.714	4850
833.852	4824
833.991	4900
834.129	4995
834.267	4923
834.406	4877
834.544	4980
834.682	4972
834.821	4934
834.959	5143
835.097	4968
835.235	5136
835.373	5086
835.511	5132
835.65	5048
835.788	5006
835.926	4889
836.064	4839
836.202	4900
836.34	5174
836.478	5155
836.615	5109
836.753	5231
836.891	5273
837.029	5246
837.167	5185
837.305	5113
837.443	5170
837.58	5071
837.718	5254
837.856	5109
837.993	5121
838.131	5212
838.269	5208
838.406	5178
838.544	5143
838.681	5010
838.819	5003
838.956	4881
839.094	4889
839.231	4976
839.369	5064
839.506	5414
839.643	5231
839.781	5041
839.918	5056
840.055	5117
840.193	5098
840.33	5113
840.467	5121
840.604	5193
840.742	5436
840.879	5045
841.016	5086
841.153	5121
841.29	5334
841.427	5330
841.564	5303
841.701	5311
841.838	5193
841.975	5254
842.112	5235
842.249	5060
842.385	5109
842.522	5265
842.659	5140
842.796	5159
842.933	5155
843.069	5124
843.206	5174
843.343	5288
843.479	5250
843.616	5284
843.752	5014
843.889	4984
844.025	5181
844.162	5022
844.298	5178
844.435	5079
844.571	5033
844.708	5201
844.844	5299
844.98	5303
845.117	5235
845.253	5086
845.389	5083
845.525	5147
845.661	5151
845.798	5025
845.934	5090
846.07	5064
846.206	5223
846.342	5318
846.478	5193
846.614	4999
846.75	4968
846.886	4942
847.022	5147
847.158	5041
847.294	5006
847.429	5098
847.565	5041
847.701	5208
847.837	4866
847.972	4812
848.108	4877
848.244	4930
848.379	4759
848.515	4725
848.65	4664
848.786	4729
848.921	4755
849.057	4858
849.192	4877
849.328	4778
849.463	4809
849.598	4801
849.734	4771
849.869	4710
850.004	4569
850.14	4649
850.275	4588
850.41	4531
850.545	4596
850.68	4599
850.815	4626
850.95	4607
851.085	4793
851.22	4755
851.355	4626
851.49	4634
851.625	4683
851.76	4649
851.895	4519
852.03	4538
852.165	4634
852.299	4771
852.434	4748
852.569	4706
852.703	4767
852.838	4816
852.973	4946
853.107	4881
853.242	4733
853.376	4660
853.511	4558
853.645	4626
853.78	4790
853.914	4706
854.048	4630
854.183	4626
854.317	4694
854.451	4843
854.585	4645
854.72	4599
854.854	4755
854.988	4626
855.122	4634
855.256	4535
855.39	4660
855.524	4759
855.658	4752
855.792	4698
855.926	4740
856.06	4774
856.194	4767
856.327	4698
856.461	4596
856.595	4618
856.729	4611
856.862	4755
856.996	4706
857.13	4714
857.263	4744
857.397	4774
857.53	4622
857.664	4759
857.797	4729
857.931	4786
858.064	4736
858.197	4752
858.331	4599
858.464	4588
858.597	4478
858.731	4618
858.864	4611
858.997	4523
859.13	4645
859.263	4660
859.396	4664
859.529	4565
859.662	4580
859.795	4489
859.928	4599
860.061	4774
860.194	4763
860.327	4542
860.46	4504
860.592	4721
860.725	4656
860.858	4675
860.99	4527
861.123	4500
861.256	4508
861.388	4550
861.521	5185
861.653	4466
861.786	4447
861.918	4436
862.05	4493
862.183	4527
862.315	4565
862.447	4641
862.58	4546
862.712	4390
862.844	4329
862.976	4440
863.108	4455
863.24	4881
863.372	4268
863.504	4424
863.636	4371
863.768	4462
863.9	4398
864.032	4344
864.164	4367
864.296	4474
864.428	4523
864.559	4542
864.691	4523
864.823	4527
864.954	4485
865.086	4489
865.217	4459
865.349	4402
865.48	4447
865.612	4455
865.743	4637
865.875	4485
866.006	4417
866.137	4466
866.269	4417
866.4	4443
866.531	4432
866.662	4333
866.793	4379
866.924	4379
867.055	4474
867.186	4481
867.317	4443
867.448	4348
867.579	4360
867.71	4417
867.841	4341
867.972	4421
868.103	4462
868.233	4470
868.364	4432
868.495	4516
868.625	4634
868.756	4748
868.886	4542
869.017	4615
869.147	4771
869.278	4740
869.408	4672
869.539	4622
869.669	4717
869.799	4634
869.929	4736
870.06	4767
870.19	4919
870.32	4885
870.45	4908
870.58	4976
870.71	5124
870.84	5083
870.97	4923
871.1	4847
871.23	5178
871.36	5105
871.489	5003
871.619	5037
871.749	5124
871.879	5067
872.008	5113
872.138	5041
872.267	4972
872.397	4854
872.526	4835
872.656	4694
872.785	4748
872.915	4896
873.044	4995
873.173	4889
873.303	4953
873.432	4946
873.561	4885
873.69	4866
873.819	4824
873.948	4942
874.077	4820
874.206	4721
874.335	4797
874.464	4953
874.593	5033
874.722	4953
874.851	5086
874.979	5071
875.108	4999
875.237	4881
875.365	4896
875.494	4885
875.623	4923
875.751	4774
875.88	4892
876.008	4946
876.136	5041
876.265	5140
876.393	5311
876.521	5246
876.65	5258
876.778	5147
876.906	5037
877.034	4987
877.162	4999
877.29	5018
877.418	5014
877.546	5048
877.674	5045
877.802	4980
877.93	5029
878.058	4904
878.185	4805
878.313	4949
878.441	4927
878.568	4793
878.696	4824
878.824	4938
878.951	5003
879.079	5109
879.206	5265
879.333	5060
879.461	4908
879.588	4984
879.715	5121
879.842	5208
879.97	4942
880.097	4824
880.224	4717
880.351	4736
880.478	4854
880.605	4790
880.732	4801
880.859	5064
880.986	4881
881.112	4908
881.239	4740
881.366	4706
881.493	4626
881.619	4573
881.746	4641
881.872	4645
881.999	4634
882.125	4664
882.252	4793
882.378	4771
882.505	4953
882.631	4805
882.757	4634
882.883	4736
883.01	4714
883.136	4622
883.262	4580
883.388	4615
883.514	4801
883.64	4870
883.766	4744
883.892	4679
884.018	4698
884.143	4881
884.269	4999
884.395	4698
884.52	4641
884.646	4626
884.772	4554
884.897	4550
885.023	4664
885.148	4790
885.274	4835
885.399	4831
885.524	4710
885.65	4668
885.775	4725
885.9	4698
886.025	4820
886.15	4805
886.275	4725
886.4	4717
886.525	4706
886.65	4641
886.775	4714
886.9	4847
887.025	5048
887.149	4782
887.274	4698
887.399	4599
887.523	4565
887.648	4569
887.773	4622
887.897	4729
888.021	4733
888.146	4706
888.27	4774
888.395	4889
888.519	4763
888.643	4854
888.767	4790
888.891	4664
889.015	4573
889.139	4649
889.263	4573
889.387	4771
889.511	4885
889.635	4790
889.759	4664
889.883	4660
890.006	4755
890.13	4805
890.254	4637
890.377	4679
890.501	4542
890.624	4497
890.748	4637
890.871	4451
890.995	4417
891.118	4417
891.241	4436
891.364	4516
891.488	4588
891.611	4500
891.734	4538
891.857	4554
891.98	4550
892.103	4634
892.226	4634
892.349	4535
892.471	4405
892.594	4542
892.717	4577
892.839	4538
892.962	4542
893.085	4660
893.207	4596
893.33	4462
893.452	4489
893.575	4656
893.697	4569
893.819	4812
893.941	4824
894.064	4710
894.186	4573
894.308	4588
894.43	4767
894.552	4847
894.674	4725
894.796	4565
894.918	4561
895.04	4561
895.161	4702
895.283	4672
895.405	4577
895.526	4618
895.648	4656
895.769	4687
895.891	4694
896.012	4736
896.134	4755
896.255	4687
896.376	4630
896.498	4637
896.619	4645
896.74	4599
896.861	4694
896.982	4892
897.103	5037
897.224	4812
897.345	4763
897.466	4656
897.587	4706
897.708	4831
897.828	4714
897.949	4664
898.07	4554
898.19	4618
898.311	4858
898.431	4660
898.552	4717
898.672	4778
898.792	4809
898.913	4698
899.033	4645
899.153	4459
899.273	4417
899.393	4459
899.513	4504
899.633	4500
899.753	4508
899.873	4474
899.993	4516
900.113	4527
900.232	4558
900.352	4569
900.472	4462
900.591	4402
900.711	4428
900.83	4421
900.95	4618
901.069	4679
901.189	4561
901.308	4333
901.427	4291
901.546	4394
901.665	4504
901.784	4500
901.904	4360
902.023	4333
902.141	4204
902.26	4162
902.379	4284
902.498	4227
902.617	4246
902.735	4341
902.854	4341
902.973	4322
903.091	4242
903.21	4181
903.328	4265
903.446	4242
903.565	4246
903.683	4367
903.801	4204
903.919	4409
904.038	4390
904.156	4314
904.274	4409
904.392	4341
904.51	4413
904.627	4432
904.745	4565
904.863	4622
904.981	4394
905.098	4337
905.216	4379
905.334	4462
905.451	4409
905.569	4413
905.686	4580
905.803	4554
905.921	4432
906.038	4573
906.155	4489
906.272	4386
906.389	4478
906.506	4337
906.623	4417
906.74	4371
906.857	4280
906.974	4341
907.091	4584
907.208	4675
907.324	4611
907.441	4478
907.557	4360
907.674	4310
907.79	4318
907.907	4360
908.023	4474
908.139	4462
908.256	4405
908.372	4405
908.488	4478
908.604	4348
908.72	4329
908.836	4386
908.952	4341
909.068	4417
909.184	4546
909.3	4447
909.415	4561
909.531	4538
909.647	4322
909.762	4348
909.878	4329
909.993	4428
910.108	4402
910.224	4413
910.339	4455
910.454	4402
910.57	4325
910.685	4329
910.8	4607
910.915	4565
911.03	4474
911.145	4325
911.259	4310
911.374	4360
911.489	4318
911.604	4238
911.718	4097
911.833	4166
911.947	4071
912.062	3964
912.176	4188
912.291	4147
912.405	4253
912.519	4443
912.633	4493
912.748	4367
912.862	4265
912.976	4154
913.09	4093
913.204	4139
913.318	4219
913.431	4360
913.545	4371
913.659	4402
913.772	4394
913.886	4253
914	4188
914.113	4371
914.226	4432
914.34	4371
914.453	4230
914.566	4447
914.68	4318
914.793	4280
914.906	4162
915.019	4086
915.132	4090
915.245	4185
915.358	4185
915.47	4215
915.583	4230
915.696	4234
915.809	4325
915.921	4409
916.034	4230
916.146	4265
916.259	4246
916.371	4337
916.483	4344
916.595	4238
916.708	4272
916.82	4310
916.932	4348
917.044	4337
917.156	4322
917.268	4219
917.38	4325
917.491	4287
917.603	4360
917.715	4421
917.826	4459
917.938	4356
918.049	4246
918.161	4436
918.272	4489
918.384	4493
918.495	4466
918.606	4253
918.717	4249
918.828	4314
918.939	4348
919.05	4257
919.161	4322
919.272	4143
919.383	4227
919.494	4428
919.604	4584
919.715	4470
919.826	4333
919.936	4424
920.047	4493
920.157	4519
920.267	4683
920.378	4516
920.488	4470
920.598	4721
920.708	4873
920.818	4729
920.928	4786
921.038	4957
921.148	4938
921.258	4596
921.368	4558
921.477	4462
921.587	4417
921.697	4375
921.806	4497
921.916	4383
922.025	4261
922.134	4265
922.244	4196
922.353	4322
922.462	4173
922.571	4135
922.68	3953
922.789	3987
922.898	4032
923.007	3998
923.116	4055
923.224	4074
923.333	4071
923.442	3998
923.55	3953
923.659	4017
923.767	4078
923.876	4010
923.984	4097
924.092	3979
924.201	4055
924.309	4067
924.417	4150
924.525	4051
924.633	4147
924.741	5067
924.849	3892
924.956	4131
925.064	3972
925.172	3937
925.279	3956
925.387	4051
925.494	4067
925.602	4257
925.709	4147
925.816	4025
925.924	4147
926.031	4173
926.138	4162
926.245	4150
926.352	4090
926.459	4261
926.566	4314
926.673	4128
926.779	4029
926.886	4086
926.993	3979
927.099	4025
927.206	3937
927.312	3915
927.419	4017
927.525	3987
927.631	4093
927.737	3991
927.843	3903
927.95	3808
928.056	3983
928.162	3930
928.267	4059
928.373	4675
928.479	4101
928.585	3869
928.69	3983
928.796	4055
928.901	3934
929.007	3854
929.112	4044
929.218	3949
929.323	3922
929.428	3941
929.533	4093
929.638	3926
929.743	3968
929.848	4036
929.953	3972
930.058	3892
930.163	3747
930.267	3789
930.372	3930
930.477	3793
930.581	4071
930.685	3903
930.79	3819
930.894	3880
930.998	3808
931.103	4013
931.207	3679
931.311	3675
931.415	3667
931.519	3515
931.623	3504
