Data from test_V78500241_945.txt Node
Date: Fri Mar 25 16:55:34 CST 2022
User: usil
Spectrometer: V785-0024
Trigger mode: 0
Integration Time (sec): 4.000000E-1
Scans to average: 1
Nonlinearity correction enabled: false
Boxcar width: 0
Storing dark spectrum: false
XAxis mode: Wavelengths
Number of Pixels in Spectrum: 1024
>>>>>Begin Spectral Data<<<<<
801.071	8069
801.214	8088
801.356	7932
801.499	7898
801.641	7830
801.783	7830
801.926	7913
802.068	7974
802.211	7898
802.353	7967
802.496	7852
802.638	7849
802.78	7875
802.923	7921
803.065	7906
803.208	7860
803.35	8020
803.492	8084
803.635	8123
803.777	8005
803.919	8134
804.061	8377
804.204	8157
804.346	8043
804.488	8039
804.63	8100
804.773	8077
804.915	8153
805.057	8229
805.199	8191
805.341	8164
805.483	8305
805.626	8202
805.768	8138
805.91	8202
806.052	8202
806.194	8073
806.336	8370
806.478	8142
806.62	8058
806.762	8130
806.904	8267
807.046	8476
807.188	8370
807.33	8332
807.472	8309
807.614	8126
807.756	8126
807.898	8005
808.04	7909
808.182	7856
808.324	7879
808.465	7883
808.607	8027
808.749	8058
808.891	8206
809.033	8339
809.174	8199
809.316	8111
809.458	8054
809.6	8012
809.741	8016
809.883	8088
810.025	8103
810.166	8065
810.308	8001
810.45	7997
810.591	7875
810.733	7704
810.875	7636
811.016	7521
811.158	7411
811.299	7609
811.441	7647
811.582	7734
811.724	7556
811.865	7586
812.007	7529
812.148	7571
812.29	7582
812.431	7738
812.573	7856
812.714	7932
812.855	8142
812.997	8195
813.138	8263
813.279	8176
813.421	8054
813.562	8012
813.703	7921
813.845	7792
813.986	7544
814.127	7274
814.268	7202
814.41	7198
814.551	7107
814.692	7171
814.833	7080
814.974	7080
815.115	7099
815.256	6947
815.397	6890
815.539	6962
815.68	6886
815.821	6726
815.962	6897
816.103	6760
816.244	6722
816.385	6677
816.526	6673
816.666	6502
816.807	6258
816.948	6410
817.089	6445
817.23	6517
817.371	6361
817.512	6441
817.653	6433
817.793	6380
817.934	6414
818.075	6517
818.216	6422
818.356	6426
818.497	6247
818.638	6091
818.778	6110
818.919	6235
819.06	6186
819.2	6304
819.341	6281
819.481	6376
819.622	6483
819.762	6669
819.903	6738
820.043	6574
820.184	6547
820.324	6589
820.465	6711
820.605	6612
820.746	6597
820.886	6433
821.026	6623
821.167	6707
821.307	6837
821.447	6772
821.588	6635
821.728	6555
821.868	6471
822.008	6361
822.149	6319
822.289	6338
822.429	6114
822.569	6068
822.709	6091
822.849	5942
822.99	5912
823.13	5912
823.27	5961
823.41	5771
823.55	5775
823.69	5817
823.83	5809
823.97	5634
824.11	5493
824.25	5524
824.389	5581
824.529	5558
824.669	5558
824.809	5653
824.949	5634
825.089	5623
825.228	5581
825.368	5318
825.508	5307
825.648	5353
825.787	5334
825.927	5360
826.067	5269
826.206	5265
826.346	5372
826.485	5417
826.625	5364
826.765	5528
826.904	5455
827.044	5242
827.183	5159
827.323	5117
827.462	5261
827.601	5155
827.741	5143
827.88	5216
828.02	5140
828.159	5292
828.298	5231
828.437	5364
828.577	5277
828.716	5478
828.855	5337
828.994	5166
829.134	5117
829.273	5220
829.412	5136
829.551	5147
829.69	5113
829.829	5277
829.968	5360
830.107	5239
830.246	5269
830.385	5181
830.524	5143
830.663	5083
830.802	4991
830.941	4881
831.08	4862
831.219	4946
831.357	4957
831.496	5166
831.635	4934
831.774	4850
831.913	4812
832.051	4805
832.19	4782
832.329	4839
832.467	4679
832.606	4645
832.744	4752
832.883	4714
833.022	4698
833.16	4778
833.299	4786
833.437	4850
833.576	4820
833.714	4828
833.852	4835
833.991	4915
834.129	4984
834.267	4919
834.406	4896
834.544	4965
834.682	4995
834.821	4957
834.959	5147
835.097	5014
835.235	5159
835.373	5098
835.511	5067
835.65	4995
835.788	5029
835.926	4911
836.064	4858
836.202	4927
836.34	5189
836.478	5220
836.615	5117
836.753	5201
836.891	5296
837.029	5174
837.167	5178
837.305	5174
837.443	5178
837.58	5090
837.718	5261
837.856	5246
837.993	5174
838.131	5204
838.269	5212
838.406	5174
838.544	5155
838.681	5064
838.819	5037
838.956	4862
839.094	4900
839.231	4987
839.369	5090
839.506	5391
839.643	5273
839.781	5090
839.918	5045
840.055	5029
840.193	5102
840.33	5162
840.467	5174
840.604	5124
840.742	5417
840.879	5029
841.016	5113
841.153	5113
841.29	5372
841.427	5311
841.564	5280
841.701	5376
841.838	5261
841.975	5254
842.112	5280
842.249	5094
842.385	5102
842.522	5307
842.659	5208
842.796	5117
842.933	5193
843.069	5102
843.206	5121
843.343	5318
843.479	5197
843.616	5273
843.752	5045
843.889	5014
844.025	5231
844.162	5060
844.298	5166
844.435	5098
844.571	5025
844.708	5170
844.844	5292
844.98	5303
845.117	5273
845.253	5174
845.389	5109
845.525	5140
845.661	5124
845.798	5014
845.934	5128
846.07	5037
846.206	5178
846.342	5231
846.478	5136
846.614	5045
846.75	4991
846.886	4953
847.022	5094
847.158	5003
847.294	5117
847.429	5060
847.565	5090
847.701	5318
847.837	4805
847.972	4771
848.108	4934
848.244	4938
848.379	4778
848.515	4744
848.65	4694
848.786	4714
848.921	4740
849.057	4858
849.192	4881
849.328	4820
849.463	4877
849.598	4786
849.734	4755
849.869	4675
850.004	4607
850.14	4679
850.275	4577
850.41	4516
850.545	4603
850.68	4626
850.815	4630
850.95	4577
851.085	4790
851.22	4736
851.355	4668
851.49	4592
851.625	4588
851.76	4577
851.895	4554
852.03	4550
852.165	4656
852.299	4698
852.434	4744
852.569	4725
852.703	4740
852.838	4828
852.973	4904
853.107	4923
853.242	4782
853.376	4653
853.511	4550
853.645	4603
853.78	4771
853.914	4729
854.048	4668
854.183	4668
854.317	4672
854.451	4805
854.585	4656
854.72	4599
854.854	4744
854.988	4580
855.122	4649
855.256	4497
855.39	4626
855.524	4755
855.658	4717
855.792	4714
855.926	4691
856.06	4744
856.194	4824
856.327	4660
856.461	4565
856.595	4634
856.729	4592
856.862	4725
856.996	4679
857.13	4672
857.263	4740
857.397	4824
857.53	4637
857.664	4717
857.797	4748
857.931	4763
858.064	4645
858.197	4740
858.331	4672
858.464	4527
858.597	4512
858.731	4615
858.864	4599
858.997	4531
859.13	4668
859.263	4675
859.396	4668
859.529	4500
859.662	4592
859.795	4508
859.928	4634
860.061	4721
860.194	4755
860.327	4618
860.46	4573
860.592	4729
860.725	4706
860.858	4710
860.99	4550
861.123	4516
861.256	4523
861.388	4599
861.521	5170
861.653	4485
861.786	4421
861.918	4489
862.05	4516
862.183	4554
862.315	4637
862.447	4679
862.58	4523
862.712	4371
862.844	4337
862.976	4436
863.108	4478
863.24	4778
863.372	4310
863.504	4405
863.636	4405
863.768	4527
863.9	4440
864.032	4367
864.164	4371
864.296	4447
864.428	4497
864.559	4573
864.691	4500
864.823	4527
864.954	4546
865.086	4500
865.217	4470
865.349	4390
865.48	4440
865.612	4421
865.743	4687
865.875	4459
866.006	4409
866.137	4432
866.269	4440
866.4	4443
866.531	4417
866.662	4333
866.793	4386
866.924	4402
867.055	4497
867.186	4440
867.317	4421
867.448	4360
867.579	4367
867.71	4398
867.841	4367
867.972	4432
868.103	4447
868.233	4367
868.364	4413
868.495	4455
868.625	4656
868.756	4748
868.886	4542
869.017	4618
869.147	4771
869.278	4706
869.408	4653
869.539	4607
869.669	4714
869.799	4630
869.929	4763
870.06	4733
870.19	4938
870.32	4911
870.45	4965
870.58	4938
870.71	5045
870.84	5056
870.97	4934
871.1	4850
871.23	5140
871.36	5094
871.489	5022
871.619	5067
871.749	5045
871.879	5140
872.008	5239
872.138	5052
872.267	4984
872.397	4862
872.526	4831
872.656	4710
872.785	4805
872.915	4942
873.044	5048
873.173	4972
873.303	4942
873.432	4953
873.561	4927
873.69	4843
873.819	4866
873.948	4896
874.077	4835
874.206	4740
874.335	4755
874.464	4953
874.593	5010
874.722	4900
874.851	5117
874.979	5075
875.108	4999
875.237	4885
875.365	4889
875.494	4870
875.623	4980
875.751	4820
875.88	4824
876.008	4949
876.136	5006
876.265	5162
876.393	5296
876.521	5280
876.65	5174
876.778	5143
876.906	5033
877.034	4991
877.162	4961
877.29	4949
877.418	5010
877.546	5041
877.674	5045
877.802	5033
877.93	5003
878.058	4908
878.185	4850
878.313	4968
878.441	4938
878.568	4790
878.696	4831
878.824	4930
878.951	4965
879.079	5117
879.206	5277
879.333	5094
879.461	4968
879.588	5003
879.715	5102
879.842	5197
879.97	4995
880.097	4816
880.224	4702
880.351	4809
880.478	4824
880.605	4752
880.732	4797
880.859	5056
880.986	4850
881.112	4866
881.239	4748
881.366	4683
881.493	4569
881.619	4626
881.746	4580
881.872	4611
881.999	4626
882.125	4675
882.252	4786
882.378	4824
882.505	4946
882.631	4831
882.757	4645
882.883	4721
883.01	4706
883.136	4588
883.262	4577
883.388	4664
883.514	4790
883.64	4858
883.766	4759
883.892	4672
884.018	4717
884.143	4839
884.269	4961
884.395	4679
884.52	4580
884.646	4634
884.772	4527
884.897	4573
885.023	4702
885.148	4759
885.274	4820
885.399	4786
885.524	4656
885.65	4691
885.775	4786
885.9	4656
886.025	4812
886.15	4740
886.275	4687
886.4	4630
886.525	4694
886.65	4691
886.775	4691
886.9	4904
887.025	5094
887.149	4774
887.274	4584
887.399	4535
887.523	4584
887.648	4596
887.773	4577
887.897	4748
888.021	4740
888.146	4691
888.27	4763
888.395	4900
888.519	4771
888.643	4740
888.767	4831
888.891	4634
889.015	4603
889.139	4630
889.263	4535
889.387	4736
889.511	4877
889.635	4771
889.759	4618
889.883	4656
890.006	4729
890.13	4831
890.254	4622
890.377	4740
890.501	4554
890.624	4516
890.748	4599
890.871	4497
890.995	4443
891.118	4367
891.241	4519
891.364	4531
891.488	4630
891.611	4489
891.734	4546
891.857	4622
891.98	4538
892.103	4653
892.226	4603
892.349	4508
892.471	4421
892.594	4542
892.717	4569
892.839	4577
892.962	4550
893.085	4687
893.207	4599
893.33	4451
893.452	4508
893.575	4664
893.697	4558
893.819	4733
893.941	4843
894.064	4736
894.186	4603
894.308	4516
894.43	4687
894.552	4809
894.674	4786
894.796	4550
894.918	4603
895.04	4558
895.161	4641
895.283	4588
895.405	4588
895.526	4664
895.648	4675
895.769	4645
895.891	4714
896.012	4706
896.134	4782
896.255	4683
896.376	4637
896.498	4618
896.619	4630
896.74	4588
896.861	4694
896.982	4938
897.103	5098
897.224	4831
897.345	4725
897.466	4645
897.587	4702
897.708	4843
897.828	4774
897.949	4637
898.07	4580
898.19	4668
898.311	4763
898.431	4691
898.552	4691
898.672	4858
898.792	4763
898.913	4736
899.033	4584
899.153	4489
899.273	4436
899.393	4485
899.513	4512
899.633	4512
899.753	4516
899.873	4500
899.993	4588
900.113	4470
900.232	4588
900.352	4538
900.472	4440
900.591	4367
900.711	4519
900.83	4470
900.95	4580
901.069	4664
901.189	4527
901.308	4325
901.427	4284
901.546	4363
901.665	4436
901.784	4489
901.904	4413
902.023	4303
902.141	4185
902.26	4169
902.379	4280
902.498	4242
902.617	4246
902.735	4356
902.854	4421
902.973	4367
903.091	4211
903.21	4196
903.328	4287
903.446	4287
903.565	4249
903.683	4329
903.801	4280
903.919	4390
904.038	4485
904.156	4356
904.274	4417
904.392	4356
904.51	4398
904.627	4466
904.745	4580
904.863	4603
904.981	4405
905.098	4272
905.216	4375
905.334	4344
905.451	4398
905.569	4386
905.686	4558
905.803	4573
905.921	4417
906.038	4523
906.155	4443
906.272	4402
906.389	4390
906.506	4318
906.623	4383
906.74	4417
906.857	4295
906.974	4333
907.091	4527
907.208	4660
907.324	4592
907.441	4459
907.557	4329
907.674	4261
907.79	4325
907.907	4405
908.023	4440
908.139	4459
908.256	4432
908.372	4447
908.488	4466
908.604	4344
908.72	4322
908.836	4360
908.952	4375
909.068	4383
909.184	4512
909.3	4474
909.415	4577
909.531	4523
909.647	4341
909.762	4363
909.878	4344
909.993	4402
910.108	4405
910.224	4402
910.339	4443
910.454	4344
910.57	4367
910.685	4310
910.8	4672
910.915	4569
911.03	4504
911.145	4314
911.259	4325
911.374	4344
911.489	4276
911.604	4280
911.718	4200
911.833	4185
911.947	4055
912.062	4048
912.176	4177
912.291	4246
912.405	4223
912.519	4466
912.633	4466
912.748	4360
912.862	4280
912.976	4173
913.09	4059
913.204	4188
913.318	4261
913.431	4329
913.545	4367
913.659	4421
913.772	4314
913.886	4192
914	4166
914.113	4375
914.226	4421
914.34	4413
914.453	4181
914.566	4375
914.68	4303
914.793	4291
914.906	4124
915.019	4124
915.132	4044
915.245	4135
915.358	4173
915.47	4211
915.583	4230
915.696	4295
915.809	4390
915.921	4409
916.034	4268
916.146	4230
916.259	4192
916.371	4306
916.483	4375
916.595	4234
916.708	4329
916.82	4291
916.932	4352
917.044	4299
917.156	4310
917.268	4234
917.38	4257
917.491	4246
917.603	4341
917.715	4398
917.826	4413
917.938	4341
918.049	4234
918.161	4360
918.272	4554
918.384	4580
918.495	4470
918.606	4314
918.717	4230
918.828	4322
918.939	4383
919.05	4207
919.161	4276
919.272	4105
919.383	4173
919.494	4386
919.604	4596
919.715	4356
919.826	4318
919.936	4360
920.047	4489
920.157	4443
920.267	4706
920.378	4527
920.488	4481
920.598	4691
920.708	4873
920.818	4729
920.928	4752
921.038	5003
921.148	4938
921.258	4641
921.368	4550
921.477	4508
921.587	4424
921.697	4371
921.806	4550
921.916	4417
922.025	4272
922.134	4284
922.244	4204
922.353	4333
922.462	4128
922.571	4086
922.68	4010
922.789	3926
922.898	4029
923.007	3972
923.116	4116
923.224	4055
923.333	4078
923.442	3979
923.55	3983
923.659	4002
923.767	4101
923.876	3998
923.984	4105
924.092	3937
924.201	4036
924.309	4131
924.417	4101
924.525	4074
924.633	4150
924.741	5037
924.849	3945
924.956	4147
925.064	3975
925.172	3861
925.279	3983
925.387	4032
925.494	4032
925.602	4181
925.709	4147
925.816	4006
925.924	4181
926.031	4234
926.138	4166
926.245	4188
926.352	4143
926.459	4276
926.566	4291
926.673	4158
926.779	4112
926.886	4017
926.993	3937
927.099	4010
927.206	3972
927.312	3953
927.419	4044
927.525	4021
927.631	4097
927.737	3934
927.843	3930
927.95	3835
928.056	3949
928.162	4017
928.267	4044
928.373	4653
928.479	4036
928.585	3907
928.69	4040
928.796	4078
928.901	3998
929.007	3854
929.112	4036
929.218	3960
929.323	3918
929.428	3949
929.533	4097
929.638	3911
929.743	3934
929.848	4074
929.953	3987
930.058	3941
930.163	3732
930.267	3793
930.372	3941
930.477	3816
930.581	4074
930.685	3949
930.79	3770
930.894	3907
930.998	3854
931.103	3998
931.207	3663
931.311	3720
931.415	3671
931.519	3519
931.623	3538
