Data from test_V78500241_1290.txt Node
Date: Fri Mar 25 16:57:58 CST 2022
User: usil
Spectrometer: V785-0024
Trigger mode: 0
Integration Time (sec): 4.000000E-1
Scans to average: 1
Nonlinearity correction enabled: false
Boxcar width: 0
Storing dark spectrum: false
XAxis mode: Wavelengths
Number of Pixels in Spectrum: 1024
>>>>>Begin Spectral Data<<<<<
801.071	8008
801.214	7989
801.356	7856
801.499	7833
801.641	7772
801.783	7822
801.926	7963
802.068	7906
802.211	7974
802.353	7982
802.496	7833
802.638	7868
802.78	7906
802.923	7974
803.065	7902
803.208	7860
803.35	7963
803.492	8008
803.635	8164
803.777	8027
803.919	8138
804.061	8427
804.204	8145
804.346	8062
804.488	8020
804.63	8031
804.773	8020
804.915	8115
805.057	8294
805.199	8157
805.341	8164
805.483	8279
805.626	8130
805.768	8145
805.91	8168
806.052	8187
806.194	8107
806.336	8309
806.478	8126
806.62	8107
806.762	8157
806.904	8199
807.046	8469
807.188	8279
807.33	8351
807.472	8313
807.614	8157
807.756	8100
807.898	7997
808.04	7925
808.182	7978
808.324	7875
808.465	7947
808.607	8077
808.749	8149
808.891	8157
809.033	8298
809.174	8237
809.316	8012
809.458	8058
809.6	7974
809.741	8050
809.883	8024
810.025	8077
810.166	8096
810.308	8043
810.45	7932
810.591	7906
810.733	7757
810.875	7616
811.016	7582
811.158	7476
811.299	7575
811.441	7670
811.582	7624
811.724	7636
811.865	7506
812.007	7582
812.148	7571
812.29	7605
812.431	7746
812.573	7868
812.714	7967
812.855	8046
812.997	8183
813.138	8282
813.279	8237
813.421	8069
813.562	7986
813.703	7826
813.845	7708
813.986	7426
814.127	7206
814.268	7274
814.41	7126
814.551	7122
814.692	7129
814.833	7084
814.974	7107
815.115	7103
815.256	6973
815.397	6905
815.539	6939
815.68	6848
815.821	6703
815.962	6848
816.103	6882
816.244	6684
816.385	6639
816.526	6646
816.666	6486
816.807	6262
816.948	6460
817.089	6441
817.23	6369
817.371	6350
817.512	6388
817.653	6429
817.793	6334
817.934	6380
818.075	6540
818.216	6403
818.356	6441
818.497	6289
818.638	6091
818.778	6125
818.919	6125
819.06	6114
819.2	6327
819.341	6323
819.481	6327
819.622	6551
819.762	6757
819.903	6703
820.043	6570
820.184	6544
820.324	6536
820.465	6703
820.605	6684
820.746	6551
820.886	6517
821.026	6604
821.167	6711
821.307	6715
821.447	6787
821.588	6639
821.728	6559
821.868	6464
822.008	6270
822.149	6323
822.289	6308
822.429	6159
822.569	6045
822.709	6106
822.849	5923
822.99	5878
823.13	5863
823.27	5939
823.41	5767
823.55	5748
823.69	5748
823.83	5771
823.97	5726
824.11	5547
824.25	5455
824.389	5539
824.529	5585
824.669	5532
824.809	5634
824.949	5600
825.089	5600
825.228	5551
825.368	5349
825.508	5277
825.648	5349
825.787	5368
825.927	5372
826.067	5303
826.206	5318
826.346	5379
826.485	5391
826.625	5414
826.765	5554
826.904	5444
827.044	5254
827.183	5174
827.323	5102
827.462	5330
827.601	5178
827.741	5185
827.88	5239
828.02	5140
828.159	5273
828.298	5258
828.437	5326
828.577	5330
828.716	5433
828.855	5269
828.994	5143
829.134	5128
829.273	5201
829.412	5151
829.551	5166
829.69	5189
829.829	5223
829.968	5364
830.107	5261
830.246	5269
830.385	5220
830.524	5147
830.663	5056
830.802	4930
830.941	4896
831.08	4870
831.219	4984
831.357	5014
831.496	5124
831.635	4915
831.774	4812
831.913	4801
832.051	4691
832.19	4752
832.329	4824
832.467	4706
832.606	4588
832.744	4706
832.883	4717
833.022	4698
833.16	4771
833.299	4805
833.437	4793
833.576	4786
833.714	4892
833.852	4839
833.991	4873
834.129	4965
834.267	4949
834.406	4881
834.544	4991
834.682	4999
834.821	4991
834.959	5178
835.097	4946
835.235	5121
835.373	5056
835.511	5052
835.65	5052
835.788	5045
835.926	4923
836.064	4881
836.202	4927
836.34	5159
836.478	5242
836.615	5143
836.753	5162
836.891	5277
837.029	5204
837.167	5231
837.305	5140
837.443	5155
837.58	5090
837.718	5280
837.856	5212
837.993	5151
838.131	5193
838.269	5204
838.406	5181
838.544	5155
838.681	5022
838.819	5045
838.956	4889
839.094	4892
839.231	4972
839.369	5079
839.506	5391
839.643	5258
839.781	5083
839.918	5029
840.055	5113
840.193	5067
840.33	5113
840.467	5132
840.604	5181
840.742	5459
840.879	5056
841.016	5079
841.153	5113
841.29	5330
841.427	5341
841.564	5353
841.701	5357
841.838	5277
841.975	5170
842.112	5273
842.249	5136
842.385	5105
842.522	5315
842.659	5170
842.796	5117
842.933	5159
843.069	5174
843.206	5181
843.343	5368
843.479	5246
843.616	5258
843.752	4976
843.889	4984
844.025	5208
844.162	5033
844.298	5235
844.435	5048
844.571	5018
844.708	5155
844.844	5273
844.98	5315
845.117	5258
845.253	5178
845.389	5060
845.525	5098
845.661	5117
845.798	5041
845.934	5117
846.07	5045
846.206	5143
846.342	5288
846.478	5170
846.614	5045
846.75	4984
846.886	4919
847.022	5136
847.158	5045
847.294	5018
847.429	5086
847.565	5037
847.701	5307
847.837	4870
847.972	4767
848.108	4911
848.244	4938
848.379	4752
848.515	4691
848.65	4729
848.786	4702
848.921	4812
849.057	4835
849.192	4911
849.328	4782
849.463	4854
849.598	4752
849.734	4793
849.869	4710
850.004	4592
850.14	4672
850.275	4584
850.41	4512
850.545	4481
850.68	4607
850.815	4630
850.95	4622
851.085	4828
851.22	4702
851.355	4714
851.49	4626
851.625	4615
851.76	4649
851.895	4565
852.03	4508
852.165	4641
852.299	4736
852.434	4786
852.569	4755
852.703	4748
852.838	4801
852.973	4900
853.107	4911
853.242	4736
853.376	4679
853.511	4561
853.645	4630
853.78	4797
853.914	4694
854.048	4668
854.183	4599
854.317	4618
854.451	4812
854.585	4702
854.72	4588
854.854	4721
854.988	4542
855.122	4626
855.256	4516
855.39	4675
855.524	4793
855.658	4683
855.792	4698
855.926	4729
856.06	4763
856.194	4824
856.327	4679
856.461	4645
856.595	4622
856.729	4626
856.862	4744
856.996	4702
857.13	4691
857.263	4702
857.397	4801
857.53	4622
857.664	4691
857.797	4744
857.931	4740
858.064	4615
858.197	4729
858.331	4634
858.464	4561
858.597	4508
858.731	4603
858.864	4630
858.997	4618
859.13	4626
859.263	4660
859.396	4694
859.529	4577
859.662	4584
859.795	4523
859.928	4656
860.061	4721
860.194	4702
860.327	4519
860.46	4573
860.592	4675
860.725	4672
860.858	4748
860.99	4584
861.123	4550
861.256	4527
861.388	4618
861.521	5185
861.653	4531
861.786	4481
861.918	4516
862.05	4489
862.183	4516
862.315	4596
862.447	4611
862.58	4519
862.712	4383
862.844	4299
862.976	4489
863.108	4481
863.24	4835
863.372	4295
863.504	4390
863.636	4405
863.768	4481
863.9	4405
864.032	4341
864.164	4409
864.296	4481
864.428	4535
864.559	4527
864.691	4546
864.823	4447
864.954	4470
865.086	4478
865.217	4455
865.349	4356
865.48	4508
865.612	4451
865.743	4611
865.875	4440
866.006	4424
866.137	4451
866.269	4451
866.4	4466
866.531	4413
866.662	4402
866.793	4402
866.924	4428
867.055	4500
867.186	4478
867.317	4405
867.448	4383
867.579	4360
867.71	4333
867.841	4348
867.972	4478
868.103	4440
868.233	4504
868.364	4440
868.495	4512
868.625	4675
868.756	4778
868.886	4519
869.017	4603
869.147	4786
869.278	4782
869.408	4649
869.539	4641
869.669	4706
869.799	4649
869.929	4721
870.06	4698
870.19	4946
870.32	4877
870.45	4911
870.58	5029
870.71	5094
870.84	5086
870.97	4930
871.1	4835
871.23	5113
871.36	5113
871.489	5033
871.619	5041
871.749	5098
871.879	5124
872.008	5162
872.138	5075
872.267	4927
872.397	4801
872.526	4774
872.656	4714
872.785	4767
872.915	4927
873.044	5048
873.173	4919
873.303	4930
873.432	4938
873.561	4942
873.69	4866
873.819	4877
873.948	4957
874.077	4847
874.206	4717
874.335	4797
874.464	4881
874.593	5056
874.722	4938
874.851	5083
874.979	5083
875.108	5025
875.237	4862
875.365	4835
875.494	4854
875.623	4972
875.751	4801
875.88	4858
876.008	4949
876.136	5048
876.265	5147
876.393	5364
876.521	5261
876.65	5170
876.778	5143
876.906	5083
877.034	5014
877.162	5064
877.29	4987
877.418	5048
877.546	5029
877.674	5045
877.802	4991
877.93	5052
878.058	4923
878.185	4866
878.313	4942
878.441	4862
878.568	4790
878.696	4831
878.824	4930
878.951	4984
879.079	5090
879.206	5303
879.333	5090
879.461	4942
879.588	5048
879.715	5128
879.842	5189
879.97	4980
880.097	4744
880.224	4755
880.351	4790
880.478	4809
880.605	4797
880.732	4820
880.859	5052
880.986	4892
881.112	4835
881.239	4748
881.366	4683
881.493	4618
881.619	4618
881.746	4622
881.872	4664
881.999	4645
882.125	4672
882.252	4793
882.378	4805
882.505	4934
882.631	4771
882.757	4615
882.883	4717
883.01	4725
883.136	4653
883.262	4622
883.388	4634
883.514	4828
883.64	4828
883.766	4752
883.892	4691
884.018	4694
884.143	4927
884.269	4961
884.395	4679
884.52	4615
884.646	4611
884.772	4618
884.897	4592
885.023	4626
885.148	4759
885.274	4839
885.399	4797
885.524	4706
885.65	4668
885.775	4767
885.9	4668
886.025	4862
886.15	4759
886.275	4759
886.4	4721
886.525	4725
886.65	4660
886.775	4622
886.9	4904
887.025	5018
887.149	4793
887.274	4611
887.399	4554
887.523	4615
887.648	4535
887.773	4599
887.897	4771
888.021	4740
888.146	4679
888.27	4763
888.395	4908
888.519	4771
888.643	4793
888.767	4839
888.891	4656
889.015	4565
889.139	4637
889.263	4634
889.387	4736
889.511	4873
889.635	4759
889.759	4573
889.883	4634
890.006	4706
890.13	4774
890.254	4645
890.377	4645
890.501	4542
890.624	4443
890.748	4637
890.871	4497
890.995	4424
891.118	4383
891.241	4489
891.364	4542
891.488	4580
891.611	4481
891.734	4497
891.857	4584
891.98	4565
892.103	4626
892.226	4588
892.349	4523
892.471	4371
892.594	4550
892.717	4584
892.839	4584
892.962	4599
893.085	4668
893.207	4550
893.33	4424
893.452	4523
893.575	4668
893.697	4580
893.819	4805
893.941	4809
894.064	4767
894.186	4588
894.308	4550
894.43	4793
894.552	4805
894.674	4744
894.796	4561
894.918	4596
895.04	4523
895.161	4691
895.283	4687
895.405	4580
895.526	4649
895.648	4645
895.769	4710
895.891	4683
896.012	4755
896.134	4698
896.255	4656
896.376	4637
896.498	4637
896.619	4698
896.74	4584
896.861	4618
896.982	4961
897.103	5090
897.224	4790
897.345	4752
897.466	4694
897.587	4691
897.708	4824
897.828	4759
897.949	4645
898.07	4546
898.19	4615
898.311	4870
898.431	4664
898.552	4740
898.672	4752
898.792	4771
898.913	4717
899.033	4577
899.153	4512
899.273	4443
899.393	4455
899.513	4561
899.633	4512
899.753	4516
899.873	4497
899.993	4569
900.113	4550
900.232	4584
900.352	4542
900.472	4493
900.591	4402
900.711	4474
900.83	4375
900.95	4626
901.069	4694
901.189	4523
901.308	4367
901.427	4291
901.546	4348
901.665	4432
901.784	4561
901.904	4356
902.023	4325
902.141	4185
902.26	4124
902.379	4299
902.498	4261
902.617	4268
902.735	4394
902.854	4421
902.973	4337
903.091	4253
903.21	4181
903.328	4333
903.446	4230
903.565	4238
903.683	4287
903.801	4284
903.919	4363
904.038	4413
904.156	4310
904.274	4371
904.392	4375
904.51	4459
904.627	4485
904.745	4546
904.863	4634
904.981	4344
905.098	4314
905.216	4337
905.334	4443
905.451	4459
905.569	4421
905.686	4538
905.803	4565
905.921	4421
906.038	4542
906.155	4474
906.272	4383
906.389	4500
906.506	4329
906.623	4341
906.74	4379
906.857	4333
906.974	4356
907.091	4573
907.208	4679
907.324	4569
907.441	4504
907.557	4310
907.674	4344
907.79	4280
907.907	4333
908.023	4527
908.139	4481
908.256	4447
908.372	4504
908.488	4459
908.604	4306
908.72	4337
908.836	4325
908.952	4341
909.068	4417
909.184	4523
909.3	4455
909.415	4569
909.531	4558
909.647	4386
909.762	4394
909.878	4341
909.993	4383
910.108	4432
910.224	4386
910.339	4474
910.454	4398
910.57	4333
910.685	4295
910.8	4634
910.915	4535
911.03	4489
911.145	4318
911.259	4276
911.374	4337
911.489	4291
911.604	4291
911.718	4150
911.833	4188
911.947	4078
912.062	4036
912.176	4200
912.291	4177
912.405	4261
912.519	4443
912.633	4497
912.748	4363
912.862	4291
912.976	4162
913.09	4101
913.204	4177
913.318	4204
913.431	4341
913.545	4352
913.659	4478
913.772	4341
913.886	4204
914	4261
914.113	4337
914.226	4405
914.34	4356
914.453	4227
914.566	4398
914.68	4306
914.793	4314
914.906	4150
915.019	4124
915.132	4078
915.245	4166
915.358	4211
915.47	4230
915.583	4257
915.696	4303
915.809	4394
915.921	4413
916.034	4276
916.146	4249
916.259	4181
916.371	4352
916.483	4329
916.595	4276
916.708	4356
916.82	4268
916.932	4306
917.044	4310
917.156	4371
917.268	4223
917.38	4284
917.491	4257
917.603	4329
917.715	4398
917.826	4413
917.938	4363
918.049	4253
918.161	4367
918.272	4580
918.384	4527
918.495	4421
918.606	4291
918.717	4265
918.828	4367
918.939	4405
919.05	4253
919.161	4314
919.272	4112
919.383	4238
919.494	4440
919.604	4599
919.715	4432
919.826	4356
919.936	4360
920.047	4542
920.157	4455
920.267	4740
920.378	4542
920.488	4512
920.598	4744
920.708	4877
920.818	4752
920.928	4759
921.038	4968
921.148	4908
921.258	4630
921.368	4577
921.477	4455
921.587	4443
921.697	4383
921.806	4516
921.916	4466
922.025	4299
922.134	4268
922.244	4192
922.353	4299
922.462	4181
922.571	4131
922.68	4013
922.789	3960
922.898	4013
923.007	3991
923.116	4044
923.224	4032
923.333	4059
923.442	4002
923.55	3956
923.659	3960
923.767	4101
923.876	3998
923.984	4166
924.092	3972
924.201	4032
924.309	4097
924.417	4166
924.525	4044
924.633	4097
924.741	5006
924.849	3911
924.956	4101
925.064	3937
925.172	3880
925.279	3960
925.387	4048
925.494	4025
925.602	4188
925.709	4147
925.816	4044
925.924	4112
926.031	4299
926.138	4143
926.245	4188
926.352	4078
926.459	4238
926.566	4299
926.673	4166
926.779	4109
926.886	4082
926.993	3922
927.099	3964
927.206	3945
927.312	3941
927.419	4067
927.525	4048
927.631	4071
927.737	3945
927.843	3884
927.95	3842
928.056	3960
928.162	3983
928.267	4006
928.373	4675
928.479	4105
928.585	3892
928.69	4010
928.796	4036
928.901	3937
929.007	3793
929.112	3998
929.218	3953
929.323	3941
929.428	3926
929.533	4078
929.638	3903
929.743	3960
929.848	4025
929.953	4013
930.058	3960
930.163	3743
930.267	3800
930.372	3979
930.477	3812
930.581	4131
930.685	3934
930.79	3831
930.894	3876
930.998	3804
931.103	4021
931.207	3690
931.311	3720
931.415	3675
931.519	3534
931.623	3530
