Data from test_V78500241_1216.txt Node
Date: Fri Mar 25 16:57:27 CST 2022
User: usil
Spectrometer: V785-0024
Trigger mode: 0
Integration Time (sec): 4.000000E-1
Scans to average: 1
Nonlinearity correction enabled: false
Boxcar width: 0
Storing dark spectrum: false
XAxis mode: Wavelengths
Number of Pixels in Spectrum: 1024
>>>>>Begin Spectral Data<<<<<
801.071	8039
801.214	8012
801.356	7940
801.499	7852
801.641	7845
801.783	7795
801.926	7940
802.068	7890
802.211	7989
802.353	8005
802.496	7860
802.638	7879
802.78	7947
802.923	7951
803.065	7909
803.208	7944
803.35	8016
803.492	8195
803.635	8199
803.777	8054
803.919	8221
804.061	8434
804.204	8157
804.346	8126
804.488	8008
804.63	8180
804.773	8008
804.915	8115
805.057	8286
805.199	8202
805.341	8309
805.483	8343
805.626	8309
805.768	8134
805.91	8199
806.052	8282
806.194	8164
806.336	8290
806.478	8134
806.62	8088
806.762	8157
806.904	8351
807.046	8492
807.188	8347
807.33	8332
807.472	8366
807.614	8176
807.756	8180
807.898	8084
808.04	7883
808.182	7932
808.324	7894
808.465	7967
808.607	8142
808.749	8088
808.891	8221
809.033	8313
809.174	8157
809.316	8164
809.458	8134
809.6	8058
809.741	8046
809.883	8024
810.025	8134
810.166	8035
810.308	8016
810.45	8027
810.591	7864
810.733	7765
810.875	7670
811.016	7582
811.158	7533
811.299	7590
811.441	7772
811.582	7757
811.724	7655
811.865	7571
812.007	7567
812.148	7620
812.29	7693
812.431	7761
812.573	7909
812.714	8050
812.855	8168
812.997	8229
813.138	8381
813.279	8248
813.421	8153
813.562	8035
813.703	7887
813.845	7822
813.986	7502
814.127	7297
814.268	7270
814.41	7255
814.551	7160
814.692	7206
814.833	7118
814.974	7069
815.115	7118
815.256	6977
815.397	6932
815.539	6970
815.68	6871
815.821	6825
815.962	6916
816.103	6863
816.244	6772
816.385	6642
816.526	6608
816.666	6426
816.807	6300
816.948	6448
817.089	6513
817.23	6456
817.371	6433
817.512	6456
817.653	6353
817.793	6403
817.934	6407
818.075	6498
818.216	6437
818.356	6464
818.497	6300
818.638	6167
818.778	6209
818.919	6140
819.06	6167
819.2	6331
819.341	6296
819.481	6448
819.622	6479
819.762	6783
819.903	6749
820.043	6608
820.184	6544
820.324	6631
820.465	6730
820.605	6738
820.746	6631
820.886	6532
821.026	6703
821.167	6760
821.307	6798
821.447	6776
821.588	6688
821.728	6566
821.868	6521
822.008	6304
822.149	6334
822.289	6372
822.429	6152
822.569	6083
822.709	6091
822.849	5950
822.99	5939
823.13	5973
823.27	5946
823.41	5752
823.55	5760
823.69	5798
823.83	5813
823.97	5680
824.11	5551
824.25	5524
824.389	5539
824.529	5589
824.669	5551
824.809	5642
824.949	5710
825.089	5611
825.228	5589
825.368	5490
825.508	5364
825.648	5391
825.787	5349
825.927	5383
826.067	5315
826.206	5269
826.346	5417
826.485	5376
826.625	5417
826.765	5566
826.904	5463
827.044	5311
827.183	5246
827.323	5140
827.462	5246
827.601	5151
827.741	5246
827.88	5235
828.02	5113
828.159	5258
828.298	5315
828.437	5417
828.577	5334
828.716	5528
828.855	5326
828.994	5140
829.134	5204
829.273	5201
829.412	5181
829.551	5132
829.69	5212
829.829	5246
829.968	5421
830.107	5322
830.246	5258
830.385	5223
830.524	5143
830.663	5071
830.802	4987
830.941	4889
831.08	4908
831.219	4961
831.357	4942
831.496	5174
831.635	4942
831.774	4866
831.913	4892
832.051	4755
832.19	4744
832.329	4831
832.467	4729
832.606	4649
832.744	4771
832.883	4748
833.022	4755
833.16	4812
833.299	4812
833.437	4831
833.576	4877
833.714	4843
833.852	4896
833.991	4938
834.129	4953
834.267	4915
834.406	4908
834.544	5003
834.682	4995
834.821	4984
834.959	5166
835.097	4995
835.235	5170
835.373	5117
835.511	5094
835.65	5056
835.788	5022
835.926	4904
836.064	4889
836.202	4930
836.34	5174
836.478	5201
836.615	5174
836.753	5246
836.891	5345
837.029	5250
837.167	5197
837.305	5170
837.443	5162
837.58	5071
837.718	5277
837.856	5193
837.993	5159
838.131	5265
838.269	5193
838.406	5208
838.544	5201
838.681	5056
838.819	5033
838.956	4927
839.094	4911
839.231	4961
839.369	5121
839.506	5398
839.643	5296
839.781	5086
839.918	5094
840.055	5086
840.193	5132
840.33	5147
840.467	5193
840.604	5201
840.742	5474
840.879	5071
841.016	5128
841.153	5147
841.29	5406
841.427	5398
841.564	5337
841.701	5326
841.838	5299
841.975	5231
842.112	5307
842.249	5121
842.385	5090
842.522	5345
842.659	5170
842.796	5151
842.933	5250
843.069	5117
843.206	5159
843.343	5334
843.479	5254
843.616	5318
843.752	5067
843.889	5025
844.025	5208
844.162	5052
844.298	5216
844.435	5090
844.571	5128
844.708	5212
844.844	5307
844.98	5349
845.117	5265
845.253	5151
845.389	5048
845.525	5155
845.661	5147
845.798	5064
845.934	5124
846.07	5014
846.206	5235
846.342	5223
846.478	5178
846.614	5045
846.75	4968
846.886	4915
847.022	5159
847.158	5045
847.294	5033
847.429	5105
847.565	5064
847.701	5341
847.837	4835
847.972	4866
848.108	4980
848.244	5018
848.379	4850
848.515	4698
848.65	4771
848.786	4805
848.921	4797
849.057	4911
849.192	4881
849.328	4774
849.463	4858
849.598	4839
849.734	4797
849.869	4672
850.004	4683
850.14	4721
850.275	4622
850.41	4519
850.545	4584
850.68	4599
850.815	4656
850.95	4626
851.085	4805
851.22	4782
851.355	4710
851.49	4656
851.625	4607
851.76	4672
851.895	4561
852.03	4573
852.165	4622
852.299	4717
852.434	4774
852.569	4744
852.703	4816
852.838	4835
852.973	4919
853.107	4942
853.242	4755
853.376	4675
853.511	4561
853.645	4611
853.78	4812
853.914	4725
854.048	4656
854.183	4672
854.317	4660
854.451	4858
854.585	4660
854.72	4645
854.854	4831
854.988	4622
855.122	4599
855.256	4558
855.39	4630
855.524	4755
855.658	4698
855.792	4717
855.926	4797
856.06	4767
856.194	4820
856.327	4653
856.461	4653
856.595	4653
856.729	4660
856.862	4752
856.996	4752
857.13	4771
857.263	4763
857.397	4797
857.53	4649
857.664	4691
857.797	4797
857.931	4797
858.064	4740
858.197	4748
858.331	4683
858.464	4577
858.597	4573
858.731	4653
858.864	4675
858.997	4584
859.13	4649
859.263	4645
859.396	4714
859.529	4584
859.662	4588
859.795	4519
859.928	4615
860.061	4809
860.194	4755
860.327	4637
860.46	4538
860.592	4729
860.725	4717
860.858	4733
860.99	4611
861.123	4535
861.256	4577
861.388	4672
861.521	5326
861.653	4485
861.786	4455
861.918	4455
862.05	4569
862.183	4592
862.315	4615
862.447	4626
862.58	4653
862.712	4394
862.844	4337
862.976	4485
863.108	4417
863.24	4843
863.372	4337
863.504	4462
863.636	4421
863.768	4519
863.9	4409
864.032	4409
864.164	4402
864.296	4432
864.428	4531
864.559	4599
864.691	4523
864.823	4519
864.954	4519
865.086	4504
865.217	4459
865.349	4447
865.48	4470
865.612	4504
865.743	4626
865.875	4436
866.006	4443
866.137	4478
866.269	4443
866.4	4413
866.531	4428
866.662	4405
866.793	4405
866.924	4417
867.055	4497
867.186	4470
867.317	4436
867.448	4367
867.579	4409
867.71	4424
867.841	4375
867.972	4455
868.103	4508
868.233	4489
868.364	4485
868.495	4500
868.625	4668
868.756	4759
868.886	4550
869.017	4615
869.147	4774
869.278	4797
869.408	4615
869.539	4618
869.669	4752
869.799	4672
869.929	4763
870.06	4721
870.19	4911
870.32	4927
870.45	4934
870.58	5006
870.71	5086
870.84	5071
870.97	4995
871.1	4911
871.23	5136
871.36	5162
871.489	4991
871.619	5014
871.749	5067
871.879	5136
872.008	5208
872.138	5086
872.267	4972
872.397	4850
872.526	4824
872.656	4763
872.785	4793
872.915	4968
873.044	5060
873.173	4942
873.303	4965
873.432	4995
873.561	4953
873.69	4911
873.819	4885
873.948	4911
874.077	4828
874.206	4725
874.335	4809
874.464	4938
874.593	5025
874.722	4965
874.851	5124
874.979	5033
875.108	5029
875.237	4934
875.365	4904
875.494	4919
875.623	4953
875.751	4831
875.88	4892
876.008	4980
876.136	5003
876.265	5212
876.393	5307
876.521	5258
876.65	5269
876.778	5166
876.906	5079
877.034	5045
877.162	5010
877.29	4995
877.418	5071
877.546	5022
877.674	5006
877.802	5041
877.93	5018
878.058	4923
878.185	4847
878.313	4927
878.441	4927
878.568	4755
878.696	4843
878.824	4995
878.951	4923
879.079	5102
879.206	5277
879.333	5086
879.461	4961
879.588	5022
879.715	5113
879.842	5197
879.97	4968
880.097	4850
880.224	4698
880.351	4835
880.478	4790
880.605	4805
880.732	4801
880.859	5098
880.986	4934
881.112	4908
881.239	4858
881.366	4641
881.493	4649
881.619	4622
881.746	4645
881.872	4653
881.999	4664
882.125	4725
882.252	4744
882.378	4790
882.505	4934
882.631	4812
882.757	4649
882.883	4721
883.01	4668
883.136	4653
883.262	4561
883.388	4592
883.514	4854
883.64	4801
883.766	4755
883.892	4645
884.018	4672
884.143	4930
884.269	4923
884.395	4706
884.52	4622
884.646	4664
884.772	4596
884.897	4550
885.023	4637
885.148	4744
885.274	4866
885.399	4805
885.524	4698
885.65	4683
885.775	4793
885.9	4679
886.025	4824
886.15	4801
886.275	4702
886.4	4634
886.525	4698
886.65	4683
886.775	4733
886.9	4904
887.025	5067
887.149	4824
887.274	4599
887.399	4569
887.523	4618
887.648	4599
887.773	4607
887.897	4801
888.021	4782
888.146	4637
888.27	4790
888.395	4900
888.519	4816
888.643	4809
888.767	4778
888.891	4649
889.015	4641
889.139	4672
889.263	4584
889.387	4736
889.511	4866
889.635	4759
889.759	4626
889.883	4656
890.006	4710
890.13	4793
890.254	4603
890.377	4694
890.501	4550
890.624	4519
890.748	4630
890.871	4512
890.995	4421
891.118	4413
891.241	4523
891.364	4538
891.488	4660
891.611	4462
891.734	4554
891.857	4630
891.98	4565
892.103	4637
892.226	4630
892.349	4561
892.471	4428
892.594	4508
892.717	4615
892.839	4573
892.962	4531
893.085	4683
893.207	4599
893.33	4447
893.452	4519
893.575	4668
893.697	4538
893.819	4793
893.941	4801
894.064	4763
894.186	4565
894.308	4554
894.43	4714
894.552	4797
894.674	4763
894.796	4542
894.918	4630
895.04	4546
895.161	4698
895.283	4660
895.405	4603
895.526	4603
895.648	4698
895.769	4691
895.891	4752
896.012	4736
896.134	4698
896.255	4618
896.376	4660
896.498	4634
896.619	4634
896.74	4622
896.861	4626
896.982	4896
897.103	5105
897.224	4831
897.345	4721
897.466	4660
897.587	4725
897.708	4847
897.828	4744
897.949	4615
898.07	4569
898.19	4611
898.311	4805
898.431	4683
898.552	4725
898.672	4858
898.792	4790
898.913	4714
899.033	4611
899.153	4500
899.273	4459
899.393	4504
899.513	4481
899.633	4535
899.753	4508
899.873	4516
899.993	4573
900.113	4535
900.232	4584
900.352	4527
900.472	4493
900.591	4367
900.711	4493
900.83	4421
900.95	4588
901.069	4664
901.189	4546
901.308	4337
901.427	4284
901.546	4390
901.665	4478
901.784	4535
901.904	4383
902.023	4299
902.141	4200
902.26	4188
902.379	4306
902.498	4268
902.617	4158
902.735	4344
902.854	4390
902.973	4352
903.091	4173
903.21	4249
903.328	4314
903.446	4299
903.565	4306
903.683	4303
903.801	4257
903.919	4375
904.038	4405
904.156	4310
904.274	4390
904.392	4417
904.51	4428
904.627	4459
904.745	4565
904.863	4603
904.981	4405
905.098	4333
905.216	4352
905.334	4440
905.451	4383
905.569	4447
905.686	4569
905.803	4531
905.921	4390
906.038	4592
906.155	4436
906.272	4375
906.389	4447
906.506	4363
906.623	4356
906.74	4394
906.857	4318
906.974	4329
907.091	4565
907.208	4660
907.324	4584
907.441	4489
907.557	4386
907.674	4341
907.79	4276
907.907	4409
908.023	4455
908.139	4459
908.256	4428
908.372	4436
908.488	4436
908.604	4360
908.72	4341
908.836	4383
908.952	4344
909.068	4409
909.184	4558
909.3	4459
909.415	4550
909.531	4523
909.647	4356
909.762	4322
909.878	4337
909.993	4402
910.108	4436
910.224	4398
910.339	4481
910.454	4375
910.57	4390
910.685	4329
910.8	4656
910.915	4569
911.03	4478
911.145	4325
911.259	4325
911.374	4375
911.489	4295
911.604	4265
911.718	4166
911.833	4181
911.947	4105
912.062	4082
912.176	4192
912.291	4219
912.405	4215
912.519	4459
912.633	4489
912.748	4356
912.862	4253
912.976	4227
913.09	4090
913.204	4188
913.318	4242
913.431	4390
913.545	4371
913.659	4421
913.772	4375
913.886	4234
914	4211
914.113	4341
914.226	4436
914.34	4417
914.453	4265
914.566	4371
914.68	4322
914.793	4303
914.906	4169
915.019	4109
915.132	4071
915.245	4169
915.358	4207
915.47	4215
915.583	4280
915.696	4291
915.809	4394
915.921	4409
916.034	4242
916.146	4219
916.259	4219
916.371	4344
916.483	4356
916.595	4215
916.708	4291
916.82	4257
916.932	4318
917.044	4310
917.156	4325
917.268	4211
917.38	4291
917.491	4299
917.603	4360
917.715	4432
917.826	4466
917.938	4371
918.049	4230
918.161	4356
918.272	4504
918.384	4527
918.495	4451
918.606	4333
918.717	4211
918.828	4314
918.939	4405
919.05	4242
919.161	4318
919.272	4101
919.383	4265
919.494	4417
919.604	4641
919.715	4432
919.826	4337
919.936	4405
920.047	4500
920.157	4497
920.267	4698
920.378	4561
920.488	4512
920.598	4702
920.708	4850
920.818	4740
920.928	4782
921.038	4915
921.148	4847
921.258	4607
921.368	4588
921.477	4523
921.587	4443
921.697	4306
921.806	4500
921.916	4478
922.025	4299
922.134	4200
922.244	4215
922.353	4360
922.462	4154
922.571	4101
922.68	3972
922.789	3987
922.898	4036
923.007	4006
923.116	4116
923.224	4071
923.333	4101
923.442	3983
923.55	3975
923.659	3991
923.767	4105
923.876	3994
923.984	4181
924.092	3975
924.201	4078
924.309	4143
924.417	4139
924.525	4040
924.633	4059
924.741	5064
924.849	3930
924.956	4109
925.064	3941
925.172	3876
925.279	3956
925.387	4074
925.494	4071
925.602	4227
925.709	4207
925.816	3998
925.924	4086
926.031	4253
926.138	4128
926.245	4173
926.352	4059
926.459	4230
926.566	4253
926.673	4162
926.779	4097
926.886	4059
926.993	3987
927.099	3918
927.206	3930
927.312	3907
927.419	4032
927.525	4021
927.631	4067
927.737	3926
927.843	3880
927.95	3800
928.056	3945
928.162	3956
928.267	4086
928.373	4645
928.479	4109
928.585	3842
928.69	3991
928.796	4048
928.901	3926
929.007	3819
929.112	3987
929.218	3899
929.323	3930
929.428	3934
929.533	4112
929.638	3903
929.743	3941
929.848	4074
929.953	3983
930.058	3964
930.163	3766
930.267	3800
930.372	3975
930.477	3759
930.581	4071
930.685	3945
930.79	3808
930.894	3861
930.998	3835
931.103	4029
931.207	3724
931.311	3682
931.415	3694
931.519	3500
931.623	3519
