Data from test_V78500241_1108.txt Node
Date: Fri Mar 25 16:56:42 CST 2022
User: usil
Spectrometer: V785-0024
Trigger mode: 0
Integration Time (sec): 4.000000E-1
Scans to average: 1
Nonlinearity correction enabled: false
Boxcar width: 0
Storing dark spectrum: false
XAxis mode: Wavelengths
Number of Pixels in Spectrum: 1024
>>>>>Begin Spectral Data<<<<<
801.071	8020
801.214	8092
801.356	7811
801.499	7868
801.641	7750
801.783	7753
801.926	7894
802.068	7879
802.211	7898
802.353	7917
802.496	7803
802.638	7826
802.78	7875
802.923	7860
803.065	7955
803.208	7852
803.35	7986
803.492	8058
803.635	8088
803.777	8012
803.919	8130
804.061	8465
804.204	8168
804.346	8054
804.488	7986
804.63	8058
804.773	8043
804.915	8035
805.057	8279
805.199	8157
805.341	8252
805.483	8256
805.626	8157
805.768	8126
805.91	8233
806.052	8252
806.194	8092
806.336	8237
806.478	8092
806.62	8039
806.762	8092
806.904	8210
807.046	8457
807.188	8309
807.33	8294
807.472	8298
807.614	8081
807.756	8119
807.898	8111
808.04	7928
808.182	7852
808.324	7887
808.465	7894
808.607	8054
808.749	8115
808.891	8176
809.033	8332
809.174	8214
809.316	8058
809.458	8043
809.6	7947
809.741	7909
809.883	7982
810.025	8081
810.166	8016
810.308	8024
810.45	8050
810.591	7928
810.733	7681
810.875	7685
811.016	7510
811.158	7476
811.299	7643
811.441	7731
811.582	7727
811.724	7609
811.865	7540
812.007	7567
812.148	7609
812.29	7582
812.431	7742
812.573	7864
812.714	7921
812.855	8126
812.997	8161
813.138	8305
813.279	8134
813.421	8119
813.562	7932
813.703	7860
813.845	7753
813.986	7472
814.127	7217
814.268	7221
814.41	7156
814.551	7046
814.692	7137
814.833	7027
814.974	7107
815.115	7080
815.256	6916
815.397	6890
815.539	6947
815.68	6749
815.821	6818
815.962	6802
816.103	6802
816.244	6738
816.385	6627
816.526	6658
816.666	6486
816.807	6270
816.948	6441
817.089	6517
817.23	6445
817.371	6376
817.512	6410
817.653	6399
817.793	6372
817.934	6445
818.075	6464
818.216	6445
818.356	6410
818.497	6235
818.638	6045
818.778	6110
818.919	6186
819.06	6148
819.2	6323
819.341	6285
819.481	6346
819.622	6475
819.762	6726
819.903	6684
820.043	6582
820.184	6544
820.324	6585
820.465	6639
820.605	6703
820.746	6563
820.886	6464
821.026	6616
821.167	6711
821.307	6798
821.447	6768
821.588	6673
821.728	6551
821.868	6471
822.008	6266
822.149	6304
822.289	6350
822.429	6125
822.569	6060
822.709	6114
822.849	5908
822.99	5904
823.13	5977
823.27	5916
823.41	5771
823.55	5775
823.69	5764
823.83	5767
823.97	5627
824.11	5509
824.25	5463
824.389	5581
824.529	5581
824.669	5509
824.809	5657
824.949	5646
825.089	5573
825.228	5497
825.368	5398
825.508	5303
825.648	5299
825.787	5330
825.927	5334
826.067	5311
826.206	5250
826.346	5345
826.485	5391
826.625	5395
826.765	5482
826.904	5448
827.044	5227
827.183	5159
827.323	5105
827.462	5193
827.601	5185
827.741	5151
827.88	5204
828.02	5090
828.159	5208
828.298	5299
828.437	5299
828.577	5284
828.716	5410
828.855	5307
828.994	5143
829.134	5170
829.273	5151
829.412	5105
829.551	5094
829.69	5075
829.829	5296
829.968	5391
830.107	5269
830.246	5223
830.385	5174
830.524	5121
830.663	5094
830.802	4968
830.941	4915
831.08	4820
831.219	4957
831.357	4946
831.496	5170
831.635	4911
831.774	4797
831.913	4847
832.051	4710
832.19	4733
832.329	4816
832.467	4691
832.606	4660
832.744	4687
832.883	4729
833.022	4717
833.16	4763
833.299	4892
833.437	4771
833.576	4748
833.714	4839
833.852	4831
833.991	4847
834.129	4946
834.267	4930
834.406	4896
834.544	4930
834.682	4987
834.821	4892
834.959	5174
835.097	4980
835.235	5102
835.373	5048
835.511	5037
835.65	4995
835.788	5003
835.926	4900
836.064	4790
836.202	4900
836.34	5162
836.478	5193
836.615	5147
836.753	5242
836.891	5326
837.029	5246
837.167	5204
837.305	5147
837.443	5124
837.58	5071
837.718	5204
837.856	5170
837.993	5075
838.131	5204
838.269	5185
838.406	5189
838.544	5170
838.681	4984
838.819	4991
838.956	4892
839.094	4881
839.231	4995
839.369	5056
839.506	5395
839.643	5254
839.781	5067
839.918	4991
840.055	5105
840.193	5075
840.33	5098
840.467	5109
840.604	5132
840.742	5417
840.879	5025
841.016	5113
841.153	5113
841.29	5376
841.427	5273
841.564	5246
841.701	5357
841.838	5269
841.975	5185
842.112	5212
842.249	5197
842.385	5071
842.522	5273
842.659	5162
842.796	5178
842.933	5189
843.069	5132
843.206	5136
843.343	5303
843.479	5201
843.616	5201
843.752	4991
843.889	5003
844.025	5189
844.162	4991
844.298	5223
844.435	5025
844.571	4980
844.708	5189
844.844	5315
844.98	5307
845.117	5280
845.253	5132
845.389	5037
845.525	5178
845.661	5071
845.798	5003
845.934	5212
846.07	4999
846.206	5166
846.342	5246
846.478	5155
846.614	5048
846.75	4953
846.886	4923
847.022	5189
847.158	5052
847.294	5022
847.429	5102
847.565	5018
847.701	5296
847.837	4828
847.972	4786
848.108	4946
848.244	4972
848.379	4778
848.515	4714
848.65	4683
848.786	4698
848.921	4759
849.057	4850
849.192	4911
849.328	4797
849.463	4816
849.598	4797
849.734	4782
849.869	4679
850.004	4660
850.14	4687
850.275	4599
850.41	4493
850.545	4542
850.68	4607
850.815	4569
850.95	4622
851.085	4801
851.22	4744
851.355	4679
851.49	4630
851.625	4615
851.76	4656
851.895	4558
852.03	4508
852.165	4668
852.299	4717
852.434	4797
852.569	4736
852.703	4752
852.838	4805
852.973	4968
853.107	4908
853.242	4744
853.376	4668
853.511	4573
853.645	4634
853.78	4774
853.914	4714
854.048	4740
854.183	4660
854.317	4660
854.451	4805
854.585	4672
854.72	4630
854.854	4736
854.988	4580
855.122	4580
855.256	4535
855.39	4641
855.524	4767
855.658	4706
855.792	4687
855.926	4725
856.06	4759
856.194	4752
856.327	4706
856.461	4561
856.595	4592
856.729	4573
856.862	4687
856.996	4683
857.13	4729
857.263	4740
857.397	4793
857.53	4615
857.664	4687
857.797	4759
857.931	4809
858.064	4687
858.197	4717
858.331	4641
858.464	4558
858.597	4516
858.731	4622
858.864	4611
858.997	4637
859.13	4687
859.263	4641
859.396	4653
859.529	4538
859.662	4565
859.795	4527
859.928	4622
860.061	4774
860.194	4736
860.327	4592
860.46	4580
860.592	4618
860.725	4698
860.858	4714
860.99	4565
861.123	4508
861.256	4550
861.388	4592
861.521	5288
861.653	4459
861.786	4413
861.918	4497
862.05	4554
862.183	4531
862.315	4580
862.447	4645
862.58	4573
862.712	4379
862.844	4318
862.976	4489
863.108	4413
863.24	4793
863.372	4291
863.504	4402
863.636	4394
863.768	4459
863.9	4451
864.032	4405
864.164	4409
864.296	4459
864.428	4531
864.559	4527
864.691	4504
864.823	4481
864.954	4493
865.086	4516
865.217	4428
865.349	4398
865.48	4424
865.612	4443
865.743	4565
865.875	4478
866.006	4371
866.137	4459
866.269	4428
866.4	4409
866.531	4402
866.662	4409
866.793	4409
866.924	4428
867.055	4493
867.186	4413
867.317	4363
867.448	4341
867.579	4405
867.71	4421
867.841	4341
867.972	4440
868.103	4424
868.233	4428
868.364	4455
868.495	4489
868.625	4675
868.756	4733
868.886	4588
869.017	4626
869.147	4774
869.278	4759
869.408	4672
869.539	4634
869.669	4733
869.799	4649
869.929	4786
870.06	4729
870.19	4904
870.32	4923
870.45	4915
870.58	4995
870.71	5075
870.84	5090
870.97	4904
871.1	4873
871.23	5136
871.36	5136
871.489	4995
871.619	5045
871.749	5083
871.879	5132
872.008	5178
872.138	4995
872.267	4949
872.397	4870
872.526	4790
872.656	4736
872.785	4793
872.915	4953
873.044	4999
873.173	4870
873.303	4930
873.432	4961
873.561	4968
873.69	4850
873.819	4828
873.948	4938
874.077	4847
874.206	4755
874.335	4752
874.464	4870
874.593	5060
874.722	4980
874.851	5117
874.979	5022
875.108	5003
875.237	4835
875.365	4862
875.494	4862
875.623	4999
875.751	4774
875.88	4900
876.008	4968
876.136	5033
876.265	5178
876.393	5284
876.521	5239
876.65	5227
876.778	5136
876.906	5041
877.034	4976
877.162	5029
877.29	4972
877.418	5067
877.546	5029
877.674	4980
877.802	5006
877.93	5033
878.058	4942
878.185	4858
878.313	4889
878.441	4965
878.568	4786
878.696	4858
878.824	5014
878.951	4942
879.079	5094
879.206	5242
879.333	5075
879.461	4991
879.588	4999
879.715	5121
879.842	5204
879.97	5045
880.097	4778
880.224	4721
880.351	4782
880.478	4847
880.605	4774
880.732	4759
880.859	5090
880.986	4831
881.112	4942
881.239	4786
881.366	4656
881.493	4588
881.619	4577
881.746	4618
881.872	4630
881.999	4672
882.125	4664
882.252	4744
882.378	4801
882.505	4911
882.631	4801
882.757	4656
882.883	4759
883.01	4733
883.136	4664
883.262	4573
883.388	4596
883.514	4744
883.64	4866
883.766	4793
883.892	4649
884.018	4721
884.143	4881
884.269	5010
884.395	4675
884.52	4649
884.646	4641
884.772	4546
884.897	4542
885.023	4645
885.148	4797
885.274	4847
885.399	4782
885.524	4683
885.65	4721
885.775	4752
885.9	4721
886.025	4805
886.15	4793
886.275	4740
886.4	4603
886.525	4714
886.65	4660
886.775	4630
886.9	4892
887.025	5010
887.149	4801
887.274	4637
887.399	4607
887.523	4596
887.648	4550
887.773	4527
887.897	4736
888.021	4782
888.146	4653
888.27	4793
888.395	4900
888.519	4771
888.643	4858
888.767	4793
888.891	4653
889.015	4580
889.139	4649
889.263	4596
889.387	4755
889.511	4820
889.635	4793
889.759	4634
889.883	4668
890.006	4714
890.13	4881
890.254	4615
890.377	4675
890.501	4519
890.624	4485
890.748	4607
890.871	4497
890.995	4447
891.118	4363
891.241	4504
891.364	4542
891.488	4607
891.611	4519
891.734	4489
891.857	4592
891.98	4554
892.103	4634
892.226	4607
892.349	4523
892.471	4405
892.594	4478
892.717	4592
892.839	4542
892.962	4573
893.085	4664
893.207	4588
893.33	4443
893.452	4516
893.575	4607
893.697	4596
893.819	4793
893.941	4828
894.064	4752
894.186	4641
894.308	4588
894.43	4721
894.552	4793
894.674	4725
894.796	4554
894.918	4596
895.04	4580
895.161	4717
895.283	4615
895.405	4611
895.526	4664
895.648	4645
895.769	4706
895.891	4702
896.012	4683
896.134	4748
896.255	4691
896.376	4599
896.498	4596
896.619	4702
896.74	4622
896.861	4645
896.982	4938
897.103	5022
897.224	4797
897.345	4763
897.466	4645
897.587	4721
897.708	4835
897.828	4755
897.949	4656
898.07	4538
898.19	4656
898.311	4816
898.431	4706
898.552	4691
898.672	4805
898.792	4801
898.913	4694
899.033	4641
899.153	4588
899.273	4424
899.393	4516
899.513	4569
899.633	4516
899.753	4535
899.873	4500
899.993	4573
900.113	4577
900.232	4584
900.352	4554
900.472	4516
900.591	4379
900.711	4455
900.83	4462
900.95	4599
901.069	4675
901.189	4512
901.308	4375
901.427	4299
901.546	4383
901.665	4447
901.784	4519
901.904	4375
902.023	4287
902.141	4143
902.26	4196
902.379	4318
902.498	4246
902.617	4188
902.735	4363
902.854	4424
902.973	4398
903.091	4230
903.21	4204
903.328	4291
903.446	4287
903.565	4272
903.683	4333
903.801	4299
903.919	4360
904.038	4436
904.156	4333
904.274	4405
904.392	4436
904.51	4432
904.627	4478
904.745	4580
904.863	4615
904.981	4440
905.098	4318
905.216	4379
905.334	4443
905.451	4451
905.569	4417
905.686	4561
905.803	4561
905.921	4386
906.038	4535
906.155	4474
906.272	4337
906.389	4497
906.506	4371
906.623	4394
906.74	4383
906.857	4303
906.974	4348
907.091	4565
907.208	4653
907.324	4573
907.441	4481
907.557	4306
907.674	4318
907.79	4318
907.907	4436
908.023	4485
908.139	4462
908.256	4398
908.372	4466
908.488	4417
908.604	4329
908.72	4363
908.836	4405
908.952	4348
909.068	4394
909.184	4554
909.3	4478
909.415	4622
909.531	4527
909.647	4329
909.762	4344
909.878	4367
909.993	4432
910.108	4440
910.224	4421
910.339	4504
910.454	4367
910.57	4352
910.685	4291
910.8	4656
910.915	4561
911.03	4436
911.145	4333
911.259	4344
911.374	4390
911.489	4272
911.604	4284
911.718	4101
911.833	4204
911.947	4090
912.062	4044
912.176	4177
912.291	4246
912.405	4192
912.519	4466
912.633	4523
912.748	4383
912.862	4314
912.976	4188
913.09	4101
913.204	4147
913.318	4276
913.431	4352
913.545	4363
913.659	4447
913.772	4318
913.886	4257
914	4234
914.113	4360
914.226	4462
914.34	4383
914.453	4188
914.566	4379
914.68	4227
914.793	4303
914.906	4173
915.019	4128
915.132	4071
915.245	4150
915.358	4181
915.47	4234
915.583	4284
915.696	4295
915.809	4413
915.921	4424
916.034	4207
916.146	4219
916.259	4268
916.371	4371
916.483	4348
916.595	4253
916.708	4306
916.82	4325
916.932	4322
917.044	4337
917.156	4314
917.268	4234
917.38	4268
917.491	4246
917.603	4314
917.715	4390
917.826	4478
917.938	4360
918.049	4200
918.161	4348
918.272	4542
918.384	4508
918.495	4409
918.606	4295
918.717	4257
918.828	4363
918.939	4341
919.05	4246
919.161	4337
919.272	4135
919.383	4272
919.494	4436
919.604	4634
919.715	4432
919.826	4337
919.936	4424
920.047	4531
920.157	4447
920.267	4698
920.378	4523
920.488	4489
920.598	4736
920.708	4892
920.818	4736
920.928	4702
921.038	4896
921.148	4885
921.258	4603
921.368	4485
921.477	4497
921.587	4478
921.697	4363
921.806	4550
921.916	4402
922.025	4299
922.134	4272
922.244	4185
922.353	4344
922.462	4177
922.571	4112
922.68	4013
922.789	3983
922.898	4006
923.007	3975
923.116	4120
923.224	4071
923.333	4032
923.442	3998
923.55	3956
923.659	4013
923.767	4109
923.876	4010
923.984	4173
924.092	4010
924.201	4055
924.309	4086
924.417	4082
924.525	4036
924.633	4093
924.741	4847
924.849	3896
924.956	4105
925.064	3979
925.172	3960
925.279	3949
925.387	4078
925.494	4059
925.602	4192
925.709	4162
925.816	4044
925.924	4128
926.031	4265
926.138	4188
926.245	4196
926.352	4059
926.459	4234
926.566	4287
926.673	4101
926.779	4048
926.886	4044
926.993	3968
927.099	3922
927.206	3907
927.312	3953
927.419	4032
927.525	4013
927.631	4097
927.737	3953
927.843	3956
927.95	3850
928.056	3937
928.162	3994
928.267	4048
928.373	4675
928.479	4105
928.585	3873
928.69	4029
928.796	4040
928.901	3960
929.007	3835
929.112	4006
929.218	3983
929.323	3968
929.428	3934
929.533	4078
929.638	3937
929.743	3983
929.848	4048
929.953	3972
930.058	3918
930.163	3759
930.267	3827
930.372	3953
930.477	3785
930.581	4090
930.685	3922
930.79	3838
930.894	3892
930.998	3888
931.103	4059
931.207	3713
931.311	3686
931.415	3614
931.519	3477
931.623	3507
