Data from test_V78500241_2533.txt Node
Date: Fri Mar 25 17:06:36 CST 2022
User: usil
Spectrometer: V785-0024
Trigger mode: 0
Integration Time (sec): 4.000000E-1
Scans to average: 1
Nonlinearity correction enabled: false
Boxcar width: 0
Storing dark spectrum: false
XAxis mode: Wavelengths
Number of Pixels in Spectrum: 1024
>>>>>Begin Spectral Data<<<<<
801.071	8065
801.214	8024
801.356	7864
801.499	7909
801.641	7833
801.783	7868
801.926	8027
802.068	7925
802.211	8058
802.353	7955
802.496	7906
802.638	7947
802.78	7852
802.923	7967
803.065	7921
803.208	7864
803.35	8001
803.492	8107
803.635	8161
803.777	8027
803.919	8157
804.061	8396
804.204	8145
804.346	8100
804.488	8031
804.63	8161
804.773	8035
804.915	8119
805.057	8267
805.199	8221
805.341	8267
805.483	8256
805.626	8229
805.768	8168
805.91	8180
806.052	8130
806.194	8111
806.336	8290
806.478	8084
806.62	8077
806.762	8119
806.904	8313
807.046	8476
807.188	8396
807.33	8309
807.472	8320
807.614	8103
807.756	8142
807.898	8050
808.04	7849
808.182	7925
808.324	7871
808.465	7947
808.607	8058
808.749	8111
808.891	8191
809.033	8351
809.174	8263
809.316	8084
809.458	8111
809.6	7989
809.741	8016
809.883	8088
810.025	8050
810.166	8100
810.308	8035
810.45	8001
810.591	7936
810.733	7689
810.875	7643
811.016	7491
811.158	7510
811.299	7567
811.441	7769
811.582	7715
811.724	7556
811.865	7533
812.007	7609
812.148	7628
812.29	7624
812.431	7807
812.573	7898
812.714	8012
812.855	8123
812.997	8233
813.138	8252
813.279	8172
813.421	8073
813.562	7967
813.703	7887
813.845	7761
813.986	7483
814.127	7312
814.268	7232
814.41	7202
814.551	7225
814.692	7190
814.833	7057
814.974	7103
815.115	7110
815.256	6954
815.397	6939
815.539	6928
815.68	6795
815.821	6715
815.962	6909
816.103	6848
816.244	6779
816.385	6639
816.526	6658
816.666	6506
816.807	6292
816.948	6471
817.089	6452
817.23	6475
817.371	6361
817.512	6399
817.653	6388
817.793	6445
817.934	6433
818.075	6502
818.216	6380
818.356	6391
818.497	6243
818.638	6083
818.778	6243
818.919	6171
819.06	6106
819.2	6338
819.341	6315
819.481	6437
819.622	6585
819.762	6760
819.903	6692
820.043	6593
820.184	6593
820.324	6574
820.465	6703
820.605	6745
820.746	6574
820.886	6563
821.026	6703
821.167	6787
821.307	6806
821.447	6764
821.588	6639
821.728	6555
821.868	6551
822.008	6403
822.149	6414
822.289	6350
822.429	6197
822.569	6106
822.709	6148
822.849	5961
822.99	5954
823.13	5923
823.27	5939
823.41	5855
823.55	5813
823.69	5817
823.83	5847
823.97	5680
824.11	5570
824.25	5573
824.389	5623
824.529	5630
824.669	5581
824.809	5653
824.949	5672
825.089	5661
825.228	5611
825.368	5436
825.508	5353
825.648	5337
825.787	5486
825.927	5406
826.067	5307
826.206	5315
826.346	5402
826.485	5440
826.625	5490
826.765	5566
826.904	5505
827.044	5277
827.183	5208
827.323	5147
827.462	5269
827.601	5170
827.741	5280
827.88	5277
828.02	5147
828.159	5349
828.298	5353
828.437	5448
828.577	5334
828.716	5490
828.855	5357
828.994	5201
829.134	5147
829.273	5284
829.412	5254
829.551	5170
829.69	5170
829.829	5307
829.968	5395
830.107	5330
830.246	5330
830.385	5223
830.524	5185
830.663	5140
830.802	5014
830.941	4934
831.08	4881
831.219	5045
831.357	4984
831.496	5178
831.635	4976
831.774	4881
831.913	4892
832.051	4698
832.19	4748
832.329	4866
832.467	4752
832.606	4721
832.744	4782
832.883	4744
833.022	4759
833.16	4847
833.299	4877
833.437	4835
833.576	4885
833.714	4873
833.852	4949
833.991	4938
834.129	4972
834.267	4949
834.406	4908
834.544	5006
834.682	5010
834.821	4995
834.959	5212
835.097	5018
835.235	5162
835.373	5197
835.511	5140
835.65	5094
835.788	5064
835.926	4965
836.064	4999
836.202	4961
836.34	5197
836.478	5239
836.615	5208
836.753	5235
836.891	5311
837.029	5296
837.167	5258
837.305	5235
837.443	5170
837.58	5132
837.718	5299
837.856	5181
837.993	5155
838.131	5258
838.269	5269
838.406	5246
838.544	5242
838.681	5029
838.819	5045
838.956	4930
839.094	4961
839.231	5033
839.369	5124
839.506	5444
839.643	5345
839.781	5136
839.918	5060
840.055	5124
840.193	5098
840.33	5098
840.467	5105
840.604	5246
840.742	5512
840.879	5159
841.016	5098
841.153	5193
841.29	5406
841.427	5349
841.564	5334
841.701	5433
841.838	5322
841.975	5284
842.112	5330
842.249	5189
842.385	5102
842.522	5364
842.659	5174
842.796	5208
842.933	5181
843.069	5181
843.206	5166
843.343	5322
843.479	5322
843.616	5318
843.752	5041
843.889	5048
844.025	5242
844.162	5083
844.298	5261
844.435	5128
844.571	5060
844.708	5254
844.844	5383
844.98	5357
845.117	5360
845.253	5151
845.389	5083
845.525	5151
845.661	5143
845.798	5086
845.934	5170
846.07	5056
846.206	5284
846.342	5250
846.478	5261
846.614	5022
846.75	4980
846.886	4938
847.022	5193
847.158	5022
847.294	5117
847.429	5132
847.565	5025
847.701	5337
847.837	4881
847.972	4816
848.108	5018
848.244	4976
848.379	4778
848.515	4774
848.65	4744
848.786	4774
848.921	4843
849.057	4896
849.192	4889
849.328	4847
849.463	4850
849.598	4854
849.734	4748
849.869	4733
850.004	4645
850.14	4694
850.275	4599
850.41	4615
850.545	4584
850.68	4702
850.815	4668
850.95	4698
851.085	4858
851.22	4763
851.355	4729
851.49	4645
851.625	4698
851.76	4675
851.895	4599
852.03	4550
852.165	4691
852.299	4763
852.434	4862
852.569	4778
852.703	4831
852.838	4854
852.973	4930
853.107	4896
853.242	4744
853.376	4721
853.511	4569
853.645	4675
853.78	4797
853.914	4675
854.048	4725
854.183	4672
854.317	4717
854.451	4820
854.585	4721
854.72	4634
854.854	4828
854.988	4714
855.122	4611
855.256	4584
855.39	4714
855.524	4786
855.658	4755
855.792	4717
855.926	4752
856.06	4820
856.194	4805
856.327	4698
856.461	4641
856.595	4607
856.729	4645
856.862	4801
856.996	4759
857.13	4706
857.263	4774
857.397	4843
857.53	4687
857.664	4805
857.797	4771
857.931	4805
858.064	4725
858.197	4774
858.331	4656
858.464	4618
858.597	4558
858.731	4694
858.864	4641
858.997	4622
859.13	4698
859.263	4691
859.396	4744
859.529	4607
859.662	4603
859.795	4569
859.928	4645
860.061	4759
860.194	4858
860.327	4641
860.46	4618
860.592	4782
860.725	4752
860.858	4740
860.99	4634
861.123	4523
861.256	4561
861.388	4630
861.521	5246
861.653	4535
861.786	4466
861.918	4527
862.05	4542
862.183	4550
862.315	4664
862.447	4641
862.58	4558
862.712	4413
862.844	4352
862.976	4516
863.108	4478
863.24	4782
863.372	4386
863.504	4489
863.636	4424
863.768	4508
863.9	4417
864.032	4390
864.164	4485
864.296	4527
864.428	4618
864.559	4596
864.691	4531
864.823	4573
864.954	4554
865.086	4550
865.217	4523
865.349	4428
865.48	4440
865.612	4554
865.743	4660
865.875	4531
866.006	4474
866.137	4512
866.269	4516
866.4	4497
866.531	4455
866.662	4402
866.793	4440
866.924	4451
867.055	4474
867.186	4455
867.317	4421
867.448	4390
867.579	4421
867.71	4455
867.841	4386
867.972	4462
868.103	4489
868.233	4481
868.364	4466
868.495	4538
868.625	4694
868.756	4767
868.886	4599
869.017	4672
869.147	4839
869.278	4816
869.408	4645
869.539	4675
869.669	4752
869.799	4729
869.929	4759
870.06	4782
870.19	5018
870.32	4949
870.45	4953
870.58	5052
870.71	5083
870.84	5113
870.97	4961
871.1	4972
871.23	5197
871.36	5140
871.489	5025
871.619	5083
871.749	5159
871.879	5113
872.008	5105
872.138	5086
872.267	4991
872.397	4850
872.526	4839
872.656	4736
872.785	4816
872.915	4957
873.044	5067
873.173	4961
873.303	4995
873.432	5010
873.561	5067
873.69	4923
873.819	4885
873.948	4927
874.077	4854
874.206	4790
874.335	4881
874.464	4934
874.593	5079
874.722	4934
874.851	5174
874.979	5067
875.108	5045
875.237	4919
875.365	4961
875.494	4938
875.623	5045
875.751	4877
875.88	4900
876.008	4957
876.136	5025
876.265	5231
876.393	5322
876.521	5292
876.65	5246
876.778	5208
876.906	5124
877.034	5045
877.162	5113
877.29	4995
877.418	5071
877.546	5086
877.674	5056
877.802	5033
877.93	5037
878.058	4984
878.185	4908
878.313	4991
878.441	4968
878.568	4850
878.696	4938
878.824	5006
878.951	5006
879.079	5174
879.206	5296
879.333	5109
879.461	4976
879.588	5003
879.715	5181
879.842	5261
879.97	5022
880.097	4843
880.224	4812
880.351	4824
880.478	4866
880.605	4862
880.732	4820
880.859	5117
880.986	4957
881.112	4965
881.239	4778
881.366	4717
881.493	4596
881.619	4607
881.746	4645
881.872	4634
881.999	4672
882.125	4683
882.252	4835
882.378	4843
882.505	4999
882.631	4778
882.757	4672
882.883	4801
883.01	4786
883.136	4717
883.262	4599
883.388	4596
883.514	4816
883.64	4873
883.766	4831
883.892	4714
884.018	4733
884.143	4889
884.269	5018
884.395	4664
884.52	4675
884.646	4656
884.772	4565
884.897	4596
885.023	4721
885.148	4820
885.274	4843
885.399	4797
885.524	4763
885.65	4702
885.775	4752
885.9	4706
886.025	4866
886.15	4801
886.275	4736
886.4	4694
886.525	4740
886.65	4664
886.775	4702
886.9	4877
887.025	5090
887.149	4809
887.274	4668
887.399	4645
887.523	4596
887.648	4618
887.773	4561
887.897	4748
888.021	4843
888.146	4660
888.27	4858
888.395	4923
888.519	4805
888.643	4847
888.767	4885
888.891	4698
889.015	4664
889.139	4630
889.263	4645
889.387	4759
889.511	4858
889.635	4850
889.759	4683
889.883	4656
890.006	4767
890.13	4850
890.254	4577
890.377	4694
890.501	4588
890.624	4554
890.748	4626
890.871	4523
890.995	4402
891.118	4383
891.241	4565
891.364	4554
891.488	4672
891.611	4481
891.734	4599
891.857	4577
891.98	4565
892.103	4645
892.226	4565
892.349	4615
892.471	4474
892.594	4535
892.717	4607
892.839	4542
892.962	4599
893.085	4698
893.207	4577
893.33	4455
893.452	4558
893.575	4683
893.697	4569
893.819	4790
893.941	4843
894.064	4782
894.186	4656
894.308	4630
894.43	4748
894.552	4847
894.674	4793
894.796	4592
894.918	4615
895.04	4546
895.161	4733
895.283	4698
895.405	4588
895.526	4691
895.648	4752
895.769	4691
895.891	4733
896.012	4736
896.134	4782
896.255	4668
896.376	4649
896.498	4622
896.619	4687
896.74	4626
896.861	4649
896.982	4938
897.103	5098
897.224	4801
897.345	4778
897.466	4649
897.587	4683
897.708	4862
897.828	4793
897.949	4649
898.07	4538
898.19	4660
898.311	4820
898.431	4675
898.552	4744
898.672	4812
898.792	4839
898.913	4759
899.033	4618
899.153	4561
899.273	4451
899.393	4519
899.513	4569
899.633	4443
899.753	4558
899.873	4546
899.993	4561
900.113	4565
900.232	4580
900.352	4538
900.472	4508
900.591	4421
900.711	4527
900.83	4440
900.95	4634
901.069	4744
901.189	4554
901.308	4413
901.427	4272
901.546	4390
901.665	4466
901.784	4508
901.904	4413
902.023	4310
902.141	4261
902.26	4192
902.379	4314
902.498	4253
902.617	4242
902.735	4394
902.854	4432
902.973	4447
903.091	4253
903.21	4230
903.328	4268
903.446	4253
903.565	4253
903.683	4314
903.801	4306
903.919	4455
904.038	4474
904.156	4322
904.274	4428
904.392	4371
904.51	4424
904.627	4493
904.745	4577
904.863	4664
904.981	4428
905.098	4348
905.216	4344
905.334	4436
905.451	4413
905.569	4455
905.686	4588
905.803	4538
905.921	4417
906.038	4561
906.155	4523
906.272	4386
906.389	4455
906.506	4348
906.623	4363
906.74	4402
906.857	4348
906.974	4379
907.091	4584
907.208	4668
907.324	4561
907.441	4516
907.557	4390
907.674	4341
907.79	4356
907.907	4402
908.023	4478
908.139	4485
908.256	4432
908.372	4417
908.488	4436
908.604	4363
908.72	4383
908.836	4375
908.952	4413
909.068	4447
909.184	4599
909.3	4512
909.415	4592
909.531	4531
909.647	4344
909.762	4322
909.878	4409
909.993	4424
910.108	4443
910.224	4443
910.339	4508
910.454	4405
910.57	4390
910.685	4337
910.8	4645
910.915	4611
911.03	4512
911.145	4318
911.259	4341
911.374	4352
911.489	4333
911.604	4280
911.718	4196
911.833	4181
911.947	4116
912.062	4006
912.176	4192
912.291	4219
912.405	4284
912.519	4459
912.633	4508
912.748	4356
912.862	4306
912.976	4169
913.09	4112
913.204	4185
913.318	4333
913.431	4398
913.545	4356
913.659	4470
913.772	4386
913.886	4249
914	4223
914.113	4367
914.226	4424
914.34	4405
914.453	4219
914.566	4428
914.68	4299
914.793	4322
914.906	4223
915.019	4074
915.132	4109
915.245	4257
915.358	4169
915.47	4215
915.583	4249
915.696	4287
915.809	4402
915.921	4379
916.034	4246
916.146	4268
916.259	4219
916.371	4428
916.483	4367
916.595	4284
916.708	4318
916.82	4299
916.932	4344
917.044	4322
917.156	4310
917.268	4204
917.38	4291
917.491	4246
917.603	4318
917.715	4421
917.826	4436
917.938	4325
918.049	4246
918.161	4409
918.272	4592
918.384	4592
918.495	4459
918.606	4337
918.717	4188
918.828	4295
918.939	4390
919.05	4284
919.161	4306
919.272	4166
919.383	4211
919.494	4459
919.604	4645
919.715	4459
919.826	4306
919.936	4390
920.047	4561
920.157	4504
920.267	4691
920.378	4519
920.488	4527
920.598	4710
920.708	4889
920.818	4752
920.928	4740
921.038	4976
921.148	4885
921.258	4622
921.368	4603
921.477	4497
921.587	4481
921.697	4371
921.806	4516
921.916	4443
922.025	4284
922.134	4246
922.244	4249
922.353	4322
922.462	4204
922.571	4090
922.68	4048
922.789	4010
922.898	4017
923.007	3953
923.116	4093
923.224	4036
923.333	4074
923.442	3960
923.55	4010
923.659	4040
923.767	4086
923.876	3991
923.984	4143
924.092	4021
924.201	4055
924.309	4109
924.417	4101
924.525	4055
924.633	4105
924.741	5094
924.849	3922
924.956	4131
925.064	3964
925.172	3945
925.279	3994
925.387	4048
925.494	4074
925.602	4246
925.709	4196
925.816	4044
925.924	4128
926.031	4177
926.138	4211
926.245	4230
926.352	4128
926.459	4257
926.566	4314
926.673	4154
926.779	4051
926.886	4082
926.993	4013
927.099	3949
927.206	3953
927.312	3930
927.419	4078
927.525	3983
927.631	4109
927.737	3964
927.843	3945
927.95	3876
928.056	3983
928.162	4006
928.267	4063
928.373	4618
928.479	4128
928.585	3896
928.69	4048
928.796	4063
928.901	3953
929.007	3869
929.112	4013
929.218	3983
929.323	3991
929.428	3953
929.533	4135
929.638	3892
929.743	3972
929.848	4025
929.953	4032
930.058	3915
930.163	3759
930.267	3888
930.372	3968
930.477	3804
930.581	4093
930.685	3979
930.79	3861
930.894	3911
930.998	3876
931.103	4036
931.207	3694
931.311	3698
931.415	3675
931.519	3515
931.623	3545
