Data from test_V78500241_1477.txt Node
Date: Fri Mar 25 16:59:16 CST 2022
User: usil
Spectrometer: V785-0024
Trigger mode: 0
Integration Time (sec): 4.000000E-1
Scans to average: 1
Nonlinearity correction enabled: false
Boxcar width: 0
Storing dark spectrum: false
XAxis mode: Wavelengths
Number of Pixels in Spectrum: 1024
>>>>>Begin Spectral Data<<<<<
801.071	8069
801.214	7951
801.356	7875
801.499	7849
801.641	7753
801.783	7772
801.926	7928
802.068	7955
802.211	7993
802.353	7951
802.496	7761
802.638	7860
802.78	7894
802.923	7940
803.065	7864
803.208	7864
803.35	7978
803.492	8084
803.635	8180
803.777	8031
803.919	8126
804.061	8446
804.204	8134
804.346	8130
804.488	7932
804.63	8073
804.773	7997
804.915	8073
805.057	8214
805.199	8229
805.341	8176
805.483	8237
805.626	8168
805.768	8100
805.91	8206
806.052	8214
806.194	8103
806.336	8210
806.478	8123
806.62	8073
806.762	8100
806.904	8248
807.046	8511
807.188	8385
807.33	8286
807.472	8309
807.614	8153
807.756	8172
807.898	8043
808.04	7894
808.182	7925
808.324	7845
808.465	7940
808.607	8123
808.749	8096
808.891	8225
809.033	8267
809.174	8214
809.316	8130
809.458	8016
809.6	7936
809.741	8119
809.883	8043
810.025	8176
810.166	8065
810.308	8039
810.45	7947
810.591	7772
810.733	7689
810.875	7670
811.016	7483
811.158	7480
811.299	7597
811.441	7715
811.582	7643
811.724	7597
811.865	7540
812.007	7609
812.148	7594
812.29	7613
812.431	7681
812.573	7879
812.714	7978
812.855	8111
812.997	8202
813.138	8279
813.279	8195
813.421	8069
813.562	7959
813.703	7799
813.845	7719
813.986	7415
814.127	7247
814.268	7202
814.41	7209
814.551	7232
814.692	7194
814.833	7023
814.974	7091
815.115	7126
815.256	6970
815.397	6901
815.539	6981
815.68	6856
815.821	6738
815.962	6840
816.103	6764
816.244	6696
816.385	6631
816.526	6597
816.666	6475
816.807	6315
816.948	6418
817.089	6464
817.23	6460
817.371	6380
817.512	6331
817.653	6365
817.793	6376
817.934	6422
818.075	6452
818.216	6464
818.356	6433
818.497	6159
818.638	6110
818.778	6133
818.919	6144
819.06	6121
819.2	6357
819.341	6308
819.481	6327
819.622	6502
819.762	6703
819.903	6783
820.043	6574
820.184	6540
820.324	6566
820.465	6719
820.605	6707
820.746	6726
820.886	6479
821.026	6597
821.167	6681
821.307	6818
821.447	6741
821.588	6642
821.728	6620
821.868	6445
822.008	6296
822.149	6361
822.289	6334
822.429	6167
822.569	6102
822.709	6095
822.849	5946
822.99	5859
823.13	5977
823.27	5859
823.41	5790
823.55	5760
823.69	5741
823.83	5714
823.97	5627
824.11	5505
824.25	5535
824.389	5532
824.529	5570
824.669	5516
824.809	5600
824.949	5627
825.089	5646
825.228	5558
825.368	5383
825.508	5360
825.648	5341
825.787	5391
825.927	5322
826.067	5273
826.206	5277
826.346	5360
826.485	5334
826.625	5383
826.765	5539
826.904	5421
827.044	5239
827.183	5197
827.323	5094
827.462	5261
827.601	5136
827.741	5132
827.88	5197
828.02	5128
828.159	5220
828.298	5315
828.437	5326
828.577	5258
828.716	5433
828.855	5284
828.994	5201
829.134	5079
829.273	5132
829.412	5159
829.551	5151
829.69	5178
829.829	5227
829.968	5318
830.107	5273
830.246	5322
830.385	5166
830.524	5121
830.663	5041
830.802	4949
830.941	4904
831.08	4900
831.219	4976
831.357	4995
831.496	5155
831.635	4904
831.774	4870
831.913	4824
832.051	4725
832.19	4740
832.329	4835
832.467	4664
832.606	4645
832.744	4729
832.883	4672
833.022	4717
833.16	4740
833.299	4805
833.437	4812
833.576	4835
833.714	4816
833.852	4866
833.991	4862
834.129	4961
834.267	4904
834.406	4908
834.544	4972
834.682	4953
834.821	4953
834.959	5132
835.097	4965
835.235	5159
835.373	5083
835.511	5086
835.65	5037
835.788	5014
835.926	4923
836.064	4877
836.202	4870
836.34	5166
836.478	5189
836.615	5098
836.753	5212
836.891	5239
837.029	5223
837.167	5242
837.305	5185
837.443	5170
837.58	5056
837.718	5239
837.856	5204
837.993	5124
838.131	5181
838.269	5193
838.406	5185
838.544	5227
838.681	5056
838.819	4999
838.956	4881
839.094	4854
839.231	4991
839.369	5060
839.506	5379
839.643	5277
839.781	5041
839.918	5022
840.055	5060
840.193	5048
840.33	5121
840.467	5143
840.604	5197
840.742	5471
840.879	5060
841.016	5094
841.153	5117
841.29	5311
841.427	5311
841.564	5273
841.701	5364
841.838	5235
841.975	5178
842.112	5246
842.249	5113
842.385	5155
842.522	5322
842.659	5197
842.796	5140
842.933	5140
843.069	5181
843.206	5159
843.343	5254
843.479	5223
843.616	5227
843.752	4995
843.889	4995
844.025	5170
844.162	5033
844.298	5128
844.435	5090
844.571	5064
844.708	5147
844.844	5322
844.98	5299
845.117	5242
845.253	5189
845.389	5075
845.525	5147
845.661	5113
845.798	5037
845.934	5151
846.07	5075
846.206	5178
846.342	5204
846.478	5159
846.614	5006
846.75	4976
846.886	4923
847.022	5113
847.158	5010
847.294	5102
847.429	5079
847.565	5048
847.701	5345
847.837	4839
847.972	4793
848.108	4942
848.244	4885
848.379	4721
848.515	4702
848.65	4660
848.786	4717
848.921	4733
849.057	4831
849.192	4942
849.328	4820
849.463	4870
849.598	4801
849.734	4694
849.869	4691
850.004	4675
850.14	4687
850.275	4573
850.41	4512
850.545	4554
850.68	4618
850.815	4618
850.95	4615
851.085	4877
851.22	4733
851.355	4687
851.49	4622
851.625	4622
851.76	4599
851.895	4500
852.03	4527
852.165	4599
852.299	4660
852.434	4790
852.569	4744
852.703	4771
852.838	4885
852.973	4908
853.107	4908
853.242	4683
853.376	4683
853.511	4569
853.645	4588
853.78	4809
853.914	4702
854.048	4618
854.183	4611
854.317	4717
854.451	4809
854.585	4664
854.72	4645
854.854	4729
854.988	4573
855.122	4611
855.256	4516
855.39	4603
855.524	4759
855.658	4702
855.792	4683
855.926	4702
856.06	4736
856.194	4805
856.327	4725
856.461	4615
856.595	4607
856.729	4603
856.862	4748
856.996	4637
857.13	4759
857.263	4748
857.397	4805
857.53	4656
857.664	4725
857.797	4733
857.931	4767
858.064	4698
858.197	4740
858.331	4675
858.464	4603
858.597	4512
858.731	4630
858.864	4599
858.997	4603
859.13	4634
859.263	4683
859.396	4691
859.529	4554
859.662	4531
859.795	4504
859.928	4607
860.061	4725
860.194	4763
860.327	4580
860.46	4512
860.592	4736
860.725	4717
860.858	4714
860.99	4550
861.123	4504
861.256	4516
861.388	4603
861.521	5387
861.653	4493
861.786	4424
861.918	4478
862.05	4516
862.183	4504
862.315	4622
862.447	4607
862.58	4516
862.712	4402
862.844	4310
862.976	4478
863.108	4432
863.24	4748
863.372	4299
863.504	4390
863.636	4386
863.768	4489
863.9	4390
864.032	4383
864.164	4417
864.296	4512
864.428	4527
864.559	4542
864.691	4527
864.823	4516
864.954	4478
865.086	4470
865.217	4394
865.349	4451
865.48	4451
865.612	4497
865.743	4618
865.875	4493
866.006	4432
866.137	4470
866.269	4470
866.4	4424
866.531	4337
866.662	4398
866.793	4375
866.924	4432
867.055	4443
867.186	4455
867.317	4455
867.448	4318
867.579	4447
867.71	4451
867.841	4341
867.972	4504
868.103	4455
868.233	4447
868.364	4485
868.495	4478
868.625	4660
868.756	4729
868.886	4615
869.017	4645
869.147	4801
869.278	4763
869.408	4626
869.539	4596
869.669	4725
869.799	4653
869.929	4698
870.06	4729
870.19	4896
870.32	4919
870.45	4980
870.58	4980
870.71	5102
870.84	5124
870.97	4923
871.1	4900
871.23	5071
871.36	5098
871.489	5048
871.619	5086
871.749	5083
871.879	5140
872.008	5151
872.138	5067
872.267	4953
872.397	4870
872.526	4801
872.656	4714
872.785	4797
872.915	4930
873.044	4980
873.173	4957
873.303	4965
873.432	4949
873.561	4953
873.69	4923
873.819	4850
873.948	4889
874.077	4820
874.206	4744
874.335	4820
874.464	4934
874.593	5018
874.722	4908
874.851	5109
874.979	5071
875.108	5033
875.237	4858
875.365	4847
875.494	4896
875.623	4968
875.751	4824
875.88	4881
876.008	4961
876.136	5037
876.265	5189
876.393	5326
876.521	5242
876.65	5174
876.778	5181
876.906	5075
877.034	4965
877.162	5014
877.29	4946
877.418	5045
877.546	4987
877.674	5064
877.802	5045
877.93	5029
878.058	4976
878.185	4870
878.313	4942
878.441	4942
878.568	4809
878.696	4873
878.824	4930
878.951	4972
879.079	5132
879.206	5265
879.333	5086
879.461	4957
879.588	4995
879.715	5094
879.842	5261
879.97	4930
880.097	4786
880.224	4736
880.351	4816
880.478	4820
880.605	4805
880.732	4767
880.859	5083
880.986	4923
881.112	4866
881.239	4790
881.366	4622
881.493	4622
881.619	4565
881.746	4668
881.872	4596
881.999	4630
882.125	4679
882.252	4744
882.378	4847
882.505	4976
882.631	4847
882.757	4679
882.883	4691
883.01	4714
883.136	4660
883.262	4558
883.388	4653
883.514	4797
883.64	4831
883.766	4809
883.892	4683
884.018	4694
884.143	4877
884.269	4976
884.395	4679
884.52	4618
884.646	4637
884.772	4538
884.897	4573
885.023	4656
885.148	4786
885.274	4854
885.399	4774
885.524	4714
885.65	4664
885.775	4748
885.9	4694
886.025	4793
886.15	4793
886.275	4717
886.4	4637
886.525	4675
886.65	4679
886.775	4687
886.9	4889
887.025	5037
887.149	4782
887.274	4634
887.399	4554
887.523	4607
887.648	4561
887.773	4569
887.897	4809
888.021	4763
888.146	4664
888.27	4809
888.395	4866
888.519	4805
888.643	4767
888.767	4812
888.891	4675
889.015	4622
889.139	4683
889.263	4592
889.387	4755
889.511	4870
889.635	4763
889.759	4634
889.883	4645
890.006	4748
890.13	4850
890.254	4626
890.377	4660
890.501	4558
890.624	4538
890.748	4618
890.871	4516
890.995	4386
891.118	4405
891.241	4500
891.364	4561
891.488	4596
891.611	4443
891.734	4519
891.857	4603
891.98	4558
892.103	4649
892.226	4542
892.349	4512
892.471	4413
892.594	4474
892.717	4603
892.839	4569
892.962	4626
893.085	4626
893.207	4607
893.33	4455
893.452	4527
893.575	4694
893.697	4577
893.819	4771
893.941	4858
894.064	4771
894.186	4592
894.308	4561
894.43	4706
894.552	4816
894.674	4740
894.796	4519
894.918	4569
895.04	4558
895.161	4675
895.283	4637
895.405	4527
895.526	4588
895.648	4668
895.769	4694
895.891	4714
896.012	4767
896.134	4710
896.255	4649
896.376	4615
896.498	4596
896.619	4679
896.74	4592
896.861	4607
896.982	4919
897.103	5064
897.224	4786
897.345	4752
897.466	4630
897.587	4691
897.708	4843
897.828	4748
897.949	4645
898.07	4550
898.19	4596
898.311	4820
898.431	4653
898.552	4740
898.672	4820
898.792	4847
898.913	4691
899.033	4546
899.153	4516
899.273	4474
899.393	4455
899.513	4512
899.633	4493
899.753	4546
899.873	4481
899.993	4561
900.113	4523
900.232	4554
900.352	4497
900.472	4455
900.591	4390
900.711	4504
900.83	4470
900.95	4580
901.069	4687
901.189	4485
901.308	4398
901.427	4295
901.546	4390
901.665	4474
901.784	4531
901.904	4405
902.023	4333
902.141	4188
902.26	4169
902.379	4325
902.498	4215
902.617	4200
902.735	4371
902.854	4386
902.973	4348
903.091	4227
903.21	4200
903.328	4299
903.446	4268
903.565	4246
903.683	4337
903.801	4253
903.919	4417
904.038	4432
904.156	4287
904.274	4402
904.392	4405
904.51	4398
904.627	4421
904.745	4531
904.863	4584
904.981	4390
905.098	4284
905.216	4371
905.334	4398
905.451	4348
905.569	4417
905.686	4546
905.803	4516
905.921	4371
906.038	4493
906.155	4504
906.272	4413
906.389	4440
906.506	4356
906.623	4360
906.74	4390
906.857	4306
906.974	4367
907.091	4588
907.208	4675
907.324	4611
907.441	4493
907.557	4333
907.674	4341
907.79	4306
907.907	4344
908.023	4481
908.139	4508
908.256	4417
908.372	4447
908.488	4413
908.604	4375
908.72	4322
908.836	4356
908.952	4379
909.068	4417
909.184	4519
909.3	4459
909.415	4630
909.531	4599
909.647	4356
909.762	4398
909.878	4261
909.993	4402
910.108	4383
910.224	4436
910.339	4497
910.454	4417
910.57	4375
910.685	4325
910.8	4691
910.915	4615
911.03	4516
911.145	4341
911.259	4314
911.374	4352
911.489	4280
911.604	4276
911.718	4188
911.833	4196
911.947	4093
912.062	4025
912.176	4166
912.291	4238
912.405	4234
912.519	4443
912.633	4542
912.748	4310
912.862	4314
912.976	4188
913.09	4071
913.204	4200
913.318	4242
913.431	4398
913.545	4348
913.659	4459
913.772	4337
913.886	4227
914	4204
914.113	4371
914.226	4371
914.34	4398
914.453	4280
914.566	4432
914.68	4272
914.793	4310
914.906	4135
915.019	4090
915.132	4063
915.245	4147
915.358	4238
915.47	4238
915.583	4215
915.696	4284
915.809	4363
915.921	4413
916.034	4227
916.146	4257
916.259	4204
916.371	4390
916.483	4371
916.595	4234
916.708	4341
916.82	4303
916.932	4318
917.044	4284
917.156	4284
917.268	4230
917.38	4280
917.491	4280
917.603	4348
917.715	4413
917.826	4455
917.938	4337
918.049	4219
918.161	4390
918.272	4538
918.384	4478
918.495	4478
918.606	4280
918.717	4249
918.828	4329
918.939	4344
919.05	4234
919.161	4310
919.272	4120
919.383	4257
919.494	4447
919.604	4592
919.715	4432
919.826	4333
919.936	4356
920.047	4508
920.157	4527
920.267	4679
920.378	4500
920.488	4512
920.598	4717
920.708	4877
920.818	4744
920.928	4740
921.038	4934
921.148	4900
921.258	4599
921.368	4542
921.477	4428
921.587	4481
921.697	4360
921.806	4561
921.916	4383
922.025	4219
922.134	4299
922.244	4219
922.353	4310
922.462	4131
922.571	4131
922.68	3983
922.789	3926
922.898	4010
923.007	4010
923.116	4078
923.224	4010
923.333	4059
923.442	3998
923.55	3972
923.659	4044
923.767	4093
923.876	3987
923.984	4105
924.092	3979
924.201	4055
924.309	4112
924.417	4128
924.525	4063
924.633	4105
924.741	5037
924.849	3880
924.956	4097
925.064	3953
925.172	3903
925.279	3975
925.387	4055
925.494	4051
925.602	4211
925.709	4154
925.816	4067
925.924	4093
926.031	4211
926.138	4177
926.245	4200
926.352	4097
926.459	4242
926.566	4306
926.673	4147
926.779	4055
926.886	4105
926.993	3968
927.099	3956
927.206	3926
927.312	3941
927.419	4044
927.525	4074
927.631	4086
927.737	3941
927.843	3945
927.95	3850
928.056	3918
928.162	3949
928.267	4082
928.373	4546
928.479	4116
928.585	3850
928.69	4029
928.796	4101
928.901	3945
929.007	3808
929.112	3979
929.218	3941
929.323	3903
929.428	3937
929.533	4112
929.638	3873
929.743	3945
929.848	4010
929.953	3964
930.058	3934
930.163	3778
930.267	3816
930.372	3998
930.477	3812
930.581	4063
930.685	3964
930.79	3781
930.894	3865
930.998	3884
931.103	4032
931.207	3705
931.311	3682
931.415	3637
931.519	3549
931.623	3553
