Data from test_V78500241_1772.txt Node
Date: Fri Mar 25 17:01:19 CST 2022
User: usil
Spectrometer: V785-0024
Trigger mode: 0
Integration Time (sec): 4.000000E-1
Scans to average: 1
Nonlinearity correction enabled: false
Boxcar width: 0
Storing dark spectrum: false
XAxis mode: Wavelengths
Number of Pixels in Spectrum: 1024
>>>>>Begin Spectral Data<<<<<
801.071	8039
801.214	7951
801.356	7871
801.499	7902
801.641	7826
801.783	7830
801.926	7963
802.068	7951
802.211	7959
802.353	7951
802.496	7818
802.638	7852
802.78	7925
802.923	7963
803.065	7890
803.208	7830
803.35	7951
803.492	8073
803.635	8206
803.777	7978
803.919	8111
804.061	8438
804.204	8126
804.346	8092
804.488	7936
804.63	8024
804.773	8016
804.915	8096
805.057	8267
805.199	8157
805.341	8183
805.483	8176
805.626	8214
805.768	8142
805.91	8161
806.052	8218
806.194	8103
806.336	8298
806.478	8073
806.62	8054
806.762	8100
806.904	8317
807.046	8480
807.188	8351
807.33	8320
807.472	8271
807.614	8145
807.756	8100
807.898	8035
808.04	7909
808.182	7906
808.324	7864
808.465	7932
808.607	8100
808.749	8092
808.891	8153
809.033	8317
809.174	8180
809.316	8031
809.458	8054
809.6	8005
809.741	8008
809.883	8096
810.025	8115
810.166	8001
810.308	7959
810.45	7986
810.591	7909
810.733	7704
810.875	7655
811.016	7537
811.158	7514
811.299	7639
811.441	7727
811.582	7628
811.724	7575
811.865	7563
812.007	7594
812.148	7571
812.29	7620
812.431	7746
812.573	7860
812.714	7974
812.855	8111
812.997	8180
813.138	8240
813.279	8157
813.421	8115
813.562	7940
813.703	7811
813.845	7715
813.986	7426
814.127	7206
814.268	7217
814.41	7194
814.551	7141
814.692	7225
814.833	7107
814.974	7027
815.115	7122
815.256	6962
815.397	6920
815.539	6947
815.68	6844
815.821	6764
815.962	6795
816.103	6757
816.244	6662
816.385	6627
816.526	6623
816.666	6502
816.807	6266
816.948	6399
817.089	6437
817.23	6426
817.371	6376
817.512	6369
817.653	6384
817.793	6304
817.934	6331
818.075	6418
818.216	6433
818.356	6429
818.497	6216
818.638	6079
818.778	6072
818.919	6110
819.06	6171
819.2	6300
819.341	6304
819.481	6380
819.622	6525
819.762	6703
819.903	6696
820.043	6578
820.184	6547
820.324	6570
820.465	6646
820.605	6707
820.746	6616
820.886	6452
821.026	6669
821.167	6700
821.307	6802
821.447	6677
821.588	6623
821.728	6570
821.868	6525
822.008	6311
822.149	6350
822.289	6334
822.429	6148
822.569	6083
822.709	6114
822.849	5889
822.99	5897
823.13	5912
823.27	5893
823.41	5783
823.55	5783
823.69	5809
823.83	5767
823.97	5684
824.11	5478
824.25	5486
824.389	5634
824.529	5581
824.669	5539
824.809	5688
824.949	5638
825.089	5554
825.228	5562
825.368	5395
825.508	5345
825.648	5379
825.787	5410
825.927	5433
826.067	5322
826.206	5330
826.346	5417
826.485	5391
826.625	5444
826.765	5547
826.904	5505
827.044	5303
827.183	5261
827.323	5201
827.462	5265
827.601	5246
827.741	5197
827.88	5315
828.02	5170
828.159	5261
828.298	5337
828.437	5387
828.577	5299
828.716	5471
828.855	5337
828.994	5204
829.134	5227
829.273	5197
829.412	5162
829.551	5201
829.69	5147
829.829	5296
829.968	5360
830.107	5277
830.246	5322
830.385	5204
830.524	5162
830.663	5117
830.802	5010
830.941	4919
831.08	4919
831.219	5010
831.357	5014
831.496	5174
831.635	4934
831.774	4870
831.913	4881
832.051	4771
832.19	4752
832.329	4858
832.467	4752
832.606	4675
832.744	4755
832.883	4748
833.022	4744
833.16	4793
833.299	4870
833.437	4831
833.576	4866
833.714	4892
833.852	4892
833.991	4896
834.129	4980
834.267	5003
834.406	4984
834.544	5029
834.682	4991
834.821	5025
834.959	5185
835.097	4999
835.235	5128
835.373	5140
835.511	5124
835.65	5018
835.788	5052
835.926	4976
836.064	4923
836.202	4938
836.34	5170
836.478	5273
836.615	5178
836.753	5231
836.891	5326
837.029	5318
837.167	5201
837.305	5216
837.443	5143
837.58	5105
837.718	5284
837.856	5216
837.993	5197
838.131	5239
838.269	5261
838.406	5227
838.544	5250
838.681	5079
838.819	5010
838.956	4949
839.094	4980
839.231	4980
839.369	5102
839.506	5436
839.643	5269
839.781	5094
839.918	5018
840.055	5143
840.193	5094
840.33	5166
840.467	5124
840.604	5174
840.742	5440
840.879	5067
841.016	5155
841.153	5140
841.29	5417
841.427	5368
841.564	5376
841.701	5406
841.838	5292
841.975	5246
842.112	5273
842.249	5121
842.385	5094
842.522	5357
842.659	5181
842.796	5124
842.933	5223
843.069	5170
843.206	5216
843.343	5357
843.479	5250
843.616	5284
843.752	5090
843.889	5083
844.025	5265
844.162	5029
844.298	5288
844.435	5090
844.571	5067
844.708	5235
844.844	5364
844.98	5326
845.117	5299
845.253	5197
845.389	5083
845.525	5201
845.661	5197
845.798	5064
845.934	5166
846.07	5083
846.206	5220
846.342	5307
846.478	5246
846.614	5006
846.75	5025
846.886	4957
847.022	5147
847.158	5060
847.294	5113
847.429	5185
847.565	5041
847.701	5406
847.837	4862
847.972	4881
848.108	4968
848.244	4984
848.379	4797
848.515	4778
848.65	4725
848.786	4687
848.921	4828
849.057	4942
849.192	4889
849.328	4877
849.463	4915
849.598	4812
849.734	4820
849.869	4782
850.004	4637
850.14	4725
850.275	4675
850.41	4531
850.545	4596
850.68	4622
850.815	4637
850.95	4675
851.085	4809
851.22	4809
851.355	4729
851.49	4637
851.625	4634
851.76	4649
851.895	4592
852.03	4580
852.165	4710
852.299	4748
852.434	4782
852.569	4755
852.703	4759
852.838	4904
852.973	4938
853.107	4957
853.242	4763
853.376	4660
853.511	4626
853.645	4634
853.78	4858
853.914	4687
854.048	4706
854.183	4687
854.317	4664
854.451	4850
854.585	4717
854.72	4626
854.854	4786
854.988	4607
855.122	4679
855.256	4599
855.39	4694
855.524	4797
855.658	4790
855.792	4710
855.926	4778
856.06	4782
856.194	4831
856.327	4733
856.461	4630
856.595	4683
856.729	4660
856.862	4828
856.996	4717
857.13	4752
857.263	4790
857.397	4805
857.53	4679
857.664	4710
857.797	4831
857.931	4782
858.064	4733
858.197	4668
858.331	4687
858.464	4649
858.597	4527
858.731	4645
858.864	4664
858.997	4637
859.13	4691
859.263	4664
859.396	4683
859.529	4588
859.662	4592
859.795	4546
859.928	4588
860.061	4839
860.194	4736
860.327	4626
860.46	4580
860.592	4740
860.725	4729
860.858	4759
860.99	4569
861.123	4500
861.256	4542
861.388	4653
861.521	5337
861.653	4478
861.786	4455
861.918	4481
862.05	4527
862.183	4561
862.315	4668
862.447	4634
862.58	4550
862.712	4451
862.844	4367
862.976	4538
863.108	4455
863.24	4911
863.372	4356
863.504	4443
863.636	4417
863.768	4497
863.9	4455
864.032	4394
864.164	4432
864.296	4462
864.428	4565
864.559	4573
864.691	4569
864.823	4535
864.954	4493
865.086	4512
865.217	4493
865.349	4436
865.48	4481
865.612	4516
865.743	4645
865.875	4474
866.006	4405
866.137	4497
866.269	4443
866.4	4474
866.531	4447
866.662	4424
866.793	4405
866.924	4447
867.055	4535
867.186	4512
867.317	4428
867.448	4405
867.579	4421
867.71	4409
867.841	4394
867.972	4493
868.103	4493
868.233	4466
868.364	4493
868.495	4497
868.625	4664
868.756	4763
868.886	4599
869.017	4630
869.147	4782
869.278	4763
869.408	4637
869.539	4664
869.669	4717
869.799	4626
869.929	4778
870.06	4774
870.19	4980
870.32	4930
870.45	4961
870.58	5018
870.71	5098
870.84	5124
870.97	4957
871.1	4961
871.23	5174
871.36	5193
871.489	5022
871.619	5067
871.749	5090
871.879	5162
872.008	5231
872.138	5056
872.267	4980
872.397	4919
872.526	4862
872.656	4763
872.785	4858
872.915	4953
873.044	5075
873.173	4980
873.303	4968
873.432	4923
873.561	4961
873.69	4915
873.819	4847
873.948	4938
874.077	4835
874.206	4797
874.335	4816
874.464	4904
874.593	5098
874.722	4961
874.851	5075
874.979	5064
875.108	5109
875.237	4850
875.365	4896
875.494	4927
875.623	4980
875.751	4824
875.88	4900
876.008	4957
876.136	5060
876.265	5223
876.393	5345
876.521	5254
876.65	5246
876.778	5170
876.906	5102
877.034	5010
877.162	5045
877.29	5018
877.418	5094
877.546	5003
877.674	5121
877.802	5060
877.93	5048
878.058	4911
878.185	4885
878.313	4949
878.441	4946
878.568	4835
878.696	4900
878.824	4968
878.951	5033
879.079	5132
879.206	5280
879.333	5102
879.461	5014
879.588	5018
879.715	5121
879.842	5216
879.97	5033
880.097	4816
880.224	4771
880.351	4824
880.478	4797
880.605	4816
880.732	4816
880.859	5098
880.986	4873
881.112	4930
881.239	4782
881.366	4683
881.493	4615
881.619	4588
881.746	4653
881.872	4683
881.999	4664
882.125	4721
882.252	4816
882.378	4797
882.505	4919
882.631	4812
882.757	4710
882.883	4774
883.01	4748
883.136	4710
883.262	4603
883.388	4626
883.514	4828
883.64	4858
883.766	4824
883.892	4649
884.018	4748
884.143	4858
884.269	4984
884.395	4691
884.52	4691
884.646	4675
884.772	4580
884.897	4569
885.023	4694
885.148	4850
885.274	4877
885.399	4831
885.524	4717
885.65	4714
885.775	4763
885.9	4702
886.025	4854
886.15	4843
886.275	4763
886.4	4653
886.525	4721
886.65	4698
886.775	4679
886.9	4911
887.025	5048
887.149	4831
887.274	4645
887.399	4580
887.523	4618
887.648	4637
887.773	4649
887.897	4793
888.021	4805
888.146	4710
888.27	4820
888.395	4930
888.519	4816
888.643	4778
888.767	4824
888.891	4618
889.015	4656
889.139	4668
889.263	4577
889.387	4797
889.511	4877
889.635	4824
889.759	4626
889.883	4653
890.006	4744
890.13	4820
890.254	4664
890.377	4710
890.501	4546
890.624	4546
890.748	4634
890.871	4500
890.995	4466
891.118	4375
891.241	4550
891.364	4569
891.488	4649
891.611	4516
891.734	4580
891.857	4592
891.98	4538
892.103	4615
892.226	4622
892.349	4550
892.471	4443
892.594	4584
892.717	4611
892.839	4577
892.962	4626
893.085	4687
893.207	4630
893.33	4500
893.452	4497
893.575	4656
893.697	4584
893.819	4774
893.941	4816
894.064	4755
894.186	4603
894.308	4561
894.43	4698
894.552	4831
894.674	4771
894.796	4580
894.918	4634
895.04	4573
895.161	4752
895.283	4687
895.405	4611
895.526	4660
895.648	4683
895.769	4683
895.891	4675
896.012	4771
896.134	4736
896.255	4653
896.376	4607
896.498	4626
896.619	4679
896.74	4592
896.861	4622
896.982	4889
897.103	5083
897.224	4797
897.345	4752
897.466	4664
897.587	4733
897.708	4896
897.828	4771
897.949	4710
898.07	4550
898.19	4656
898.311	4816
898.431	4675
898.552	4736
898.672	4862
898.792	4793
898.913	4740
899.033	4630
899.153	4504
899.273	4417
899.393	4489
899.513	4527
899.633	4527
899.753	4519
899.873	4516
899.993	4607
900.113	4508
900.232	4596
900.352	4554
900.472	4512
900.591	4386
900.711	4516
900.83	4451
900.95	4634
901.069	4653
901.189	4542
901.308	4367
901.427	4287
901.546	4436
901.665	4500
901.784	4535
901.904	4409
902.023	4341
902.141	4219
902.26	4204
902.379	4314
902.498	4230
902.617	4227
902.735	4386
902.854	4428
902.973	4352
903.091	4238
903.21	4249
903.328	4352
903.446	4310
903.565	4272
903.683	4280
903.801	4318
903.919	4424
904.038	4440
904.156	4344
904.274	4455
904.392	4455
904.51	4421
904.627	4508
904.745	4611
904.863	4683
904.981	4421
905.098	4348
905.216	4436
905.334	4470
905.451	4455
905.569	4466
905.686	4577
905.803	4569
905.921	4462
906.038	4577
906.155	4584
906.272	4440
906.389	4542
906.506	4386
906.623	4462
906.74	4413
906.857	4405
906.974	4394
907.091	4615
907.208	4710
907.324	4675
907.441	4542
907.557	4367
907.674	4398
907.79	4398
907.907	4455
908.023	4516
908.139	4565
908.256	4466
908.372	4485
908.488	4470
908.604	4462
908.72	4398
908.836	4413
908.952	4443
909.068	4459
909.184	4596
909.3	4558
909.415	4622
909.531	4607
909.647	4386
909.762	4417
909.878	4371
909.993	4428
910.108	4481
910.224	4478
910.339	4500
910.454	4413
910.57	4390
910.685	4348
910.8	4649
910.915	4694
911.03	4519
911.145	4409
911.259	4379
911.374	4436
911.489	4348
911.604	4348
911.718	4261
911.833	4280
911.947	4135
912.062	4032
912.176	4249
912.291	4268
912.405	4303
912.519	4519
912.633	4516
912.748	4413
912.862	4360
912.976	4219
913.09	4196
913.204	4207
913.318	4303
913.431	4398
913.545	4440
913.659	4481
913.772	4440
913.886	4272
914	4272
914.113	4436
914.226	4436
914.34	4455
914.453	4306
914.566	4455
914.68	4341
914.793	4360
914.906	4192
915.019	4188
915.132	4112
915.245	4234
915.358	4257
915.47	4272
915.583	4303
915.696	4322
915.809	4466
915.921	4390
916.034	4287
916.146	4299
916.259	4291
916.371	4352
916.483	4413
916.595	4291
916.708	4344
916.82	4375
916.932	4325
917.044	4390
917.156	4367
917.268	4268
917.38	4306
917.491	4344
917.603	4333
917.715	4485
917.826	4504
917.938	4325
918.049	4265
918.161	4455
918.272	4588
918.384	4550
918.495	4443
918.606	4348
918.717	4295
918.828	4379
918.939	4402
919.05	4306
919.161	4367
919.272	4200
919.383	4253
919.494	4538
919.604	4691
919.715	4432
919.826	4405
919.936	4436
920.047	4558
920.157	4489
920.267	4740
920.378	4569
920.488	4577
920.598	4774
920.708	4946
920.818	4847
920.928	4767
921.038	5056
921.148	4946
921.258	4691
921.368	4573
921.477	4558
921.587	4538
921.697	4352
921.806	4584
921.916	4417
922.025	4314
922.134	4299
922.244	4242
922.353	4409
922.462	4223
922.571	4139
922.68	4044
922.789	4025
922.898	4120
923.007	4010
923.116	4112
923.224	4109
923.333	4124
923.442	4067
923.55	4010
923.659	4120
923.767	4135
923.876	4048
923.984	4074
924.092	3998
924.201	4116
924.309	4124
924.417	4181
924.525	4074
924.633	4128
924.741	5048
924.849	3934
924.956	4173
925.064	3949
925.172	3888
925.279	4040
925.387	4051
925.494	4086
925.602	4253
925.709	4230
925.816	4063
925.924	4154
926.031	4230
926.138	4188
926.245	4234
926.352	4124
926.459	4280
926.566	4325
926.673	4200
926.779	4150
926.886	4135
926.993	4040
927.099	3983
927.206	3953
927.312	3964
927.419	4067
927.525	4059
927.631	4105
927.737	3998
927.843	4002
927.95	3880
928.056	4002
928.162	4040
928.267	4082
928.373	4615
928.479	4143
928.585	3949
928.69	4048
928.796	4128
928.901	4006
929.007	3911
929.112	4090
929.218	4006
929.323	3987
929.428	4017
929.533	4120
929.638	3937
929.743	3983
929.848	4090
929.953	3998
930.058	3975
930.163	3766
930.267	3865
930.372	3987
930.477	3823
930.581	4150
930.685	3956
930.79	3892
930.894	3922
930.998	3903
931.103	4059
931.207	3728
931.311	3701
931.415	3667
931.519	3587
931.623	3580
