Data from test_V78500241_2517.txt Node
Date: Fri Mar 25 17:06:30 CST 2022
User: usil
Spectrometer: V785-0024
Trigger mode: 0
Integration Time (sec): 4.000000E-1
Scans to average: 1
Nonlinearity correction enabled: false
Boxcar width: 0
Storing dark spectrum: false
XAxis mode: Wavelengths
Number of Pixels in Spectrum: 1024
>>>>>Begin Spectral Data<<<<<
801.071	8039
801.214	8024
801.356	7822
801.499	7818
801.641	7769
801.783	7849
801.926	7997
802.068	7989
802.211	8043
802.353	8016
802.496	7841
802.638	7932
802.78	7868
802.923	7917
803.065	7902
803.208	7852
803.35	8001
803.492	8084
803.635	8206
803.777	8123
803.919	8191
804.061	8461
804.204	8153
804.346	8084
804.488	8008
804.63	8077
804.773	8039
804.915	8107
805.057	8279
805.199	8164
805.341	8267
805.483	8210
805.626	8233
805.768	8195
805.91	8206
806.052	8259
806.194	8187
806.336	8282
806.478	8115
806.62	8058
806.762	8107
806.904	8237
807.046	8526
807.188	8309
807.33	8294
807.472	8347
807.614	8134
807.756	8180
807.898	7989
808.04	7909
808.182	7913
808.324	7902
808.465	7890
808.607	8050
808.749	8180
808.891	8195
809.033	8362
809.174	8256
809.316	8092
809.458	8096
809.6	7936
809.741	8016
809.883	8005
810.025	8142
810.166	7982
810.308	7978
810.45	7940
810.591	7879
810.733	7719
810.875	7643
811.016	7506
811.158	7445
811.299	7544
811.441	7723
811.582	7689
811.724	7521
811.865	7544
812.007	7639
812.148	7575
812.29	7590
812.431	7822
812.573	7841
812.714	7989
812.855	8183
812.997	8221
813.138	8305
813.279	8191
813.421	8065
813.562	8031
813.703	7875
813.845	7727
813.986	7468
814.127	7263
814.268	7194
814.41	7206
814.551	7206
814.692	7282
814.833	7076
814.974	7076
815.115	7190
815.256	6962
815.397	6924
815.539	6993
815.68	6798
815.821	6810
815.962	6901
816.103	6802
816.244	6764
816.385	6642
816.526	6604
816.666	6563
816.807	6315
816.948	6498
817.089	6525
817.23	6521
817.371	6410
817.512	6361
817.653	6357
817.793	6388
817.934	6422
818.075	6521
818.216	6433
818.356	6422
818.497	6216
818.638	6148
818.778	6106
818.919	6148
819.06	6148
819.2	6384
819.341	6353
819.481	6331
819.622	6521
819.762	6730
819.903	6749
820.043	6574
820.184	6616
820.324	6635
820.465	6726
820.605	6692
820.746	6703
820.886	6513
821.026	6654
821.167	6711
821.307	6833
821.447	6848
821.588	6654
821.728	6650
821.868	6437
822.008	6315
822.149	6357
822.289	6403
822.429	6178
822.569	6171
822.709	6144
822.849	5931
822.99	5927
823.13	5942
823.27	5942
823.41	5840
823.55	5756
823.69	5771
823.83	5809
823.97	5688
824.11	5528
824.25	5505
824.389	5543
824.529	5592
824.669	5570
824.809	5611
824.949	5649
825.089	5619
825.228	5581
825.368	5387
825.508	5326
825.648	5349
825.787	5417
825.927	5357
826.067	5322
826.206	5315
826.346	5383
826.485	5417
826.625	5433
826.765	5528
826.904	5414
827.044	5254
827.183	5170
827.323	5143
827.462	5288
827.601	5250
827.741	5155
827.88	5201
828.02	5121
828.159	5273
828.298	5345
828.437	5349
828.577	5280
828.716	5501
828.855	5330
828.994	5204
829.134	5181
829.273	5147
829.412	5193
829.551	5151
829.69	5147
829.829	5246
829.968	5349
830.107	5311
830.246	5296
830.385	5216
830.524	5105
830.663	5071
830.802	4991
830.941	4915
831.08	4885
831.219	5064
831.357	4957
831.496	5140
831.635	4915
831.774	4828
831.913	4862
832.051	4771
832.19	4759
832.329	4801
832.467	4714
832.606	4592
832.744	4748
832.883	4755
833.022	4736
833.16	4755
833.299	4862
833.437	4854
833.576	4850
833.714	4927
833.852	4904
833.991	4934
834.129	4976
834.267	4949
834.406	4812
834.544	4987
834.682	4957
834.821	4961
834.959	5132
835.097	5010
835.235	5117
835.373	5094
835.511	5056
835.65	4991
835.788	5037
835.926	4873
836.064	4892
836.202	4942
836.34	5136
836.478	5239
836.615	5181
836.753	5227
836.891	5288
837.029	5265
837.167	5174
837.305	5181
837.443	5128
837.58	5064
837.718	5261
837.856	5193
837.993	5170
838.131	5235
838.269	5174
838.406	5239
838.544	5170
838.681	4972
838.819	5067
838.956	4938
839.094	4904
839.231	4980
839.369	5079
839.506	5414
839.643	5280
839.781	5056
839.918	5022
840.055	5109
840.193	5113
840.33	5136
840.467	5212
840.604	5189
840.742	5433
840.879	5109
841.016	5086
841.153	5166
841.29	5330
841.427	5364
841.564	5303
841.701	5311
841.838	5307
841.975	5242
842.112	5322
842.249	5227
842.385	5117
842.522	5337
842.659	5208
842.796	5151
842.933	5212
843.069	5094
843.206	5143
843.343	5303
843.479	5246
843.616	5258
843.752	4968
843.889	4972
844.025	5273
844.162	5037
844.298	5231
844.435	5056
844.571	5033
844.708	5242
844.844	5334
844.98	5303
845.117	5296
845.253	5140
845.389	5143
845.525	5166
845.661	5113
845.798	5071
845.934	5109
846.07	5067
846.206	5277
846.342	5239
846.478	5174
846.614	5014
846.75	4995
846.886	4911
847.022	5090
847.158	5022
847.294	5045
847.429	5090
847.565	5140
847.701	5330
847.837	4831
847.972	4831
848.108	5010
848.244	4968
848.379	4805
848.515	4733
848.65	4706
848.786	4778
848.921	4763
849.057	4873
849.192	4881
849.328	4797
849.463	4843
849.598	4774
849.734	4797
849.869	4714
850.004	4626
850.14	4649
850.275	4596
850.41	4523
850.545	4573
850.68	4580
850.815	4668
850.95	4630
851.085	4843
851.22	4774
851.355	4714
851.49	4618
851.625	4588
851.76	4637
851.895	4561
852.03	4516
852.165	4607
852.299	4752
852.434	4816
852.569	4763
852.703	4755
852.838	4843
852.973	4934
853.107	4930
853.242	4755
853.376	4668
853.511	4561
853.645	4637
853.78	4850
853.914	4714
854.048	4653
854.183	4618
854.317	4710
854.451	4843
854.585	4683
854.72	4626
854.854	4714
854.988	4565
855.122	4675
855.256	4512
855.39	4672
855.524	4744
855.658	4710
855.792	4672
855.926	4721
856.06	4748
856.194	4786
856.327	4664
856.461	4607
856.595	4656
856.729	4603
856.862	4736
856.996	4687
857.13	4733
857.263	4755
857.397	4809
857.53	4668
857.664	4706
857.797	4740
857.931	4755
858.064	4702
858.197	4767
858.331	4615
858.464	4599
858.597	4523
858.731	4630
858.864	4641
858.997	4596
859.13	4668
859.263	4683
859.396	4656
859.529	4565
859.662	4580
859.795	4500
859.928	4649
860.061	4824
860.194	4767
860.327	4558
860.46	4580
860.592	4721
860.725	4729
860.858	4691
860.99	4558
861.123	4516
861.256	4508
861.388	4599
861.521	5227
861.653	4462
861.786	4443
861.918	4489
862.05	4531
862.183	4516
862.315	4641
862.447	4634
862.58	4531
862.712	4367
862.844	4333
862.976	4451
863.108	4474
863.24	4915
863.372	4375
863.504	4443
863.636	4394
863.768	4512
863.9	4436
864.032	4367
864.164	4402
864.296	4497
864.428	4542
864.559	4588
864.691	4550
864.823	4512
864.954	4493
865.086	4508
865.217	4440
865.349	4402
865.48	4436
865.612	4478
865.743	4599
865.875	4440
866.006	4379
866.137	4474
866.269	4443
866.4	4493
866.531	4447
866.662	4363
866.793	4413
866.924	4402
867.055	4481
867.186	4500
867.317	4409
867.448	4337
867.579	4390
867.71	4363
867.841	4409
867.972	4470
868.103	4493
868.233	4474
868.364	4470
868.495	4481
868.625	4683
868.756	4793
868.886	4577
869.017	4565
869.147	4805
869.278	4797
869.408	4649
869.539	4599
869.669	4702
869.799	4645
869.929	4748
870.06	4740
870.19	4930
870.32	4965
870.45	4942
870.58	4980
870.71	5124
870.84	5067
870.97	4934
871.1	4953
871.23	5143
871.36	5159
871.489	5014
871.619	5094
871.749	5079
871.879	5124
872.008	5181
872.138	5094
872.267	4999
872.397	4854
872.526	4828
872.656	4748
872.785	4816
872.915	4900
873.044	5052
873.173	4904
873.303	4892
873.432	4965
873.561	4957
873.69	4843
873.819	4885
873.948	4904
874.077	4862
874.206	4767
874.335	4854
874.464	4911
874.593	5048
874.722	4949
874.851	5117
874.979	5105
875.108	5064
875.237	4877
875.365	4915
875.494	4904
875.623	4927
875.751	4812
875.88	4908
876.008	4972
876.136	5067
876.265	5162
876.393	5318
876.521	5242
876.65	5239
876.778	5143
876.906	5083
877.034	5003
877.162	5048
877.29	4995
877.418	5094
877.546	4980
877.674	4968
877.802	5037
877.93	5033
878.058	4911
878.185	4877
878.313	4923
878.441	4946
878.568	4828
878.696	4892
878.824	4938
878.951	4968
879.079	5143
879.206	5311
879.333	5067
879.461	4949
879.588	5025
879.715	5113
879.842	5220
879.97	4946
880.097	4816
880.224	4752
880.351	4831
880.478	4824
880.605	4801
880.732	4824
880.859	5052
880.986	4831
881.112	4904
881.239	4801
881.366	4653
881.493	4626
881.619	4577
881.746	4634
881.872	4592
881.999	4603
882.125	4668
882.252	4729
882.378	4828
882.505	4930
882.631	4771
882.757	4656
882.883	4748
883.01	4733
883.136	4656
883.262	4618
883.388	4554
883.514	4771
883.64	4881
883.766	4771
883.892	4717
884.018	4740
884.143	4885
884.269	4980
884.395	4630
884.52	4668
884.646	4641
884.772	4596
884.897	4584
885.023	4649
885.148	4759
885.274	4839
885.399	4816
885.524	4687
885.65	4675
885.775	4755
885.9	4687
886.025	4896
886.15	4801
886.275	4752
886.4	4656
886.525	4710
886.65	4683
886.775	4687
886.9	4908
887.025	5079
887.149	4774
887.274	4664
887.399	4577
887.523	4634
887.648	4546
887.773	4607
887.897	4782
888.021	4763
888.146	4656
888.27	4862
888.395	4923
888.519	4831
888.643	4801
888.767	4812
888.891	4607
889.015	4645
889.139	4653
889.263	4634
889.387	4736
889.511	4889
889.635	4797
889.759	4622
889.883	4634
890.006	4774
890.13	4809
890.254	4660
890.377	4717
890.501	4531
890.624	4519
890.748	4641
890.871	4493
890.995	4466
891.118	4375
891.241	4478
891.364	4504
891.488	4630
891.611	4508
891.734	4519
891.857	4577
891.98	4546
892.103	4618
892.226	4588
892.349	4512
892.471	4459
892.594	4538
892.717	4569
892.839	4599
892.962	4637
893.085	4656
893.207	4599
893.33	4440
893.452	4500
893.575	4675
893.697	4561
893.819	4828
893.941	4835
894.064	4748
894.186	4607
894.308	4561
894.43	4717
894.552	4809
894.674	4755
894.796	4508
894.918	4607
895.04	4550
895.161	4717
895.283	4679
895.405	4535
895.526	4668
895.648	4694
895.769	4656
895.891	4729
896.012	4729
896.134	4729
896.255	4679
896.376	4580
896.498	4565
896.619	4672
896.74	4588
896.861	4660
896.982	4946
897.103	5064
897.224	4786
897.345	4744
897.466	4618
897.587	4729
897.708	4896
897.828	4828
897.949	4656
898.07	4561
898.19	4637
898.311	4828
898.431	4702
898.552	4721
898.672	4786
898.792	4831
898.913	4744
899.033	4634
899.153	4504
899.273	4371
899.393	4481
899.513	4485
899.633	4459
899.753	4584
899.873	4516
899.993	4588
900.113	4523
900.232	4558
900.352	4523
900.472	4470
900.591	4390
900.711	4485
900.83	4428
900.95	4607
901.069	4645
901.189	4577
901.308	4405
901.427	4356
901.546	4417
901.665	4417
901.784	4538
901.904	4413
902.023	4318
902.141	4211
902.26	4192
902.379	4344
902.498	4268
902.617	4246
902.735	4386
902.854	4402
902.973	4383
903.091	4219
903.21	4219
903.328	4291
903.446	4272
903.565	4227
903.683	4360
903.801	4295
903.919	4390
904.038	4413
904.156	4333
904.274	4428
904.392	4436
904.51	4379
904.627	4447
904.745	4546
904.863	4622
904.981	4390
905.098	4291
905.216	4360
905.334	4417
905.451	4421
905.569	4367
905.686	4519
905.803	4535
905.921	4432
906.038	4554
906.155	4504
906.272	4398
906.389	4455
906.506	4322
906.623	4394
906.74	4371
906.857	4257
906.974	4402
907.091	4554
907.208	4611
907.324	4584
907.441	4508
907.557	4363
907.674	4383
907.79	4310
907.907	4398
908.023	4481
908.139	4474
908.256	4394
908.372	4462
908.488	4459
908.604	4333
908.72	4318
908.836	4379
908.952	4371
909.068	4398
909.184	4558
909.3	4440
909.415	4569
909.531	4527
909.647	4352
909.762	4390
909.878	4352
909.993	4474
910.108	4402
910.224	4462
910.339	4470
910.454	4451
910.57	4398
910.685	4291
910.8	4664
910.915	4611
911.03	4542
911.145	4333
911.259	4341
911.374	4371
911.489	4303
911.604	4303
911.718	4162
911.833	4219
911.947	4071
912.062	4010
912.176	4207
912.291	4227
912.405	4200
912.519	4474
912.633	4500
912.748	4398
912.862	4299
912.976	4211
913.09	4086
913.204	4181
913.318	4280
913.431	4367
913.545	4386
913.659	4451
913.772	4322
913.886	4219
914	4280
914.113	4344
914.226	4428
914.34	4352
914.453	4219
914.566	4424
914.68	4295
914.793	4398
914.906	4192
915.019	4154
915.132	4082
915.245	4215
915.358	4177
915.47	4227
915.583	4322
915.696	4306
915.809	4367
915.921	4417
916.034	4227
916.146	4246
916.259	4261
916.371	4409
916.483	4356
916.595	4280
916.708	4314
916.82	4314
916.932	4325
917.044	4341
917.156	4352
917.268	4234
917.38	4295
917.491	4268
917.603	4363
917.715	4432
917.826	4466
917.938	4356
918.049	4223
918.161	4390
918.272	4596
918.384	4550
918.495	4447
918.606	4284
918.717	4234
918.828	4352
918.939	4386
919.05	4238
919.161	4329
919.272	4120
919.383	4234
919.494	4440
919.604	4641
919.715	4462
919.826	4303
919.936	4421
920.047	4531
920.157	4474
920.267	4706
920.378	4519
920.488	4451
920.598	4683
920.708	4900
920.818	4759
920.928	4778
921.038	4942
921.148	4889
921.258	4645
921.368	4542
921.477	4443
921.587	4474
921.697	4356
921.806	4558
921.916	4436
922.025	4265
922.134	4223
922.244	4219
922.353	4348
922.462	4139
922.571	4128
922.68	4006
922.789	3930
922.898	4044
923.007	3983
923.116	4074
923.224	4044
923.333	4078
923.442	3972
923.55	3991
923.659	3998
923.767	4093
923.876	3972
923.984	4120
924.092	4002
924.201	4078
924.309	4082
924.417	4097
924.525	4059
924.633	4135
924.741	5113
924.849	3926
924.956	4120
925.064	3956
925.172	3880
925.279	3987
925.387	4059
925.494	4048
925.602	4227
925.709	4200
925.816	4048
925.924	4166
926.031	4200
926.138	4124
926.245	4181
926.352	4135
926.459	4265
926.566	4322
926.673	4120
926.779	4097
926.886	4055
926.993	3953
927.099	3930
927.206	3911
927.312	3892
927.419	4063
927.525	4029
927.631	4078
927.737	3960
927.843	3876
927.95	3846
928.056	3945
928.162	3991
928.267	4105
928.373	4592
928.479	4116
928.585	3876
928.69	4017
928.796	4105
928.901	3949
929.007	3876
929.112	4002
929.218	3972
929.323	3964
929.428	3968
929.533	4097
929.638	3949
929.743	3937
929.848	4078
929.953	3972
930.058	3911
930.163	3808
930.267	3827
930.372	3975
930.477	3835
930.581	4071
930.685	3926
930.79	3861
930.894	3850
930.998	3857
931.103	4032
931.207	3671
931.311	3713
931.415	3701
931.519	3515
931.623	3542
