Data from test_V78500241_1994.txt Node
Date: Fri Mar 25 17:02:51 CST 2022
User: usil
Spectrometer: V785-0024
Trigger mode: 0
Integration Time (sec): 4.000000E-1
Scans to average: 1
Nonlinearity correction enabled: false
Boxcar width: 0
Storing dark spectrum: false
XAxis mode: Wavelengths
Number of Pixels in Spectrum: 1024
>>>>>Begin Spectral Data<<<<<
801.071	7989
801.214	7936
801.356	7852
801.499	7826
801.641	7784
801.783	7841
801.926	7993
802.068	7944
802.211	7993
802.353	8024
802.496	7822
802.638	7826
802.78	7909
802.923	7909
803.065	7936
803.208	7879
803.35	7947
803.492	8081
803.635	8145
803.777	8031
803.919	8119
804.061	8461
804.204	8183
804.346	8123
804.488	7993
804.63	8107
804.773	8020
804.915	8020
805.057	8301
805.199	8153
805.341	8149
805.483	8244
805.626	8214
805.768	8164
805.91	8233
806.052	8221
806.194	8172
806.336	8317
806.478	8138
806.62	8126
806.762	8123
806.904	8229
807.046	8473
807.188	8358
807.33	8339
807.472	8362
807.614	8126
807.756	8119
807.898	7932
808.04	7906
808.182	7928
808.324	7875
808.465	7875
808.607	8062
808.749	8119
808.891	8210
809.033	8309
809.174	8206
809.316	8107
809.458	8081
809.6	8035
809.741	8062
809.883	8046
810.025	8092
810.166	8084
810.308	7997
810.45	7970
810.591	7887
810.733	7727
810.875	7712
811.016	7556
811.158	7457
811.299	7567
811.441	7689
811.582	7655
811.724	7559
811.865	7571
812.007	7567
812.148	7529
812.29	7651
812.431	7753
812.573	7822
812.714	8012
812.855	8172
812.997	8134
813.138	8267
813.279	8138
813.421	8084
813.562	7978
813.703	7845
813.845	7693
813.986	7384
814.127	7236
814.268	7228
814.41	7187
814.551	7133
814.692	7190
814.833	7061
814.974	7091
815.115	7122
815.256	7012
815.397	6909
815.539	6924
815.68	6825
815.821	6810
815.962	6939
816.103	6738
816.244	6662
816.385	6544
816.526	6646
816.666	6525
816.807	6308
816.948	6433
817.089	6445
817.23	6441
817.371	6369
817.512	6384
817.653	6403
817.793	6338
817.934	6410
818.075	6486
818.216	6418
818.356	6376
818.497	6224
818.638	6133
818.778	6152
818.919	6167
819.06	6159
819.2	6319
819.341	6300
819.481	6376
819.622	6555
819.762	6696
819.903	6688
820.043	6547
820.184	6547
820.324	6582
820.465	6677
820.605	6658
820.746	6688
820.886	6536
821.026	6658
821.167	6654
821.307	6798
821.447	6757
821.588	6696
821.728	6563
821.868	6460
822.008	6357
822.149	6357
822.289	6380
822.429	6102
822.569	6125
822.709	6117
822.849	5977
822.99	5863
823.13	5927
823.27	5866
823.41	5817
823.55	5817
823.69	5737
823.83	5783
823.97	5684
824.11	5535
824.25	5543
824.389	5554
824.529	5573
824.669	5539
824.809	5676
824.949	5630
825.089	5619
825.228	5554
825.368	5349
825.508	5292
825.648	5360
825.787	5410
825.927	5395
826.067	5250
826.206	5307
826.346	5402
826.485	5448
826.625	5402
826.765	5554
826.904	5425
827.044	5284
827.183	5216
827.323	5170
827.462	5261
827.601	5136
827.741	5181
827.88	5201
828.02	5140
828.159	5231
828.298	5242
828.437	5318
828.577	5330
828.716	5467
828.855	5341
828.994	5174
829.134	5155
829.273	5136
829.412	5147
829.551	5136
829.69	5201
829.829	5242
829.968	5360
830.107	5326
830.246	5250
830.385	5170
830.524	5178
830.663	5075
830.802	5003
830.941	4911
831.08	4885
831.219	4968
831.357	4968
831.496	5132
831.635	4949
831.774	4858
831.913	4885
832.051	4721
832.19	4691
832.329	4812
832.467	4656
832.606	4645
832.744	4702
832.883	4755
833.022	4733
833.16	4752
833.299	4824
833.437	4786
833.576	4835
833.714	4809
833.852	4877
833.991	4873
834.129	4961
834.267	4968
834.406	4927
834.544	5003
834.682	4953
834.821	4953
834.959	5151
835.097	5003
835.235	5159
835.373	5064
835.511	5094
835.65	5014
835.788	5045
835.926	4889
836.064	4892
836.202	4930
836.34	5151
836.478	5178
836.615	5136
836.753	5185
836.891	5269
837.029	5258
837.167	5220
837.305	5159
837.443	5189
837.58	5064
837.718	5235
837.856	5185
837.993	5128
838.131	5239
838.269	5227
838.406	5174
838.544	5197
838.681	4980
838.819	4968
838.956	4915
839.094	4923
839.231	4915
839.369	5060
839.506	5406
839.643	5277
839.781	5056
839.918	5003
840.055	5109
840.193	5128
840.33	5117
840.467	5147
840.604	5162
840.742	5433
840.879	5117
841.016	5052
841.153	5162
841.29	5376
841.427	5353
841.564	5349
841.701	5372
841.838	5239
841.975	5261
842.112	5261
842.249	5185
842.385	5140
842.522	5299
842.659	5128
842.796	5151
842.933	5140
843.069	5151
843.206	5162
843.343	5307
843.479	5227
843.616	5311
843.752	5037
843.889	4968
844.025	5246
844.162	5025
844.298	5231
844.435	5090
844.571	5014
844.708	5181
844.844	5360
844.98	5277
845.117	5246
845.253	5166
845.389	5071
845.525	5140
845.661	5147
845.798	5098
845.934	5166
846.07	5090
846.206	5197
846.342	5269
846.478	5193
846.614	5025
846.75	5014
846.886	4953
847.022	5143
847.158	5010
847.294	5079
847.429	5045
847.565	5098
847.701	5277
847.837	4889
847.972	4820
848.108	4957
848.244	4873
848.379	4755
848.515	4721
848.65	4721
848.786	4733
848.921	4793
849.057	4873
849.192	4892
849.328	4805
849.463	4816
849.598	4774
849.734	4733
849.869	4691
850.004	4622
850.14	4660
850.275	4622
850.41	4550
850.545	4573
850.68	4615
850.815	4618
850.95	4611
851.085	4839
851.22	4694
851.355	4694
851.49	4622
851.625	4611
851.76	4618
851.895	4523
852.03	4531
852.165	4668
852.299	4729
852.434	4778
852.569	4759
852.703	4793
852.838	4847
852.973	4892
853.107	4923
853.242	4744
853.376	4668
853.511	4596
853.645	4641
853.78	4828
853.914	4710
854.048	4687
854.183	4630
854.317	4645
854.451	4854
854.585	4637
854.72	4649
854.854	4763
854.988	4607
855.122	4611
855.256	4527
855.39	4649
855.524	4774
855.658	4748
855.792	4687
855.926	4710
856.06	4706
856.194	4809
856.327	4683
856.461	4622
856.595	4679
856.729	4611
856.862	4748
856.996	4687
857.13	4668
857.263	4752
857.397	4774
857.53	4645
857.664	4729
857.797	4755
857.931	4767
858.064	4675
858.197	4736
858.331	4649
858.464	4588
858.597	4538
858.731	4630
858.864	4630
858.997	4538
859.13	4630
859.263	4645
859.396	4694
859.529	4554
859.662	4584
859.795	4527
859.928	4645
860.061	4748
860.194	4748
860.327	4599
860.46	4573
860.592	4717
860.725	4698
860.858	4725
860.99	4603
861.123	4546
861.256	4504
861.388	4607
861.521	5174
861.653	4538
861.786	4443
861.918	4436
862.05	4516
862.183	4489
862.315	4535
862.447	4641
862.58	4481
862.712	4424
862.844	4318
862.976	4508
863.108	4516
863.24	4725
863.372	4348
863.504	4405
863.636	4371
863.768	4493
863.9	4417
864.032	4356
864.164	4421
864.296	4516
864.428	4561
864.559	4561
864.691	4519
864.823	4531
864.954	4508
865.086	4481
865.217	4470
865.349	4383
865.48	4478
865.612	4500
865.743	4622
865.875	4424
866.006	4462
866.137	4478
866.269	4451
866.4	4428
866.531	4428
866.662	4398
866.793	4417
866.924	4398
867.055	4504
867.186	4424
867.317	4409
867.448	4367
867.579	4352
867.71	4394
867.841	4379
867.972	4440
868.103	4440
868.233	4470
868.364	4421
868.495	4459
868.625	4645
868.756	4729
868.886	4508
869.017	4618
869.147	4714
869.278	4702
869.408	4641
869.539	4626
869.669	4710
869.799	4645
869.929	4721
870.06	4729
870.19	4919
870.32	4885
870.45	4915
870.58	4984
870.71	5014
870.84	5132
870.97	4915
871.1	4904
871.23	5124
871.36	5121
871.489	5010
871.619	5124
871.749	5014
871.879	5147
872.008	5178
872.138	5060
872.267	4984
872.397	4812
872.526	4790
872.656	4725
872.785	4786
872.915	4965
873.044	5067
873.173	4957
873.303	4934
873.432	4961
873.561	4900
873.69	4843
873.819	4828
873.948	4965
874.077	4835
874.206	4778
874.335	4809
874.464	4942
874.593	5064
874.722	4934
874.851	5128
874.979	5025
875.108	5003
875.237	4896
875.365	4889
875.494	4919
875.623	4980
875.751	4782
875.88	4885
876.008	4934
876.136	5083
876.265	5174
876.393	5318
876.521	5277
876.65	5189
876.778	5181
876.906	5105
877.034	5025
877.162	5045
877.29	4995
877.418	5056
877.546	5025
877.674	5037
877.802	4999
877.93	5010
878.058	4915
878.185	4885
878.313	4980
878.441	4934
878.568	4782
878.696	4904
878.824	4942
878.951	4972
879.079	5094
879.206	5315
879.333	5151
879.461	4976
879.588	5029
879.715	5113
879.842	5231
879.97	5041
880.097	4816
880.224	4725
880.351	4790
880.478	4793
880.605	4767
880.732	4805
880.859	5140
880.986	4892
881.112	4927
881.239	4736
881.366	4706
881.493	4596
881.619	4577
881.746	4683
881.872	4637
881.999	4618
882.125	4653
882.252	4801
882.378	4881
882.505	4938
882.631	4809
882.757	4645
882.883	4759
883.01	4706
883.136	4687
883.262	4611
883.388	4618
883.514	4831
883.64	4820
883.766	4782
883.892	4668
884.018	4744
884.143	4881
884.269	4995
884.395	4733
884.52	4622
884.646	4694
884.772	4516
884.897	4546
885.023	4668
885.148	4763
885.274	4854
885.399	4809
885.524	4694
885.65	4733
885.775	4721
885.9	4683
886.025	4881
886.15	4752
886.275	4736
886.4	4717
886.525	4698
886.65	4645
886.775	4748
886.9	4889
887.025	4995
887.149	4824
887.274	4675
887.399	4550
887.523	4577
887.648	4558
887.773	4588
887.897	4782
888.021	4797
888.146	4725
888.27	4843
888.395	4900
888.519	4740
888.643	4816
888.767	4843
888.891	4691
889.015	4599
889.139	4611
889.263	4577
889.387	4763
889.511	4812
889.635	4820
889.759	4599
889.883	4653
890.006	4710
890.13	4824
890.254	4592
890.377	4691
890.501	4527
890.624	4565
890.748	4603
890.871	4577
890.995	4428
891.118	4428
891.241	4523
891.364	4504
891.488	4596
891.611	4497
891.734	4500
891.857	4611
891.98	4584
892.103	4641
892.226	4580
892.349	4577
892.471	4413
892.594	4565
892.717	4634
892.839	4516
892.962	4599
893.085	4694
893.207	4603
893.33	4462
893.452	4474
893.575	4641
893.697	4588
893.819	4725
893.941	4771
894.064	4790
894.186	4615
894.308	4538
894.43	4675
894.552	4805
894.674	4763
894.796	4580
894.918	4630
895.04	4558
895.161	4694
895.283	4630
895.405	4622
895.526	4630
895.648	4698
895.769	4759
895.891	4698
896.012	4729
896.134	4740
896.255	4645
896.376	4577
896.498	4592
896.619	4710
896.74	4607
896.861	4630
896.982	4957
897.103	5079
897.224	4748
897.345	4801
897.466	4637
897.587	4820
897.708	4816
897.828	4786
897.949	4653
898.07	4561
898.19	4683
898.311	4812
898.431	4664
898.552	4748
898.672	4843
898.792	4774
898.913	4717
899.033	4653
899.153	4489
899.273	4428
899.393	4466
899.513	4493
899.633	4493
899.753	4573
899.873	4516
899.993	4538
900.113	4535
900.232	4554
900.352	4500
900.472	4531
900.591	4432
900.711	4474
900.83	4443
900.95	4615
901.069	4660
901.189	4497
901.308	4322
901.427	4318
901.546	4367
901.665	4512
901.784	4527
901.904	4402
902.023	4303
902.141	4200
902.26	4204
902.379	4280
902.498	4246
902.617	4242
902.735	4352
902.854	4405
902.973	4386
903.091	4242
903.21	4204
903.328	4287
903.446	4234
903.565	4246
903.683	4329
903.801	4272
903.919	4379
904.038	4417
904.156	4318
904.274	4447
904.392	4428
904.51	4390
904.627	4493
904.745	4634
904.863	4558
904.981	4398
905.098	4272
905.216	4398
905.334	4428
905.451	4455
905.569	4390
905.686	4573
905.803	4565
905.921	4421
906.038	4569
906.155	4459
906.272	4356
906.389	4447
906.506	4356
906.623	4383
906.74	4394
906.857	4348
906.974	4363
907.091	4588
907.208	4748
907.324	4596
907.441	4504
907.557	4344
907.674	4375
907.79	4276
907.907	4394
908.023	4485
908.139	4478
908.256	4398
908.372	4478
908.488	4421
908.604	4348
908.72	4371
908.836	4390
908.952	4344
909.068	4436
909.184	4561
909.3	4451
909.415	4565
909.531	4615
909.647	4352
909.762	4375
909.878	4341
909.993	4455
910.108	4379
910.224	4443
910.339	4493
910.454	4402
910.57	4360
910.685	4310
910.8	4637
910.915	4596
911.03	4466
911.145	4363
911.259	4303
911.374	4383
911.489	4284
911.604	4310
911.718	4169
911.833	4223
911.947	4109
912.062	4025
912.176	4249
912.291	4238
912.405	4261
912.519	4443
912.633	4451
912.748	4390
912.862	4329
912.976	4162
913.09	4128
913.204	4166
913.318	4261
913.431	4398
913.545	4379
913.659	4428
913.772	4337
913.886	4280
914	4219
914.113	4303
914.226	4421
914.34	4394
914.453	4246
914.566	4383
914.68	4291
914.793	4318
914.906	4116
915.019	4154
915.132	4059
915.245	4173
915.358	4223
915.47	4257
915.583	4272
915.696	4287
915.809	4424
915.921	4443
916.034	4242
916.146	4249
916.259	4249
916.371	4367
916.483	4325
916.595	4227
916.708	4379
916.82	4306
916.932	4303
917.044	4287
917.156	4337
917.268	4219
917.38	4299
917.491	4318
917.603	4367
917.715	4447
917.826	4432
917.938	4363
918.049	4230
918.161	4386
918.272	4554
918.384	4519
918.495	4440
918.606	4287
918.717	4246
918.828	4322
918.939	4325
919.05	4272
919.161	4367
919.272	4139
919.383	4211
919.494	4447
919.604	4626
919.715	4375
919.826	4306
919.936	4455
920.047	4504
920.157	4466
920.267	4668
920.378	4584
920.488	4421
920.598	4717
920.708	4889
920.818	4683
920.928	4740
921.038	4911
921.148	4927
921.258	4679
921.368	4558
921.477	4481
921.587	4504
921.697	4367
921.806	4554
921.916	4455
922.025	4253
922.134	4265
922.244	4215
922.353	4333
922.462	4204
922.571	4128
922.68	4040
922.789	3964
922.898	4044
923.007	4006
923.116	4082
923.224	4048
923.333	4097
923.442	4006
923.55	3979
923.659	4013
923.767	4082
923.876	4044
923.984	4154
924.092	3987
924.201	4071
924.309	4078
924.417	4147
924.525	4040
924.633	4093
924.741	5029
924.849	3922
924.956	4120
925.064	3907
925.172	3903
925.279	3956
925.387	4029
925.494	4021
925.602	4188
925.709	4185
925.816	4059
925.924	4116
926.031	4192
926.138	4158
926.245	4196
926.352	4105
926.459	4207
926.566	4318
926.673	4112
926.779	4067
926.886	4067
926.993	3968
927.099	3926
927.206	3911
927.312	3941
927.419	4090
927.525	4048
927.631	4105
927.737	3991
927.843	3979
927.95	3842
928.056	3960
928.162	4017
928.267	4086
928.373	4558
928.479	4097
928.585	3869
928.69	4006
928.796	4124
928.901	3964
929.007	3827
929.112	3975
929.218	4010
929.323	3972
929.428	3960
929.533	4078
929.638	3903
929.743	3956
929.848	4025
929.953	3983
930.058	3911
930.163	3759
930.267	3850
930.372	3945
930.477	3808
930.581	4051
930.685	3949
930.79	3850
930.894	3861
930.998	3869
931.103	4063
931.207	3701
931.311	3690
931.415	3660
931.519	3530
931.623	3538
