Data from test_V78500241_1236.txt Node
Date: Fri Mar 25 16:57:35 CST 2022
User: usil
Spectrometer: V785-0024
Trigger mode: 0
Integration Time (sec): 4.000000E-1
Scans to average: 1
Nonlinearity correction enabled: false
Boxcar width: 0
Storing dark spectrum: false
XAxis mode: Wavelengths
Number of Pixels in Spectrum: 1024
>>>>>Begin Spectral Data<<<<<
801.071	7978
801.214	8031
801.356	7864
801.499	7868
801.641	7769
801.783	7841
801.926	7932
802.068	7951
802.211	7959
802.353	8016
802.496	7864
802.638	7807
802.78	7913
802.923	7875
803.065	7898
803.208	7913
803.35	7906
803.492	8126
803.635	8176
803.777	8043
803.919	8142
804.061	8415
804.204	8142
804.346	8096
804.488	7959
804.63	8107
804.773	8005
804.915	8069
805.057	8282
805.199	8123
805.341	8282
805.483	8271
805.626	8187
805.768	8142
805.91	8191
806.052	8233
806.194	8111
806.336	8298
806.478	8130
806.62	8050
806.762	8138
806.904	8286
807.046	8431
807.188	8358
807.33	8343
807.472	8305
807.614	8138
807.756	8119
807.898	7947
808.04	7833
808.182	7963
808.324	7932
808.465	7925
808.607	8115
808.749	8084
808.891	8176
809.033	8275
809.174	8138
809.316	8065
809.458	8065
809.6	7993
809.741	7963
809.883	8065
810.025	8092
810.166	8035
810.308	8103
810.45	8046
810.591	7845
810.733	7731
810.875	7708
811.016	7514
811.158	7502
811.299	7571
811.441	7708
811.582	7677
811.724	7586
811.865	7487
812.007	7571
812.148	7597
812.29	7616
812.431	7738
812.573	7944
812.714	7925
812.855	8115
812.997	8221
813.138	8320
813.279	8153
813.421	8096
813.562	8016
813.703	7871
813.845	7719
813.986	7362
814.127	7274
814.268	7198
814.41	7171
814.551	7118
814.692	7190
814.833	7076
814.974	7034
815.115	7057
815.256	6909
815.397	6886
815.539	6954
815.68	6871
815.821	6764
815.962	6844
816.103	6825
816.244	6658
816.385	6566
816.526	6620
816.666	6414
816.807	6304
816.948	6479
817.089	6490
817.23	6437
817.371	6369
817.512	6372
817.653	6399
817.793	6388
817.934	6391
818.075	6521
818.216	6490
818.356	6391
818.497	6239
818.638	6091
818.778	6155
818.919	6148
819.06	6171
819.2	6376
819.341	6342
819.481	6323
819.622	6525
819.762	6734
819.903	6734
820.043	6574
820.184	6570
820.324	6566
820.465	6711
820.605	6696
820.746	6665
820.886	6532
821.026	6711
821.167	6673
821.307	6749
821.447	6768
821.588	6692
821.728	6612
821.868	6471
822.008	6285
822.149	6365
822.289	6277
822.429	6144
822.569	6079
822.709	6114
822.849	5912
822.99	5901
823.13	5870
823.27	5889
823.41	5775
823.55	5737
823.69	5748
823.83	5756
823.97	5714
824.11	5558
824.25	5490
824.389	5615
824.529	5589
824.669	5528
824.809	5695
824.949	5672
825.089	5615
825.228	5558
825.368	5395
825.508	5345
825.648	5353
825.787	5387
825.927	5357
826.067	5277
826.206	5296
826.346	5330
826.485	5387
826.625	5387
826.765	5547
826.904	5417
827.044	5265
827.183	5151
827.323	5098
827.462	5307
827.601	5197
827.741	5166
827.88	5189
828.02	5105
828.159	5223
828.298	5254
828.437	5345
828.577	5307
828.716	5459
828.855	5311
828.994	5143
829.134	5136
829.273	5162
829.412	5102
829.551	5124
829.69	5136
829.829	5250
829.968	5406
830.107	5269
830.246	5227
830.385	5193
830.524	5170
830.663	5098
830.802	4957
830.941	4881
831.08	4908
831.219	4946
831.357	4953
831.496	5147
831.635	4908
831.774	4824
831.913	4809
832.051	4702
832.19	4721
832.329	4816
832.467	4675
832.606	4607
832.744	4702
832.883	4691
833.022	4714
833.16	4790
833.299	4797
833.437	4816
833.576	4824
833.714	4843
833.852	4881
833.991	4919
834.129	4987
834.267	4957
834.406	4862
834.544	5006
834.682	4972
834.821	4953
834.959	5136
835.097	4984
835.235	5132
835.373	5045
835.511	5075
835.65	5056
835.788	4968
835.926	4908
836.064	4870
836.202	4957
836.34	5143
836.478	5220
836.615	5140
836.753	5216
836.891	5296
837.029	5254
837.167	5193
837.305	5136
837.443	5166
837.58	5079
837.718	5227
837.856	5174
837.993	5121
838.131	5162
838.269	5197
838.406	5227
838.544	5174
838.681	5045
838.819	4991
838.956	4889
839.094	4881
839.231	4942
839.369	5052
839.506	5387
839.643	5258
839.781	5003
839.918	5025
840.055	5067
840.193	5102
840.33	5117
840.467	5102
840.604	5170
840.742	5414
840.879	5075
841.016	5022
841.153	5140
841.29	5383
841.427	5360
841.564	5288
841.701	5372
841.838	5227
841.975	5231
842.112	5288
842.249	5147
842.385	5079
842.522	5334
842.659	5151
842.796	5132
842.933	5208
843.069	5136
843.206	5174
843.343	5288
843.479	5269
843.616	5269
843.752	4976
843.889	5003
844.025	5147
844.162	4991
844.298	5166
844.435	5022
844.571	5075
844.708	5170
844.844	5311
844.98	5303
845.117	5254
845.253	5147
845.389	5109
845.525	5090
845.661	5201
845.798	5022
845.934	5128
846.07	5056
846.206	5178
846.342	5250
846.478	5155
846.614	5010
846.75	4957
846.886	4904
847.022	5159
847.158	5006
847.294	5060
847.429	5064
847.565	5029
847.701	5318
847.837	4843
847.972	4790
848.108	4946
848.244	4919
848.379	4744
848.515	4725
848.65	4717
848.786	4706
848.921	4771
849.057	4854
849.192	4908
849.328	4843
849.463	4835
849.598	4797
849.734	4771
849.869	4725
850.004	4611
850.14	4615
850.275	4565
850.41	4550
850.545	4550
850.68	4596
850.815	4634
850.95	4588
851.085	4847
851.22	4733
851.355	4706
851.49	4603
851.625	4611
851.76	4641
851.895	4596
852.03	4523
852.165	4649
852.299	4687
852.434	4736
852.569	4733
852.703	4778
852.838	4850
852.973	4873
853.107	4904
853.242	4763
853.376	4637
853.511	4531
853.645	4558
853.78	4778
853.914	4694
854.048	4679
854.183	4611
854.317	4668
854.451	4828
854.585	4668
854.72	4641
854.854	4767
854.988	4580
855.122	4618
855.256	4527
855.39	4637
855.524	4816
855.658	4717
855.792	4702
855.926	4752
856.06	4771
856.194	4812
856.327	4672
856.461	4664
856.595	4569
856.729	4637
856.862	4759
856.996	4683
857.13	4729
857.263	4755
857.397	4786
857.53	4618
857.664	4691
857.797	4725
857.931	4812
858.064	4683
858.197	4740
858.331	4664
858.464	4569
858.597	4462
858.731	4634
858.864	4611
858.997	4580
859.13	4618
859.263	4694
859.396	4675
859.529	4546
859.662	4565
859.795	4542
859.928	4641
860.061	4763
860.194	4771
860.327	4596
860.46	4554
860.592	4691
860.725	4687
860.858	4721
860.99	4535
861.123	4569
861.256	4512
861.388	4622
861.521	5280
861.653	4447
861.786	4402
861.918	4451
862.05	4459
862.183	4535
862.315	4618
862.447	4637
862.58	4527
862.712	4386
862.844	4344
862.976	4436
863.108	4459
863.24	4877
863.372	4337
863.504	4413
863.636	4413
863.768	4478
863.9	4428
864.032	4409
864.164	4390
864.296	4432
864.428	4512
864.559	4588
864.691	4474
864.823	4500
864.954	4497
865.086	4508
865.217	4451
865.349	4356
865.48	4405
865.612	4535
865.743	4626
865.875	4440
866.006	4379
866.137	4443
866.269	4440
866.4	4413
866.531	4421
866.662	4375
866.793	4394
866.924	4386
867.055	4459
867.186	4413
867.317	4394
867.448	4356
867.579	4428
867.71	4379
867.841	4371
867.972	4459
868.103	4417
868.233	4451
868.364	4421
868.495	4493
868.625	4687
868.756	4736
868.886	4546
869.017	4599
869.147	4748
869.278	4744
869.408	4706
869.539	4634
869.669	4630
869.799	4634
869.929	4710
870.06	4717
870.19	4938
870.32	4930
870.45	4911
870.58	4946
870.71	5090
870.84	5064
870.97	4934
871.1	4843
871.23	5102
871.36	5067
871.489	5025
871.619	5048
871.749	5029
871.879	5098
872.008	5185
872.138	5071
872.267	4965
872.397	4828
872.526	4786
872.656	4717
872.785	4790
872.915	4919
873.044	5006
873.173	4885
873.303	4949
873.432	4968
873.561	4942
873.69	4828
873.819	4824
873.948	4942
874.077	4805
874.206	4767
874.335	4805
874.464	4904
874.593	5022
874.722	4927
874.851	5064
874.979	5075
875.108	5006
875.237	4843
875.365	4828
875.494	4885
875.623	4934
875.751	4831
875.88	4908
876.008	5041
876.136	4984
876.265	5128
876.393	5311
876.521	5254
876.65	5261
876.778	5128
876.906	5090
877.034	4961
877.162	5022
877.29	5014
877.418	5029
877.546	5022
877.674	5022
877.802	5041
877.93	5029
878.058	4908
878.185	4843
878.313	4908
878.441	4976
878.568	4759
878.696	4812
878.824	5014
878.951	5010
879.079	5086
879.206	5246
879.333	5098
879.461	5006
879.588	4934
879.715	5102
879.842	5239
879.97	5045
880.097	4725
880.224	4717
880.351	4801
880.478	4831
880.605	4740
880.732	4797
880.859	5029
880.986	4847
881.112	4900
881.239	4786
881.366	4645
881.493	4641
881.619	4580
881.746	4630
881.872	4660
881.999	4634
882.125	4691
882.252	4752
882.378	4843
882.505	4938
882.631	4793
882.757	4645
882.883	4717
883.01	4714
883.136	4668
883.262	4561
883.388	4603
883.514	4790
883.64	4843
883.766	4767
883.892	4641
884.018	4721
884.143	4873
884.269	5010
884.395	4660
884.52	4622
884.646	4710
884.772	4512
884.897	4538
885.023	4615
885.148	4793
885.274	4877
885.399	4816
885.524	4679
885.65	4698
885.775	4733
885.9	4733
886.025	4858
886.15	4797
886.275	4702
886.4	4645
886.525	4733
886.65	4672
886.775	4679
886.9	4930
887.025	5014
887.149	4752
887.274	4664
887.399	4584
887.523	4599
887.648	4558
887.773	4569
887.897	4721
888.021	4801
888.146	4725
888.27	4816
888.395	4843
888.519	4812
888.643	4805
888.767	4828
888.891	4649
889.015	4607
889.139	4668
889.263	4615
889.387	4736
889.511	4831
889.635	4744
889.759	4630
889.883	4615
890.006	4721
890.13	4805
890.254	4645
890.377	4672
890.501	4527
890.624	4546
890.748	4675
890.871	4523
890.995	4428
891.118	4402
891.241	4512
891.364	4531
891.488	4626
891.611	4455
891.734	4569
891.857	4603
891.98	4573
892.103	4603
892.226	4588
892.349	4504
892.471	4405
892.594	4527
892.717	4611
892.839	4565
892.962	4580
893.085	4615
893.207	4569
893.33	4466
893.452	4550
893.575	4634
893.697	4596
893.819	4820
893.941	4854
894.064	4729
894.186	4588
894.308	4580
894.43	4755
894.552	4801
894.674	4702
894.796	4527
894.918	4569
895.04	4558
895.161	4725
895.283	4668
895.405	4569
895.526	4561
895.648	4672
895.769	4675
895.891	4729
896.012	4729
896.134	4683
896.255	4675
896.376	4622
896.498	4584
896.619	4664
896.74	4626
896.861	4634
896.982	4946
897.103	5083
897.224	4809
897.345	4721
897.466	4687
897.587	4721
897.708	4866
897.828	4816
897.949	4672
898.07	4535
898.19	4615
898.311	4816
898.431	4668
898.552	4687
898.672	4866
898.792	4771
898.913	4748
899.033	4603
899.153	4500
899.273	4459
899.393	4485
899.513	4565
899.633	4497
899.753	4535
899.873	4573
899.993	4603
900.113	4527
900.232	4634
900.352	4554
900.472	4428
900.591	4409
900.711	4485
900.83	4432
900.95	4596
901.069	4649
901.189	4538
901.308	4379
901.427	4337
901.546	4390
901.665	4428
901.784	4504
901.904	4436
902.023	4310
902.141	4192
902.26	4166
902.379	4242
902.498	4246
902.617	4242
902.735	4432
902.854	4379
902.973	4325
903.091	4192
903.21	4181
903.328	4253
903.446	4280
903.565	4249
903.683	4333
903.801	4215
903.919	4421
904.038	4459
904.156	4306
904.274	4436
904.392	4356
904.51	4371
904.627	4474
904.745	4603
904.863	4611
904.981	4405
905.098	4333
905.216	4363
905.334	4413
905.451	4421
905.569	4398
905.686	4569
905.803	4596
905.921	4421
906.038	4561
906.155	4481
906.272	4348
906.389	4459
906.506	4383
906.623	4405
906.74	4390
906.857	4341
906.974	4341
907.091	4577
907.208	4675
907.324	4592
907.441	4489
907.557	4398
907.674	4360
907.79	4329
907.907	4424
908.023	4470
908.139	4497
908.256	4424
908.372	4489
908.488	4481
908.604	4363
908.72	4295
908.836	4386
908.952	4383
909.068	4432
909.184	4504
909.3	4421
909.415	4584
909.531	4527
909.647	4348
909.762	4306
909.878	4360
909.993	4440
910.108	4386
910.224	4402
910.339	4455
910.454	4363
910.57	4375
910.685	4314
910.8	4664
910.915	4565
911.03	4493
911.145	4303
911.259	4295
911.374	4363
911.489	4291
911.604	4303
911.718	4162
911.833	4207
911.947	4067
912.062	4036
912.176	4200
912.291	4230
912.405	4246
912.519	4504
912.633	4451
912.748	4360
912.862	4314
912.976	4158
913.09	4044
913.204	4177
913.318	4272
913.431	4367
913.545	4413
913.659	4443
913.772	4318
913.886	4265
914	4185
914.113	4371
914.226	4459
914.34	4386
914.453	4287
914.566	4443
914.68	4280
914.793	4303
914.906	4169
915.019	4150
915.132	4067
915.245	4139
915.358	4215
915.47	4249
915.583	4249
915.696	4291
915.809	4413
915.921	4447
916.034	4261
916.146	4238
916.259	4223
916.371	4402
916.483	4325
916.595	4253
916.708	4280
916.82	4379
916.932	4299
917.044	4341
917.156	4272
917.268	4223
917.38	4276
917.491	4295
917.603	4314
917.715	4436
917.826	4405
917.938	4352
918.049	4276
918.161	4383
918.272	4474
918.384	4504
918.495	4485
918.606	4238
918.717	4219
918.828	4295
918.939	4367
919.05	4238
919.161	4306
919.272	4124
919.383	4215
919.494	4447
919.604	4573
919.715	4413
919.826	4344
919.936	4394
920.047	4538
920.157	4466
920.267	4675
920.378	4569
920.488	4478
920.598	4717
920.708	4904
920.818	4782
920.928	4729
921.038	4938
921.148	4858
921.258	4592
921.368	4527
921.477	4451
921.587	4474
921.697	4379
921.806	4588
921.916	4436
922.025	4246
922.134	4177
922.244	4249
922.353	4356
922.462	4173
922.571	4101
922.68	3994
922.789	4010
922.898	3998
923.007	4036
923.116	4112
923.224	4109
923.333	4071
923.442	3968
923.55	3991
923.659	3998
923.767	4097
923.876	3979
923.984	4143
924.092	3979
924.201	4086
924.309	4124
924.417	4124
924.525	4036
924.633	4101
924.741	4999
924.849	3903
924.956	4078
925.064	3994
925.172	3945
925.279	3964
925.387	4010
925.494	3994
925.602	4200
925.709	4177
925.816	4071
925.924	4147
926.031	4204
926.138	4162
926.245	4196
926.352	4067
926.459	4196
926.566	4287
926.673	4162
926.779	4131
926.886	4086
926.993	3907
927.099	3991
927.206	3945
927.312	3949
927.419	4044
927.525	4032
927.631	4063
927.737	3960
927.843	3953
927.95	3896
928.056	3949
928.162	4021
928.267	4048
928.373	4725
928.479	4120
928.585	3899
928.69	4044
928.796	4040
928.901	3975
929.007	3816
929.112	4002
929.218	3934
929.323	3911
929.428	3930
929.533	4131
929.638	3896
929.743	3956
929.848	4044
929.953	3979
930.058	3953
930.163	3778
930.267	3819
930.372	3998
930.477	3835
930.581	4036
930.685	3972
930.79	3781
930.894	3880
930.998	3869
931.103	4112
931.207	3736
931.311	3720
931.415	3656
931.519	3568
931.623	3530
