Data from test_V78500241_1701.txt Node
Date: Fri Mar 25 17:00:49 CST 2022
User: usil
Spectrometer: V785-0024
Trigger mode: 0
Integration Time (sec): 4.000000E-1
Scans to average: 1
Nonlinearity correction enabled: false
Boxcar width: 0
Storing dark spectrum: false
XAxis mode: Wavelengths
Number of Pixels in Spectrum: 1024
>>>>>Begin Spectral Data<<<<<
801.071	7978
801.214	7986
801.356	7913
801.499	7807
801.641	7753
801.783	7772
801.926	7978
802.068	7890
802.211	8027
802.353	7955
802.496	7871
802.638	7849
802.78	7841
802.923	7906
803.065	7841
803.208	7887
803.35	7963
803.492	8157
803.635	8145
803.777	7963
803.919	8050
804.061	8412
804.204	8107
804.346	8016
804.488	7982
804.63	8062
804.773	7978
804.915	8206
805.057	8271
805.199	8111
805.341	8183
805.483	8237
805.626	8164
805.768	8077
805.91	8161
806.052	8210
806.194	8096
806.336	8282
806.478	8119
806.62	7993
806.762	8084
806.904	8332
807.046	8518
807.188	8366
807.33	8305
807.472	8252
807.614	8164
807.756	8138
807.898	7921
808.04	7860
808.182	7883
808.324	7868
808.465	7925
808.607	8134
808.749	8073
808.891	8153
809.033	8328
809.174	8168
809.316	8073
809.458	8039
809.6	7989
809.741	8016
809.883	7974
810.025	8123
810.166	8065
810.308	7997
810.45	7963
810.591	7818
810.733	7693
810.875	7662
811.016	7521
811.158	7460
811.299	7540
811.441	7624
811.582	7616
811.724	7594
811.865	7556
812.007	7521
812.148	7620
812.29	7636
812.431	7753
812.573	7890
812.714	7940
812.855	8111
812.997	8237
813.138	8240
813.279	8153
813.421	8088
813.562	7940
813.703	7868
813.845	7723
813.986	7373
814.127	7240
814.268	7202
814.41	7221
814.551	7145
814.692	7308
814.833	7122
814.974	7095
815.115	7118
815.256	6996
815.397	6928
815.539	6935
815.68	6837
815.821	6821
815.962	6882
816.103	6894
816.244	6684
816.385	6627
816.526	6620
816.666	6441
816.807	6289
816.948	6471
817.089	6452
817.23	6426
817.371	6372
817.512	6388
817.653	6331
817.793	6353
817.934	6350
818.075	6422
818.216	6407
818.356	6460
818.497	6205
818.638	6159
818.778	6129
818.919	6091
819.06	6159
819.2	6258
819.341	6311
819.481	6369
819.622	6506
819.762	6703
819.903	6711
820.043	6612
820.184	6574
820.324	6612
820.465	6684
820.605	6692
820.746	6593
820.886	6555
821.026	6650
821.167	6635
821.307	6764
821.447	6783
821.588	6650
821.728	6509
821.868	6536
822.008	6353
822.149	6304
822.289	6361
822.429	6136
822.569	6095
822.709	6110
822.849	5942
822.99	5847
823.13	5916
823.27	5893
823.41	5779
823.55	5779
823.69	5695
823.83	5775
823.97	5684
824.11	5532
824.25	5535
824.389	5532
824.529	5566
824.669	5535
824.809	5604
824.949	5623
825.089	5589
825.228	5528
825.368	5433
825.508	5334
825.648	5322
825.787	5357
825.927	5379
826.067	5292
826.206	5261
826.346	5364
826.485	5395
826.625	5425
826.765	5497
826.904	5455
827.044	5208
827.183	5174
827.323	5147
827.462	5292
827.601	5170
827.741	5189
827.88	5246
828.02	5094
828.159	5216
828.298	5284
828.437	5379
828.577	5231
828.716	5467
828.855	5284
828.994	5181
829.134	5102
829.273	5201
829.412	5075
829.551	5105
829.69	5193
829.829	5250
829.968	5322
830.107	5246
830.246	5254
830.385	5174
830.524	5140
830.663	5048
830.802	4953
830.941	4889
831.08	4847
831.219	4976
831.357	4930
831.496	5140
831.635	4930
831.774	4809
831.913	4824
832.051	4748
832.19	4733
832.329	4820
832.467	4683
832.606	4645
832.744	4683
832.883	4698
833.022	4725
833.16	4748
833.299	4820
833.437	4759
833.576	4778
833.714	4847
833.852	4847
833.991	4866
834.129	4881
834.267	4896
834.406	4881
834.544	4961
834.682	4946
834.821	4938
834.959	5132
835.097	4930
835.235	5132
835.373	5056
835.511	5113
835.65	5014
835.788	5060
835.926	4850
836.064	4828
836.202	4885
836.34	5128
836.478	5239
836.615	5090
836.753	5197
836.891	5277
837.029	5258
837.167	5231
837.305	5151
837.443	5109
837.58	5086
837.718	5208
837.856	5197
837.993	5075
838.131	5166
838.269	5201
838.406	5193
838.544	5151
838.681	5048
838.819	4995
838.956	4877
839.094	4915
839.231	4965
839.369	5083
839.506	5383
839.643	5250
839.781	5025
839.918	5045
840.055	5083
840.193	5128
840.33	5071
840.467	5102
840.604	5124
840.742	5436
840.879	5067
841.016	5041
841.153	5147
841.29	5326
841.427	5360
841.564	5326
841.701	5341
841.838	5227
841.975	5193
842.112	5254
842.249	5113
842.385	5143
842.522	5318
842.659	5136
842.796	5105
842.933	5193
843.069	5128
843.206	5113
843.343	5258
843.479	5201
843.616	5265
843.752	5052
843.889	5003
844.025	5189
844.162	5045
844.298	5170
844.435	5048
844.571	5029
844.708	5174
844.844	5254
844.98	5318
845.117	5296
845.253	5136
845.389	5064
845.525	5166
845.661	5109
845.798	5029
845.934	5121
846.07	5041
846.206	5170
846.342	5261
846.478	5204
846.614	5041
846.75	4938
846.886	4915
847.022	5128
847.158	4991
847.294	5079
847.429	5090
847.565	5029
847.701	5250
847.837	4843
847.972	4790
848.108	4934
848.244	4915
848.379	4725
848.515	4725
848.65	4675
848.786	4694
848.921	4694
849.057	4828
849.192	4850
849.328	4843
849.463	4805
849.598	4759
849.734	4790
849.869	4649
850.004	4622
850.14	4668
850.275	4573
850.41	4516
850.545	4558
850.68	4653
850.815	4596
850.95	4649
851.085	4809
851.22	4710
851.355	4630
851.49	4596
851.625	4634
851.76	4622
851.895	4523
852.03	4500
852.165	4656
852.299	4691
852.434	4752
852.569	4717
852.703	4748
852.838	4809
852.973	4908
853.107	4904
853.242	4710
853.376	4634
853.511	4550
853.645	4607
853.78	4793
853.914	4645
854.048	4691
854.183	4584
854.317	4683
854.451	4793
854.585	4641
854.72	4580
854.854	4683
854.988	4535
855.122	4584
855.256	4497
855.39	4622
855.524	4733
855.658	4668
855.792	4733
855.926	4717
856.06	4721
856.194	4752
856.327	4706
856.461	4584
856.595	4622
856.729	4637
856.862	4725
856.996	4706
857.13	4691
857.263	4740
857.397	4736
857.53	4656
857.664	4740
857.797	4721
857.931	4816
858.064	4706
858.197	4759
858.331	4656
858.464	4603
858.597	4561
858.731	4641
858.864	4679
858.997	4580
859.13	4675
859.263	4679
859.396	4717
859.529	4607
859.662	4618
859.795	4573
859.928	4592
860.061	4782
860.194	4763
860.327	4622
860.46	4554
860.592	4717
860.725	4717
860.858	4767
860.99	4558
861.123	4531
861.256	4516
861.388	4615
861.521	5231
861.653	4523
861.786	4523
861.918	4516
862.05	4577
862.183	4554
862.315	4626
862.447	4694
862.58	4592
862.712	4440
862.844	4379
862.976	4504
863.108	4535
863.24	4911
863.372	4402
863.504	4466
863.636	4402
863.768	4527
863.9	4519
864.032	4413
864.164	4443
864.296	4508
864.428	4565
864.559	4615
864.691	4512
864.823	4573
864.954	4546
865.086	4535
865.217	4497
865.349	4459
865.48	4527
865.612	4569
865.743	4668
865.875	4497
866.006	4443
866.137	4455
866.269	4459
866.4	4474
866.531	4489
866.662	4443
866.793	4478
866.924	4459
867.055	4516
867.186	4523
867.317	4459
867.448	4390
867.579	4459
867.71	4443
867.841	4421
867.972	4489
868.103	4485
868.233	4485
868.364	4481
868.495	4500
868.625	4717
868.756	4767
868.886	4596
869.017	4618
869.147	4812
869.278	4812
869.408	4675
869.539	4664
869.669	4797
869.799	4683
869.929	4778
870.06	4755
870.19	4968
870.32	4911
870.45	4972
870.58	5006
870.71	5143
870.84	5098
870.97	4984
871.1	4953
871.23	5178
871.36	5174
871.489	5067
871.619	5124
871.749	5094
871.879	5147
872.008	5189
872.138	5117
872.267	4984
872.397	4885
872.526	4812
872.656	4733
872.785	4866
872.915	5014
873.044	5105
873.173	4972
873.303	4904
873.432	4984
873.561	4953
873.69	4896
873.819	4873
873.948	4927
874.077	4889
874.206	4797
874.335	4805
874.464	4908
874.593	5052
874.722	4968
874.851	5105
874.979	5056
875.108	5025
875.237	4908
875.365	4915
875.494	4850
875.623	4968
875.751	4862
875.88	4873
876.008	4953
876.136	5052
876.265	5246
876.393	5303
876.521	5227
876.65	5250
876.778	5185
876.906	5079
877.034	5048
877.162	5105
877.29	4965
877.418	4995
877.546	5060
877.674	5064
877.802	5041
877.93	5033
878.058	4957
878.185	4908
878.313	4984
878.441	4987
878.568	4839
878.696	4911
878.824	4965
878.951	5060
879.079	5174
879.206	5284
879.333	5105
879.461	4999
879.588	5014
879.715	5155
879.842	5254
879.97	4987
880.097	4809
880.224	4744
880.351	4797
880.478	4835
880.605	4835
880.732	4797
880.859	5159
880.986	4911
881.112	4923
881.239	4812
881.366	4733
881.493	4618
881.619	4611
881.746	4634
881.872	4702
881.999	4687
882.125	4706
882.252	4793
882.378	4793
882.505	4984
882.631	4809
882.757	4683
882.883	4805
883.01	4740
883.136	4744
883.262	4611
883.388	4710
883.514	4831
883.64	4904
883.766	4858
883.892	4687
884.018	4721
884.143	4908
884.269	5056
884.395	4691
884.52	4611
884.646	4706
884.772	4599
884.897	4577
885.023	4679
885.148	4740
885.274	4915
885.399	4881
885.524	4752
885.65	4759
885.775	4759
885.9	4736
886.025	4854
886.15	4812
886.275	4782
886.4	4653
886.525	4793
886.65	4710
886.775	4725
886.9	4927
887.025	5052
887.149	4797
887.274	4660
887.399	4618
887.523	4630
887.648	4607
887.773	4584
887.897	4809
888.021	4862
888.146	4710
888.27	4854
888.395	4942
888.519	4831
888.643	4824
888.767	4854
888.891	4725
889.015	4641
889.139	4664
889.263	4618
889.387	4809
889.511	4870
889.635	4847
889.759	4649
889.883	4668
890.006	4771
890.13	4877
890.254	4603
890.377	4702
890.501	4565
890.624	4573
890.748	4656
890.871	4512
890.995	4436
891.118	4394
891.241	4577
891.364	4554
891.488	4615
891.611	4489
891.734	4535
891.857	4603
891.98	4626
892.103	4725
892.226	4630
892.349	4580
892.471	4440
892.594	4542
892.717	4565
892.839	4592
892.962	4565
893.085	4679
893.207	4603
893.33	4516
893.452	4554
893.575	4675
893.697	4596
893.819	4774
893.941	4866
894.064	4812
894.186	4580
894.308	4577
894.43	4729
894.552	4809
894.674	4752
894.796	4580
894.918	4634
895.04	4592
895.161	4706
895.283	4691
895.405	4558
895.526	4691
895.648	4710
895.769	4672
895.891	4725
896.012	4725
896.134	4755
896.255	4672
896.376	4599
896.498	4626
896.619	4672
896.74	4618
896.861	4664
896.982	4972
897.103	5090
897.224	4850
897.345	4729
897.466	4706
897.587	4759
897.708	4858
897.828	4778
897.949	4672
898.07	4558
898.19	4637
898.311	4835
898.431	4698
898.552	4740
898.672	4892
898.792	4889
898.913	4786
899.033	4603
899.153	4519
899.273	4451
899.393	4554
899.513	4554
899.633	4554
899.753	4565
899.873	4554
899.993	4558
900.113	4558
900.232	4561
900.352	4558
900.472	4519
900.591	4394
900.711	4535
900.83	4462
900.95	4634
901.069	4714
901.189	4569
901.308	4367
901.427	4348
901.546	4436
901.665	4455
901.784	4531
901.904	4421
902.023	4367
902.141	4166
902.26	4211
902.379	4303
902.498	4227
902.617	4242
902.735	4394
902.854	4428
902.973	4383
903.091	4303
903.21	4257
903.328	4265
903.446	4215
903.565	4291
903.683	4375
903.801	4306
903.919	4440
904.038	4428
904.156	4363
904.274	4428
904.392	4421
904.51	4451
904.627	4485
904.745	4615
904.863	4656
904.981	4398
905.098	4249
905.216	4390
905.334	4436
905.451	4424
905.569	4436
905.686	4611
905.803	4550
905.921	4451
906.038	4584
906.155	4470
906.272	4409
906.389	4489
906.506	4383
906.623	4405
906.74	4367
906.857	4306
906.974	4436
907.091	4584
907.208	4664
907.324	4558
907.441	4538
907.557	4379
907.674	4360
907.79	4352
907.907	4428
908.023	4508
908.139	4493
908.256	4451
908.372	4512
908.488	4500
908.604	4383
908.72	4360
908.836	4424
908.952	4424
909.068	4432
909.184	4618
909.3	4481
909.415	4584
909.531	4508
909.647	4356
909.762	4413
909.878	4363
909.993	4462
910.108	4485
910.224	4440
910.339	4485
910.454	4447
910.57	4424
910.685	4287
910.8	4615
910.915	4622
911.03	4497
911.145	4306
911.259	4318
911.374	4329
911.489	4322
911.604	4303
911.718	4200
911.833	4227
911.947	4078
912.062	4029
912.176	4207
912.291	4246
912.405	4268
912.519	4474
912.633	4489
912.748	4371
912.862	4344
912.976	4234
913.09	4124
913.204	4173
913.318	4238
913.431	4390
913.545	4409
913.659	4417
913.772	4337
913.886	4303
914	4230
914.113	4383
914.226	4443
914.34	4421
914.453	4276
914.566	4386
914.68	4333
914.793	4356
914.906	4158
915.019	4112
915.132	4154
915.245	4192
915.358	4246
915.47	4227
915.583	4314
915.696	4344
915.809	4436
915.921	4409
916.034	4299
916.146	4242
916.259	4230
916.371	4337
916.483	4386
916.595	4242
916.708	4299
916.82	4322
916.932	4314
917.044	4322
917.156	4356
917.268	4200
917.38	4261
917.491	4261
917.603	4356
917.715	4470
917.826	4478
917.938	4360
918.049	4287
918.161	4379
918.272	4542
918.384	4466
918.495	4481
918.606	4314
918.717	4261
918.828	4367
918.939	4375
919.05	4246
919.161	4363
919.272	4109
919.383	4246
919.494	4447
919.604	4668
919.715	4436
919.826	4348
919.936	4394
920.047	4592
920.157	4531
920.267	4721
920.378	4489
920.488	4516
920.598	4702
920.708	4896
920.818	4763
920.928	4797
921.038	4976
921.148	4908
921.258	4656
921.368	4554
921.477	4481
921.587	4466
921.697	4394
921.806	4558
921.916	4436
922.025	4276
922.134	4276
922.244	4215
922.353	4306
922.462	4166
922.571	4112
922.68	4021
922.789	3994
922.898	4044
923.007	4013
923.116	4150
923.224	4048
923.333	4097
923.442	3998
923.55	3972
923.659	4013
923.767	4097
923.876	4017
923.984	4116
924.092	4025
924.201	4097
924.309	4112
924.417	4131
924.525	4105
924.633	4124
924.741	4873
924.849	3903
924.956	4173
925.064	3983
925.172	3888
925.279	3979
925.387	4086
925.494	4055
925.602	4200
925.709	4200
925.816	4044
925.924	4158
926.031	4242
926.138	4188
926.245	4234
926.352	4105
926.459	4314
926.566	4306
926.673	4177
926.779	4093
926.886	4101
926.993	4029
927.099	4013
927.206	3972
927.312	3918
927.419	4109
927.525	4082
927.631	4139
927.737	3998
927.843	3991
927.95	3903
928.056	4010
928.162	4021
928.267	4135
928.373	4687
928.479	4112
928.585	3956
928.69	4063
928.796	4139
928.901	4010
929.007	3926
929.112	4071
929.218	4006
929.323	3956
929.428	3964
929.533	4120
929.638	3987
929.743	4029
929.848	4082
929.953	4048
930.058	3926
930.163	3778
930.267	3854
930.372	4051
930.477	3846
930.581	4120
930.685	3972
930.79	3850
930.894	3922
930.998	3907
931.103	4105
931.207	3740
931.311	3728
931.415	3728
931.519	3580
931.623	3603
