Data from test_V78500241_836.txt Node
Date: Fri Mar 25 16:54:48 CST 2022
User: usil
Spectrometer: V785-0024
Trigger mode: 0
Integration Time (sec): 4.000000E-1
Scans to average: 1
Nonlinearity correction enabled: false
Boxcar width: 0
Storing dark spectrum: false
XAxis mode: Wavelengths
Number of Pixels in Spectrum: 1024
>>>>>Begin Spectral Data<<<<<
801.071	8062
801.214	7986
801.356	7852
801.499	7951
801.641	7818
801.783	7780
801.926	8001
802.068	7947
802.211	7982
802.353	7978
802.496	7852
802.638	7856
802.78	7989
802.923	7879
803.065	7868
803.208	7913
803.35	7989
803.492	8096
803.635	8225
803.777	8005
803.919	8092
804.061	8393
804.204	8119
804.346	8046
804.488	7951
804.63	8180
804.773	7993
804.915	8145
805.057	8240
805.199	8123
805.341	8229
805.483	8237
805.626	8240
805.768	8084
805.91	8221
806.052	8157
806.194	8100
806.336	8218
806.478	8027
806.62	8103
806.762	8046
806.904	8240
807.046	8450
807.188	8301
807.33	8271
807.472	8370
807.614	8206
807.756	8054
807.898	7982
808.04	7864
808.182	7940
808.324	7932
808.465	7898
808.607	8050
808.749	8058
808.891	8202
809.033	8263
809.174	8210
809.316	8084
809.458	8088
809.6	7967
809.741	8024
809.883	7989
810.025	8054
810.166	8054
810.308	8035
810.45	8054
810.591	7909
810.733	7746
810.875	7700
811.016	7491
811.158	7483
811.299	7563
811.441	7696
811.582	7655
811.724	7575
811.865	7480
812.007	7594
812.148	7499
812.29	7605
812.431	7750
812.573	7864
812.714	7906
812.855	8119
812.997	8164
813.138	8324
813.279	8138
813.421	8062
813.562	8058
813.703	7906
813.845	7833
813.986	7449
814.127	7289
814.268	7171
814.41	7171
814.551	7110
814.692	7187
814.833	7008
814.974	7126
815.115	7046
815.256	7008
815.397	6901
815.539	6924
815.68	6844
815.821	6787
815.962	6890
816.103	6806
816.244	6669
816.385	6658
816.526	6635
816.666	6479
816.807	6300
816.948	6418
817.089	6479
817.23	6407
817.371	6376
817.512	6422
817.653	6338
817.793	6353
817.934	6410
818.075	6399
818.216	6445
818.356	6384
818.497	6243
818.638	6072
818.778	6117
818.919	6110
819.06	6163
819.2	6281
819.341	6304
819.481	6433
819.622	6498
819.762	6779
819.903	6707
820.043	6555
820.184	6566
820.324	6646
820.465	6662
820.605	6639
820.746	6654
820.886	6486
821.026	6658
821.167	6715
821.307	6791
821.447	6730
821.588	6654
821.728	6544
821.868	6475
822.008	6285
822.149	6372
822.289	6357
822.429	6201
822.569	6083
822.709	6095
822.849	5923
822.99	5912
823.13	5882
823.27	5882
823.41	5802
823.55	5767
823.69	5794
823.83	5786
823.97	5608
824.11	5543
824.25	5501
824.389	5551
824.529	5535
824.669	5493
824.809	5649
824.949	5642
825.089	5543
825.228	5581
825.368	5395
825.508	5311
825.648	5353
825.787	5353
825.927	5410
826.067	5410
826.206	5292
826.346	5345
826.485	5402
826.625	5417
826.765	5509
826.904	5459
827.044	5204
827.183	5201
827.323	5140
827.462	5239
827.601	5086
827.741	5189
827.88	5208
828.02	5143
828.159	5204
828.298	5326
828.437	5322
828.577	5269
828.716	5482
828.855	5288
828.994	5136
829.134	5079
829.273	5170
829.412	5140
829.551	5102
829.69	5162
829.829	5204
829.968	5372
830.107	5265
830.246	5284
830.385	5212
830.524	5132
830.663	5079
830.802	4949
830.941	4854
831.08	4900
831.219	5022
831.357	4980
831.496	5147
831.635	4930
831.774	4843
831.913	4831
832.051	4649
832.19	4744
832.329	4847
832.467	4656
832.606	4599
832.744	4721
832.883	4740
833.022	4698
833.16	4786
833.299	4828
833.437	4877
833.576	4835
833.714	4885
833.852	4862
833.991	4873
834.129	5014
834.267	4927
834.406	4908
834.544	4942
834.682	4927
834.821	4961
834.959	5155
835.097	4961
835.235	5109
835.373	5124
835.511	5094
835.65	5033
835.788	5045
835.926	4896
836.064	4889
836.202	4930
836.34	5155
836.478	5193
836.615	5162
836.753	5269
836.891	5280
837.029	5246
837.167	5189
837.305	5162
837.443	5136
837.58	5079
837.718	5246
837.856	5204
837.993	5201
838.131	5227
838.269	5189
838.406	5159
838.544	5208
838.681	5037
838.819	4946
838.956	4930
839.094	4923
839.231	4995
839.369	5075
839.506	5372
839.643	5280
839.781	5045
839.918	5025
840.055	5128
840.193	5121
840.33	5105
840.467	5132
840.604	5162
840.742	5433
840.879	5098
841.016	5083
841.153	5132
841.29	5429
841.427	5364
841.564	5292
841.701	5299
841.838	5250
841.975	5227
842.112	5299
842.249	5105
842.385	5098
842.522	5364
842.659	5174
842.796	5159
842.933	5208
843.069	5140
843.206	5124
843.343	5242
843.479	5201
843.616	5250
843.752	5003
843.889	4987
844.025	5216
844.162	5041
844.298	5220
844.435	5079
844.571	4995
844.708	5181
844.844	5307
844.98	5334
845.117	5337
845.253	5147
845.389	5098
845.525	5124
845.661	5162
845.798	5025
845.934	5151
846.07	5048
846.206	5147
846.342	5273
846.478	5162
846.614	5022
846.75	4976
846.886	4908
847.022	5166
847.158	5014
847.294	5048
847.429	5071
847.565	5029
847.701	5296
847.837	4881
847.972	4782
848.108	4968
848.244	4908
848.379	4820
848.515	4683
848.65	4691
848.786	4694
848.921	4748
849.057	4889
849.192	4896
849.328	4801
849.463	4812
849.598	4740
849.734	4801
849.869	4717
850.004	4592
850.14	4683
850.275	4550
850.41	4523
850.545	4535
850.68	4603
850.815	4622
850.95	4599
851.085	4816
851.22	4721
851.355	4668
851.49	4577
851.625	4637
851.76	4577
851.895	4569
852.03	4527
852.165	4615
852.299	4729
852.434	4790
852.569	4744
852.703	4771
852.838	4809
852.973	4908
853.107	4892
853.242	4740
853.376	4641
853.511	4558
853.645	4550
853.78	4824
853.914	4664
854.048	4679
854.183	4653
854.317	4698
854.451	4843
854.585	4706
854.72	4626
854.854	4763
854.988	4573
855.122	4607
855.256	4535
855.39	4630
855.524	4771
855.658	4698
855.792	4691
855.926	4675
856.06	4706
856.194	4752
856.327	4687
856.461	4611
856.595	4607
856.729	4577
856.862	4717
856.996	4653
857.13	4714
857.263	4744
857.397	4740
857.53	4656
857.664	4759
857.797	4759
857.931	4771
858.064	4683
858.197	4774
858.331	4653
858.464	4607
858.597	4523
858.731	4588
858.864	4580
858.997	4588
859.13	4668
859.263	4672
859.396	4660
859.529	4573
859.662	4615
859.795	4527
859.928	4675
860.061	4748
860.194	4767
860.327	4599
860.46	4535
860.592	4687
860.725	4755
860.858	4717
860.99	4592
861.123	4512
861.256	4516
861.388	4565
861.521	5280
861.653	4462
861.786	4436
861.918	4481
862.05	4508
862.183	4523
862.315	4569
862.447	4615
862.58	4512
862.712	4436
862.844	4310
862.976	4474
863.108	4478
863.24	4748
863.372	4318
863.504	4394
863.636	4367
863.768	4447
863.9	4428
864.032	4371
864.164	4432
864.296	4459
864.428	4546
864.559	4523
864.691	4542
864.823	4508
864.954	4485
865.086	4432
865.217	4409
865.349	4405
865.48	4459
865.612	4443
865.743	4641
865.875	4451
866.006	4383
866.137	4447
866.269	4432
866.4	4413
866.531	4402
866.662	4386
866.793	4443
866.924	4436
867.055	4478
867.186	4432
867.317	4398
867.448	4383
867.579	4371
867.71	4386
867.841	4386
867.972	4459
868.103	4447
868.233	4417
868.364	4466
868.495	4478
868.625	4630
868.756	4748
868.886	4592
869.017	4577
869.147	4778
869.278	4767
869.408	4611
869.539	4618
869.669	4740
869.799	4645
869.929	4687
870.06	4710
870.19	4900
870.32	4938
870.45	4896
870.58	5025
870.71	5071
870.84	5094
870.97	4976
871.1	4896
871.23	5105
871.36	5143
871.489	5037
871.619	5102
871.749	5105
871.879	5140
872.008	5166
872.138	4987
872.267	4919
872.397	4809
872.526	4843
872.656	4694
872.785	4748
872.915	4889
873.044	5067
873.173	4915
873.303	4972
873.432	4934
873.561	4930
873.69	4892
873.819	4793
873.948	4889
874.077	4782
874.206	4729
874.335	4801
874.464	4927
874.593	5052
874.722	4984
874.851	5064
874.979	5075
875.108	5025
875.237	4991
875.365	4805
875.494	4919
875.623	4927
875.751	4801
875.88	4892
876.008	4972
876.136	4995
876.265	5159
876.393	5357
876.521	5242
876.65	5242
876.778	5151
876.906	5045
877.034	5041
877.162	5064
877.29	4976
877.418	5029
877.546	5071
877.674	5067
877.802	5018
877.93	4991
878.058	4923
878.185	4809
878.313	4957
878.441	4915
878.568	4801
878.696	4850
878.824	4915
878.951	5006
879.079	5105
879.206	5315
879.333	5079
879.461	4987
879.588	4999
879.715	5121
879.842	5242
879.97	5067
880.097	4782
880.224	4786
880.351	4831
880.478	4850
880.605	4786
880.732	4771
880.859	5105
880.986	4889
881.112	4862
881.239	4748
881.366	4683
881.493	4618
881.619	4607
881.746	4637
881.872	4649
881.999	4618
882.125	4675
882.252	4748
882.378	4786
882.505	4915
882.631	4771
882.757	4653
882.883	4733
883.01	4725
883.136	4672
883.262	4611
883.388	4637
883.514	4748
883.64	4858
883.766	4786
883.892	4634
884.018	4729
884.143	4862
884.269	5060
884.395	4687
884.52	4607
884.646	4645
884.772	4550
884.897	4542
885.023	4672
885.148	4714
885.274	4839
885.399	4824
885.524	4714
885.65	4683
885.775	4725
885.9	4691
886.025	4847
886.15	4812
886.275	4736
886.4	4622
886.525	4694
886.65	4630
886.775	4668
886.9	4904
887.025	5029
887.149	4797
887.274	4626
887.399	4603
887.523	4592
887.648	4599
887.773	4603
887.897	4744
888.021	4793
888.146	4634
888.27	4786
888.395	4915
888.519	4801
888.643	4820
888.767	4839
888.891	4615
889.015	4599
889.139	4641
889.263	4599
889.387	4740
889.511	4900
889.635	4759
889.759	4649
889.883	4592
890.006	4702
890.13	4843
890.254	4592
890.377	4691
890.501	4550
890.624	4481
890.748	4641
890.871	4489
890.995	4409
891.118	4363
891.241	4527
891.364	4569
891.488	4641
891.611	4462
891.734	4527
891.857	4611
891.98	4489
892.103	4615
892.226	4603
892.349	4550
892.471	4447
892.594	4546
892.717	4550
892.839	4573
892.962	4660
893.085	4637
893.207	4546
893.33	4440
893.452	4512
893.575	4653
893.697	4561
893.819	4774
893.941	4828
894.064	4748
894.186	4561
894.308	4577
894.43	4736
894.552	4805
894.674	4755
894.796	4580
894.918	4611
895.04	4561
895.161	4744
895.283	4664
895.405	4596
895.526	4637
895.648	4660
895.769	4649
895.891	4649
896.012	4774
896.134	4683
896.255	4637
896.376	4637
896.498	4615
896.619	4687
896.74	4611
896.861	4672
896.982	4919
897.103	5090
897.224	4824
897.345	4778
897.466	4622
897.587	4744
897.708	4839
897.828	4759
897.949	4634
898.07	4584
898.19	4607
898.311	4805
898.431	4668
898.552	4694
898.672	4793
898.792	4793
898.913	4759
899.033	4607
899.153	4485
899.273	4447
899.393	4504
899.513	4497
899.633	4550
899.753	4554
899.873	4500
899.993	4542
900.113	4542
900.232	4573
900.352	4470
900.472	4470
900.591	4413
900.711	4516
900.83	4409
900.95	4615
901.069	4672
901.189	4569
901.308	4424
901.427	4314
901.546	4405
901.665	4516
901.784	4500
901.904	4371
902.023	4322
902.141	4147
902.26	4154
902.379	4287
902.498	4223
902.617	4249
902.735	4314
902.854	4371
902.973	4379
903.091	4284
903.21	4234
903.328	4325
903.446	4261
903.565	4284
903.683	4348
903.801	4272
903.919	4360
904.038	4402
904.156	4333
904.274	4436
904.392	4386
904.51	4451
904.627	4474
904.745	4611
904.863	4592
904.981	4409
905.098	4329
905.216	4360
905.334	4398
905.451	4390
905.569	4443
905.686	4554
905.803	4542
905.921	4424
906.038	4538
906.155	4428
906.272	4360
906.389	4394
906.506	4329
906.623	4356
906.74	4379
906.857	4322
906.974	4329
907.091	4565
907.208	4641
907.324	4607
907.441	4478
907.557	4306
907.674	4356
907.79	4314
907.907	4390
908.023	4504
908.139	4481
908.256	4402
908.372	4440
908.488	4451
908.604	4352
908.72	4318
908.836	4356
908.952	4413
909.068	4462
909.184	4542
909.3	4432
909.415	4573
909.531	4546
909.647	4379
909.762	4356
909.878	4341
909.993	4470
910.108	4383
910.224	4379
910.339	4508
910.454	4360
910.57	4314
910.685	4310
910.8	4675
910.915	4615
911.03	4485
911.145	4303
911.259	4284
911.374	4333
911.489	4257
911.604	4295
911.718	4139
911.833	4242
911.947	4074
912.062	4067
912.176	4234
912.291	4272
912.405	4215
912.519	4409
912.633	4428
912.748	4314
912.862	4291
912.976	4181
913.09	4116
913.204	4158
913.318	4234
913.431	4333
913.545	4375
913.659	4394
913.772	4394
913.886	4272
914	4185
914.113	4390
914.226	4421
914.34	4348
914.453	4230
914.566	4424
914.68	4322
914.793	4276
914.906	4147
915.019	4109
915.132	4082
915.245	4131
915.358	4230
915.47	4219
915.583	4200
915.696	4268
915.809	4390
915.921	4409
916.034	4219
916.146	4234
916.259	4223
916.371	4337
916.483	4356
916.595	4276
916.708	4333
916.82	4265
916.932	4287
917.044	4325
917.156	4295
917.268	4242
917.38	4249
917.491	4238
917.603	4341
917.715	4443
917.826	4409
917.938	4318
918.049	4230
918.161	4402
918.272	4500
918.384	4516
918.495	4432
918.606	4295
918.717	4200
918.828	4306
918.939	4371
919.05	4223
919.161	4303
919.272	4112
919.383	4246
919.494	4443
919.604	4622
919.715	4417
919.826	4310
919.936	4417
920.047	4500
920.157	4519
920.267	4675
920.378	4516
920.488	4455
920.598	4706
920.708	4854
920.818	4740
920.928	4797
921.038	4961
921.148	4892
921.258	4626
921.368	4500
921.477	4485
921.587	4417
921.697	4424
921.806	4516
921.916	4405
922.025	4246
922.134	4276
922.244	4185
922.353	4325
922.462	4154
922.571	4120
922.68	3998
922.789	3983
922.898	4040
923.007	4013
923.116	4063
923.224	4078
923.333	4029
923.442	3945
923.55	3945
923.659	4029
923.767	4097
923.876	4006
923.984	4139
924.092	3922
924.201	4006
924.309	4086
924.417	4143
924.525	4048
924.633	4109
924.741	4847
924.849	3892
924.956	4147
925.064	3922
925.172	3873
925.279	3960
925.387	4082
925.494	4013
925.602	4234
925.709	4230
925.816	4055
925.924	4150
926.031	4238
926.138	4147
926.245	4219
926.352	4078
926.459	4257
926.566	4306
926.673	4150
926.779	4059
926.886	4074
926.993	3979
927.099	3945
927.206	3953
927.312	3937
927.419	4055
927.525	4044
927.631	4097
927.737	3960
927.843	3941
927.95	3831
928.056	3960
928.162	3960
928.267	4074
928.373	4660
928.479	4112
928.585	3873
928.69	4017
928.796	4112
928.901	3972
929.007	3861
929.112	3983
929.218	3987
929.323	3934
929.428	3964
929.533	4120
929.638	3922
929.743	3983
929.848	4025
929.953	3979
930.058	3934
930.163	3770
930.267	3789
930.372	3953
930.477	3793
930.581	4093
930.685	3949
930.79	3823
930.894	3899
930.998	3861
931.103	4040
931.207	3701
931.311	3679
931.415	3606
931.519	3515
931.623	3542
