Data from test_V78500241_721.txt Node
Date: Fri Mar 25 16:54:00 CST 2022
User: usil
Spectrometer: V785-0024
Trigger mode: 0
Integration Time (sec): 4.000000E-1
Scans to average: 1
Nonlinearity correction enabled: false
Boxcar width: 0
Storing dark spectrum: false
XAxis mode: Wavelengths
Number of Pixels in Spectrum: 1024
>>>>>Begin Spectral Data<<<<<
801.071	8020
801.214	7997
801.356	7849
801.499	7849
801.641	7795
801.783	7860
801.926	7986
802.068	7860
802.211	7936
802.353	8046
802.496	7871
802.638	7902
802.78	7925
802.923	7875
803.065	7807
803.208	7894
803.35	8008
803.492	8096
803.635	8134
803.777	8031
803.919	8065
804.061	8381
804.204	8103
804.346	8058
804.488	7913
804.63	8100
804.773	7993
804.915	8096
805.057	8294
805.199	8168
805.341	8199
805.483	8244
805.626	8218
805.768	8081
805.91	8180
806.052	8271
806.194	8138
806.336	8309
806.478	8103
806.62	8054
806.762	8115
806.904	8256
807.046	8465
807.188	8324
807.33	8271
807.472	8309
807.614	8164
807.756	8134
807.898	7959
808.04	7833
808.182	7864
808.324	7928
808.465	7871
808.607	8046
808.749	8069
808.891	8138
809.033	8328
809.174	8221
809.316	8065
809.458	8024
809.6	7982
809.741	8020
809.883	7989
810.025	8058
810.166	7989
810.308	8043
810.45	8005
810.591	7860
810.733	7765
810.875	7639
811.016	7575
811.158	7464
811.299	7548
811.441	7704
811.582	7643
811.724	7548
811.865	7518
812.007	7578
812.148	7540
812.29	7563
812.431	7643
812.573	7841
812.714	7917
812.855	8115
812.997	8119
813.138	8286
813.279	8195
813.421	8073
813.562	8043
813.703	7818
813.845	7780
813.986	7464
814.127	7251
814.268	7259
814.41	7190
814.551	7133
814.692	7118
814.833	7038
814.974	7080
815.115	7061
815.256	6996
815.397	6932
815.539	6996
815.68	6783
815.821	6795
815.962	6875
816.103	6757
816.244	6673
816.385	6597
816.526	6662
816.666	6502
816.807	6300
816.948	6414
817.089	6494
817.23	6433
817.371	6410
817.512	6388
817.653	6422
817.793	6391
817.934	6429
818.075	6395
818.216	6456
818.356	6369
818.497	6144
818.638	6110
818.778	6121
818.919	6129
819.06	6171
819.2	6273
819.341	6308
819.481	6334
819.622	6494
819.762	6703
819.903	6719
820.043	6608
820.184	6547
820.324	6502
820.465	6574
820.605	6627
820.746	6620
820.886	6517
821.026	6585
821.167	6696
821.307	6772
821.447	6700
821.588	6623
821.728	6528
821.868	6494
822.008	6289
822.149	6350
822.289	6369
822.429	6197
822.569	6026
822.709	6133
822.849	5870
822.99	5939
823.13	5916
823.27	5912
823.41	5794
823.55	5786
823.69	5779
823.83	5783
823.97	5668
824.11	5554
824.25	5509
824.389	5516
824.529	5592
824.669	5493
824.809	5611
824.949	5642
825.089	5653
825.228	5535
825.368	5372
825.508	5330
825.648	5330
825.787	5395
825.927	5395
826.067	5311
826.206	5296
826.346	5364
826.485	5421
826.625	5433
826.765	5512
826.904	5417
827.044	5258
827.183	5185
827.323	5086
827.462	5223
827.601	5178
827.741	5185
827.88	5174
828.02	5117
828.159	5223
828.298	5349
828.437	5360
828.577	5254
828.716	5406
828.855	5315
828.994	5193
829.134	5102
829.273	5197
829.412	5128
829.551	5113
829.69	5143
829.829	5178
829.968	5330
830.107	5280
830.246	5288
830.385	5212
830.524	5105
830.663	5083
830.802	4980
830.941	4866
831.08	4824
831.219	4930
831.357	4953
831.496	5124
831.635	4896
831.774	4843
831.913	4805
832.051	4687
832.19	4683
832.329	4805
832.467	4683
832.606	4630
832.744	4694
832.883	4710
833.022	4694
833.16	4812
833.299	4816
833.437	4801
833.576	4774
833.714	4835
833.852	4820
833.991	4885
834.129	4972
834.267	4934
834.406	4904
834.544	4965
834.682	4980
834.821	4980
834.959	5128
835.097	4976
835.235	5117
835.373	5124
835.511	5102
835.65	5010
835.788	5022
835.926	4862
836.064	4908
836.202	4934
836.34	5140
836.478	5231
836.615	5094
836.753	5181
836.891	5242
837.029	5235
837.167	5239
837.305	5113
837.443	5140
837.58	5102
837.718	5258
837.856	5197
837.993	5174
838.131	5235
838.269	5250
838.406	5204
838.544	5223
838.681	4999
838.819	4968
838.956	4862
839.094	4938
839.231	5006
839.369	5052
839.506	5433
839.643	5193
839.781	5117
839.918	5010
840.055	5105
840.193	5090
840.33	5109
840.467	5147
840.604	5208
840.742	5455
840.879	5033
841.016	5022
841.153	5174
841.29	5353
841.427	5337
841.564	5299
841.701	5341
841.838	5292
841.975	5220
842.112	5223
842.249	5178
842.385	5109
842.522	5315
842.659	5204
842.796	5147
842.933	5235
843.069	5151
843.206	5140
843.343	5250
843.479	5208
843.616	5258
843.752	4999
843.889	5041
844.025	5189
844.162	5010
844.298	5193
844.435	5105
844.571	5086
844.708	5132
844.844	5330
844.98	5303
845.117	5261
845.253	5159
845.389	5086
845.525	5136
845.661	5178
845.798	5079
845.934	5140
846.07	5067
846.206	5178
846.342	5322
846.478	5201
846.614	4995
846.75	4987
846.886	4889
847.022	5140
847.158	5029
847.294	5067
847.429	5071
847.565	5025
847.701	5315
847.837	4870
847.972	4801
848.108	4953
848.244	4949
848.379	4786
848.515	4683
848.65	4714
848.786	4729
848.921	4809
849.057	4877
849.192	4896
849.328	4790
849.463	4820
849.598	4786
849.734	4755
849.869	4618
850.004	4630
850.14	4653
850.275	4573
850.41	4519
850.545	4550
850.68	4641
850.815	4573
850.95	4603
851.085	4801
851.22	4763
851.355	4694
851.49	4569
851.625	4599
851.76	4653
851.895	4584
852.03	4497
852.165	4645
852.299	4641
852.434	4786
852.569	4755
852.703	4774
852.838	4847
852.973	4908
853.107	4870
853.242	4668
853.376	4717
853.511	4531
853.645	4596
853.78	4790
853.914	4683
854.048	4645
854.183	4656
854.317	4729
854.451	4805
854.585	4687
854.72	4645
854.854	4710
854.988	4618
855.122	4603
855.256	4516
855.39	4694
855.524	4736
855.658	4740
855.792	4691
855.926	4759
856.06	4771
856.194	4793
856.327	4721
856.461	4611
856.595	4599
856.729	4611
856.862	4755
856.996	4698
857.13	4744
857.263	4744
857.397	4805
857.53	4653
857.664	4706
857.797	4733
857.931	4793
858.064	4698
858.197	4763
858.331	4641
858.464	4641
858.597	4516
858.731	4618
858.864	4592
858.997	4565
859.13	4653
859.263	4637
859.396	4675
859.529	4573
859.662	4569
859.795	4508
859.928	4599
860.061	4771
860.194	4725
860.327	4584
860.46	4588
860.592	4702
860.725	4679
860.858	4748
860.99	4546
861.123	4478
861.256	4558
861.388	4618
861.521	5391
861.653	4428
861.786	4451
861.918	4443
862.05	4512
862.183	4497
862.315	4615
862.447	4668
862.58	4535
862.712	4402
862.844	4299
862.976	4459
863.108	4489
863.24	4820
863.372	4306
863.504	4402
863.636	4421
863.768	4443
863.9	4417
864.032	4348
864.164	4394
864.296	4504
864.428	4550
864.559	4596
864.691	4523
864.823	4531
864.954	4485
865.086	4516
865.217	4447
865.349	4402
865.48	4459
865.612	4489
865.743	4622
865.875	4493
866.006	4409
866.137	4440
866.269	4421
866.4	4424
866.531	4443
866.662	4363
866.793	4405
866.924	4421
867.055	4474
867.186	4447
867.317	4394
867.448	4363
867.579	4394
867.71	4432
867.841	4405
867.972	4462
868.103	4440
868.233	4424
868.364	4451
868.495	4421
868.625	4675
868.756	4736
868.886	4630
869.017	4607
869.147	4782
869.278	4752
869.408	4645
869.539	4596
869.669	4687
869.799	4714
869.929	4797
870.06	4725
870.19	4976
870.32	4915
870.45	4904
870.58	4965
870.71	5064
870.84	5079
870.97	4953
871.1	4946
871.23	5094
871.36	5079
871.489	5003
871.619	5045
871.749	5056
871.879	5083
872.008	5155
872.138	5109
872.267	4911
872.397	4831
872.526	4790
872.656	4694
872.785	4759
872.915	4946
873.044	4995
873.173	4953
873.303	4968
873.432	4991
873.561	4919
873.69	4904
873.819	4831
873.948	4873
874.077	4774
874.206	4744
874.335	4797
874.464	4930
874.593	5029
874.722	4957
874.851	5056
874.979	5048
875.108	5102
875.237	4911
875.365	4820
875.494	4885
875.623	4972
875.751	4824
875.88	4873
876.008	4961
876.136	4987
876.265	5151
876.393	5322
876.521	5277
876.65	5212
876.778	5140
876.906	5018
877.034	5029
877.162	5048
877.29	4976
877.418	4999
877.546	5037
877.674	5079
877.802	5029
877.93	5094
878.058	4934
878.185	4881
878.313	4972
878.441	4885
878.568	4797
878.696	4870
878.824	4987
878.951	4995
879.079	5117
879.206	5273
879.333	5037
879.461	4965
879.588	4984
879.715	5094
879.842	5242
879.97	5018
880.097	4790
880.224	4721
880.351	4862
880.478	4839
880.605	4847
880.732	4752
880.859	5029
880.986	4885
881.112	4873
881.239	4786
881.366	4649
881.493	4611
881.619	4580
881.746	4588
881.872	4618
881.999	4675
882.125	4679
882.252	4771
882.378	4809
882.505	4949
882.631	4744
882.757	4656
882.883	4725
883.01	4702
883.136	4637
883.262	4630
883.388	4615
883.514	4797
883.64	4828
883.766	4790
883.892	4675
884.018	4733
884.143	4946
884.269	4987
884.395	4656
884.52	4634
884.646	4626
884.772	4603
884.897	4542
885.023	4710
885.148	4748
885.274	4870
885.399	4774
885.524	4710
885.65	4664
885.775	4740
885.9	4687
886.025	4854
886.15	4805
886.275	4694
886.4	4649
886.525	4740
886.65	4694
886.775	4649
886.9	4877
887.025	5022
887.149	4790
887.274	4622
887.399	4535
887.523	4592
887.648	4577
887.773	4607
887.897	4763
888.021	4782
888.146	4733
888.27	4831
888.395	4961
888.519	4774
888.643	4782
888.767	4805
888.891	4656
889.015	4660
889.139	4569
889.263	4611
889.387	4729
889.511	4854
889.635	4767
889.759	4645
889.883	4675
890.006	4733
890.13	4820
890.254	4626
890.377	4725
890.501	4519
890.624	4519
890.748	4615
890.871	4504
890.995	4356
891.118	4413
891.241	4546
891.364	4573
891.488	4615
891.611	4523
891.734	4573
891.857	4584
891.98	4470
892.103	4664
892.226	4580
892.349	4504
892.471	4386
892.594	4546
892.717	4558
892.839	4554
892.962	4584
893.085	4706
893.207	4626
893.33	4443
893.452	4519
893.575	4645
893.697	4573
893.819	4744
893.941	4835
894.064	4771
894.186	4580
894.308	4531
894.43	4717
894.552	4763
894.674	4698
894.796	4523
894.918	4558
895.04	4561
895.161	4706
895.283	4637
895.405	4508
895.526	4641
895.648	4660
895.769	4679
895.891	4687
896.012	4733
896.134	4736
896.255	4683
896.376	4626
896.498	4611
896.619	4691
896.74	4622
896.861	4687
896.982	4896
897.103	5052
897.224	4858
897.345	4740
897.466	4664
897.587	4755
897.708	4854
897.828	4771
897.949	4694
898.07	4577
898.19	4596
898.311	4797
898.431	4634
898.552	4733
898.672	4809
898.792	4778
898.913	4774
899.033	4611
899.153	4474
899.273	4413
899.393	4455
899.513	4531
899.633	4535
899.753	4527
899.873	4531
899.993	4577
900.113	4519
900.232	4588
900.352	4561
900.472	4497
900.591	4440
900.711	4485
900.83	4421
900.95	4603
901.069	4660
901.189	4584
901.308	4367
901.427	4344
901.546	4386
901.665	4436
901.784	4523
901.904	4356
902.023	4314
902.141	4143
902.26	4173
902.379	4303
902.498	4249
902.617	4192
902.735	4329
902.854	4360
902.973	4295
903.091	4230
903.21	4173
903.328	4261
903.446	4261
903.565	4211
903.683	4299
903.801	4261
903.919	4394
904.038	4424
904.156	4333
904.274	4398
904.392	4405
904.51	4386
904.627	4451
904.745	4645
904.863	4641
904.981	4383
905.098	4348
905.216	4390
905.334	4432
905.451	4432
905.569	4398
905.686	4558
905.803	4603
905.921	4421
906.038	4535
906.155	4455
906.272	4417
906.389	4402
906.506	4363
906.623	4383
906.74	4344
906.857	4291
906.974	4379
907.091	4527
907.208	4626
907.324	4580
907.441	4497
907.557	4329
907.674	4341
907.79	4314
907.907	4413
908.023	4466
908.139	4451
908.256	4417
908.372	4443
908.488	4436
908.604	4318
908.72	4303
908.836	4371
908.952	4341
909.068	4421
909.184	4554
909.3	4462
909.415	4615
909.531	4508
909.647	4333
909.762	4371
909.878	4276
909.993	4428
910.108	4379
910.224	4447
910.339	4440
910.454	4383
910.57	4367
910.685	4276
910.8	4672
910.915	4569
911.03	4440
911.145	4291
911.259	4337
911.374	4375
911.489	4310
911.604	4287
911.718	4177
911.833	4200
911.947	4101
912.062	4025
912.176	4166
912.291	4230
912.405	4246
912.519	4428
912.633	4519
912.748	4325
912.862	4322
912.976	4173
913.09	4112
913.204	4166
913.318	4219
913.431	4367
913.545	4356
913.659	4432
913.772	4314
913.886	4227
914	4211
914.113	4367
914.226	4436
914.34	4409
914.453	4238
914.566	4474
914.68	4284
914.793	4318
914.906	4128
915.019	4166
915.132	4059
915.245	4177
915.358	4215
915.47	4215
915.583	4257
915.696	4268
915.809	4352
915.921	4424
916.034	4265
916.146	4253
916.259	4207
916.371	4375
916.483	4348
916.595	4272
916.708	4299
916.82	4333
916.932	4310
917.044	4310
917.156	4280
917.268	4246
917.38	4249
917.491	4287
917.603	4322
917.715	4421
917.826	4424
917.938	4337
918.049	4246
918.161	4390
918.272	4485
918.384	4527
918.495	4440
918.606	4318
918.717	4200
918.828	4333
918.939	4360
919.05	4234
919.161	4348
919.272	4135
919.383	4223
919.494	4409
919.604	4573
919.715	4428
919.826	4363
919.936	4409
920.047	4531
920.157	4466
920.267	4672
920.378	4531
920.488	4459
920.598	4725
920.708	4892
920.818	4733
920.928	4778
921.038	4923
921.148	4911
921.258	4577
921.368	4531
921.477	4474
921.587	4421
921.697	4344
921.806	4561
921.916	4409
922.025	4249
922.134	4284
922.244	4253
922.353	4375
922.462	4162
922.571	4139
922.68	4040
922.789	3964
922.898	4063
923.007	3991
923.116	4067
923.224	4074
923.333	4082
923.442	4025
923.55	3987
923.659	4029
923.767	4097
923.876	4029
923.984	4120
924.092	4040
924.201	4059
924.309	4143
924.417	4185
924.525	4051
924.633	4082
924.741	5060
924.849	3960
924.956	4173
925.064	3991
925.172	3892
925.279	3968
925.387	4128
925.494	4090
925.602	4287
925.709	4215
925.816	4048
925.924	4158
926.031	4234
926.138	4223
926.245	4280
926.352	4143
926.459	4265
926.566	4337
926.673	4158
926.779	4166
926.886	4131
926.993	4036
927.099	4036
927.206	3972
927.312	3956
927.419	4071
927.525	4055
927.631	4124
927.737	3991
927.843	3975
927.95	3873
928.056	3975
928.162	4036
928.267	4078
928.373	4694
928.479	4166
928.585	3911
928.69	4074
928.796	4116
928.901	4002
929.007	3911
929.112	4109
929.218	3960
929.323	3987
929.428	3960
929.533	4139
929.638	3945
929.743	3968
929.848	4082
929.953	4063
930.058	3956
930.163	3827
930.267	3876
930.372	3941
930.477	3819
930.581	4143
930.685	4021
930.79	3831
930.894	3926
930.998	3926
931.103	4082
931.207	3720
931.311	3713
931.415	3724
931.519	3561
931.623	3557
