Data from test_V78500241_130.txt Node
Date: Fri Mar 25 16:49:54 CST 2022
User: usil
Spectrometer: V785-0024
Trigger mode: 0
Integration Time (sec): 4.000000E-1
Scans to average: 1
Nonlinearity correction enabled: false
Boxcar width: 0
Storing dark spectrum: false
XAxis mode: Wavelengths
Number of Pixels in Spectrum: 1024
>>>>>Begin Spectral Data<<<<<
801.071	7989
801.214	7993
801.356	7868
801.499	7830
801.641	7837
801.783	7871
801.926	7955
802.068	7955
802.211	7970
802.353	8024
802.496	7879
802.638	7875
802.78	7951
802.923	7970
803.065	7875
803.208	7845
803.35	7963
803.492	8062
803.635	8126
803.777	7963
803.919	8043
804.061	8400
804.204	8031
804.346	7974
804.488	7940
804.63	8012
804.773	7970
804.915	8050
805.057	8286
805.199	8123
805.341	8138
805.483	8279
805.626	8176
805.768	8016
805.91	8172
806.052	8244
806.194	8084
806.336	8301
806.478	8111
806.62	8069
806.762	8199
806.904	8290
807.046	8393
807.188	8320
807.33	8252
807.472	8244
807.614	8107
807.756	8142
807.898	8027
808.04	7928
808.182	7883
808.324	7879
808.465	7906
808.607	8012
808.749	8065
808.891	8180
809.033	8233
809.174	8252
809.316	8065
809.458	8088
809.6	7989
809.741	8058
809.883	8092
810.025	8153
810.166	8062
810.308	8092
810.45	8043
810.591	7947
810.733	7811
810.875	7727
811.016	7563
811.158	7487
811.299	7704
811.441	7738
811.582	7689
811.724	7689
811.865	7590
812.007	7681
812.148	7704
812.29	7651
812.431	7818
812.573	7947
812.714	8092
812.855	8233
812.997	8336
813.138	8370
813.279	8229
813.421	8183
813.562	8126
813.703	7856
813.845	7715
813.986	7445
814.127	7289
814.268	7255
814.41	7221
814.551	7259
814.692	7236
814.833	7099
814.974	7175
815.115	7213
815.256	7042
815.397	6985
815.539	6928
815.68	6856
815.821	6810
815.962	6890
816.103	6833
816.244	6707
816.385	6616
816.526	6635
816.666	6502
816.807	6365
816.948	6422
817.089	6486
817.23	6536
817.371	6437
817.512	6407
817.653	6422
817.793	6388
817.934	6471
818.075	6467
818.216	6437
818.356	6433
818.497	6247
818.638	6159
818.778	6121
818.919	6148
819.06	6216
819.2	6308
819.341	6350
819.481	6407
819.622	6540
819.762	6795
819.903	6734
820.043	6608
820.184	6589
820.324	6646
820.465	6692
820.605	6681
820.746	6654
820.886	6502
821.026	6703
821.167	6722
821.307	6787
821.447	6810
821.588	6631
821.728	6597
821.868	6536
822.008	6346
822.149	6384
822.289	6342
822.429	6216
822.569	6098
822.709	6102
822.849	5889
822.99	5920
823.13	5927
823.27	5980
823.41	5870
823.55	5832
823.69	5821
823.83	5802
823.97	5718
824.11	5604
824.25	5596
824.389	5615
824.529	5611
824.669	5551
824.809	5638
824.949	5684
825.089	5649
825.228	5566
825.368	5478
825.508	5364
825.648	5334
825.787	5402
825.927	5417
826.067	5337
826.206	5376
826.346	5368
826.485	5421
826.625	5368
826.765	5539
826.904	5505
827.044	5265
827.183	5231
827.323	5185
827.462	5261
827.601	5201
827.741	5235
827.88	5227
828.02	5113
828.159	5288
828.298	5326
828.437	5334
828.577	5315
828.716	5505
828.855	5353
828.994	5166
829.134	5147
829.273	5277
829.412	5155
829.551	5105
829.69	5227
829.829	5235
829.968	5433
830.107	5341
830.246	5307
830.385	5239
830.524	5159
830.663	5033
830.802	4972
830.941	4889
831.08	4892
831.219	4980
831.357	4942
831.496	5201
831.635	4972
831.774	4892
831.913	4831
832.051	4733
832.19	4793
832.329	4843
832.467	4687
832.606	4675
832.744	4759
832.883	4706
833.022	4755
833.16	4847
833.299	4847
833.437	4824
833.576	4866
833.714	4862
833.852	4896
833.991	4889
834.129	4961
834.267	4957
834.406	4900
834.544	4995
834.682	5003
834.821	4972
834.959	5174
835.097	5003
835.235	5170
835.373	5094
835.511	5056
835.65	5033
835.788	5033
835.926	4972
836.064	4885
836.202	4892
836.34	5208
836.478	5265
836.615	5124
836.753	5231
836.891	5326
837.029	5261
837.167	5208
837.305	5121
837.443	5174
837.58	5155
837.718	5246
837.856	5204
837.993	5181
838.131	5269
838.269	5242
838.406	5204
838.544	5185
838.681	5037
838.819	5022
838.956	4938
839.094	4965
839.231	4968
839.369	5079
839.506	5433
839.643	5292
839.781	5067
839.918	5094
840.055	5109
840.193	5143
840.33	5098
840.467	5147
840.604	5197
840.742	5459
840.879	5128
841.016	5090
841.153	5162
841.29	5387
841.427	5353
841.564	5364
841.701	5417
841.838	5296
841.975	5208
842.112	5318
842.249	5128
842.385	5086
842.522	5307
842.659	5185
842.796	5189
842.933	5193
843.069	5102
843.206	5121
843.343	5337
843.479	5258
843.616	5288
843.752	5033
843.889	5018
844.025	5208
844.162	5037
844.298	5197
844.435	5132
844.571	5025
844.708	5220
844.844	5307
844.98	5318
845.117	5292
845.253	5189
845.389	5128
845.525	5201
845.661	5201
845.798	5064
845.934	5109
846.07	5075
846.206	5208
846.342	5242
846.478	5223
846.614	5045
846.75	5014
846.886	4972
847.022	5166
847.158	5033
847.294	5098
847.429	5178
847.565	5090
847.701	5395
847.837	4896
847.972	4828
848.108	4972
848.244	4923
848.379	4793
848.515	4755
848.65	4733
848.786	4721
848.921	4782
849.057	4877
849.192	4896
849.328	4881
849.463	4881
849.598	4782
849.734	4740
849.869	4679
850.004	4675
850.14	4710
850.275	4596
850.41	4531
850.545	4607
850.68	4626
850.815	4630
850.95	4630
851.085	4831
851.22	4725
851.355	4691
851.49	4634
851.625	4634
851.76	4660
851.895	4531
852.03	4554
852.165	4645
852.299	4771
852.434	4736
852.569	4782
852.703	4797
852.838	4889
852.973	4957
853.107	4980
853.242	4748
853.376	4694
853.511	4527
853.645	4584
853.78	4850
853.914	4740
854.048	4714
854.183	4698
854.317	4733
854.451	4843
854.585	4714
854.72	4656
854.854	4786
854.988	4577
855.122	4668
855.256	4573
855.39	4683
855.524	4801
855.658	4733
855.792	4698
855.926	4729
856.06	4767
856.194	4820
856.327	4717
856.461	4626
856.595	4645
856.729	4664
856.862	4877
856.996	4698
857.13	4660
857.263	4809
857.397	4858
857.53	4660
857.664	4740
857.797	4752
857.931	4755
858.064	4675
858.197	4687
858.331	4736
858.464	4603
858.597	4516
858.731	4683
858.864	4664
858.997	4618
859.13	4748
859.263	4717
859.396	4721
859.529	4615
859.662	4592
859.795	4565
859.928	4603
860.061	4820
860.194	4790
860.327	4641
860.46	4569
860.592	4706
860.725	4729
860.858	4717
860.99	4558
861.123	4554
861.256	4569
861.388	4683
861.521	5402
861.653	4546
861.786	4466
861.918	4500
862.05	4554
862.183	4599
862.315	4626
862.447	4683
862.58	4550
862.712	4474
862.844	4322
862.976	4500
863.108	4459
863.24	4889
863.372	4360
863.504	4432
863.636	4428
863.768	4504
863.9	4402
864.032	4371
864.164	4394
864.296	4466
864.428	4561
864.559	4588
864.691	4546
864.823	4512
864.954	4535
865.086	4531
865.217	4459
865.349	4402
865.48	4417
865.612	4550
865.743	4599
865.875	4459
866.006	4443
866.137	4455
866.269	4459
866.4	4474
866.531	4466
866.662	4428
866.793	4421
866.924	4424
867.055	4535
867.186	4440
867.317	4447
867.448	4341
867.579	4367
867.71	4413
867.841	4383
867.972	4478
868.103	4489
868.233	4462
868.364	4500
868.495	4462
868.625	4683
868.756	4759
868.886	4584
869.017	4675
869.147	4824
869.278	4801
869.408	4683
869.539	4698
869.669	4668
869.799	4706
869.929	4748
870.06	4767
870.19	4991
870.32	4908
870.45	4953
870.58	5033
870.71	5086
870.84	5109
870.97	4984
871.1	4877
871.23	5178
871.36	5143
871.489	5064
871.619	5056
871.749	5109
871.879	5147
872.008	5273
872.138	5079
872.267	4984
872.397	4892
872.526	4828
872.656	4744
872.785	4797
872.915	4984
873.044	5048
873.173	4980
873.303	4957
873.432	4976
873.561	4949
873.69	4892
873.819	4881
873.948	5014
874.077	4816
874.206	4767
874.335	4839
874.464	4961
874.593	5105
874.722	4987
874.851	5090
874.979	5033
875.108	5079
875.237	4934
875.365	4892
875.494	4915
875.623	5037
875.751	4824
875.88	4843
876.008	4927
876.136	5022
876.265	5212
876.393	5387
876.521	5292
876.65	5212
876.778	5147
876.906	5079
877.034	4987
877.162	5048
877.29	4984
877.418	5025
877.546	5102
877.674	5094
877.802	5041
877.93	5033
878.058	4961
878.185	4896
878.313	4919
878.441	4938
878.568	4797
878.696	4919
878.824	4938
878.951	5003
879.079	5162
879.206	5318
879.333	5090
879.461	5033
879.588	5010
879.715	5102
879.842	5208
879.97	5003
880.097	4793
880.224	4774
880.351	4812
880.478	4835
880.605	4763
880.732	4774
880.859	5128
880.986	4911
881.112	4904
881.239	4809
881.366	4660
881.493	4645
881.619	4596
881.746	4664
881.872	4653
881.999	4683
882.125	4729
882.252	4797
882.378	4820
882.505	4946
882.631	4824
882.757	4714
882.883	4793
883.01	4774
883.136	4675
883.262	4618
883.388	4664
883.514	4835
883.64	4908
883.766	4812
883.892	4683
884.018	4733
884.143	4946
884.269	4980
884.395	4672
884.52	4653
884.646	4607
884.772	4596
884.897	4573
885.023	4698
885.148	4824
885.274	4877
885.399	4774
885.524	4748
885.65	4698
885.775	4790
885.9	4714
886.025	4870
886.15	4790
886.275	4714
886.4	4698
886.525	4736
886.65	4725
886.775	4706
886.9	4957
887.025	5025
887.149	4782
887.274	4641
887.399	4558
887.523	4618
887.648	4599
887.773	4611
887.897	4824
888.021	4828
888.146	4649
888.27	4774
888.395	4934
888.519	4801
888.643	4847
888.767	4866
888.891	4683
889.015	4660
889.139	4656
889.263	4626
889.387	4755
889.511	4828
889.635	4816
889.759	4626
889.883	4615
890.006	4782
890.13	4866
890.254	4641
890.377	4717
890.501	4577
890.624	4554
890.748	4653
890.871	4535
890.995	4413
891.118	4424
891.241	4561
891.364	4550
891.488	4630
891.611	4478
891.734	4546
891.857	4622
891.98	4508
892.103	4637
892.226	4599
892.349	4508
892.471	4489
892.594	4542
892.717	4580
892.839	4584
892.962	4630
893.085	4710
893.207	4649
893.33	4447
893.452	4519
893.575	4694
893.697	4592
893.819	4790
893.941	4820
894.064	4774
894.186	4607
894.308	4599
894.43	4744
894.552	4854
894.674	4729
894.796	4592
894.918	4611
895.04	4634
895.161	4679
895.283	4675
895.405	4592
895.526	4649
895.648	4687
895.769	4721
895.891	4740
896.012	4714
896.134	4729
896.255	4660
896.376	4668
896.498	4645
896.619	4660
896.74	4603
896.861	4660
896.982	4911
897.103	5060
897.224	4862
897.345	4767
897.466	4691
897.587	4717
897.708	4892
897.828	4793
897.949	4649
898.07	4618
898.19	4687
898.311	4820
898.431	4679
898.552	4774
898.672	4828
898.792	4843
898.913	4736
899.033	4649
899.153	4497
899.273	4417
899.393	4466
899.513	4546
899.633	4523
899.753	4535
899.873	4558
899.993	4573
900.113	4538
900.232	4580
900.352	4497
900.472	4527
900.591	4394
900.711	4489
900.83	4402
900.95	4630
901.069	4645
901.189	4622
901.308	4394
901.427	4306
901.546	4383
901.665	4478
901.784	4535
901.904	4394
902.023	4299
902.141	4204
902.26	4166
902.379	4329
902.498	4295
902.617	4234
902.735	4409
902.854	4432
902.973	4344
903.091	4242
903.21	4276
903.328	4318
903.446	4284
903.565	4287
903.683	4386
903.801	4310
903.919	4409
904.038	4440
904.156	4344
904.274	4451
904.392	4455
904.51	4428
904.627	4466
904.745	4611
904.863	4672
904.981	4440
905.098	4383
905.216	4428
905.334	4459
905.451	4512
905.569	4497
905.686	4565
905.803	4664
905.921	4478
906.038	4603
906.155	4516
906.272	4394
906.389	4489
906.506	4413
906.623	4470
906.74	4447
906.857	4325
906.974	4447
907.091	4611
907.208	4691
907.324	4637
907.441	4561
907.557	4371
907.674	4405
907.79	4394
907.907	4417
908.023	4504
908.139	4531
908.256	4466
908.372	4523
908.488	4527
908.604	4447
908.72	4337
908.836	4474
908.952	4470
909.068	4466
909.184	4599
909.3	4554
909.415	4714
909.531	4603
909.647	4436
909.762	4455
909.878	4367
909.993	4512
910.108	4493
910.224	4474
910.339	4504
910.454	4497
910.57	4424
910.685	4363
910.8	4736
910.915	4630
911.03	4531
911.145	4383
911.259	4417
911.374	4383
911.489	4356
911.604	4314
911.718	4268
911.833	4276
911.947	4147
912.062	4036
912.176	4268
912.291	4295
912.405	4325
912.519	4462
912.633	4535
912.748	4424
912.862	4367
912.976	4215
913.09	4135
913.204	4223
913.318	4337
913.431	4443
913.545	4436
913.659	4470
913.772	4413
913.886	4314
914	4276
914.113	4443
914.226	4474
914.34	4462
914.453	4318
914.566	4527
914.68	4375
914.793	4443
914.906	4204
915.019	4166
915.132	4173
915.245	4242
915.358	4257
915.47	4291
915.583	4318
915.696	4386
915.809	4451
915.921	4470
916.034	4314
916.146	4314
916.259	4268
916.371	4413
916.483	4375
916.595	4322
916.708	4383
916.82	4386
916.932	4363
917.044	4371
917.156	4436
917.268	4291
917.38	4295
917.491	4287
917.603	4379
917.715	4440
917.826	4489
917.938	4405
918.049	4276
918.161	4516
918.272	4584
918.384	4573
918.495	4531
918.606	4356
918.717	4291
918.828	4440
918.939	4386
919.05	4280
919.161	4375
919.272	4162
919.383	4246
919.494	4497
919.604	4634
919.715	4489
919.826	4409
919.936	4432
920.047	4584
920.157	4554
920.267	4759
920.378	4546
920.488	4580
920.598	4755
920.708	4930
920.818	4763
920.928	4786
921.038	5025
921.148	4995
921.258	4672
921.368	4580
921.477	4554
921.587	4527
921.697	4443
921.806	4615
921.916	4455
922.025	4360
922.134	4318
922.244	4272
922.353	4413
922.462	4215
922.571	4173
922.68	4071
922.789	4051
922.898	4128
923.007	4093
923.116	4109
923.224	4143
923.333	4128
923.442	4071
923.55	4013
923.659	4093
923.767	4192
923.876	4036
923.984	4188
924.092	4013
924.201	4139
924.309	4154
924.417	4185
924.525	4097
924.633	4162
924.741	4942
924.849	3998
924.956	4192
925.064	4006
925.172	3960
925.279	3994
925.387	4101
925.494	4101
925.602	4246
925.709	4249
925.816	4082
925.924	4169
926.031	4295
926.138	4223
926.245	4223
926.352	4150
926.459	4322
926.566	4375
926.673	4219
926.779	4109
926.886	4101
926.993	3998
927.099	4025
927.206	4013
927.312	4006
927.419	4105
927.525	4036
927.631	4150
927.737	3998
927.843	3998
927.95	3873
928.056	4025
928.162	4059
928.267	4071
928.373	4668
928.479	4204
928.585	3915
928.69	4074
928.796	4158
928.901	4029
929.007	3918
929.112	4044
929.218	4071
929.323	4029
929.428	4029
929.533	4158
929.638	3994
929.743	4025
929.848	4074
929.953	4051
930.058	3953
930.163	3816
930.267	3888
930.372	3991
930.477	3888
930.581	4139
930.685	4021
930.79	3850
930.894	3911
930.998	3876
931.103	4093
931.207	3781
931.311	3789
931.415	3690
931.519	3557
931.623	3595
