Data from test_V78500241_2364.txt Node
Date: Fri Mar 25 17:05:26 CST 2022
User: usil
Spectrometer: V785-0024
Trigger mode: 0
Integration Time (sec): 4.000000E-1
Scans to average: 1
Nonlinearity correction enabled: false
Boxcar width: 0
Storing dark spectrum: false
XAxis mode: Wavelengths
Number of Pixels in Spectrum: 1024
>>>>>Begin Spectral Data<<<<<
801.071	7997
801.214	7989
801.356	7947
801.499	7860
801.641	7792
801.783	7856
801.926	7928
802.068	7951
802.211	7951
802.353	8050
802.496	7894
802.638	7852
802.78	7875
802.923	7925
803.065	7871
803.208	7887
803.35	7970
803.492	8092
803.635	8161
803.777	8043
803.919	8206
804.061	8431
804.204	8191
804.346	8046
804.488	7967
804.63	8100
804.773	8050
804.915	8107
805.057	8286
805.199	8145
805.341	8168
805.483	8282
805.626	8256
805.768	8115
805.91	8286
806.052	8233
806.194	8073
806.336	8259
806.478	8062
806.62	8081
806.762	8096
806.904	8225
807.046	8457
807.188	8339
807.33	8309
807.472	8290
807.614	8233
807.756	8187
807.898	7970
808.04	7887
808.182	7909
808.324	7925
808.465	7849
808.607	8062
808.749	8123
808.891	8233
809.033	8275
809.174	8279
809.316	8096
809.458	8062
809.6	8046
809.741	8077
809.883	8031
810.025	8149
810.166	8024
810.308	7970
810.45	8065
810.591	7887
810.733	7723
810.875	7670
811.016	7499
811.158	7468
811.299	7540
811.441	7738
811.582	7639
811.724	7590
811.865	7502
812.007	7677
812.148	7582
812.29	7609
812.431	7738
812.573	7898
812.714	7906
812.855	8100
812.997	8172
813.138	8275
813.279	8096
813.421	8126
813.562	8012
813.703	7856
813.845	7727
813.986	7434
814.127	7236
814.268	7221
814.41	7160
814.551	7152
814.692	7240
814.833	7118
814.974	7095
815.115	7160
815.256	7008
815.397	6894
815.539	6966
815.68	6867
815.821	6764
815.962	6932
816.103	6818
816.244	6684
816.385	6654
816.526	6631
816.666	6506
816.807	6308
816.948	6479
817.089	6513
817.23	6445
817.371	6433
817.512	6391
817.653	6338
817.793	6365
817.934	6464
818.075	6429
818.216	6403
818.356	6433
818.497	6224
818.638	6140
818.778	6152
818.919	6159
819.06	6190
819.2	6369
819.341	6334
819.481	6388
819.622	6574
819.762	6745
819.903	6715
820.043	6585
820.184	6563
820.324	6612
820.465	6646
820.605	6665
820.746	6627
820.886	6490
821.026	6677
821.167	6764
821.307	6764
821.447	6802
821.588	6677
821.728	6620
821.868	6544
822.008	6308
822.149	6365
822.289	6346
822.429	6136
822.569	6117
822.709	6114
822.849	5958
822.99	5939
823.13	5961
823.27	5992
823.41	5885
823.55	5836
823.69	5775
823.83	5733
823.97	5684
824.11	5558
824.25	5539
824.389	5539
824.529	5547
824.669	5543
824.809	5627
824.949	5668
825.089	5630
825.228	5562
825.368	5353
825.508	5360
825.648	5357
825.787	5372
825.927	5398
826.067	5326
826.206	5273
826.346	5379
826.485	5421
826.625	5410
826.765	5520
826.904	5512
827.044	5258
827.183	5201
827.323	5147
827.462	5193
827.601	5197
827.741	5235
827.88	5189
828.02	5094
828.159	5265
828.298	5296
828.437	5326
828.577	5311
828.716	5524
828.855	5311
828.994	5151
829.134	5193
829.273	5121
829.412	5166
829.551	5136
829.69	5162
829.829	5265
829.968	5353
830.107	5239
830.246	5296
830.385	5170
830.524	5124
830.663	5071
830.802	5003
830.941	4927
831.08	4866
831.219	5018
831.357	4968
831.496	5140
831.635	4915
831.774	4812
831.913	4839
832.051	4725
832.19	4725
832.329	4885
832.467	4683
832.606	4592
832.744	4698
832.883	4759
833.022	4721
833.16	4759
833.299	4873
833.437	4858
833.576	4873
833.714	4877
833.852	4904
833.991	4843
834.129	4987
834.267	4908
834.406	4873
834.544	4957
834.682	4999
834.821	4923
834.959	5159
835.097	4965
835.235	5185
835.373	5147
835.511	5060
835.65	5029
835.788	5071
835.926	4873
836.064	4858
836.202	4965
836.34	5181
836.478	5242
836.615	5159
836.753	5185
836.891	5254
837.029	5246
837.167	5162
837.305	5159
837.443	5174
837.58	5113
837.718	5193
837.856	5151
837.993	5162
838.131	5216
838.269	5201
838.406	5159
838.544	5178
838.681	5018
838.819	5014
838.956	4923
839.094	4889
839.231	4942
839.369	5064
839.506	5440
839.643	5239
839.781	5064
839.918	4976
840.055	5056
840.193	5094
840.33	5079
840.467	5147
840.604	5166
840.742	5440
840.879	5060
841.016	5128
841.153	5204
841.29	5337
841.427	5299
841.564	5296
841.701	5383
841.838	5277
841.975	5235
842.112	5246
842.249	5121
842.385	5121
842.522	5288
842.659	5174
842.796	5147
842.933	5197
843.069	5170
843.206	5159
843.343	5315
843.479	5239
843.616	5330
843.752	5037
843.889	4984
844.025	5235
844.162	5006
844.298	5212
844.435	5056
844.571	5075
844.708	5197
844.844	5250
844.98	5322
845.117	5318
845.253	5162
845.389	5109
845.525	5170
845.661	5121
845.798	5037
845.934	5155
846.07	5056
846.206	5189
846.342	5299
846.478	5155
846.614	4976
846.75	4980
846.886	4953
847.022	5109
847.158	5010
847.294	5090
847.429	5083
847.565	5083
847.701	5311
847.837	4870
847.972	4797
848.108	5025
848.244	4923
848.379	4816
848.515	4706
848.65	4736
848.786	4740
848.921	4740
849.057	4877
849.192	4900
849.328	4790
849.463	4809
849.598	4740
849.734	4790
849.869	4744
850.004	4641
850.14	4641
850.275	4634
850.41	4527
850.545	4584
850.68	4607
850.815	4611
850.95	4645
851.085	4816
851.22	4767
851.355	4664
851.49	4611
851.625	4634
851.76	4622
851.895	4527
852.03	4508
852.165	4626
852.299	4748
852.434	4748
852.569	4729
852.703	4790
852.838	4858
852.973	4961
853.107	4908
853.242	4763
853.376	4687
853.511	4531
853.645	4584
853.78	4767
853.914	4698
854.048	4679
854.183	4626
854.317	4721
854.451	4831
854.585	4691
854.72	4634
854.854	4805
854.988	4561
855.122	4634
855.256	4550
855.39	4668
855.524	4778
855.658	4717
855.792	4729
855.926	4725
856.06	4744
856.194	4831
856.327	4660
856.461	4626
856.595	4615
856.729	4630
856.862	4767
856.996	4694
857.13	4763
857.263	4755
857.397	4786
857.53	4668
857.664	4744
857.797	4729
857.931	4774
858.064	4679
858.197	4748
858.331	4607
858.464	4630
858.597	4478
858.731	4622
858.864	4653
858.997	4637
859.13	4645
859.263	4664
859.396	4691
859.529	4615
859.662	4580
859.795	4535
859.928	4653
860.061	4736
860.194	4744
860.327	4607
860.46	4558
860.592	4744
860.725	4675
860.858	4748
860.99	4558
861.123	4558
861.256	4538
861.388	4607
861.521	5364
861.653	4519
861.786	4470
861.918	4451
862.05	4554
862.183	4542
862.315	4577
862.447	4653
862.58	4531
862.712	4390
862.844	4329
862.976	4478
863.108	4447
863.24	4854
863.372	4341
863.504	4394
863.636	4390
863.768	4512
863.9	4360
864.032	4360
864.164	4417
864.296	4470
864.428	4611
864.559	4558
864.691	4542
864.823	4535
864.954	4523
865.086	4493
865.217	4432
865.349	4432
865.48	4436
865.612	4489
865.743	4611
865.875	4493
866.006	4432
866.137	4516
866.269	4455
866.4	4459
866.531	4485
866.662	4386
866.793	4443
866.924	4466
867.055	4455
867.186	4459
867.317	4383
867.448	4405
867.579	4398
867.71	4390
867.841	4375
867.972	4466
868.103	4481
868.233	4428
868.364	4440
868.495	4489
868.625	4637
868.756	4702
868.886	4546
869.017	4653
869.147	4790
869.278	4809
869.408	4717
869.539	4641
869.669	4706
869.799	4683
869.929	4771
870.06	4759
870.19	4961
870.32	4919
870.45	4911
870.58	5037
870.71	5132
870.84	5105
870.97	4927
871.1	4911
871.23	5132
871.36	5147
871.489	4999
871.619	5090
871.749	5060
871.879	5090
872.008	5140
872.138	5090
872.267	4972
872.397	4881
872.526	4805
872.656	4752
872.785	4839
872.915	4972
873.044	5098
873.173	4911
873.303	4991
873.432	4934
873.561	4976
873.69	4908
873.819	4873
873.948	4942
874.077	4812
874.206	4752
874.335	4759
874.464	4900
874.593	5037
874.722	4946
874.851	5071
874.979	5045
875.108	5086
875.237	4923
875.365	4892
875.494	4870
875.623	4877
875.751	4892
875.88	4881
876.008	4942
876.136	5075
876.265	5201
876.393	5368
876.521	5239
876.65	5212
876.778	5208
876.906	5079
877.034	5022
877.162	5086
877.29	5006
877.418	5098
877.546	5075
877.674	5086
877.802	5025
877.93	5033
878.058	4957
878.185	4873
878.313	4946
878.441	4968
878.568	4862
878.696	4968
878.824	4965
878.951	4984
879.079	5105
879.206	5280
879.333	5132
879.461	5014
879.588	4999
879.715	5162
879.842	5193
879.97	4999
880.097	4763
880.224	4752
880.351	4790
880.478	4782
880.605	4850
880.732	4797
880.859	5056
880.986	4885
881.112	4919
881.239	4763
881.366	4691
881.493	4607
881.619	4603
881.746	4622
881.872	4675
881.999	4664
882.125	4675
882.252	4774
882.378	4850
882.505	4953
882.631	4786
882.757	4664
882.883	4714
883.01	4740
883.136	4702
883.262	4607
883.388	4607
883.514	4782
883.64	4873
883.766	4820
883.892	4645
884.018	4679
884.143	4896
884.269	4976
884.395	4675
884.52	4630
884.646	4599
884.772	4573
884.897	4615
885.023	4672
885.148	4782
885.274	4873
885.399	4801
885.524	4717
885.65	4721
885.775	4687
885.9	4683
886.025	4858
886.15	4809
886.275	4694
886.4	4611
886.525	4755
886.65	4702
886.775	4675
886.9	4927
887.025	5094
887.149	4812
887.274	4668
887.399	4565
887.523	4565
887.648	4596
887.773	4565
887.897	4805
888.021	4744
888.146	4630
888.27	4828
888.395	4873
888.519	4809
888.643	4850
888.767	4801
888.891	4725
889.015	4660
889.139	4637
889.263	4622
889.387	4748
889.511	4896
889.635	4831
889.759	4611
889.883	4656
890.006	4744
890.13	4812
890.254	4649
890.377	4660
890.501	4577
890.624	4577
890.748	4596
890.871	4459
890.995	4436
891.118	4367
891.241	4497
891.364	4554
891.488	4618
891.611	4546
891.734	4546
891.857	4622
891.98	4573
892.103	4641
892.226	4580
892.349	4459
892.471	4436
892.594	4535
892.717	4588
892.839	4550
892.962	4577
893.085	4645
893.207	4615
893.33	4474
893.452	4542
893.575	4702
893.697	4504
893.819	4805
893.941	4797
894.064	4767
894.186	4599
894.308	4577
894.43	4710
894.552	4828
894.674	4744
894.796	4523
894.918	4599
895.04	4523
895.161	4679
895.283	4679
895.405	4592
895.526	4675
895.648	4698
895.769	4694
895.891	4717
896.012	4687
896.134	4759
896.255	4664
896.376	4626
896.498	4603
896.619	4691
896.74	4630
896.861	4672
896.982	4953
897.103	5079
897.224	4805
897.345	4736
897.466	4694
897.587	4733
897.708	4881
897.828	4755
897.949	4641
898.07	4577
898.19	4664
898.311	4831
898.431	4641
898.552	4733
898.672	4812
898.792	4778
898.913	4736
899.033	4603
899.153	4538
899.273	4478
899.393	4443
899.513	4558
899.633	4512
899.753	4561
899.873	4493
899.993	4580
900.113	4569
900.232	4634
900.352	4527
900.472	4462
900.591	4409
900.711	4481
900.83	4379
900.95	4622
901.069	4694
901.189	4538
901.308	4417
901.427	4333
901.546	4383
901.665	4409
901.784	4485
901.904	4337
902.023	4329
902.141	4200
902.26	4150
902.379	4344
902.498	4242
902.617	4242
902.735	4375
902.854	4360
902.973	4322
903.091	4200
903.21	4287
903.328	4299
903.446	4265
903.565	4249
903.683	4360
903.801	4295
903.919	4402
904.038	4432
904.156	4325
904.274	4375
904.392	4390
904.51	4398
904.627	4447
904.745	4554
904.863	4580
904.981	4432
905.098	4318
905.216	4352
905.334	4417
905.451	4413
905.569	4413
905.686	4527
905.803	4596
905.921	4405
906.038	4538
906.155	4485
906.272	4390
906.389	4474
906.506	4348
906.623	4363
906.74	4367
906.857	4310
906.974	4356
907.091	4565
907.208	4641
907.324	4561
907.441	4485
907.557	4375
907.674	4306
907.79	4318
907.907	4348
908.023	4500
908.139	4470
908.256	4379
908.372	4462
908.488	4424
908.604	4371
908.72	4314
908.836	4421
908.952	4360
909.068	4424
909.184	4580
909.3	4489
909.415	4596
909.531	4538
909.647	4341
909.762	4367
909.878	4329
909.993	4432
910.108	4394
910.224	4390
910.339	4485
910.454	4398
910.57	4383
910.685	4261
910.8	4618
910.915	4592
911.03	4500
911.145	4325
911.259	4329
911.374	4348
911.489	4299
911.604	4314
911.718	4211
911.833	4188
911.947	4071
912.062	4044
912.176	4192
912.291	4276
912.405	4253
912.519	4421
912.633	4512
912.748	4371
912.862	4234
912.976	4177
913.09	4109
913.204	4177
913.318	4284
913.431	4356
913.545	4344
913.659	4447
913.772	4314
913.886	4280
914	4249
914.113	4360
914.226	4443
914.34	4356
914.453	4207
914.566	4440
914.68	4356
914.793	4375
914.906	4116
915.019	4143
915.132	4124
915.245	4204
915.358	4242
915.47	4249
915.583	4238
915.696	4272
915.809	4394
915.921	4405
916.034	4238
916.146	4276
916.259	4211
916.371	4375
916.483	4329
916.595	4246
916.708	4295
916.82	4310
916.932	4329
917.044	4360
917.156	4344
917.268	4196
917.38	4291
917.491	4265
917.603	4303
917.715	4409
917.826	4424
917.938	4310
918.049	4211
918.161	4443
918.272	4527
918.384	4500
918.495	4443
918.606	4306
918.717	4265
918.828	4306
918.939	4325
919.05	4200
919.161	4375
919.272	4139
919.383	4261
919.494	4440
919.604	4580
919.715	4432
919.826	4318
919.936	4417
920.047	4546
920.157	4497
920.267	4714
920.378	4611
920.488	4493
920.598	4710
920.708	4915
920.818	4759
920.928	4771
921.038	4957
921.148	4923
921.258	4641
921.368	4554
921.477	4466
921.587	4485
921.697	4398
921.806	4497
921.916	4466
922.025	4322
922.134	4268
922.244	4223
922.353	4295
922.462	4196
922.571	4128
922.68	3991
922.789	3979
922.898	4055
923.007	3983
923.116	4116
923.224	4055
923.333	4055
923.442	3998
923.55	3991
923.659	4040
923.767	4135
923.876	3979
923.984	4128
924.092	3979
924.201	4067
924.309	4101
924.417	4109
924.525	4074
924.633	4048
924.741	5060
924.849	3918
924.956	4116
925.064	3975
925.172	3907
925.279	3937
925.387	4078
925.494	4059
925.602	4207
925.709	4196
925.816	4051
925.924	4097
926.031	4200
926.138	4173
926.245	4192
926.352	4082
926.459	4257
926.566	4303
926.673	4196
926.779	4101
926.886	4067
926.993	4006
927.099	3937
927.206	3945
927.312	3926
927.419	4048
927.525	4044
927.631	4112
927.737	3956
927.843	3937
927.95	3854
928.056	3953
928.162	4040
928.267	4040
928.373	4542
928.479	4093
928.585	3850
928.69	4002
928.796	4048
928.901	3964
929.007	3823
929.112	3975
929.218	3945
929.323	3907
929.428	3937
929.533	4067
929.638	3911
929.743	3983
929.848	4040
929.953	4002
930.058	3926
930.163	3766
930.267	3838
930.372	3968
930.477	3774
930.581	4032
930.685	3941
930.79	3804
930.894	3911
930.998	3876
931.103	3998
931.207	3698
931.311	3740
931.415	3686
931.519	3507
931.623	3515
