Data from test_V78500241_649.txt Node
Date: Fri Mar 25 16:53:30 CST 2022
User: usil
Spectrometer: V785-0024
Trigger mode: 0
Integration Time (sec): 4.000000E-1
Scans to average: 1
Nonlinearity correction enabled: false
Boxcar width: 0
Storing dark spectrum: false
XAxis mode: Wavelengths
Number of Pixels in Spectrum: 1024
>>>>>Begin Spectral Data<<<<<
801.071	8020
801.214	8012
801.356	7898
801.499	7868
801.641	7757
801.783	7849
801.926	8001
802.068	7955
802.211	7894
802.353	7993
802.496	7883
802.638	7955
802.78	7913
802.923	7913
803.065	7860
803.208	7852
803.35	7940
803.492	8134
803.635	8153
803.777	7982
803.919	8103
804.061	8374
804.204	8161
804.346	7982
804.488	7967
804.63	8058
804.773	8046
804.915	8145
805.057	8298
805.199	8225
805.341	8218
805.483	8290
805.626	8244
805.768	8153
805.91	8244
806.052	8187
806.194	8119
806.336	8362
806.478	8115
806.62	8100
806.762	8145
806.904	8214
807.046	8442
807.188	8320
807.33	8229
807.472	8332
807.614	8134
807.756	8107
807.898	7932
808.04	7856
808.182	7871
808.324	7890
808.465	7887
808.607	8005
808.749	8103
808.891	8130
809.033	8279
809.174	8180
809.316	8069
809.458	8073
809.6	7951
809.741	8031
809.883	8012
810.025	8069
810.166	8031
810.308	8016
810.45	7982
810.591	7887
810.733	7769
810.875	7643
811.016	7571
811.158	7453
811.299	7586
811.441	7677
811.582	7715
811.724	7586
811.865	7586
812.007	7563
812.148	7521
812.29	7643
812.431	7727
812.573	7818
812.714	7932
812.855	8107
812.997	8191
813.138	8317
813.279	8172
813.421	8081
813.562	8008
813.703	7860
813.845	7761
813.986	7430
814.127	7339
814.268	7225
814.41	7251
814.551	7156
814.692	7171
814.833	7065
814.974	7057
815.115	7069
815.256	6951
815.397	6966
815.539	6958
815.68	6897
815.821	6768
815.962	6810
816.103	6825
816.244	6692
816.385	6654
816.526	6612
816.666	6494
816.807	6281
816.948	6407
817.089	6456
817.23	6433
817.371	6376
817.512	6357
817.653	6369
817.793	6357
817.934	6456
818.075	6506
818.216	6380
818.356	6448
818.497	6213
818.638	6125
818.778	6182
818.919	6053
819.06	6091
819.2	6277
819.341	6327
819.481	6384
819.622	6585
819.762	6745
819.903	6662
820.043	6551
820.184	6494
820.324	6525
820.465	6608
820.605	6665
820.746	6532
820.886	6509
821.026	6654
821.167	6642
821.307	6802
821.447	6711
821.588	6627
821.728	6601
821.868	6460
822.008	6327
822.149	6319
822.289	6285
822.429	6178
822.569	6057
822.709	6068
822.849	5901
822.99	5901
823.13	5908
823.27	5897
823.41	5764
823.55	5805
823.69	5783
823.83	5733
823.97	5688
824.11	5524
824.25	5497
824.389	5585
824.529	5535
824.669	5524
824.809	5623
824.949	5634
825.089	5630
825.228	5509
825.368	5364
825.508	5353
825.648	5322
825.787	5383
825.927	5383
826.067	5280
826.206	5280
826.346	5391
826.485	5376
826.625	5379
826.765	5562
826.904	5459
827.044	5254
827.183	5151
827.323	5124
827.462	5239
827.601	5132
827.741	5132
827.88	5170
828.02	5128
828.159	5170
828.298	5277
828.437	5307
828.577	5292
828.716	5543
828.855	5349
828.994	5174
829.134	5189
829.273	5239
829.412	5155
829.551	5151
829.69	5143
829.829	5227
829.968	5337
830.107	5292
830.246	5231
830.385	5208
830.524	5185
830.663	5067
830.802	4949
830.941	4881
831.08	4927
831.219	4949
831.357	4938
831.496	5109
831.635	4923
831.774	4801
831.913	4839
832.051	4740
832.19	4748
832.329	4793
832.467	4714
832.606	4656
832.744	4755
832.883	4664
833.022	4736
833.16	4767
833.299	4748
833.437	4774
833.576	4831
833.714	4850
833.852	4866
833.991	4889
834.129	4961
834.267	4953
834.406	4892
834.544	4961
834.682	4995
834.821	4904
834.959	5181
835.097	4991
835.235	5170
835.373	5067
835.511	5094
835.65	5071
835.788	5048
835.926	4908
836.064	4911
836.202	4870
836.34	5140
836.478	5189
836.615	5143
836.753	5204
836.891	5280
837.029	5258
837.167	5212
837.305	5159
837.443	5090
837.58	5056
837.718	5254
837.856	5162
837.993	5094
838.131	5239
838.269	5201
838.406	5220
838.544	5231
838.681	5041
838.819	5045
838.956	4870
839.094	4904
839.231	4877
839.369	5025
839.506	5391
839.643	5231
839.781	5037
839.918	5033
840.055	5041
840.193	5109
840.33	5071
840.467	5181
840.604	5197
840.742	5406
840.879	5098
841.016	5075
841.153	5166
841.29	5368
841.427	5318
841.564	5258
841.701	5280
841.838	5258
841.975	5216
842.112	5212
842.249	5105
842.385	5048
842.522	5368
842.659	5159
842.796	5155
842.933	5193
843.069	5151
843.206	5136
843.343	5341
843.479	5227
843.616	5239
843.752	5037
843.889	5022
844.025	5235
844.162	4968
844.298	5216
844.435	5086
844.571	5052
844.708	5185
844.844	5292
844.98	5368
845.117	5269
845.253	5109
845.389	5102
845.525	5136
845.661	5128
845.798	5041
845.934	5147
846.07	5048
846.206	5212
846.342	5258
846.478	5113
846.614	5018
846.75	4961
846.886	4930
847.022	5098
847.158	5010
847.294	5071
847.429	5079
847.565	5018
847.701	5280
847.837	4835
847.972	4759
848.108	4934
848.244	4961
848.379	4774
848.515	4653
848.65	4717
848.786	4752
848.921	4740
849.057	4831
849.192	4873
849.328	4748
849.463	4862
849.598	4744
849.734	4767
849.869	4660
850.004	4672
850.14	4668
850.275	4611
850.41	4603
850.545	4558
850.68	4611
850.815	4618
850.95	4618
851.085	4820
851.22	4744
851.355	4679
851.49	4615
851.625	4615
851.76	4622
851.895	4550
852.03	4542
852.165	4618
852.299	4656
852.434	4755
852.569	4687
852.703	4733
852.838	4835
852.973	4934
853.107	4870
853.242	4736
853.376	4630
853.511	4607
853.645	4630
853.78	4801
853.914	4698
854.048	4630
854.183	4649
854.317	4679
854.451	4835
854.585	4679
854.72	4596
854.854	4729
854.988	4611
855.122	4611
855.256	4516
855.39	4660
855.524	4763
855.658	4694
855.792	4691
855.926	4702
856.06	4714
856.194	4782
856.327	4694
856.461	4641
856.595	4645
856.729	4611
856.862	4740
856.996	4660
857.13	4687
857.263	4774
857.397	4805
857.53	4653
857.664	4702
857.797	4740
857.931	4740
858.064	4733
858.197	4740
858.331	4675
858.464	4599
858.597	4550
858.731	4596
858.864	4698
858.997	4584
859.13	4649
859.263	4645
859.396	4702
859.529	4592
859.662	4580
859.795	4523
859.928	4649
860.061	4744
860.194	4740
860.327	4637
860.46	4584
860.592	4706
860.725	4687
860.858	4714
860.99	4565
861.123	4493
861.256	4504
861.388	4550
861.521	5315
861.653	4451
861.786	4443
861.918	4497
862.05	4500
862.183	4596
862.315	4596
862.447	4645
862.58	4535
862.712	4386
862.844	4295
862.976	4432
863.108	4455
863.24	4850
863.372	4367
863.504	4402
863.636	4443
863.768	4436
863.9	4459
864.032	4383
864.164	4421
864.296	4481
864.428	4538
864.559	4546
864.691	4519
864.823	4531
864.954	4512
865.086	4500
865.217	4455
865.349	4455
865.48	4417
865.612	4489
865.743	4637
865.875	4432
866.006	4394
866.137	4421
866.269	4447
866.4	4462
866.531	4451
866.662	4383
866.793	4379
866.924	4424
867.055	4455
867.186	4470
867.317	4424
867.448	4383
867.579	4379
867.71	4390
867.841	4341
867.972	4413
868.103	4451
868.233	4436
868.364	4455
868.495	4478
868.625	4683
868.756	4763
868.886	4573
869.017	4599
869.147	4771
869.278	4767
869.408	4649
869.539	4634
869.669	4694
869.799	4599
869.929	4721
870.06	4714
870.19	4908
870.32	4927
870.45	4957
870.58	4995
870.71	5113
870.84	5121
870.97	4999
871.1	4911
871.23	5151
871.36	5151
871.489	5037
871.619	5006
871.749	5094
871.879	5086
872.008	5151
872.138	5083
872.267	4957
872.397	4824
872.526	4820
872.656	4755
872.785	4828
872.915	4919
873.044	5033
873.173	4927
873.303	4942
873.432	4885
873.561	4995
873.69	4850
873.819	4866
873.948	4892
874.077	4824
874.206	4763
874.335	4831
874.464	4904
874.593	5022
874.722	4923
874.851	5094
874.979	5052
875.108	5033
875.237	4892
875.365	4885
875.494	4885
875.623	4995
875.751	4870
875.88	4915
876.008	4942
876.136	4984
876.265	5170
876.393	5334
876.521	5242
876.65	5235
876.778	5147
876.906	5064
877.034	4968
877.162	5052
877.29	4965
877.418	5041
877.546	5022
877.674	5037
877.802	4995
877.93	4984
878.058	4919
878.185	4820
878.313	4938
878.441	4949
878.568	4771
878.696	4889
878.824	4938
878.951	4965
879.079	5128
879.206	5250
879.333	5083
879.461	5006
879.588	4976
879.715	5090
879.842	5189
879.97	5025
880.097	4816
880.224	4710
880.351	4805
880.478	4820
880.605	4831
880.732	4717
880.859	5041
880.986	4942
881.112	4938
881.239	4744
881.366	4645
881.493	4618
881.619	4508
881.746	4656
881.872	4584
881.999	4622
882.125	4653
882.252	4759
882.378	4820
882.505	4900
882.631	4790
882.757	4622
882.883	4683
883.01	4710
883.136	4622
883.262	4561
883.388	4599
883.514	4828
883.64	4889
883.766	4809
883.892	4664
884.018	4740
884.143	4854
884.269	5006
884.395	4626
884.52	4630
884.646	4615
884.772	4588
884.897	4611
885.023	4607
885.148	4809
885.274	4854
885.399	4786
885.524	4683
885.65	4717
885.775	4786
885.9	4672
886.025	4862
886.15	4767
886.275	4672
886.4	4622
886.525	4691
886.65	4694
886.775	4675
886.9	4870
887.025	5025
887.149	4858
887.274	4653
887.399	4519
887.523	4599
887.648	4577
887.773	4599
887.897	4740
888.021	4786
888.146	4675
888.27	4771
888.395	4854
888.519	4809
888.643	4797
888.767	4839
888.891	4664
889.015	4554
889.139	4653
889.263	4580
889.387	4721
889.511	4809
889.635	4793
889.759	4645
889.883	4607
890.006	4660
890.13	4866
890.254	4599
890.377	4710
890.501	4569
890.624	4493
890.748	4626
890.871	4485
890.995	4417
891.118	4379
891.241	4535
891.364	4481
891.488	4626
891.611	4470
891.734	4542
891.857	4603
891.98	4542
892.103	4645
892.226	4615
892.349	4542
892.471	4398
892.594	4538
892.717	4596
892.839	4603
892.962	4615
893.085	4645
893.207	4626
893.33	4440
893.452	4516
893.575	4679
893.697	4573
893.819	4797
893.941	4786
894.064	4805
894.186	4588
894.308	4561
894.43	4752
894.552	4812
894.674	4771
894.796	4630
894.918	4615
895.04	4577
895.161	4736
895.283	4694
895.405	4618
895.526	4660
895.648	4733
895.769	4733
895.891	4755
896.012	4752
896.134	4763
896.255	4675
896.376	4698
896.498	4603
896.619	4672
896.74	4622
896.861	4694
896.982	4927
897.103	5124
897.224	4908
897.345	4755
897.466	4736
897.587	4809
897.708	4911
897.828	4790
897.949	4725
898.07	4637
898.19	4702
898.311	4900
898.431	4782
898.552	4755
898.672	4900
898.792	4858
898.913	4725
899.033	4664
899.153	4508
899.273	4493
899.393	4516
899.513	4580
899.633	4584
899.753	4580
899.873	4531
899.993	4626
900.113	4565
900.232	4626
900.352	4634
900.472	4577
900.591	4474
900.711	4550
900.83	4493
900.95	4626
901.069	4714
901.189	4577
901.308	4394
901.427	4360
901.546	4398
901.665	4535
901.784	4569
901.904	4421
902.023	4379
902.141	4215
902.26	4230
902.379	4329
902.498	4272
902.617	4272
902.735	4409
902.854	4424
902.973	4443
903.091	4261
903.21	4291
903.328	4322
903.446	4329
903.565	4303
903.683	4386
903.801	4329
903.919	4481
904.038	4478
904.156	4341
904.274	4447
904.392	4405
904.51	4500
904.627	4504
904.745	4622
904.863	4641
904.981	4443
905.098	4325
905.216	4386
905.334	4447
905.451	4421
905.569	4478
905.686	4569
905.803	4569
905.921	4413
906.038	4588
906.155	4504
906.272	4428
906.389	4481
906.506	4402
906.623	4390
906.74	4363
906.857	4295
906.974	4417
907.091	4580
907.208	4660
907.324	4592
907.441	4512
907.557	4379
907.674	4398
907.79	4322
907.907	4413
908.023	4508
908.139	4538
908.256	4462
908.372	4527
908.488	4550
908.604	4386
908.72	4322
908.836	4421
908.952	4447
909.068	4451
909.184	4580
909.3	4523
909.415	4573
909.531	4592
909.647	4363
909.762	4360
909.878	4394
909.993	4428
910.108	4493
910.224	4413
910.339	4493
910.454	4424
910.57	4356
910.685	4325
910.8	4687
910.915	4641
911.03	4500
911.145	4348
911.259	4394
911.374	4413
911.489	4284
911.604	4333
911.718	4211
911.833	4215
911.947	4078
912.062	4086
912.176	4234
912.291	4257
912.405	4310
912.519	4474
912.633	4527
912.748	4383
912.862	4363
912.976	4261
913.09	4109
913.204	4177
913.318	4257
913.431	4356
913.545	4432
913.659	4443
913.772	4413
913.886	4310
914	4261
914.113	4443
914.226	4466
914.34	4432
914.453	4295
914.566	4497
914.68	4344
914.793	4363
914.906	4192
915.019	4139
915.132	4124
915.245	4181
915.358	4253
915.47	4253
915.583	4306
915.696	4268
915.809	4451
915.921	4451
916.034	4261
916.146	4344
916.259	4253
916.371	4424
916.483	4375
916.595	4329
916.708	4367
916.82	4344
916.932	4375
917.044	4352
917.156	4390
917.268	4295
917.38	4306
917.491	4329
917.603	4383
917.715	4443
917.826	4546
917.938	4379
918.049	4280
918.161	4390
918.272	4558
918.384	4558
918.495	4466
918.606	4360
918.717	4265
918.828	4344
918.939	4394
919.05	4261
919.161	4348
919.272	4181
919.383	4325
919.494	4481
919.604	4622
919.715	4440
919.826	4375
919.936	4474
920.047	4538
920.157	4512
920.267	4725
920.378	4550
920.488	4542
920.598	4748
920.708	4911
920.818	4721
920.928	4801
921.038	4965
921.148	4927
921.258	4607
921.368	4565
921.477	4588
921.587	4474
921.697	4417
921.806	4607
921.916	4455
922.025	4310
922.134	4287
922.244	4253
922.353	4383
922.462	4196
922.571	4166
922.68	4063
922.789	3975
922.898	4090
923.007	4017
923.116	4082
923.224	4143
923.333	4101
923.442	4044
923.55	3994
923.659	4059
923.767	4074
923.876	4021
923.984	4150
924.092	4010
924.201	4131
924.309	4097
924.417	4135
924.525	4082
924.633	4105
924.741	5094
924.849	3945
924.956	4150
925.064	3983
925.172	3930
925.279	3972
925.387	4090
925.494	4067
925.602	4200
925.709	4204
925.816	4059
925.924	4116
926.031	4253
926.138	4242
926.245	4196
926.352	4128
926.459	4268
926.566	4352
926.673	4173
926.779	4082
926.886	4120
926.993	4021
927.099	3975
927.206	3953
927.312	3949
927.419	4109
927.525	4040
927.631	4105
927.737	3987
927.843	3937
927.95	3907
928.056	3983
928.162	3975
928.267	4090
928.373	4702
928.479	4090
928.585	3911
928.69	4025
928.796	4109
928.901	3960
929.007	3876
929.112	4036
929.218	4025
929.323	3934
929.428	3926
929.533	4139
929.638	3960
929.743	4002
929.848	4044
929.953	4006
930.058	3941
930.163	3793
930.267	3861
930.372	4044
930.477	3789
930.581	4109
930.685	3991
930.79	3884
930.894	3907
930.998	3903
931.103	4040
931.207	3713
931.311	3720
931.415	3675
931.519	3553
931.623	3568
