Data from test_V78500241_2821.txt Node
Date: Fri Mar 25 17:08:37 CST 2022
User: usil
Spectrometer: V785-0024
Trigger mode: 0
Integration Time (sec): 4.000000E-1
Scans to average: 1
Nonlinearity correction enabled: false
Boxcar width: 0
Storing dark spectrum: false
XAxis mode: Wavelengths
Number of Pixels in Spectrum: 1024
>>>>>Begin Spectral Data<<<<<
801.071	7989
801.214	7974
801.356	7913
801.499	7974
801.641	7845
801.783	7849
801.926	7936
802.068	7993
802.211	7989
802.353	8035
802.496	7986
802.638	7947
802.78	7940
802.923	7951
803.065	7887
803.208	7849
803.35	7974
803.492	8077
803.635	8210
803.777	8046
803.919	8100
804.061	8419
804.204	8187
804.346	8073
804.488	7986
804.63	8115
804.773	8058
804.915	8084
805.057	8317
805.199	8248
805.341	8240
805.483	8351
805.626	8202
805.768	8161
805.91	8263
806.052	8218
806.194	8138
806.336	8355
806.478	8149
806.62	8107
806.762	8157
806.904	8252
807.046	8492
807.188	8419
807.33	8366
807.472	8404
807.614	8233
807.756	8180
807.898	8073
808.04	7944
808.182	7947
808.324	8024
808.465	8005
808.607	8180
808.749	8168
808.891	8377
809.033	8339
809.174	8248
809.316	8081
809.458	8119
809.6	7967
809.741	8043
809.883	8039
810.025	8206
810.166	8103
810.308	8054
810.45	8027
810.591	7978
810.733	7792
810.875	7734
811.016	7544
811.158	7544
811.299	7636
811.441	7780
811.582	7765
811.724	7674
811.865	7616
812.007	7685
812.148	7628
812.29	7765
812.431	7818
812.573	7890
812.714	8008
812.855	8153
812.997	8259
813.138	8366
813.279	8240
813.421	8161
813.562	8050
813.703	7890
813.845	7860
813.986	7514
814.127	7373
814.268	7282
814.41	7221
814.551	7225
814.692	7225
814.833	7072
814.974	7061
815.115	7168
815.256	6958
815.397	6943
815.539	7031
815.68	6848
815.821	6802
815.962	6943
816.103	6856
816.244	6764
816.385	6662
816.526	6688
816.666	6563
816.807	6376
816.948	6460
817.089	6528
817.23	6452
817.371	6448
817.512	6388
817.653	6433
817.793	6388
817.934	6456
818.075	6456
818.216	6479
818.356	6441
818.497	6277
818.638	6129
818.778	6186
818.919	6155
819.06	6167
819.2	6353
819.341	6410
819.481	6369
819.622	6517
819.762	6779
819.903	6757
820.043	6673
820.184	6646
820.324	6669
820.465	6757
820.605	6764
820.746	6696
820.886	6582
821.026	6726
821.167	6787
821.307	6848
821.447	6783
821.588	6688
821.728	6639
821.868	6479
822.008	6327
822.149	6418
822.289	6391
822.429	6163
822.569	6163
822.709	6159
822.849	5923
822.99	5916
823.13	6007
823.27	6007
823.41	5824
823.55	5844
823.69	5832
823.83	5821
823.97	5718
824.11	5585
824.25	5577
824.389	5611
824.529	5657
824.669	5558
824.809	5657
824.949	5642
825.089	5642
825.228	5623
825.368	5448
825.508	5357
825.648	5372
825.787	5391
825.927	5391
826.067	5318
826.206	5326
826.346	5459
826.485	5448
826.625	5398
826.765	5551
826.904	5535
827.044	5265
827.183	5284
827.323	5189
827.462	5254
827.601	5223
827.741	5239
827.88	5242
828.02	5086
828.159	5277
828.298	5402
828.437	5391
828.577	5292
828.716	5520
828.855	5376
828.994	5212
829.134	5178
829.273	5166
829.412	5136
829.551	5170
829.69	5201
829.829	5254
829.968	5383
830.107	5250
830.246	5368
830.385	5231
830.524	5174
830.663	5098
830.802	5022
830.941	4915
831.08	4881
831.219	5003
831.357	5006
831.496	5170
831.635	4949
831.774	4847
831.913	4862
832.051	4801
832.19	4763
832.329	4847
832.467	4721
832.606	4637
832.744	4717
832.883	4771
833.022	4748
833.16	4820
833.299	4824
833.437	4881
833.576	4870
833.714	4927
833.852	4930
833.991	4915
834.129	4995
834.267	4919
834.406	4911
834.544	5033
834.682	4949
834.821	4999
834.959	5197
835.097	5029
835.235	5113
835.373	5083
835.511	5155
835.65	5045
835.788	5079
835.926	4942
836.064	4938
836.202	4915
836.34	5181
836.478	5273
836.615	5185
836.753	5239
836.891	5322
837.029	5280
837.167	5246
837.305	5170
837.443	5147
837.58	5143
837.718	5307
837.856	5235
837.993	5220
838.131	5254
838.269	5223
838.406	5250
838.544	5197
838.681	5105
838.819	5025
838.956	4930
839.094	4972
839.231	4953
839.369	5121
839.506	5433
839.643	5311
839.781	5113
839.918	5048
840.055	5147
840.193	5075
840.33	5128
840.467	5128
840.604	5155
840.742	5452
840.879	5136
841.016	5086
841.153	5212
841.29	5402
841.427	5299
841.564	5322
841.701	5383
841.838	5299
841.975	5258
842.112	5277
842.249	5147
842.385	5185
842.522	5349
842.659	5132
842.796	5155
842.933	5223
843.069	5151
843.206	5174
843.343	5345
843.479	5299
843.616	5258
843.752	5029
843.889	5094
844.025	5181
844.162	5041
844.298	5239
844.435	5113
844.571	5071
844.708	5212
844.844	5326
844.98	5391
845.117	5318
845.253	5174
845.389	5079
845.525	5098
845.661	5197
845.798	5071
845.934	5105
846.07	5079
846.206	5223
846.342	5303
846.478	5178
846.614	5098
846.75	4984
846.886	4927
847.022	5159
847.158	4995
847.294	5102
847.429	5121
847.565	5090
847.701	5326
847.837	4892
847.972	4835
848.108	4972
848.244	4972
848.379	4771
848.515	4755
848.65	4771
848.786	4755
848.921	4782
849.057	4919
849.192	4892
849.328	4809
849.463	4835
849.598	4812
849.734	4797
849.869	4691
850.004	4660
850.14	4649
850.275	4645
850.41	4573
850.545	4588
850.68	4641
850.815	4702
850.95	4611
851.085	4858
851.22	4763
851.355	4694
851.49	4641
851.625	4698
851.76	4668
851.895	4611
852.03	4592
852.165	4748
852.299	4790
852.434	4816
852.569	4778
852.703	4740
852.838	4877
852.973	4987
853.107	4995
853.242	4755
853.376	4675
853.511	4538
853.645	4641
853.78	4850
853.914	4698
854.048	4691
854.183	4687
854.317	4687
854.451	4850
854.585	4672
854.72	4653
854.854	4782
854.988	4630
855.122	4706
855.256	4523
855.39	4694
855.524	4824
855.658	4736
855.792	4672
855.926	4702
856.06	4767
856.194	4790
856.327	4702
856.461	4626
856.595	4649
856.729	4596
856.862	4771
856.996	4694
857.13	4736
857.263	4759
857.397	4809
857.53	4626
857.664	4702
857.797	4782
857.931	4774
858.064	4721
858.197	4725
858.331	4691
858.464	4626
858.597	4531
858.731	4634
858.864	4641
858.997	4641
859.13	4679
859.263	4653
859.396	4748
859.529	4649
859.662	4554
859.795	4550
859.928	4634
860.061	4793
860.194	4774
860.327	4607
860.46	4607
860.592	4714
860.725	4759
860.858	4752
860.99	4622
861.123	4573
861.256	4519
861.388	4668
861.521	5326
861.653	4516
861.786	4436
861.918	4432
862.05	4565
862.183	4584
862.315	4630
862.447	4641
862.58	4599
862.712	4413
862.844	4352
862.976	4535
863.108	4497
863.24	4801
863.372	4341
863.504	4409
863.636	4402
863.768	4550
863.9	4489
864.032	4417
864.164	4432
864.296	4466
864.428	4584
864.559	4561
864.691	4481
864.823	4565
864.954	4508
865.086	4542
865.217	4508
865.349	4424
865.48	4455
865.612	4508
865.743	4618
865.875	4462
866.006	4493
866.137	4470
866.269	4462
866.4	4466
866.531	4455
866.662	4386
866.793	4424
866.924	4493
867.055	4538
867.186	4489
867.317	4443
867.448	4367
867.579	4386
867.71	4379
867.841	4394
867.972	4462
868.103	4500
868.233	4447
868.364	4470
868.495	4497
868.625	4710
868.756	4805
868.886	4588
869.017	4607
869.147	4759
869.278	4820
869.408	4683
869.539	4683
869.669	4755
869.799	4668
869.929	4767
870.06	4710
870.19	4984
870.32	4927
870.45	4896
870.58	5029
870.71	5136
870.84	5124
870.97	4984
871.1	4889
871.23	5193
871.36	5143
871.489	5048
871.619	5083
871.749	5109
871.879	5193
872.008	5174
872.138	5075
872.267	5010
872.397	4873
872.526	4797
872.656	4740
872.785	4790
872.915	4984
873.044	5090
873.173	4911
873.303	4972
873.432	4965
873.561	4927
873.69	4930
873.819	4870
873.948	4942
874.077	4828
874.206	4729
874.335	4824
874.464	4984
874.593	5094
874.722	4980
874.851	5102
874.979	5056
875.108	5079
875.237	4953
875.365	4896
875.494	4930
875.623	4999
875.751	4839
875.88	4904
876.008	4965
876.136	5064
876.265	5201
876.393	5376
876.521	5265
876.65	5288
876.778	5185
876.906	5102
877.034	5052
877.162	5037
877.29	5079
877.418	5045
877.546	5025
877.674	5010
877.802	5041
877.93	5045
878.058	4972
878.185	4858
878.313	4968
878.441	4957
878.568	4786
878.696	4850
878.824	4984
878.951	4987
879.079	5143
879.206	5334
879.333	5136
879.461	4949
879.588	5018
879.715	5105
879.842	5239
879.97	5048
880.097	4831
880.224	4740
880.351	4812
880.478	4809
880.605	4793
880.732	4797
880.859	5143
880.986	4923
881.112	4923
881.239	4828
881.366	4675
881.493	4588
881.619	4573
881.746	4664
881.872	4683
881.999	4710
882.125	4675
882.252	4831
882.378	4824
882.505	5006
882.631	4805
882.757	4672
882.883	4763
883.01	4748
883.136	4725
883.262	4592
883.388	4637
883.514	4824
883.64	4881
883.766	4831
883.892	4672
884.018	4740
884.143	4908
884.269	5071
884.395	4717
884.52	4691
884.646	4645
884.772	4611
884.897	4596
885.023	4698
885.148	4801
885.274	4854
885.399	4801
885.524	4748
885.65	4653
885.775	4752
885.9	4721
886.025	4858
886.15	4801
886.275	4725
886.4	4706
886.525	4733
886.65	4733
886.775	4672
886.9	4904
887.025	5037
887.149	4835
887.274	4660
887.399	4634
887.523	4584
887.648	4645
887.773	4599
887.897	4740
888.021	4820
888.146	4668
888.27	4801
888.395	4892
888.519	4797
888.643	4843
888.767	4790
888.891	4687
889.015	4592
889.139	4710
889.263	4634
889.387	4774
889.511	4896
889.635	4820
889.759	4645
889.883	4675
890.006	4687
890.13	4824
890.254	4577
890.377	4683
890.501	4584
890.624	4478
890.748	4626
890.871	4519
890.995	4459
891.118	4440
891.241	4523
891.364	4527
891.488	4618
891.611	4478
891.734	4550
891.857	4611
891.98	4527
892.103	4592
892.226	4584
892.349	4561
892.471	4440
892.594	4546
892.717	4599
892.839	4584
892.962	4653
893.085	4717
893.207	4634
893.33	4478
893.452	4519
893.575	4672
893.697	4603
893.819	4816
893.941	4824
894.064	4820
894.186	4542
894.308	4546
894.43	4694
894.552	4847
894.674	4805
894.796	4584
894.918	4577
895.04	4577
895.161	4660
895.283	4668
895.405	4596
895.526	4679
895.648	4683
895.769	4630
895.891	4733
896.012	4748
896.134	4717
896.255	4740
896.376	4611
896.498	4599
896.619	4645
896.74	4645
896.861	4641
896.982	4923
897.103	5083
897.224	4816
897.345	4698
897.466	4618
897.587	4763
897.708	4812
897.828	4786
897.949	4664
898.07	4561
898.19	4637
898.311	4809
898.431	4653
898.552	4714
898.672	4820
898.792	4771
898.913	4721
899.033	4660
899.153	4542
899.273	4432
899.393	4508
899.513	4493
899.633	4508
899.753	4512
899.873	4535
899.993	4569
900.113	4546
900.232	4622
900.352	4542
900.472	4489
900.591	4455
900.711	4405
900.83	4417
900.95	4649
901.069	4649
901.189	4527
901.308	4322
901.427	4325
901.546	4360
901.665	4481
901.784	4546
901.904	4390
902.023	4322
902.141	4185
902.26	4166
902.379	4314
902.498	4238
902.617	4242
902.735	4398
902.854	4379
902.973	4356
903.091	4223
903.21	4188
903.328	4280
903.446	4257
903.565	4306
903.683	4344
903.801	4291
903.919	4440
904.038	4447
904.156	4363
904.274	4474
904.392	4398
904.51	4417
904.627	4443
904.745	4580
904.863	4729
904.981	4443
905.098	4318
905.216	4348
905.334	4360
905.451	4424
905.569	4436
905.686	4561
905.803	4607
905.921	4405
906.038	4542
906.155	4455
906.272	4409
906.389	4462
906.506	4398
906.623	4440
906.74	4440
906.857	4310
906.974	4367
907.091	4561
907.208	4691
907.324	4554
907.441	4489
907.557	4348
907.674	4310
907.79	4337
907.907	4375
908.023	4470
908.139	4466
908.256	4428
908.372	4470
908.488	4478
908.604	4383
908.72	4325
908.836	4386
908.952	4352
909.068	4447
909.184	4558
909.3	4474
909.415	4592
909.531	4531
909.647	4360
909.762	4367
909.878	4325
909.993	4440
910.108	4421
910.224	4436
910.339	4497
910.454	4386
910.57	4360
910.685	4253
910.8	4645
910.915	4542
911.03	4485
911.145	4367
911.259	4325
911.374	4318
911.489	4306
911.604	4284
911.718	4147
911.833	4207
911.947	4120
912.062	4044
912.176	4177
912.291	4253
912.405	4207
912.519	4455
912.633	4451
912.748	4375
912.862	4291
912.976	4158
913.09	4101
913.204	4185
913.318	4314
913.431	4363
913.545	4379
913.659	4436
913.772	4356
913.886	4246
914	4219
914.113	4356
914.226	4451
914.34	4402
914.453	4204
914.566	4451
914.68	4329
914.793	4337
914.906	4150
915.019	4109
915.132	4120
915.245	4196
915.358	4227
915.47	4276
915.583	4268
915.696	4291
915.809	4402
915.921	4455
916.034	4196
916.146	4284
916.259	4185
916.371	4413
916.483	4367
916.595	4280
916.708	4337
916.82	4344
916.932	4356
917.044	4287
917.156	4325
917.268	4223
917.38	4272
917.491	4246
917.603	4322
917.715	4386
917.826	4443
917.938	4413
918.049	4268
918.161	4432
918.272	4542
918.384	4550
918.495	4493
918.606	4318
918.717	4230
918.828	4341
918.939	4360
919.05	4219
919.161	4348
919.272	4139
919.383	4265
919.494	4470
919.604	4588
919.715	4451
919.826	4352
919.936	4428
920.047	4538
920.157	4489
920.267	4683
920.378	4569
920.488	4462
920.598	4679
920.708	4881
920.818	4755
920.928	4809
921.038	4938
921.148	4968
921.258	4622
921.368	4542
921.477	4489
921.587	4478
921.697	4394
921.806	4523
921.916	4413
922.025	4234
922.134	4284
922.244	4257
922.353	4344
922.462	4143
922.571	4090
922.68	4025
922.789	3972
922.898	4040
923.007	3964
923.116	4105
923.224	4059
923.333	4078
923.442	4010
923.55	3979
923.659	4082
923.767	4131
923.876	4036
923.984	4116
924.092	3968
924.201	4090
924.309	4097
924.417	4116
924.525	4002
924.633	4116
924.741	4911
924.849	3896
924.956	4112
925.064	3994
925.172	3949
925.279	4006
925.387	4093
925.494	4067
925.602	4196
925.709	4169
925.816	4055
925.924	4124
926.031	4230
926.138	4177
926.245	4227
926.352	4093
926.459	4257
926.566	4322
926.673	4162
926.779	4063
926.886	4071
926.993	3972
927.099	3945
927.206	3964
927.312	3903
927.419	4055
927.525	4051
927.631	4143
927.737	4002
927.843	3968
927.95	3854
928.056	3949
928.162	4021
928.267	4071
928.373	4592
928.479	4147
928.585	3850
928.69	3964
928.796	4036
928.901	3987
929.007	3861
929.112	3964
929.218	4021
929.323	3937
929.428	3918
929.533	4105
929.638	3945
929.743	3998
929.848	4078
929.953	4006
930.058	3907
930.163	3785
930.267	3808
930.372	3960
930.477	3812
930.581	4097
930.685	3953
930.79	3850
930.894	3854
930.998	3869
931.103	4025
931.207	3686
931.311	3705
931.415	3671
931.519	3511
931.623	3584
