Data from test_V78500241_1498.txt Node
Date: Fri Mar 25 16:59:25 CST 2022
User: usil
Spectrometer: V785-0024
Trigger mode: 0
Integration Time (sec): 4.000000E-1
Scans to average: 1
Nonlinearity correction enabled: false
Boxcar width: 0
Storing dark spectrum: false
XAxis mode: Wavelengths
Number of Pixels in Spectrum: 1024
>>>>>Begin Spectral Data<<<<<
801.071	8005
801.214	7993
801.356	7852
801.499	7864
801.641	7723
801.783	7780
801.926	7898
802.068	7921
802.211	7974
802.353	7970
802.496	7849
802.638	7784
802.78	7921
802.923	7837
803.065	7902
803.208	7852
803.35	7906
803.492	8149
803.635	8142
803.777	7970
803.919	8096
804.061	8488
804.204	8183
804.346	8024
804.488	7925
804.63	8039
804.773	8039
804.915	8077
805.057	8202
805.199	8096
805.341	8172
805.483	8263
805.626	8210
805.768	8130
805.91	8130
806.052	8218
806.194	8119
806.336	8218
806.478	8107
806.62	7986
806.762	8088
806.904	8195
807.046	8446
807.188	8366
807.33	8313
807.472	8214
807.614	8092
807.756	8062
807.898	7940
808.04	7807
808.182	7871
808.324	7830
808.465	7909
808.607	8050
808.749	8077
808.891	8119
809.033	8267
809.174	8164
809.316	8001
809.458	8005
809.6	7978
809.741	7955
809.883	8001
810.025	7967
810.166	7963
810.308	8058
810.45	8008
810.591	7807
810.733	7734
810.875	7632
811.016	7438
811.158	7441
811.299	7601
811.441	7708
811.582	7677
811.724	7556
811.865	7457
812.007	7578
812.148	7628
812.29	7620
812.431	7742
812.573	7887
812.714	7967
812.855	8119
812.997	8199
813.138	8298
813.279	8218
813.421	8096
813.562	7917
813.703	7833
813.845	7769
813.986	7457
814.127	7282
814.268	7240
814.41	7255
814.551	7183
814.692	7202
814.833	7091
814.974	7171
815.115	7118
815.256	7004
815.397	6966
815.539	6947
815.68	6848
815.821	6833
815.962	6935
816.103	6848
816.244	6768
816.385	6604
816.526	6627
816.666	6502
816.807	6384
816.948	6445
817.089	6490
817.23	6456
817.371	6395
817.512	6418
817.653	6429
817.793	6350
817.934	6422
818.075	6498
818.216	6452
818.356	6407
818.497	6308
818.638	6152
818.778	6125
818.919	6125
819.06	6186
819.2	6338
819.341	6365
819.481	6399
819.622	6551
819.762	6798
819.903	6665
820.043	6631
820.184	6635
820.324	6544
820.465	6749
820.605	6772
820.746	6684
820.886	6551
821.026	6673
821.167	6711
821.307	6856
821.447	6837
821.588	6654
821.728	6654
821.868	6536
822.008	6334
822.149	6395
822.289	6388
822.429	6148
822.569	6136
822.709	6171
822.849	5935
822.99	5908
823.13	5977
823.27	5984
823.41	5828
823.55	5802
823.69	5764
823.83	5824
823.97	5680
824.11	5535
824.25	5566
824.389	5577
824.529	5581
824.669	5585
824.809	5646
824.949	5707
825.089	5638
825.228	5543
825.368	5417
825.508	5357
825.648	5357
825.787	5322
825.927	5391
826.067	5334
826.206	5330
826.346	5402
826.485	5410
826.625	5436
826.765	5566
826.904	5524
827.044	5277
827.183	5239
827.323	5201
827.462	5280
827.601	5223
827.741	5208
827.88	5246
828.02	5121
828.159	5239
828.298	5299
828.437	5414
828.577	5311
828.716	5459
828.855	5307
828.994	5216
829.134	5189
829.273	5216
829.412	5178
829.551	5113
829.69	5147
829.829	5201
829.968	5372
830.107	5239
830.246	5303
830.385	5128
830.524	5162
830.663	5105
830.802	5006
830.941	4949
831.08	4843
831.219	4953
831.357	4980
831.496	5197
831.635	4999
831.774	4873
831.913	4904
832.051	4774
832.19	4805
832.329	4877
832.467	4771
832.606	4641
832.744	4725
832.883	4694
833.022	4744
833.16	4790
833.299	4816
833.437	4877
833.576	4850
833.714	4908
833.852	4927
833.991	4911
834.129	5006
834.267	4987
834.406	4923
834.544	4934
834.682	4995
834.821	4976
834.959	5185
835.097	5006
835.235	5140
835.373	5102
835.511	5117
835.65	5037
835.788	5010
835.926	4892
836.064	4908
836.202	4908
836.34	5159
836.478	5273
836.615	5124
836.753	5189
836.891	5330
837.029	5265
837.167	5220
837.305	5193
837.443	5162
837.58	5102
837.718	5254
837.856	5181
837.993	5121
838.131	5307
838.269	5220
838.406	5178
838.544	5201
838.681	5064
838.819	5033
838.956	4896
839.094	4942
839.231	4965
839.369	5090
839.506	5440
839.643	5303
839.781	5079
839.918	5025
840.055	5117
840.193	5155
840.33	5136
840.467	5121
840.604	5204
840.742	5421
840.879	5102
841.016	5105
841.153	5155
841.29	5364
841.427	5341
841.564	5379
841.701	5360
841.838	5307
841.975	5292
842.112	5284
842.249	5155
842.385	5143
842.522	5288
842.659	5147
842.796	5155
842.933	5185
843.069	5147
843.206	5216
843.343	5292
843.479	5250
843.616	5311
843.752	5014
843.889	5079
844.025	5178
844.162	5033
844.298	5235
844.435	5098
844.571	5102
844.708	5239
844.844	5269
844.98	5345
845.117	5337
845.253	5204
845.389	5105
845.525	5170
845.661	5147
845.798	5025
845.934	5140
846.07	5033
846.206	5189
846.342	5284
846.478	5178
846.614	5006
846.75	4995
846.886	4938
847.022	5124
847.158	5041
847.294	5060
847.429	5060
847.565	5052
847.701	5330
847.837	4835
847.972	4831
848.108	4987
848.244	4987
848.379	4782
848.515	4793
848.65	4782
848.786	4786
848.921	4812
849.057	4870
849.192	4877
849.328	4843
849.463	4831
849.598	4801
849.734	4790
849.869	4714
850.004	4645
850.14	4672
850.275	4603
850.41	4531
850.545	4554
850.68	4588
850.815	4653
850.95	4611
851.085	4862
851.22	4778
851.355	4717
851.49	4706
851.625	4687
851.76	4679
851.895	4592
852.03	4592
852.165	4694
852.299	4714
852.434	4858
852.569	4759
852.703	4786
852.838	4828
852.973	4877
853.107	4965
853.242	4755
853.376	4672
853.511	4565
853.645	4656
853.78	4835
853.914	4698
854.048	4653
854.183	4683
854.317	4752
854.451	4873
854.585	4649
854.72	4649
854.854	4782
854.988	4672
855.122	4668
855.256	4519
855.39	4645
855.524	4767
855.658	4698
855.792	4683
855.926	4755
856.06	4812
856.194	4793
856.327	4694
856.461	4565
856.595	4649
856.729	4607
856.862	4778
856.996	4714
857.13	4759
857.263	4771
857.397	4824
857.53	4656
857.664	4714
857.797	4809
857.931	4774
858.064	4740
858.197	4778
858.331	4679
858.464	4603
858.597	4561
858.731	4626
858.864	4653
858.997	4622
859.13	4725
859.263	4755
859.396	4755
859.529	4599
859.662	4615
859.795	4546
859.928	4618
860.061	4752
860.194	4744
860.327	4596
860.46	4577
860.592	4736
860.725	4717
860.858	4752
860.99	4584
861.123	4512
861.256	4508
861.388	4622
861.521	5379
861.653	4474
861.786	4436
861.918	4497
862.05	4516
862.183	4558
862.315	4615
862.447	4645
862.58	4500
862.712	4421
862.844	4333
862.976	4512
863.108	4466
863.24	4805
863.372	4371
863.504	4440
863.636	4417
863.768	4489
863.9	4413
864.032	4333
864.164	4440
864.296	4459
864.428	4554
864.559	4565
864.691	4523
864.823	4546
864.954	4504
865.086	4508
865.217	4455
865.349	4413
865.48	4519
865.612	4493
865.743	4599
865.875	4478
866.006	4451
866.137	4459
866.269	4428
866.4	4462
866.531	4462
866.662	4443
866.793	4424
866.924	4409
867.055	4504
867.186	4466
867.317	4402
867.448	4421
867.579	4405
867.71	4398
867.841	4344
867.972	4470
868.103	4447
868.233	4466
868.364	4455
868.495	4519
868.625	4679
868.756	4744
868.886	4588
869.017	4634
869.147	4748
869.278	4755
869.408	4672
869.539	4615
869.669	4733
869.799	4672
869.929	4736
870.06	4767
870.19	4946
870.32	4934
870.45	4930
870.58	5006
870.71	5098
870.84	5071
870.97	4965
871.1	4923
871.23	5140
871.36	5166
871.489	5033
871.619	5075
871.749	5151
871.879	5109
872.008	5174
872.138	5056
872.267	5006
872.397	4839
872.526	4820
872.656	4736
872.785	4790
872.915	4957
873.044	5056
873.173	4904
873.303	4965
873.432	4957
873.561	4934
873.69	4892
873.819	4850
873.948	4904
874.077	4858
874.206	4740
874.335	4774
874.464	4961
874.593	5052
874.722	4949
874.851	5117
874.979	5079
875.108	5033
875.237	4908
875.365	4904
875.494	4866
875.623	4976
875.751	4866
875.88	4881
876.008	4991
876.136	5018
876.265	5162
876.393	5353
876.521	5280
876.65	5223
876.778	5128
876.906	5109
877.034	5052
877.162	5090
877.29	4972
877.418	5075
877.546	5025
877.674	5090
877.802	5018
877.93	5025
878.058	4942
878.185	4870
878.313	4949
878.441	5022
878.568	4782
878.696	4850
878.824	4930
878.951	4999
879.079	5109
879.206	5280
879.333	5075
879.461	4953
879.588	5014
879.715	5140
879.842	5212
879.97	5006
880.097	4812
880.224	4782
880.351	4797
880.478	4873
880.605	4831
880.732	4771
880.859	5113
880.986	4881
881.112	4908
881.239	4805
881.366	4660
881.493	4596
881.619	4565
881.746	4588
881.872	4645
881.999	4668
882.125	4698
882.252	4828
882.378	4839
882.505	4885
882.631	4793
882.757	4664
882.883	4729
883.01	4736
883.136	4668
883.262	4580
883.388	4615
883.514	4774
883.64	4831
883.766	4691
883.892	4694
884.018	4733
884.143	4919
884.269	5037
884.395	4660
884.52	4634
884.646	4660
884.772	4615
884.897	4607
885.023	4683
885.148	4843
885.274	4862
885.399	4801
885.524	4759
885.65	4755
885.775	4744
885.9	4740
886.025	4862
886.15	4763
886.275	4721
886.4	4660
886.525	4717
886.65	4717
886.775	4672
886.9	4866
887.025	5010
887.149	4752
887.274	4622
887.399	4569
887.523	4535
887.648	4558
887.773	4599
887.897	4786
888.021	4774
888.146	4687
888.27	4809
888.395	4900
888.519	4793
888.643	4824
888.767	4801
888.891	4672
889.015	4645
889.139	4634
889.263	4596
889.387	4755
889.511	4911
889.635	4824
889.759	4634
889.883	4622
890.006	4744
890.13	4828
890.254	4634
890.377	4698
890.501	4538
890.624	4527
890.748	4615
890.871	4504
890.995	4432
891.118	4383
891.241	4554
891.364	4527
891.488	4637
891.611	4542
891.734	4550
891.857	4611
891.98	4569
892.103	4653
892.226	4607
892.349	4493
892.471	4428
892.594	4542
892.717	4508
892.839	4599
892.962	4599
893.085	4664
893.207	4592
893.33	4462
893.452	4527
893.575	4664
893.697	4580
893.819	4763
893.941	4877
894.064	4771
894.186	4577
894.308	4550
894.43	4736
894.552	4828
894.674	4755
894.796	4565
894.918	4588
895.04	4504
895.161	4702
895.283	4626
895.405	4550
895.526	4645
895.648	4694
895.769	4702
895.891	4710
896.012	4729
896.134	4702
896.255	4664
896.376	4630
896.498	4649
896.619	4702
896.74	4637
896.861	4656
896.982	4934
897.103	5045
897.224	4824
897.345	4748
897.466	4694
897.587	4683
897.708	4854
897.828	4774
897.949	4641
898.07	4546
898.19	4603
898.311	4816
898.431	4622
898.552	4721
898.672	4812
898.792	4816
898.913	4744
899.033	4607
899.153	4466
899.273	4432
899.393	4516
899.513	4527
899.633	4485
899.753	4497
899.873	4527
899.993	4542
900.113	4561
900.232	4607
900.352	4565
900.472	4478
900.591	4398
900.711	4481
900.83	4459
900.95	4645
901.069	4691
901.189	4603
901.308	4360
901.427	4310
901.546	4398
901.665	4497
901.784	4504
901.904	4379
902.023	4280
902.141	4204
902.26	4219
902.379	4280
902.498	4230
902.617	4227
902.735	4348
902.854	4390
902.973	4333
903.091	4166
903.21	4188
903.328	4272
903.446	4287
903.565	4230
903.683	4360
903.801	4284
903.919	4402
904.038	4417
904.156	4303
904.274	4440
904.392	4394
904.51	4474
904.627	4436
904.745	4615
904.863	4649
904.981	4390
905.098	4325
905.216	4371
905.334	4363
905.451	4481
905.569	4413
905.686	4565
905.803	4516
905.921	4348
906.038	4508
906.155	4512
906.272	4383
906.389	4466
906.506	4402
906.623	4367
906.74	4405
906.857	4333
906.974	4356
907.091	4580
907.208	4706
907.324	4603
907.441	4508
907.557	4325
907.674	4356
907.79	4276
907.907	4390
908.023	4462
908.139	4523
908.256	4394
908.372	4470
908.488	4459
908.604	4352
908.72	4295
908.836	4363
908.952	4379
909.068	4417
909.184	4561
909.3	4459
909.415	4588
909.531	4512
909.647	4386
909.762	4405
909.878	4314
909.993	4405
910.108	4417
910.224	4386
910.339	4470
910.454	4432
910.57	4360
910.685	4295
910.8	4664
910.915	4599
911.03	4462
911.145	4314
911.259	4322
911.374	4291
911.489	4268
911.604	4284
911.718	4169
911.833	4219
911.947	4090
912.062	4044
912.176	4219
912.291	4223
912.405	4207
912.519	4451
912.633	4474
912.748	4394
912.862	4284
912.976	4162
913.09	4124
913.204	4166
913.318	4253
913.431	4390
913.545	4371
913.659	4424
913.772	4360
913.886	4219
914	4185
914.113	4356
914.226	4447
914.34	4386
914.453	4188
914.566	4390
914.68	4318
914.793	4272
914.906	4181
915.019	4116
915.132	4101
915.245	4185
915.358	4215
915.47	4249
915.583	4268
915.696	4261
915.809	4390
915.921	4413
916.034	4253
916.146	4265
916.259	4215
916.371	4383
916.483	4329
916.595	4268
916.708	4295
916.82	4333
916.932	4337
917.044	4367
917.156	4352
917.268	4192
917.38	4276
917.491	4287
917.603	4303
917.715	4428
917.826	4383
917.938	4310
918.049	4230
918.161	4360
918.272	4497
918.384	4516
918.495	4462
918.606	4295
918.717	4230
918.828	4322
918.939	4386
919.05	4265
919.161	4352
919.272	4112
919.383	4234
919.494	4405
919.604	4630
919.715	4443
919.826	4371
919.936	4428
920.047	4527
920.157	4474
920.267	4717
920.378	4519
920.488	4493
920.598	4687
920.708	4835
920.818	4786
920.928	4771
921.038	4919
921.148	4877
921.258	4668
921.368	4538
921.477	4516
921.587	4443
921.697	4405
921.806	4500
921.916	4436
922.025	4268
922.134	4268
922.244	4219
922.353	4303
922.462	4162
922.571	4154
922.68	3994
922.789	3975
922.898	4002
923.007	3972
923.116	4051
923.224	4086
923.333	4067
923.442	3979
923.55	3987
923.659	4044
923.767	4101
923.876	3987
923.984	4169
924.092	4006
924.201	4090
924.309	4048
924.417	4181
924.525	4078
924.633	4093
924.741	4870
924.849	3915
924.956	4116
925.064	3960
925.172	3865
925.279	3953
925.387	4063
925.494	4036
925.602	4215
925.709	4166
925.816	4013
925.924	4116
926.031	4246
926.138	4204
926.245	4227
926.352	4078
926.459	4246
926.566	4322
926.673	4139
926.779	4055
926.886	4067
926.993	3987
927.099	3941
927.206	3911
927.312	3945
927.419	4025
927.525	4021
927.631	4082
927.737	3949
927.843	3892
927.95	3831
928.056	3960
928.162	3972
928.267	4048
928.373	4611
928.479	4116
928.585	3838
928.69	4017
928.796	4055
928.901	3922
929.007	3823
929.112	4013
929.218	3998
929.323	3945
929.428	3975
929.533	4090
929.638	3949
929.743	3937
929.848	4067
929.953	3975
930.058	3873
930.163	3732
930.267	3850
930.372	3983
930.477	3804
930.581	4090
930.685	3937
930.79	3797
930.894	3892
930.998	3842
931.103	4051
931.207	3698
931.311	3720
931.415	3660
931.519	3523
931.623	3538
