Data from test_V78500241_2197.txt Node
Date: Fri Mar 25 17:04:16 CST 2022
User: usil
Spectrometer: V785-0024
Trigger mode: 0
Integration Time (sec): 4.000000E-1
Scans to average: 1
Nonlinearity correction enabled: false
Boxcar width: 0
Storing dark spectrum: false
XAxis mode: Wavelengths
Number of Pixels in Spectrum: 1024
>>>>>Begin Spectral Data<<<<<
801.071	8008
801.214	7989
801.356	7879
801.499	7906
801.641	7795
801.783	7803
801.926	8084
802.068	7940
802.211	8081
802.353	8054
802.496	7883
802.638	7818
802.78	7883
802.923	7898
803.065	7826
803.208	7978
803.35	7932
803.492	8134
803.635	8096
803.777	8008
803.919	8107
804.061	8446
804.204	8202
804.346	8092
804.488	7963
804.63	8096
804.773	8020
804.915	8123
805.057	8256
805.199	8221
805.341	8290
805.483	8279
805.626	8240
805.768	8199
805.91	8161
806.052	8225
806.194	8123
806.336	8256
806.478	8134
806.62	8115
806.762	8164
806.904	8305
807.046	8423
807.188	8389
807.33	8313
807.472	8275
807.614	8187
807.756	8149
807.898	8031
808.04	7818
808.182	7883
808.324	7978
808.465	7906
808.607	8050
808.749	8161
808.891	8225
809.033	8282
809.174	8210
809.316	8111
809.458	8111
809.6	8024
809.741	8126
809.883	8115
810.025	8077
810.166	8039
810.308	8046
810.45	8031
810.591	7845
810.733	7750
810.875	7670
811.016	7468
811.158	7525
811.299	7586
811.441	7712
811.582	7647
811.724	7594
811.865	7540
812.007	7605
812.148	7620
812.29	7662
812.431	7772
812.573	7833
812.714	8020
812.855	8157
812.997	8183
813.138	8305
813.279	8164
813.421	8081
813.562	7955
813.703	7841
813.845	7830
813.986	7476
814.127	7316
814.268	7244
814.41	7141
814.551	7213
814.692	7232
814.833	7107
814.974	7133
815.115	7095
815.256	6962
815.397	6966
815.539	6973
815.68	6867
815.821	6760
815.962	6878
816.103	6837
816.244	6711
816.385	6601
816.526	6570
816.666	6502
816.807	6266
816.948	6429
817.089	6437
817.23	6464
817.371	6391
817.512	6433
817.653	6414
817.793	6448
817.934	6452
818.075	6410
818.216	6456
818.356	6384
818.497	6262
818.638	6152
818.778	6205
818.919	6102
819.06	6201
819.2	6376
819.341	6372
819.481	6346
819.622	6502
819.762	6745
819.903	6764
820.043	6627
820.184	6597
820.324	6642
820.465	6745
820.605	6665
820.746	6639
820.886	6502
821.026	6684
821.167	6722
821.307	6738
821.447	6783
821.588	6555
821.728	6642
821.868	6532
822.008	6350
822.149	6338
822.289	6342
822.429	6175
822.569	6110
822.709	6186
822.849	5897
822.99	5912
823.13	5942
823.27	5980
823.41	5832
823.55	5779
823.69	5741
823.83	5817
823.97	5684
824.11	5551
824.25	5520
824.389	5573
824.529	5611
824.669	5509
824.809	5585
824.949	5657
825.089	5619
825.228	5570
825.368	5383
825.508	5383
825.648	5383
825.787	5376
825.927	5444
826.067	5307
826.206	5296
826.346	5387
826.485	5383
826.625	5391
826.765	5520
826.904	5490
827.044	5235
827.183	5185
827.323	5143
827.462	5235
827.601	5181
827.741	5178
827.88	5250
828.02	5136
828.159	5170
828.298	5337
828.437	5425
828.577	5288
828.716	5505
828.855	5368
828.994	5174
829.134	5162
829.273	5159
829.412	5193
829.551	5155
829.69	5220
829.829	5246
829.968	5372
830.107	5292
830.246	5296
830.385	5204
830.524	5162
830.663	5083
830.802	5014
830.941	4919
831.08	4877
831.219	5010
831.357	4961
831.496	5109
831.635	4923
831.774	4828
831.913	4839
832.051	4831
832.19	4736
832.329	4828
832.467	4694
832.606	4653
832.744	4721
832.883	4698
833.022	4698
833.16	4843
833.299	4782
833.437	4831
833.576	4866
833.714	4847
833.852	4843
833.991	4915
834.129	4889
834.267	4957
834.406	4889
834.544	5022
834.682	4991
834.821	4968
834.959	5151
835.097	4961
835.235	5147
835.373	5033
835.511	5098
835.65	5029
835.788	5022
835.926	4850
836.064	4881
836.202	4923
836.34	5178
836.478	5220
836.615	5151
836.753	5162
836.891	5246
837.029	5277
837.167	5159
837.305	5204
837.443	5124
837.58	5075
837.718	5254
837.856	5239
837.993	5159
838.131	5261
838.269	5170
838.406	5235
838.544	5185
838.681	5037
838.819	5003
838.956	4908
839.094	4885
839.231	4991
839.369	5064
839.506	5444
839.643	5311
839.781	5067
839.918	5029
840.055	5109
840.193	5071
840.33	5098
840.467	5155
840.604	5170
840.742	5398
840.879	5067
841.016	5113
841.153	5151
841.29	5387
841.427	5345
841.564	5307
841.701	5345
841.838	5231
841.975	5216
842.112	5261
842.249	5151
842.385	5067
842.522	5372
842.659	5181
842.796	5128
842.933	5208
843.069	5155
843.206	5147
843.343	5288
843.479	5261
843.616	5273
843.752	5041
843.889	5022
844.025	5242
844.162	5045
844.298	5246
844.435	5067
844.571	5018
844.708	5208
844.844	5368
844.98	5326
845.117	5280
845.253	5136
845.389	5098
845.525	5181
845.661	5159
845.798	5067
845.934	5105
846.07	5033
846.206	5201
846.342	5296
846.478	5239
846.614	4999
846.75	4987
846.886	4968
847.022	5143
847.158	5041
847.294	5090
847.429	5109
847.565	5067
847.701	5303
847.837	4847
847.972	4809
848.108	4900
848.244	4927
848.379	4812
848.515	4786
848.65	4675
848.786	4809
848.921	4793
849.057	4828
849.192	4915
849.328	4862
849.463	4839
849.598	4828
849.734	4797
849.869	4683
850.004	4637
850.14	4668
850.275	4615
850.41	4558
850.545	4542
850.68	4641
850.815	4660
850.95	4618
851.085	4843
851.22	4694
851.355	4656
851.49	4649
851.625	4641
851.76	4577
851.895	4558
852.03	4519
852.165	4679
852.299	4717
852.434	4786
852.569	4714
852.703	4774
852.838	4820
852.973	4915
853.107	4911
853.242	4694
853.376	4664
853.511	4565
853.645	4592
853.78	4763
853.914	4660
854.048	4717
854.183	4603
854.317	4721
854.451	4850
854.585	4694
854.72	4618
854.854	4740
854.988	4626
855.122	4622
855.256	4535
855.39	4664
855.524	4782
855.658	4683
855.792	4698
855.926	4733
856.06	4694
856.194	4786
856.327	4748
856.461	4622
856.595	4599
856.729	4611
856.862	4729
856.996	4683
857.13	4691
857.263	4740
857.397	4812
857.53	4626
857.664	4683
857.797	4805
857.931	4778
858.064	4660
858.197	4744
858.331	4660
858.464	4668
858.597	4485
858.731	4622
858.864	4565
858.997	4558
859.13	4645
859.263	4656
859.396	4736
859.529	4569
859.662	4596
859.795	4504
859.928	4607
860.061	4771
860.194	4790
860.327	4603
860.46	4569
860.592	4706
860.725	4653
860.858	4706
860.99	4592
861.123	4523
861.256	4516
861.388	4599
861.521	5433
861.653	4451
861.786	4436
861.918	4470
862.05	4485
862.183	4592
862.315	4637
862.447	4630
862.58	4523
862.712	4455
862.844	4341
862.976	4459
863.108	4459
863.24	4820
863.372	4344
863.504	4405
863.636	4421
863.768	4466
863.9	4398
864.032	4371
864.164	4417
864.296	4466
864.428	4527
864.559	4527
864.691	4497
864.823	4527
864.954	4519
865.086	4481
865.217	4443
865.349	4394
865.48	4421
865.612	4512
865.743	4611
865.875	4462
866.006	4436
866.137	4478
866.269	4440
866.4	4428
866.531	4379
866.662	4432
866.793	4398
866.924	4447
867.055	4493
867.186	4470
867.317	4432
867.448	4367
867.579	4379
867.71	4394
867.841	4341
867.972	4474
868.103	4466
868.233	4421
868.364	4428
868.495	4470
868.625	4656
868.756	4759
868.886	4561
869.017	4550
869.147	4778
869.278	4763
869.408	4634
869.539	4687
869.669	4710
869.799	4687
869.929	4755
870.06	4778
870.19	4946
870.32	4877
870.45	4930
870.58	5025
870.71	5048
870.84	5010
870.97	4961
871.1	4927
871.23	5117
871.36	5109
871.489	5003
871.619	5105
871.749	5102
871.879	5140
872.008	5159
872.138	5060
872.267	4946
872.397	4854
872.526	4752
872.656	4740
872.785	4850
872.915	4934
873.044	5060
873.173	4896
873.303	4976
873.432	4999
873.561	4953
873.69	4908
873.819	4892
873.948	4930
874.077	4835
874.206	4771
874.335	4805
874.464	4938
874.593	5060
874.722	4980
874.851	5052
874.979	5029
875.108	5048
875.237	4942
875.365	4870
875.494	4892
875.623	4949
875.751	4831
875.88	4904
876.008	4984
876.136	5041
876.265	5174
876.393	5357
876.521	5250
876.65	5235
876.778	5140
876.906	5033
877.034	4995
877.162	5064
877.29	4999
877.418	5052
877.546	5045
877.674	5014
877.802	5052
877.93	5029
878.058	4942
878.185	4873
878.313	4968
878.441	4904
878.568	4752
878.696	4900
878.824	4953
878.951	4995
879.079	5132
879.206	5303
879.333	5155
879.461	4976
879.588	5003
879.715	5128
879.842	5189
879.97	4968
880.097	4782
880.224	4774
880.351	4801
880.478	4839
880.605	4831
880.732	4801
880.859	5064
880.986	4908
881.112	4896
881.239	4771
881.366	4653
881.493	4580
881.619	4618
881.746	4630
881.872	4645
881.999	4645
882.125	4683
882.252	4786
882.378	4805
882.505	4949
882.631	4809
882.757	4622
882.883	4717
883.01	4729
883.136	4691
883.262	4607
883.388	4637
883.514	4835
883.64	4892
883.766	4801
883.892	4660
884.018	4714
884.143	4911
884.269	5045
884.395	4717
884.52	4649
884.646	4660
884.772	4603
884.897	4592
885.023	4641
885.148	4778
885.274	4877
885.399	4790
885.524	4683
885.65	4706
885.775	4786
885.9	4717
886.025	4839
886.15	4774
886.275	4706
886.4	4630
886.525	4687
886.65	4672
886.775	4649
886.9	4900
887.025	4968
887.149	4816
887.274	4626
887.399	4611
887.523	4565
887.648	4603
887.773	4607
887.897	4778
888.021	4778
888.146	4615
888.27	4816
888.395	4961
888.519	4809
888.643	4759
888.767	4790
888.891	4675
889.015	4664
889.139	4626
889.263	4626
889.387	4805
889.511	4896
889.635	4824
889.759	4649
889.883	4626
890.006	4744
890.13	4828
890.254	4588
890.377	4675
890.501	4554
890.624	4535
890.748	4607
890.871	4516
890.995	4436
891.118	4371
891.241	4538
891.364	4531
891.488	4630
891.611	4481
891.734	4516
891.857	4607
891.98	4558
892.103	4649
892.226	4558
892.349	4493
892.471	4386
892.594	4550
892.717	4641
892.839	4569
892.962	4607
893.085	4656
893.207	4580
893.33	4421
893.452	4569
893.575	4645
893.697	4527
893.819	4774
893.941	4839
894.064	4733
894.186	4588
894.308	4618
894.43	4714
894.552	4816
894.674	4736
894.796	4596
894.918	4550
895.04	4565
895.161	4687
895.283	4679
895.405	4558
895.526	4615
895.648	4622
895.769	4687
895.891	4740
896.012	4702
896.134	4664
896.255	4672
896.376	4637
896.498	4596
896.619	4607
896.74	4615
896.861	4645
896.982	4923
897.103	4995
897.224	4858
897.345	4759
897.466	4668
897.587	4748
897.708	4835
897.828	4752
897.949	4660
898.07	4516
898.19	4668
898.311	4797
898.431	4706
898.552	4721
898.672	4786
898.792	4774
898.913	4763
899.033	4603
899.153	4512
899.273	4409
899.393	4466
899.513	4523
899.633	4535
899.753	4516
899.873	4508
899.993	4611
900.113	4500
900.232	4577
900.352	4546
900.472	4485
900.591	4413
900.711	4451
900.83	4428
900.95	4618
901.069	4664
901.189	4558
901.308	4386
901.427	4314
901.546	4367
901.665	4481
901.784	4508
901.904	4432
902.023	4360
902.141	4223
902.26	4185
902.379	4280
902.498	4230
902.617	4249
902.735	4360
902.854	4367
902.973	4360
903.091	4238
903.21	4230
903.328	4284
903.446	4310
903.565	4219
903.683	4329
903.801	4268
903.919	4363
904.038	4428
904.156	4371
904.274	4421
904.392	4352
904.51	4447
904.627	4470
904.745	4603
904.863	4634
904.981	4383
905.098	4287
905.216	4344
905.334	4428
905.451	4455
905.569	4459
905.686	4561
905.803	4554
905.921	4413
906.038	4596
906.155	4485
906.272	4390
906.389	4466
906.506	4299
906.623	4402
906.74	4413
906.857	4325
906.974	4341
907.091	4516
907.208	4687
907.324	4569
907.441	4478
907.557	4356
907.674	4303
907.79	4306
907.907	4379
908.023	4436
908.139	4466
908.256	4440
908.372	4470
908.488	4432
908.604	4352
908.72	4337
908.836	4352
908.952	4360
909.068	4386
909.184	4508
909.3	4459
909.415	4592
909.531	4592
909.647	4363
909.762	4375
909.878	4356
909.993	4436
910.108	4436
910.224	4428
910.339	4459
910.454	4413
910.57	4386
910.685	4306
910.8	4672
910.915	4561
911.03	4504
911.145	4303
911.259	4371
911.374	4371
911.489	4295
911.604	4276
911.718	4158
911.833	4181
911.947	4029
912.062	4048
912.176	4173
912.291	4284
912.405	4219
912.519	4535
912.633	4478
912.748	4394
912.862	4314
912.976	4242
913.09	4090
913.204	4192
913.318	4268
913.431	4398
913.545	4409
913.659	4451
913.772	4356
913.886	4249
914	4234
914.113	4363
914.226	4440
914.34	4356
914.453	4253
914.566	4383
914.68	4314
914.793	4318
914.906	4188
915.019	4124
915.132	4051
915.245	4173
915.358	4181
915.47	4204
915.583	4284
915.696	4291
915.809	4409
915.921	4421
916.034	4284
916.146	4227
916.259	4188
916.371	4383
916.483	4371
916.595	4276
916.708	4318
916.82	4348
916.932	4306
917.044	4333
917.156	4299
917.268	4238
917.38	4261
917.491	4253
917.603	4386
917.715	4398
917.826	4443
917.938	4344
918.049	4253
918.161	4383
918.272	4493
918.384	4558
918.495	4455
918.606	4325
918.717	4230
918.828	4318
918.939	4375
919.05	4238
919.161	4299
919.272	4147
919.383	4234
919.494	4443
919.604	4603
919.715	4432
919.826	4344
919.936	4405
920.047	4577
920.157	4451
920.267	4706
920.378	4550
920.488	4504
920.598	4725
920.708	4862
920.818	4721
920.928	4748
921.038	4987
921.148	4934
921.258	4626
921.368	4596
921.477	4508
921.587	4500
921.697	4375
921.806	4550
921.916	4386
922.025	4268
922.134	4246
922.244	4204
922.353	4356
922.462	4185
922.571	4116
922.68	3975
922.789	3964
922.898	4021
923.007	3964
923.116	4143
923.224	4021
923.333	4105
923.442	3968
923.55	3983
923.659	3991
923.767	4131
923.876	3987
923.984	4124
924.092	3991
924.201	4093
924.309	4128
924.417	4124
924.525	4036
924.633	4097
924.741	5022
924.849	3915
924.956	4124
925.064	3945
925.172	3884
925.279	3949
925.387	4040
925.494	4013
925.602	4230
925.709	4177
925.816	4013
925.924	4128
926.031	4261
926.138	4181
926.245	4249
926.352	4116
926.459	4261
926.566	4276
926.673	4169
926.779	4074
926.886	4063
926.993	4006
927.099	3930
927.206	3903
927.312	3979
927.419	4040
927.525	4006
927.631	4097
927.737	3922
927.843	3941
927.95	3884
928.056	3918
928.162	3972
928.267	4032
928.373	4691
928.479	4097
928.585	3854
928.69	4017
928.796	4067
928.901	3975
929.007	3835
929.112	3991
929.218	3918
929.323	3941
929.428	3907
929.533	4078
929.638	3930
929.743	3964
929.848	4021
929.953	3937
930.058	3922
930.163	3804
930.267	3842
930.372	4006
930.477	3831
930.581	4109
930.685	3926
930.79	3812
930.894	3865
930.998	3850
931.103	4029
931.207	3705
931.311	3701
931.415	3641
931.519	3526
931.623	3549
