Data from test_V78500241_2699.txt Node
Date: Fri Mar 25 17:07:46 CST 2022
User: usil
Spectrometer: V785-0024
Trigger mode: 0
Integration Time (sec): 4.000000E-1
Scans to average: 1
Nonlinearity correction enabled: false
Boxcar width: 0
Storing dark spectrum: false
XAxis mode: Wavelengths
Number of Pixels in Spectrum: 1024
>>>>>Begin Spectral Data<<<<<
801.071	8027
801.214	7978
801.356	7917
801.499	7871
801.641	7833
801.783	7871
801.926	7986
802.068	7997
802.211	8039
802.353	8001
802.496	7890
802.638	7913
802.78	7951
802.923	7993
803.065	7833
803.208	7868
803.35	7951
803.492	8115
803.635	8214
803.777	8012
803.919	8134
804.061	8450
804.204	8088
804.346	8092
804.488	7986
804.63	8142
804.773	8073
804.915	8164
805.057	8320
805.199	8187
805.341	8271
805.483	8366
805.626	8229
805.768	8142
805.91	8180
806.052	8199
806.194	8107
806.336	8248
806.478	8153
806.62	8103
806.762	8183
806.904	8225
807.046	8476
807.188	8381
807.33	8324
807.472	8252
807.614	8195
807.756	8145
807.898	7986
808.04	7955
808.182	7837
808.324	7868
808.465	7989
808.607	8065
808.749	8107
808.891	8259
809.033	8339
809.174	8218
809.316	8126
809.458	8043
809.6	7978
809.741	8073
809.883	7970
810.025	8111
810.166	8008
810.308	8050
810.45	8005
810.591	7959
810.733	7772
810.875	7677
811.016	7571
811.158	7502
811.299	7590
811.441	7811
811.582	7753
811.724	7647
811.865	7548
812.007	7571
812.148	7552
812.29	7636
812.431	7723
812.573	7852
812.714	8012
812.855	8134
812.997	8229
813.138	8347
813.279	8229
813.421	8115
813.562	8035
813.703	7837
813.845	7795
813.986	7491
814.127	7282
814.268	7198
814.41	7202
814.551	7152
814.692	7236
814.833	7091
814.974	7034
815.115	7110
815.256	6943
815.397	6935
815.539	7019
815.68	6833
815.821	6810
815.962	6924
816.103	6798
816.244	6707
816.385	6662
816.526	6662
816.666	6536
816.807	6334
816.948	6502
817.089	6513
817.23	6410
817.371	6380
817.512	6353
817.653	6422
817.793	6399
817.934	6426
818.075	6452
818.216	6460
818.356	6372
818.497	6239
818.638	6117
818.778	6220
818.919	6152
819.06	6175
819.2	6350
819.341	6285
819.481	6357
819.622	6509
819.762	6726
819.903	6738
820.043	6623
820.184	6623
820.324	6589
820.465	6722
820.605	6665
820.746	6650
820.886	6566
821.026	6677
821.167	6722
821.307	6837
821.447	6783
821.588	6715
821.728	6620
821.868	6506
822.008	6403
822.149	6399
822.289	6391
822.429	6201
822.569	6182
822.709	6182
822.849	5885
822.99	5908
823.13	5954
823.27	5996
823.41	5836
823.55	5802
823.69	5817
823.83	5866
823.97	5710
824.11	5589
824.25	5562
824.389	5570
824.529	5592
824.669	5558
824.809	5657
824.949	5672
825.089	5665
825.228	5649
825.368	5463
825.508	5391
825.648	5368
825.787	5391
825.927	5455
826.067	5330
826.206	5330
826.346	5433
826.485	5444
826.625	5421
826.765	5638
826.904	5474
827.044	5326
827.183	5223
827.323	5159
827.462	5330
827.601	5227
827.741	5246
827.88	5269
828.02	5147
828.159	5261
828.298	5383
828.437	5467
828.577	5303
828.716	5547
828.855	5402
828.994	5235
829.134	5132
829.273	5189
829.412	5185
829.551	5170
829.69	5223
829.829	5288
829.968	5406
830.107	5349
830.246	5284
830.385	5174
830.524	5155
830.663	5124
830.802	5075
830.941	4896
831.08	4908
831.219	5010
831.357	5014
831.496	5178
831.635	4923
831.774	4949
831.913	4862
832.051	4736
832.19	4771
832.329	4854
832.467	4778
832.606	4702
832.744	4771
832.883	4767
833.022	4752
833.16	4816
833.299	4850
833.437	4843
833.576	4870
833.714	4881
833.852	4942
833.991	4908
834.129	4987
834.267	4968
834.406	4938
834.544	4965
834.682	5052
834.821	4999
834.959	5239
835.097	5006
835.235	5162
835.373	5166
835.511	5140
835.65	5067
835.788	5098
835.926	4919
836.064	4889
836.202	4961
836.34	5185
836.478	5277
836.615	5174
836.753	5220
836.891	5345
837.029	5299
837.167	5212
837.305	5193
837.443	5170
837.58	5136
837.718	5311
837.856	5201
837.993	5174
838.131	5296
838.269	5258
838.406	5242
838.544	5189
838.681	5071
838.819	5048
838.956	4949
839.094	4930
839.231	4991
839.369	5075
839.506	5444
839.643	5299
839.781	5060
839.918	5060
840.055	5136
840.193	5140
840.33	5121
840.467	5166
840.604	5242
840.742	5467
840.879	5159
841.016	5102
841.153	5201
841.29	5402
841.427	5337
841.564	5349
841.701	5364
841.838	5337
841.975	5254
842.112	5288
842.249	5178
842.385	5132
842.522	5345
842.659	5197
842.796	5201
842.933	5231
843.069	5174
843.206	5220
843.343	5307
843.479	5239
843.616	5307
843.752	5090
843.889	4976
844.025	5254
844.162	5083
844.298	5250
844.435	5102
844.571	5140
844.708	5227
844.844	5334
844.98	5379
845.117	5345
845.253	5189
845.389	5124
845.525	5231
845.661	5181
845.798	5045
845.934	5159
846.07	5064
846.206	5254
846.342	5322
846.478	5269
846.614	5090
846.75	5010
846.886	5003
847.022	5155
847.158	5056
847.294	5109
847.429	5143
847.565	5079
847.701	5341
847.837	4946
847.972	4847
848.108	5010
848.244	4961
848.379	4786
848.515	4782
848.65	4752
848.786	4774
848.921	4782
849.057	4946
849.192	4892
849.328	4854
849.463	4919
849.598	4835
849.734	4778
849.869	4721
850.004	4675
850.14	4687
850.275	4626
850.41	4542
850.545	4588
850.68	4664
850.815	4653
850.95	4664
851.085	4919
851.22	4759
851.355	4725
851.49	4664
851.625	4679
851.76	4660
851.895	4592
852.03	4580
852.165	4740
852.299	4710
852.434	4889
852.569	4740
852.703	4809
852.838	4835
852.973	4980
853.107	4946
853.242	4767
853.376	4740
853.511	4565
853.645	4656
853.78	4850
853.914	4702
854.048	4729
854.183	4744
854.317	4755
854.451	4835
854.585	4721
854.72	4672
854.854	4721
854.988	4645
855.122	4634
855.256	4558
855.39	4710
855.524	4809
855.658	4740
855.792	4694
855.926	4812
856.06	4748
856.194	4797
856.327	4706
856.461	4645
856.595	4672
856.729	4672
856.862	4793
856.996	4733
857.13	4702
857.263	4771
857.397	4847
857.53	4710
857.664	4729
857.797	4797
857.931	4816
858.064	4702
858.197	4744
858.331	4672
858.464	4668
858.597	4542
858.731	4675
858.864	4698
858.997	4615
859.13	4656
859.263	4721
859.396	4729
859.529	4637
859.662	4596
859.795	4508
859.928	4634
860.061	4797
860.194	4805
860.327	4615
860.46	4596
860.592	4721
860.725	4683
860.858	4790
860.99	4580
861.123	4577
861.256	4569
861.388	4641
861.521	5337
861.653	4516
861.786	4455
861.918	4485
862.05	4504
862.183	4577
862.315	4660
862.447	4763
862.58	4558
862.712	4436
862.844	4360
862.976	4489
863.108	4504
863.24	4767
863.372	4341
863.504	4478
863.636	4451
863.768	4493
863.9	4440
864.032	4390
864.164	4447
864.296	4508
864.428	4550
864.559	4592
864.691	4550
864.823	4535
864.954	4542
865.086	4531
865.217	4440
865.349	4440
865.48	4451
865.612	4504
865.743	4668
865.875	4497
866.006	4462
866.137	4516
866.269	4489
866.4	4459
866.531	4459
866.662	4424
866.793	4428
866.924	4390
867.055	4485
867.186	4481
867.317	4459
867.448	4409
867.579	4390
867.71	4417
867.841	4432
867.972	4470
868.103	4500
868.233	4470
868.364	4481
868.495	4500
868.625	4649
868.756	4752
868.886	4577
869.017	4664
869.147	4801
869.278	4710
869.408	4672
869.539	4626
869.669	4744
869.799	4679
869.929	4759
870.06	4763
870.19	4953
870.32	4908
870.45	4923
870.58	5033
870.71	5094
870.84	5121
870.97	5010
871.1	4927
871.23	5117
871.36	5208
871.489	5029
871.619	5090
871.749	5094
871.879	5155
872.008	5204
872.138	5075
872.267	5037
872.397	4908
872.526	4839
872.656	4698
872.785	4790
872.915	5018
873.044	5052
873.173	4995
873.303	5003
873.432	4946
873.561	4995
873.69	4915
873.819	4915
873.948	4976
874.077	4835
874.206	4797
874.335	4797
874.464	4923
874.593	5060
874.722	4949
874.851	5128
874.979	5075
875.108	5079
875.237	4923
875.365	4927
875.494	4934
875.623	4961
875.751	4908
875.88	4915
876.008	4987
876.136	5033
876.265	5208
876.393	5288
876.521	5322
876.65	5231
876.778	5197
876.906	5094
877.034	5048
877.162	5037
877.29	5060
877.418	5090
877.546	5083
877.674	5029
877.802	5067
877.93	5045
878.058	4930
878.185	4885
878.313	4976
878.441	5003
878.568	4820
878.696	4911
878.824	5014
878.951	5022
879.079	5113
879.206	5273
879.333	5109
879.461	5052
879.588	5052
879.715	5147
879.842	5235
879.97	5083
880.097	4835
880.224	4736
880.351	4805
880.478	4850
880.605	4839
880.732	4839
880.859	5105
880.986	4904
881.112	4911
881.239	4748
881.366	4702
881.493	4672
881.619	4554
881.746	4675
881.872	4660
881.999	4683
882.125	4725
882.252	4805
882.378	4820
882.505	4957
882.631	4782
882.757	4698
882.883	4729
883.01	4774
883.136	4687
883.262	4611
883.388	4611
883.514	4839
883.64	4877
883.766	4816
883.892	4687
884.018	4710
884.143	4915
884.269	5052
884.395	4683
884.52	4660
884.646	4653
884.772	4596
884.897	4573
885.023	4675
885.148	4755
885.274	4877
885.399	4828
885.524	4744
885.65	4691
885.775	4793
885.9	4748
886.025	4892
886.15	4793
886.275	4782
886.4	4702
886.525	4740
886.65	4748
886.775	4736
886.9	4946
887.025	5022
887.149	4786
887.274	4660
887.399	4588
887.523	4645
887.648	4584
887.773	4592
887.897	4793
888.021	4790
888.146	4675
888.27	4847
888.395	4915
888.519	4797
888.643	4850
888.767	4812
888.891	4687
889.015	4641
889.139	4691
889.263	4603
889.387	4733
889.511	4854
889.635	4854
889.759	4645
889.883	4679
890.006	4717
890.13	4839
890.254	4656
890.377	4660
890.501	4550
890.624	4558
890.748	4656
890.871	4516
890.995	4455
891.118	4421
891.241	4565
891.364	4550
891.488	4645
891.611	4516
891.734	4535
891.857	4611
891.98	4580
892.103	4656
892.226	4596
892.349	4497
892.471	4462
892.594	4577
892.717	4645
892.839	4550
892.962	4607
893.085	4683
893.207	4626
893.33	4478
893.452	4546
893.575	4740
893.697	4596
893.819	4782
893.941	4889
894.064	4790
894.186	4584
894.308	4592
894.43	4748
894.552	4873
894.674	4782
894.796	4577
894.918	4618
895.04	4596
895.161	4759
895.283	4664
895.405	4592
895.526	4596
895.648	4702
895.769	4721
895.891	4767
896.012	4771
896.134	4729
896.255	4694
896.376	4664
896.498	4618
896.619	4683
896.74	4634
896.861	4691
896.982	4934
897.103	5064
897.224	4870
897.345	4771
897.466	4717
897.587	4744
897.708	4835
897.828	4831
897.949	4653
898.07	4546
898.19	4611
898.311	4828
898.431	4672
898.552	4782
898.672	4793
898.792	4797
898.913	4736
899.033	4660
899.153	4523
899.273	4443
899.393	4493
899.513	4569
899.633	4500
899.753	4565
899.873	4538
899.993	4561
900.113	4531
900.232	4664
900.352	4500
900.472	4512
900.591	4386
900.711	4485
900.83	4413
900.95	4588
901.069	4664
901.189	4599
901.308	4344
901.427	4310
901.546	4348
901.665	4508
901.784	4508
901.904	4390
902.023	4306
902.141	4192
902.26	4173
902.379	4367
902.498	4249
902.617	4268
902.735	4394
902.854	4383
902.973	4367
903.091	4215
903.21	4261
903.328	4272
903.446	4219
903.565	4272
903.683	4394
903.801	4291
903.919	4436
904.038	4424
904.156	4310
904.274	4424
904.392	4432
904.51	4462
904.627	4485
904.745	4577
904.863	4626
904.981	4394
905.098	4352
905.216	4379
905.334	4440
905.451	4436
905.569	4459
905.686	4588
905.803	4527
905.921	4398
906.038	4565
906.155	4474
906.272	4417
906.389	4462
906.506	4356
906.623	4409
906.74	4375
906.857	4348
906.974	4409
907.091	4580
907.208	4660
907.324	4607
907.441	4538
907.557	4379
907.674	4348
907.79	4318
907.907	4383
908.023	4493
908.139	4535
908.256	4447
908.372	4508
908.488	4447
908.604	4360
908.72	4348
908.836	4375
908.952	4398
909.068	4424
909.184	4577
909.3	4474
909.415	4615
909.531	4504
909.647	4363
909.762	4371
909.878	4375
909.993	4432
910.108	4398
910.224	4424
910.339	4481
910.454	4417
910.57	4383
910.685	4356
910.8	4698
910.915	4649
911.03	4512
911.145	4322
911.259	4325
911.374	4375
911.489	4276
911.604	4272
911.718	4219
911.833	4215
911.947	4112
912.062	4002
912.176	4223
912.291	4261
912.405	4257
912.519	4447
912.633	4493
912.748	4363
912.862	4272
912.976	4242
913.09	4097
913.204	4162
913.318	4234
913.431	4363
913.545	4390
913.659	4451
913.772	4352
913.886	4261
914	4272
914.113	4360
914.226	4470
914.34	4459
914.453	4249
914.566	4455
914.68	4303
914.793	4314
914.906	4150
915.019	4147
915.132	4082
915.245	4188
915.358	4238
915.47	4242
915.583	4276
915.696	4306
915.809	4379
915.921	4390
916.034	4310
916.146	4276
916.259	4242
916.371	4390
916.483	4371
916.595	4287
916.708	4337
916.82	4322
916.932	4314
917.044	4367
917.156	4287
917.268	4173
917.38	4246
917.491	4299
917.603	4352
917.715	4451
917.826	4424
917.938	4348
918.049	4257
918.161	4405
918.272	4542
918.384	4512
918.495	4394
918.606	4344
918.717	4253
918.828	4356
918.939	4424
919.05	4257
919.161	4360
919.272	4154
919.383	4219
919.494	4424
919.604	4573
919.715	4466
919.826	4363
919.936	4455
920.047	4504
920.157	4459
920.267	4702
920.378	4523
920.488	4436
920.598	4714
920.708	4828
920.818	4748
920.928	4774
921.038	4976
921.148	4965
921.258	4618
921.368	4584
921.477	4459
921.587	4474
921.697	4379
921.806	4596
921.916	4417
922.025	4318
922.134	4234
922.244	4185
922.353	4329
922.462	4207
922.571	4116
922.68	3994
922.789	3964
922.898	4006
923.007	4013
923.116	4093
923.224	4093
923.333	4029
923.442	3991
923.55	3991
923.659	4040
923.767	4093
923.876	4017
923.984	4158
924.092	3994
924.201	4116
924.309	4116
924.417	4169
924.525	4074
924.633	4090
924.741	5048
924.849	3888
924.956	4154
925.064	3968
925.172	3937
925.279	3964
925.387	4048
925.494	4051
925.602	4185
925.709	4177
925.816	4048
925.924	4101
926.031	4169
926.138	4181
926.245	4234
926.352	4116
926.459	4215
926.566	4284
926.673	4169
926.779	4059
926.886	4109
926.993	3922
927.099	3983
927.206	3960
927.312	3945
927.419	4067
927.525	4051
927.631	4101
927.737	3975
927.843	3975
927.95	3876
928.056	3972
928.162	3998
928.267	4040
928.373	4637
928.479	4162
928.585	3884
928.69	4025
928.796	4090
928.901	3956
929.007	3854
929.112	3983
929.218	3949
929.323	3960
929.428	3911
929.533	4112
929.638	3861
929.743	3979
929.848	4032
929.953	4006
930.058	3918
930.163	3766
930.267	3857
930.372	3994
930.477	3827
930.581	4131
930.685	3945
930.79	3812
930.894	3838
930.998	3819
931.103	3991
931.207	3736
931.311	3686
931.415	3663
931.519	3538
931.623	3549
