Data from test_V78500241_1308.txt Node
Date: Fri Mar 25 16:58:05 CST 2022
User: usil
Spectrometer: V785-0024
Trigger mode: 0
Integration Time (sec): 4.000000E-1
Scans to average: 1
Nonlinearity correction enabled: false
Boxcar width: 0
Storing dark spectrum: false
XAxis mode: Wavelengths
Number of Pixels in Spectrum: 1024
>>>>>Begin Spectral Data<<<<<
801.071	8012
801.214	8043
801.356	7936
801.499	7811
801.641	7784
801.783	7826
801.926	7951
802.068	7925
802.211	7944
802.353	7932
802.496	7837
802.638	7909
802.78	7898
802.923	7947
803.065	7906
803.208	7833
803.35	8035
803.492	8050
803.635	8134
803.777	7997
803.919	8100
804.061	8461
804.204	8191
804.346	8081
804.488	8012
804.63	8119
804.773	8065
804.915	8164
805.057	8256
805.199	8157
805.341	8206
805.483	8279
805.626	8256
805.768	8115
805.91	8279
806.052	8176
806.194	8081
806.336	8305
806.478	8119
806.62	8081
806.762	8096
806.904	8294
807.046	8518
807.188	8438
807.33	8370
807.472	8351
807.614	8142
807.756	8138
807.898	8012
808.04	7902
808.182	7932
808.324	7974
808.465	7993
808.607	8100
808.749	8084
808.891	8183
809.033	8320
809.174	8206
809.316	8031
809.458	8046
809.6	8005
809.741	8084
809.883	8046
810.025	8187
810.166	8123
810.308	8043
810.45	8035
810.591	7932
810.733	7822
810.875	7700
811.016	7578
811.158	7521
811.299	7647
811.441	7750
811.582	7746
811.724	7616
811.865	7559
812.007	7658
812.148	7597
812.29	7731
812.431	7761
812.573	7803
812.714	7993
812.855	8199
812.997	8259
813.138	8343
813.279	8244
813.421	8134
813.562	7951
813.703	7894
813.845	7803
813.986	7476
814.127	7289
814.268	7270
814.41	7247
814.551	7175
814.692	7270
814.833	7118
814.974	7129
815.115	7118
815.256	7004
815.397	6962
815.539	7012
815.68	6821
815.821	6791
815.962	6859
816.103	6787
816.244	6696
816.385	6620
816.526	6684
816.666	6494
816.807	6315
816.948	6517
817.089	6528
817.23	6437
817.371	6403
817.512	6426
817.653	6422
817.793	6391
817.934	6445
818.075	6460
818.216	6502
818.356	6456
818.497	6273
818.638	6125
818.778	6148
818.919	6144
819.06	6194
819.2	6365
819.341	6365
819.481	6365
819.622	6563
819.762	6738
819.903	6719
820.043	6639
820.184	6544
820.324	6646
820.465	6726
820.605	6692
820.746	6646
820.886	6540
821.026	6654
821.167	6734
821.307	6798
821.447	6798
821.588	6681
821.728	6601
821.868	6517
822.008	6338
822.149	6376
822.289	6376
822.429	6144
822.569	6114
822.709	6144
822.849	5935
822.99	5931
823.13	5931
823.27	5935
823.41	5783
823.55	5828
823.69	5821
823.83	5756
823.97	5657
824.11	5608
824.25	5539
824.389	5562
824.529	5611
824.669	5543
824.809	5649
824.949	5676
825.089	5646
825.228	5592
825.368	5444
825.508	5376
825.648	5353
825.787	5406
825.927	5379
826.067	5322
826.206	5299
826.346	5387
826.485	5398
826.625	5433
826.765	5585
826.904	5524
827.044	5261
827.183	5174
827.323	5113
827.462	5254
827.601	5201
827.741	5216
827.88	5284
828.02	5121
828.159	5265
828.298	5353
828.437	5330
828.577	5334
828.716	5535
828.855	5341
828.994	5223
829.134	5185
829.273	5201
829.412	5193
829.551	5170
829.69	5185
829.829	5284
829.968	5376
830.107	5307
830.246	5307
830.385	5162
830.524	5140
830.663	5105
830.802	4961
830.941	4904
831.08	4843
831.219	5037
831.357	5045
831.496	5170
831.635	4980
831.774	4847
831.913	4816
832.051	4725
832.19	4740
832.329	4835
832.467	4698
832.606	4687
832.744	4744
832.883	4755
833.022	4748
833.16	4759
833.299	4820
833.437	4828
833.576	4812
833.714	4835
833.852	4866
833.991	4908
834.129	4976
834.267	4934
834.406	4949
834.544	4946
834.682	5029
834.821	4995
834.959	5178
835.097	5006
835.235	5223
835.373	5105
835.511	5132
835.65	5052
835.788	4984
835.926	4923
836.064	4919
836.202	4938
836.34	5159
836.478	5242
836.615	5170
836.753	5193
836.891	5360
837.029	5296
837.167	5208
837.305	5159
837.443	5193
837.58	5117
837.718	5250
837.856	5235
837.993	5185
838.131	5246
838.269	5231
838.406	5201
838.544	5147
838.681	5052
838.819	5018
838.956	4938
839.094	4911
839.231	4984
839.369	5094
839.506	5440
839.643	5277
839.781	5033
839.918	5003
840.055	5159
840.193	5071
840.33	5124
840.467	5166
840.604	5220
840.742	5448
840.879	5136
841.016	5159
841.153	5174
841.29	5379
841.427	5318
841.564	5318
841.701	5406
841.838	5303
841.975	5265
842.112	5239
842.249	5151
842.385	5128
842.522	5357
842.659	5174
842.796	5117
842.933	5197
843.069	5140
843.206	5181
843.343	5372
843.479	5265
843.616	5254
843.752	5037
843.889	4999
844.025	5193
844.162	5048
844.298	5216
844.435	5086
844.571	5022
844.708	5208
844.844	5334
844.98	5330
845.117	5261
845.253	5147
845.389	5086
845.525	5181
845.661	5113
845.798	5048
845.934	5162
846.07	5079
846.206	5201
846.342	5269
846.478	5181
846.614	5029
846.75	5022
846.886	4968
847.022	5102
847.158	5052
847.294	5083
847.429	5094
847.565	5045
847.701	5307
847.837	4858
847.972	4805
848.108	5003
848.244	4934
848.379	4801
848.515	4729
848.65	4752
848.786	4793
848.921	4793
849.057	4885
849.192	4915
849.328	4831
849.463	4858
849.598	4744
849.734	4816
849.869	4694
850.004	4622
850.14	4710
850.275	4603
850.41	4584
850.545	4611
850.68	4607
850.815	4611
850.95	4649
851.085	4858
851.22	4740
851.355	4687
851.49	4630
851.625	4653
851.76	4634
851.895	4538
852.03	4573
852.165	4679
852.299	4656
852.434	4854
852.569	4790
852.703	4824
852.838	4824
852.973	4946
853.107	4908
853.242	4736
853.376	4694
853.511	4626
853.645	4653
853.78	4854
853.914	4683
854.048	4683
854.183	4698
854.317	4748
854.451	4839
854.585	4649
854.72	4618
854.854	4759
854.988	4607
855.122	4668
855.256	4531
855.39	4622
855.524	4778
855.658	4698
855.792	4733
855.926	4691
856.06	4714
856.194	4797
856.327	4664
856.461	4641
856.595	4626
856.729	4637
856.862	4782
856.996	4679
857.13	4752
857.263	4771
857.397	4767
857.53	4618
857.664	4698
857.797	4782
857.931	4786
858.064	4683
858.197	4733
858.331	4615
858.464	4672
858.597	4523
858.731	4634
858.864	4672
858.997	4592
859.13	4653
859.263	4687
859.396	4698
859.529	4592
859.662	4588
859.795	4546
859.928	4615
860.061	4755
860.194	4706
860.327	4573
860.46	4569
860.592	4733
860.725	4675
860.858	4748
860.99	4584
861.123	4550
861.256	4554
861.388	4634
861.521	5174
861.653	4481
861.786	4462
861.918	4459
862.05	4500
862.183	4519
862.315	4626
862.447	4641
862.58	4561
862.712	4462
862.844	4352
862.976	4523
863.108	4459
863.24	4889
863.372	4341
863.504	4466
863.636	4409
863.768	4493
863.9	4443
864.032	4325
864.164	4402
864.296	4500
864.428	4584
864.559	4577
864.691	4569
864.823	4516
864.954	4508
865.086	4485
865.217	4421
865.349	4436
865.48	4436
865.612	4485
865.743	4630
865.875	4516
866.006	4447
866.137	4497
866.269	4451
866.4	4474
866.531	4440
866.662	4409
866.793	4424
866.924	4440
867.055	4538
867.186	4447
867.317	4455
867.448	4417
867.579	4405
867.71	4375
867.841	4375
867.972	4481
868.103	4428
868.233	4504
868.364	4390
868.495	4474
868.625	4641
868.756	4748
868.886	4584
869.017	4588
869.147	4790
869.278	4725
869.408	4634
869.539	4668
869.669	4698
869.799	4675
869.929	4740
870.06	4744
870.19	4911
870.32	4873
870.45	4961
870.58	5022
870.71	5143
870.84	5056
870.97	4968
871.1	4870
871.23	5113
871.36	5086
871.489	5010
871.619	5071
871.749	5048
871.879	5143
872.008	5166
872.138	5075
872.267	5003
872.397	4839
872.526	4805
872.656	4740
872.785	4854
872.915	4965
873.044	5022
873.173	4965
873.303	4987
873.432	4915
873.561	4946
873.69	4877
873.819	4877
873.948	4850
874.077	4778
874.206	4778
874.335	4793
874.464	4930
874.593	5109
874.722	4968
874.851	5075
874.979	5067
875.108	4984
875.237	4934
875.365	4915
875.494	4870
875.623	4972
875.751	4870
875.88	4892
876.008	4968
876.136	5056
876.265	5159
876.393	5292
876.521	5246
876.65	5246
876.778	5155
876.906	5075
877.034	5045
877.162	5079
877.29	5003
877.418	5094
877.546	5079
877.674	5067
877.802	5045
877.93	4972
878.058	4904
878.185	4801
878.313	4946
878.441	4930
878.568	4820
878.696	4896
878.824	4968
878.951	5071
879.079	5136
879.206	5318
879.333	5086
879.461	4961
879.588	4987
879.715	5071
879.842	5231
879.97	5010
880.097	4786
880.224	4725
880.351	4797
880.478	4774
880.605	4847
880.732	4805
880.859	5136
880.986	4915
881.112	4930
881.239	4805
881.366	4634
881.493	4626
881.619	4596
881.746	4599
881.872	4622
881.999	4637
882.125	4702
882.252	4793
882.378	4839
882.505	5010
882.631	4786
882.757	4653
882.883	4698
883.01	4706
883.136	4641
883.262	4599
883.388	4615
883.514	4767
883.64	4866
883.766	4801
883.892	4691
884.018	4706
884.143	4923
884.269	5025
884.395	4664
884.52	4656
884.646	4660
884.772	4599
884.897	4542
885.023	4618
885.148	4778
885.274	4835
885.399	4805
885.524	4668
885.65	4672
885.775	4774
885.9	4675
886.025	4847
886.15	4828
886.275	4752
886.4	4668
886.525	4698
886.65	4744
886.775	4725
886.9	4938
887.025	5060
887.149	4755
887.274	4607
887.399	4588
887.523	4580
887.648	4580
887.773	4588
887.897	4729
888.021	4797
888.146	4656
888.27	4797
888.395	4908
888.519	4774
888.643	4778
888.767	4816
888.891	4717
889.015	4611
889.139	4622
889.263	4611
889.387	4767
889.511	4843
889.635	4744
889.759	4626
889.883	4656
890.006	4736
890.13	4831
890.254	4622
890.377	4691
890.501	4546
890.624	4573
890.748	4630
890.871	4497
890.995	4474
891.118	4360
891.241	4527
891.364	4535
891.488	4641
891.611	4493
891.734	4580
891.857	4649
891.98	4554
892.103	4626
892.226	4558
892.349	4558
892.471	4398
892.594	4554
892.717	4584
892.839	4634
892.962	4588
893.085	4637
893.207	4573
893.33	4459
893.452	4542
893.575	4683
893.697	4546
893.819	4736
893.941	4786
894.064	4748
894.186	4569
894.308	4592
894.43	4771
894.552	4896
894.674	4759
894.796	4542
894.918	4569
895.04	4554
895.161	4702
895.283	4668
895.405	4569
895.526	4637
895.648	4687
895.769	4679
895.891	4694
896.012	4694
896.134	4675
896.255	4664
896.376	4641
896.498	4618
896.619	4668
896.74	4634
896.861	4584
896.982	4915
897.103	5048
897.224	4771
897.345	4740
897.466	4649
897.587	4729
897.708	4850
897.828	4786
897.949	4683
898.07	4523
898.19	4592
898.311	4759
898.431	4672
898.552	4744
898.672	4801
898.792	4759
898.913	4763
899.033	4596
899.153	4500
899.273	4436
899.393	4443
899.513	4512
899.633	4512
899.753	4535
899.873	4546
899.993	4554
900.113	4588
900.232	4592
900.352	4558
900.472	4462
900.591	4417
900.711	4519
900.83	4432
900.95	4561
901.069	4706
901.189	4519
901.308	4337
901.427	4299
901.546	4409
901.665	4485
901.784	4527
901.904	4390
902.023	4322
902.141	4177
902.26	4166
902.379	4310
902.498	4238
902.617	4242
902.735	4303
902.854	4341
902.973	4329
903.091	4219
903.21	4188
903.328	4268
903.446	4284
903.565	4230
903.683	4352
903.801	4322
903.919	4417
904.038	4478
904.156	4352
904.274	4428
904.392	4344
904.51	4417
904.627	4451
904.745	4596
904.863	4656
904.981	4386
905.098	4299
905.216	4413
905.334	4390
905.451	4451
905.569	4417
905.686	4516
905.803	4538
905.921	4402
906.038	4500
906.155	4497
906.272	4379
906.389	4459
906.506	4325
906.623	4356
906.74	4371
906.857	4276
906.974	4367
907.091	4573
907.208	4687
907.324	4603
907.441	4504
907.557	4352
907.674	4379
907.79	4287
907.907	4394
908.023	4470
908.139	4440
908.256	4455
908.372	4462
908.488	4455
908.604	4383
908.72	4303
908.836	4409
908.952	4451
909.068	4417
909.184	4634
909.3	4470
909.415	4577
909.531	4512
909.647	4371
909.762	4363
909.878	4322
909.993	4398
910.108	4443
910.224	4379
910.339	4451
910.454	4375
910.57	4360
910.685	4280
910.8	4637
910.915	4603
911.03	4489
911.145	4287
911.259	4318
911.374	4398
911.489	4295
911.604	4276
911.718	4166
911.833	4169
911.947	4067
912.062	4002
912.176	4200
912.291	4238
912.405	4223
912.519	4500
912.633	4500
912.748	4383
912.862	4295
912.976	4181
913.09	4105
913.204	4139
913.318	4246
913.431	4314
913.545	4352
913.659	4451
913.772	4367
913.886	4234
914	4169
914.113	4356
914.226	4424
914.34	4390
914.453	4230
914.566	4424
914.68	4299
914.793	4303
914.906	4135
915.019	4139
915.132	4078
915.245	4196
915.358	4246
915.47	4219
915.583	4265
915.696	4299
915.809	4417
915.921	4352
916.034	4234
916.146	4291
916.259	4204
916.371	4367
916.483	4341
916.595	4291
916.708	4341
916.82	4303
916.932	4299
917.044	4325
917.156	4306
917.268	4227
917.38	4287
917.491	4291
917.603	4367
917.715	4451
917.826	4421
917.938	4341
918.049	4242
918.161	4383
918.272	4504
918.384	4535
918.495	4409
918.606	4287
918.717	4268
918.828	4272
918.939	4344
919.05	4249
919.161	4371
919.272	4109
919.383	4219
919.494	4447
919.604	4641
919.715	4421
919.826	4329
919.936	4352
920.047	4443
920.157	4485
920.267	4717
920.378	4592
920.488	4481
920.598	4710
920.708	4862
920.818	4748
920.928	4748
921.038	4938
921.148	4961
921.258	4588
921.368	4554
921.477	4459
921.587	4417
921.697	4386
921.806	4546
921.916	4440
922.025	4261
922.134	4253
922.244	4196
922.353	4348
922.462	4166
922.571	4185
922.68	3994
922.789	3983
922.898	4002
923.007	4010
923.116	4051
923.224	4036
923.333	4055
923.442	4017
923.55	3953
923.659	4040
923.767	4109
923.876	3956
923.984	4105
924.092	3998
924.201	4063
924.309	4067
924.417	4112
924.525	4082
924.633	4074
924.741	5071
924.849	3926
924.956	4105
925.064	3949
925.172	3915
925.279	3945
925.387	4040
925.494	4093
925.602	4188
925.709	4173
925.816	4036
925.924	4093
926.031	4227
926.138	4166
926.245	4234
926.352	4078
926.459	4242
926.566	4261
926.673	4131
926.779	4082
926.886	4044
926.993	3991
927.099	3968
927.206	3934
927.312	3953
927.419	4048
927.525	4029
927.631	4101
927.737	3964
927.843	3911
927.95	3854
928.056	3937
928.162	4010
928.267	4021
928.373	4672
928.479	4093
928.585	3869
928.69	4006
928.796	4116
928.901	3994
929.007	3838
929.112	3998
929.218	3937
929.323	3926
929.428	3953
929.533	4109
929.638	3907
929.743	3945
929.848	4048
929.953	3991
930.058	3915
930.163	3762
930.267	3823
930.372	3975
930.477	3850
930.581	4112
930.685	3930
930.79	3831
930.894	3857
930.998	3797
931.103	4044
931.207	3694
931.311	3701
931.415	3637
931.519	3515
931.623	3549
