Data from test_V78500241_101.txt Node
Date: Fri Mar 25 16:49:42 CST 2022
User: usil
Spectrometer: V785-0024
Trigger mode: 0
Integration Time (sec): 4.000000E-1
Scans to average: 1
Nonlinearity correction enabled: false
Boxcar width: 0
Storing dark spectrum: false
XAxis mode: Wavelengths
Number of Pixels in Spectrum: 1024
>>>>>Begin Spectral Data<<<<<
801.071	8027
801.214	8058
801.356	7993
801.499	7852
801.641	7871
801.783	7928
801.926	8092
802.068	7917
802.211	8016
802.353	7959
802.496	7868
802.638	7894
802.78	7955
802.923	7967
803.065	7974
803.208	7811
803.35	7982
803.492	8111
803.635	8145
803.777	7982
803.919	8031
804.061	8385
804.204	8077
804.346	8005
804.488	7879
804.63	8119
804.773	7989
804.915	8111
805.057	8332
805.199	8084
805.341	8214
805.483	8301
805.626	8195
805.768	8130
805.91	8183
806.052	8248
806.194	8103
806.336	8286
806.478	8084
806.62	8088
806.762	8252
806.904	8381
807.046	8412
807.188	8317
807.33	8282
807.472	8396
807.614	8126
807.756	8126
807.898	8062
808.04	7913
808.182	7818
808.324	7879
808.465	7959
808.607	8027
808.749	8100
808.891	8256
809.033	8218
809.174	8164
809.316	8058
809.458	8103
809.6	8084
809.741	8050
809.883	8043
810.025	8111
810.166	8046
810.308	8103
810.45	8027
810.591	7879
810.733	7757
810.875	7655
811.016	7575
811.158	7521
811.299	7677
811.441	7803
811.582	7799
811.724	7643
811.865	7590
812.007	7655
812.148	7662
812.29	7639
812.431	7772
812.573	7871
812.714	8062
812.855	8168
812.997	8305
813.138	8377
813.279	8343
813.421	8115
813.562	8088
813.703	7879
813.845	7811
813.986	7483
814.127	7358
814.268	7305
814.41	7289
814.551	7232
814.692	7236
814.833	7149
814.974	7198
815.115	7145
815.256	7053
815.397	6977
815.539	6962
815.68	6810
815.821	6760
815.962	6863
816.103	6844
816.244	6749
816.385	6700
816.526	6654
816.666	6517
816.807	6395
816.948	6502
817.089	6490
817.23	6494
817.371	6464
817.512	6407
817.653	6429
817.793	6350
817.934	6437
818.075	6452
818.216	6479
818.356	6448
818.497	6251
818.638	6186
818.778	6175
818.919	6148
819.06	6144
819.2	6334
819.341	6334
819.481	6372
819.622	6536
819.762	6791
819.903	6734
820.043	6623
820.184	6563
820.324	6684
820.465	6715
820.605	6650
820.746	6707
820.886	6494
821.026	6688
821.167	6749
821.307	6856
821.447	6825
821.588	6745
821.728	6608
821.868	6475
822.008	6346
822.149	6388
822.289	6407
822.429	6197
822.569	6121
822.709	6102
822.849	5942
822.99	5958
823.13	5992
823.27	5954
823.41	5809
823.55	5790
823.69	5817
823.83	5847
823.97	5699
824.11	5570
824.25	5535
824.389	5539
824.529	5611
824.669	5562
824.809	5573
824.949	5699
825.089	5619
825.228	5573
825.368	5417
825.508	5349
825.648	5357
825.787	5429
825.927	5383
826.067	5345
826.206	5341
826.346	5395
826.485	5402
826.625	5459
826.765	5577
826.904	5501
827.044	5235
827.183	5185
827.323	5102
827.462	5258
827.601	5223
827.741	5239
827.88	5265
828.02	5132
828.159	5273
828.298	5322
828.437	5334
828.577	5322
828.716	5524
828.855	5406
828.994	5231
829.134	5151
829.273	5227
829.412	5109
829.551	5124
829.69	5197
829.829	5284
829.968	5372
830.107	5303
830.246	5299
830.385	5166
830.524	5151
830.663	5128
830.802	5010
830.941	4870
831.08	4862
831.219	5056
831.357	5037
831.496	5223
831.635	4934
831.774	4889
831.913	4877
832.051	4740
832.19	4721
832.329	4809
832.467	4717
832.606	4675
832.744	4698
832.883	4748
833.022	4755
833.16	4790
833.299	4816
833.437	4850
833.576	4870
833.714	4908
833.852	4866
833.991	4953
834.129	4938
834.267	4938
834.406	4919
834.544	4980
834.682	4980
834.821	4995
834.959	5189
835.097	4980
835.235	5174
835.373	5105
835.511	5124
835.65	5060
835.788	5056
835.926	4946
836.064	4889
836.202	4889
836.34	5197
836.478	5273
836.615	5117
836.753	5239
836.891	5318
837.029	5273
837.167	5220
837.305	5223
837.443	5128
837.58	5174
837.718	5227
837.856	5162
837.993	5216
838.131	5254
838.269	5261
838.406	5212
838.544	5250
838.681	5086
838.819	5022
838.956	4870
839.094	4934
839.231	5003
839.369	5102
839.506	5425
839.643	5326
839.781	5102
839.918	5056
840.055	5147
840.193	5075
840.33	5178
840.467	5151
840.604	5235
840.742	5486
840.879	5064
841.016	5098
841.153	5166
841.29	5387
841.427	5341
841.564	5349
841.701	5341
841.838	5337
841.975	5277
842.112	5303
842.249	5178
842.385	5121
842.522	5353
842.659	5231
842.796	5189
842.933	5204
843.069	5178
843.206	5140
843.343	5288
843.479	5284
843.616	5330
843.752	5071
843.889	5006
844.025	5307
844.162	5056
844.298	5227
844.435	5098
844.571	5075
844.708	5216
844.844	5349
844.98	5322
845.117	5326
845.253	5174
845.389	5117
845.525	5166
845.661	5162
845.798	5056
845.934	5140
846.07	5071
846.206	5166
846.342	5269
846.478	5204
846.614	5067
846.75	4987
846.886	4881
847.022	5113
847.158	5067
847.294	5067
847.429	5086
847.565	5113
847.701	5273
847.837	4881
847.972	4782
848.108	4976
848.244	4957
848.379	4763
848.515	4714
848.65	4771
848.786	4740
848.921	4831
849.057	4858
849.192	4919
849.328	4877
849.463	4877
849.598	4786
849.734	4771
849.869	4706
850.004	4672
850.14	4706
850.275	4622
850.41	4565
850.545	4596
850.68	4607
850.815	4607
850.95	4649
851.085	4870
851.22	4721
851.355	4641
851.49	4596
851.625	4634
851.76	4634
851.895	4584
852.03	4577
852.165	4687
852.299	4725
852.434	4778
852.569	4748
852.703	4831
852.838	4850
852.973	4953
853.107	4915
853.242	4767
853.376	4717
853.511	4603
853.645	4687
853.78	4839
853.914	4694
854.048	4717
854.183	4664
854.317	4714
854.451	4889
854.585	4691
854.72	4672
854.854	4759
854.988	4577
855.122	4679
855.256	4512
855.39	4675
855.524	4759
855.658	4759
855.792	4736
855.926	4763
856.06	4767
856.194	4767
856.327	4733
856.461	4660
856.595	4649
856.729	4649
856.862	4740
856.996	4782
857.13	4786
857.263	4797
857.397	4850
857.53	4664
857.664	4733
857.797	4824
857.931	4809
858.064	4736
858.197	4736
858.331	4656
858.464	4649
858.597	4588
858.731	4668
858.864	4641
858.997	4653
859.13	4683
859.263	4694
859.396	4725
859.529	4622
859.662	4599
859.795	4554
859.928	4634
860.061	4782
860.194	4786
860.327	4675
860.46	4554
860.592	4717
860.725	4672
860.858	4752
860.99	4592
861.123	4550
861.256	4531
861.388	4592
861.521	5299
861.653	4478
861.786	4493
861.918	4523
862.05	4565
862.183	4580
862.315	4580
862.447	4630
862.58	4542
862.712	4394
862.844	4329
862.976	4504
863.108	4485
863.24	4873
863.372	4352
863.504	4493
863.636	4432
863.768	4489
863.9	4447
864.032	4363
864.164	4447
864.296	4519
864.428	4546
864.559	4599
864.691	4531
864.823	4554
864.954	4493
865.086	4504
865.217	4459
865.349	4424
865.48	4508
865.612	4489
865.743	4653
865.875	4531
866.006	4440
866.137	4470
866.269	4478
866.4	4485
866.531	4413
866.662	4363
866.793	4417
866.924	4409
867.055	4519
867.186	4455
867.317	4409
867.448	4405
867.579	4413
867.71	4405
867.841	4421
867.972	4447
868.103	4474
868.233	4470
868.364	4470
868.495	4512
868.625	4694
868.756	4847
868.886	4599
869.017	4641
869.147	4790
869.278	4755
869.408	4725
869.539	4634
869.669	4687
869.799	4653
869.929	4717
870.06	4721
870.19	4957
870.32	4904
870.45	4942
870.58	5048
870.71	5064
870.84	5086
870.97	4976
871.1	4919
871.23	5162
871.36	5162
871.489	5083
871.619	5102
871.749	5132
871.879	5121
872.008	5197
872.138	5083
872.267	5056
872.397	4885
872.526	4812
872.656	4729
872.785	4831
872.915	5045
873.044	5056
873.173	4961
873.303	5014
873.432	4957
873.561	4976
873.69	4889
873.819	4862
873.948	4896
874.077	4858
874.206	4774
874.335	4828
874.464	4953
874.593	5098
874.722	5018
874.851	5151
874.979	5117
875.108	5052
875.237	4957
875.365	4915
875.494	4946
875.623	5006
875.751	4816
875.88	4930
876.008	4991
876.136	5060
876.265	5235
876.393	5360
876.521	5254
876.65	5246
876.778	5193
876.906	5151
877.034	5029
877.162	5025
877.29	5037
877.418	5067
877.546	5079
877.674	5086
877.802	5098
877.93	4991
878.058	4953
878.185	4896
878.313	4953
878.441	4995
878.568	4771
878.696	4896
878.824	4953
878.951	4980
879.079	5174
879.206	5269
879.333	5151
879.461	5010
879.588	5018
879.715	5170
879.842	5242
879.97	5033
880.097	4824
880.224	4812
880.351	4828
880.478	4809
880.605	4755
880.732	4793
880.859	5117
880.986	4938
881.112	4957
881.239	4801
881.366	4668
881.493	4660
881.619	4607
881.746	4637
881.872	4664
881.999	4626
882.125	4752
882.252	4793
882.378	4801
882.505	4995
882.631	4850
882.757	4702
882.883	4736
883.01	4786
883.136	4694
883.262	4626
883.388	4656
883.514	4858
883.64	4873
883.766	4782
883.892	4717
884.018	4774
884.143	4843
884.269	5056
884.395	4752
884.52	4672
884.646	4668
884.772	4626
884.897	4569
885.023	4645
885.148	4816
885.274	4870
885.399	4831
885.524	4752
885.65	4706
885.775	4771
885.9	4759
886.025	4850
886.15	4824
886.275	4755
886.4	4729
886.525	4717
886.65	4710
886.775	4721
886.9	4942
887.025	5056
887.149	4771
887.274	4645
887.399	4618
887.523	4618
887.648	4596
887.773	4596
887.897	4812
888.021	4801
888.146	4668
888.27	4854
888.395	4854
888.519	4805
888.643	4820
888.767	4767
888.891	4691
889.015	4592
889.139	4710
889.263	4565
889.387	4816
889.511	4870
889.635	4877
889.759	4618
889.883	4649
890.006	4767
890.13	4847
890.254	4626
890.377	4744
890.501	4588
890.624	4527
890.748	4694
890.871	4542
890.995	4447
891.118	4413
891.241	4546
891.364	4599
891.488	4641
891.611	4531
891.734	4565
891.857	4611
891.98	4599
892.103	4706
892.226	4584
892.349	4519
892.471	4409
892.594	4584
892.717	4607
892.839	4588
892.962	4607
893.085	4683
893.207	4599
893.33	4504
893.452	4580
893.575	4645
893.697	4577
893.819	4820
893.941	4858
894.064	4763
894.186	4577
894.308	4561
894.43	4824
894.552	4850
894.674	4816
894.796	4573
894.918	4626
895.04	4618
895.161	4702
895.283	4672
895.405	4626
895.526	4679
895.648	4729
895.769	4714
895.891	4725
896.012	4752
896.134	4778
896.255	4725
896.376	4706
896.498	4611
896.619	4664
896.74	4611
896.861	4615
896.982	4995
897.103	5102
897.224	4870
897.345	4782
897.466	4771
897.587	4767
897.708	4870
897.828	4774
897.949	4672
898.07	4630
898.19	4630
898.311	4820
898.431	4744
898.552	4752
898.672	4854
898.792	4778
898.913	4793
899.033	4622
899.153	4546
899.273	4436
899.393	4596
899.513	4470
899.633	4500
899.753	4527
899.873	4542
899.993	4580
900.113	4573
900.232	4599
900.352	4531
900.472	4550
900.591	4451
900.711	4500
900.83	4466
900.95	4603
901.069	4744
901.189	4550
901.308	4447
901.427	4348
901.546	4386
901.665	4519
901.784	4565
901.904	4394
902.023	4367
902.141	4253
902.26	4200
902.379	4287
902.498	4261
902.617	4257
902.735	4386
902.854	4421
902.973	4371
903.091	4196
903.21	4246
903.328	4280
903.446	4280
903.565	4246
903.683	4383
903.801	4314
903.919	4413
904.038	4447
904.156	4337
904.274	4459
904.392	4462
904.51	4443
904.627	4485
904.745	4558
904.863	4668
904.981	4409
905.098	4329
905.216	4390
905.334	4462
905.451	4432
905.569	4443
905.686	4592
905.803	4554
905.921	4462
906.038	4573
906.155	4516
906.272	4470
906.389	4470
906.506	4394
906.623	4356
906.74	4363
906.857	4306
906.974	4428
907.091	4550
907.208	4683
907.324	4607
907.441	4531
907.557	4409
907.674	4394
907.79	4360
907.907	4451
908.023	4523
908.139	4500
908.256	4447
908.372	4542
908.488	4451
908.604	4409
908.72	4356
908.836	4451
908.952	4405
909.068	4459
909.184	4607
909.3	4489
909.415	4592
909.531	4645
909.647	4402
909.762	4402
909.878	4363
909.993	4432
910.108	4481
910.224	4417
910.339	4550
910.454	4440
910.57	4421
910.685	4303
910.8	4656
910.915	4607
911.03	4527
911.145	4314
911.259	4379
911.374	4367
911.489	4299
911.604	4306
911.718	4181
911.833	4238
911.947	4124
912.062	4055
912.176	4249
912.291	4276
912.405	4280
912.519	4485
912.633	4535
912.748	4421
912.862	4325
912.976	4276
913.09	4143
913.204	4181
913.318	4253
913.431	4394
913.545	4379
913.659	4485
913.772	4379
913.886	4249
914	4268
914.113	4421
914.226	4409
914.34	4390
914.453	4272
914.566	4523
914.68	4356
914.793	4367
914.906	4215
915.019	4166
915.132	4101
915.245	4238
915.358	4215
915.47	4268
915.583	4344
915.696	4325
915.809	4398
915.921	4436
916.034	4295
916.146	4276
916.259	4261
916.371	4436
916.483	4421
916.595	4287
916.708	4348
916.82	4306
916.932	4371
917.044	4325
917.156	4390
917.268	4242
917.38	4284
917.491	4276
917.603	4383
917.715	4417
917.826	4466
917.938	4409
918.049	4234
918.161	4432
918.272	4592
918.384	4527
918.495	4462
918.606	4356
918.717	4249
918.828	4322
918.939	4428
919.05	4295
919.161	4322
919.272	4124
919.383	4299
919.494	4504
919.604	4679
919.715	4474
919.826	4337
919.936	4390
920.047	4535
920.157	4489
920.267	4767
920.378	4580
920.488	4462
920.598	4740
920.708	4892
920.818	4782
920.928	4820
921.038	4991
921.148	4987
921.258	4618
921.368	4615
921.477	4535
921.587	4489
921.697	4360
921.806	4565
921.916	4470
922.025	4280
922.134	4322
922.244	4219
922.353	4375
922.462	4177
922.571	4173
922.68	4010
922.789	3994
922.898	4040
923.007	3987
923.116	4112
923.224	4120
923.333	4101
923.442	3972
923.55	3998
923.659	4059
923.767	4101
923.876	3983
923.984	4147
924.092	4013
924.201	4071
924.309	4097
924.417	4166
924.525	4067
924.633	4093
924.741	4930
924.849	3911
924.956	4188
925.064	3983
925.172	3949
925.279	4021
925.387	4029
925.494	4131
925.602	4223
925.709	4211
925.816	4097
925.924	4166
926.031	4204
926.138	4166
926.245	4272
926.352	4109
926.459	4287
926.566	4295
926.673	4181
926.779	4112
926.886	4071
926.993	3994
927.099	3968
927.206	3991
927.312	3953
927.419	4071
927.525	4032
927.631	4093
927.737	4002
927.843	3911
927.95	3869
928.056	3937
928.162	4002
928.267	4120
928.373	4592
928.479	4124
928.585	3915
928.69	4051
928.796	4074
928.901	3964
929.007	3876
929.112	4010
929.218	3964
929.323	3956
929.428	3945
929.533	4109
929.638	3911
929.743	3991
929.848	4063
929.953	4002
930.058	3953
930.163	3774
930.267	3850
930.372	4006
930.477	3854
930.581	4063
930.685	4002
930.79	3850
930.894	3918
930.998	3869
931.103	4032
931.207	3770
931.311	3686
931.415	3709
931.519	3515
931.623	3584
