Data from test_V78500241_1652.txt Node
Date: Fri Mar 25 17:00:29 CST 2022
User: usil
Spectrometer: V785-0024
Trigger mode: 0
Integration Time (sec): 4.000000E-1
Scans to average: 1
Nonlinearity correction enabled: false
Boxcar width: 0
Storing dark spectrum: false
XAxis mode: Wavelengths
Number of Pixels in Spectrum: 1024
>>>>>Begin Spectral Data<<<<<
801.071	7967
801.214	7940
801.356	7894
801.499	7898
801.641	7761
801.783	7849
801.926	7974
802.068	7967
802.211	7944
802.353	7894
802.496	7883
802.638	7871
802.78	7860
802.923	7864
803.065	7917
803.208	7826
803.35	7978
803.492	8016
803.635	8134
803.777	8024
803.919	8046
804.061	8374
804.204	8172
804.346	8062
804.488	7959
804.63	8092
804.773	7989
804.915	8077
805.057	8256
805.199	8149
805.341	8161
805.483	8240
805.626	8157
805.768	8126
805.91	8233
806.052	8237
806.194	8100
806.336	8305
806.478	8046
806.62	8027
806.762	8119
806.904	8286
807.046	8545
807.188	8370
807.33	8374
807.472	8271
807.614	8153
807.756	8145
807.898	8005
808.04	7894
808.182	7868
808.324	7925
808.465	7986
808.607	8107
808.749	8058
808.891	8275
809.033	8259
809.174	8240
809.316	8027
809.458	8069
809.6	8012
809.741	8073
809.883	8012
810.025	8062
810.166	8020
810.308	8054
810.45	7906
810.591	7841
810.733	7715
810.875	7712
811.016	7533
811.158	7521
811.299	7639
811.441	7700
811.582	7689
811.724	7586
811.865	7556
812.007	7575
812.148	7575
812.29	7628
812.431	7776
812.573	7845
812.714	7925
812.855	8100
812.997	8183
813.138	8294
813.279	8176
813.421	8077
813.562	7913
813.703	7852
813.845	7704
813.986	7468
814.127	7266
814.268	7187
814.41	7244
814.551	7160
814.692	7236
814.833	7069
814.974	7107
815.115	7149
815.256	7019
815.397	6924
815.539	6913
815.68	6825
815.821	6760
815.962	6852
816.103	6848
816.244	6738
816.385	6578
816.526	6623
816.666	6483
816.807	6372
816.948	6407
817.089	6410
817.23	6433
817.371	6399
817.512	6342
817.653	6403
817.793	6391
817.934	6376
818.075	6448
818.216	6422
818.356	6407
818.497	6228
818.638	6114
818.778	6064
818.919	6117
819.06	6140
819.2	6323
819.341	6304
819.481	6376
819.622	6559
819.762	6779
819.903	6707
820.043	6566
820.184	6559
820.324	6585
820.465	6631
820.605	6738
820.746	6608
820.886	6544
821.026	6700
821.167	6738
821.307	6757
821.447	6722
821.588	6692
821.728	6563
821.868	6460
822.008	6296
822.149	6353
822.289	6380
822.429	6155
822.569	6079
822.709	6072
822.849	5904
822.99	5863
823.13	5912
823.27	5912
823.41	5786
823.55	5790
823.69	5760
823.83	5729
823.97	5661
824.11	5509
824.25	5486
824.389	5573
824.529	5619
824.669	5570
824.809	5623
824.949	5638
825.089	5589
825.228	5535
825.368	5417
825.508	5349
825.648	5357
825.787	5349
825.927	5383
826.067	5318
826.206	5273
826.346	5387
826.485	5414
826.625	5440
826.765	5581
826.904	5463
827.044	5284
827.183	5181
827.323	5121
827.462	5185
827.601	5208
827.741	5170
827.88	5208
828.02	5136
828.159	5212
828.298	5318
828.437	5318
828.577	5288
828.716	5459
828.855	5322
828.994	5094
829.134	5136
829.273	5174
829.412	5121
829.551	5132
829.69	5124
829.829	5216
829.968	5402
830.107	5303
830.246	5261
830.385	5151
830.524	5162
830.663	5060
830.802	5014
830.941	4866
831.08	4816
831.219	4934
831.357	4968
831.496	5151
831.635	4927
831.774	4812
831.913	4835
832.051	4698
832.19	4759
832.329	4862
832.467	4672
832.606	4645
832.744	4694
832.883	4706
833.022	4721
833.16	4816
833.299	4812
833.437	4774
833.576	4820
833.714	4881
833.852	4820
833.991	4911
834.129	4938
834.267	4923
834.406	4889
834.544	4987
834.682	4923
834.821	4984
834.959	5128
835.097	5022
835.235	5121
835.373	5098
835.511	5098
835.65	4968
835.788	5048
835.926	4923
836.064	4870
836.202	4934
836.34	5155
836.478	5204
836.615	5102
836.753	5204
836.891	5235
837.029	5220
837.167	5197
837.305	5140
837.443	5083
837.58	5098
837.718	5242
837.856	5166
837.993	5140
838.131	5235
838.269	5193
838.406	5208
838.544	5185
838.681	4999
838.819	4987
838.956	4908
839.094	4923
839.231	4995
839.369	5056
839.506	5440
839.643	5227
839.781	5022
839.918	5006
840.055	5098
840.193	5018
840.33	5098
840.467	5140
840.604	5181
840.742	5395
840.879	5075
841.016	5113
841.153	5147
841.29	5383
841.427	5341
841.564	5360
841.701	5406
841.838	5178
841.975	5155
842.112	5258
842.249	5140
842.385	5143
842.522	5315
842.659	5105
842.796	5151
842.933	5201
843.069	5159
843.206	5151
843.343	5315
843.479	5201
843.616	5216
843.752	4965
843.889	4972
844.025	5223
844.162	5025
844.298	5166
844.435	5143
844.571	5018
844.708	5170
844.844	5307
844.98	5326
845.117	5277
845.253	5102
845.389	5041
845.525	5132
845.661	5121
845.798	5033
845.934	5132
846.07	5060
846.206	5162
846.342	5269
846.478	5143
846.614	5025
846.75	4923
846.886	4900
847.022	5109
847.158	5003
847.294	5067
847.429	5067
847.565	5022
847.701	5353
847.837	4850
847.972	4774
848.108	4949
848.244	4919
848.379	4774
848.515	4717
848.65	4706
848.786	4748
848.921	4767
849.057	4908
849.192	4873
849.328	4877
849.463	4831
849.598	4771
849.734	4721
849.869	4645
850.004	4561
850.14	4653
850.275	4637
850.41	4478
850.545	4580
850.68	4558
850.815	4618
850.95	4592
851.085	4858
851.22	4736
851.355	4668
851.49	4588
851.625	4626
851.76	4637
851.895	4558
852.03	4527
852.165	4618
852.299	4687
852.434	4812
852.569	4702
852.703	4733
852.838	4839
852.973	4953
853.107	4919
853.242	4698
853.376	4660
853.511	4569
853.645	4611
853.78	4755
853.914	4630
854.048	4664
854.183	4596
854.317	4702
854.451	4885
854.585	4752
854.72	4672
854.854	4736
854.988	4561
855.122	4618
855.256	4489
855.39	4660
855.524	4790
855.658	4702
855.792	4694
855.926	4717
856.06	4721
856.194	4767
856.327	4683
856.461	4603
856.595	4573
856.729	4596
856.862	4691
856.996	4656
857.13	4717
857.263	4733
857.397	4771
857.53	4634
857.664	4752
857.797	4736
857.931	4763
858.064	4668
858.197	4759
858.331	4645
858.464	4603
858.597	4497
858.731	4615
858.864	4668
858.997	4637
859.13	4603
859.263	4683
859.396	4691
859.529	4569
859.662	4607
859.795	4478
859.928	4622
860.061	4736
860.194	4771
860.327	4565
860.46	4546
860.592	4691
860.725	4691
860.858	4683
860.99	4561
861.123	4516
861.256	4554
861.388	4584
861.521	5223
861.653	4459
861.786	4455
861.918	4462
862.05	4546
862.183	4546
862.315	4577
862.447	4656
862.58	4546
862.712	4360
862.844	4291
862.976	4436
863.108	4459
863.24	4755
863.372	4344
863.504	4409
863.636	4390
863.768	4455
863.9	4413
864.032	4352
864.164	4367
864.296	4462
864.428	4527
864.559	4523
864.691	4558
864.823	4466
864.954	4481
865.086	4516
865.217	4466
865.349	4436
865.48	4417
865.612	4489
865.743	4603
865.875	4481
866.006	4413
866.137	4432
866.269	4424
866.4	4432
866.531	4466
866.662	4394
866.793	4409
866.924	4413
867.055	4493
867.186	4409
867.317	4394
867.448	4379
867.579	4390
867.71	4379
867.841	4421
867.972	4402
868.103	4462
868.233	4447
868.364	4436
868.495	4485
868.625	4637
868.756	4694
868.886	4622
869.017	4618
869.147	4778
869.278	4710
869.408	4592
869.539	4634
869.669	4675
869.799	4626
869.929	4748
870.06	4679
870.19	4919
870.32	4946
870.45	4927
870.58	5033
870.71	5105
870.84	5124
870.97	4919
871.1	4896
871.23	5132
871.36	5136
871.489	4999
871.619	5037
871.749	5086
871.879	5033
872.008	5181
872.138	5060
872.267	5006
872.397	4801
872.526	4847
872.656	4710
872.785	4786
872.915	4965
873.044	4995
873.173	4915
873.303	4957
873.432	4938
873.561	4953
873.69	4877
873.819	4843
873.948	4839
874.077	4721
874.206	4752
874.335	4790
874.464	4896
874.593	5022
874.722	4999
874.851	5117
874.979	5060
875.108	5006
875.237	4915
875.365	4854
875.494	4850
875.623	5010
875.751	4839
875.88	4839
876.008	4930
876.136	5041
876.265	5185
876.393	5322
876.521	5185
876.65	5246
876.778	5178
876.906	5113
877.034	5041
877.162	5037
877.29	4976
877.418	5060
877.546	5018
877.674	5022
877.802	5029
877.93	4976
878.058	4923
878.185	4854
878.313	4927
878.441	4938
878.568	4812
878.696	4839
878.824	4946
878.951	4957
879.079	5121
879.206	5273
879.333	5105
879.461	4938
879.588	4991
879.715	5086
879.842	5178
879.97	4987
880.097	4793
880.224	4710
880.351	4767
880.478	4812
880.605	4771
880.732	4782
880.859	5067
880.986	4900
881.112	4889
881.239	4801
881.366	4664
881.493	4592
881.619	4588
881.746	4630
881.872	4637
881.999	4618
882.125	4717
882.252	4820
882.378	4801
882.505	4965
882.631	4782
882.757	4641
882.883	4702
883.01	4714
883.136	4664
883.262	4565
883.388	4580
883.514	4793
883.64	4839
883.766	4736
883.892	4626
884.018	4710
884.143	4847
884.269	5014
884.395	4687
884.52	4561
884.646	4641
884.772	4542
884.897	4519
885.023	4645
885.148	4793
885.274	4843
885.399	4763
885.524	4706
885.65	4672
885.775	4717
885.9	4683
886.025	4847
886.15	4759
886.275	4740
886.4	4634
886.525	4740
886.65	4683
886.775	4672
886.9	4911
887.025	5022
887.149	4809
887.274	4656
887.399	4596
887.523	4607
887.648	4565
887.773	4603
887.897	4755
888.021	4759
888.146	4649
888.27	4847
888.395	4892
888.519	4786
888.643	4820
888.767	4831
888.891	4672
889.015	4645
889.139	4634
889.263	4554
889.387	4797
889.511	4850
889.635	4824
889.759	4672
889.883	4683
890.006	4744
890.13	4835
890.254	4687
890.377	4721
890.501	4558
890.624	4550
890.748	4634
890.871	4584
890.995	4455
891.118	4386
891.241	4607
891.364	4588
891.488	4664
891.611	4481
891.734	4580
891.857	4618
891.98	4577
892.103	4721
892.226	4618
892.349	4561
892.471	4447
892.594	4531
892.717	4694
892.839	4615
892.962	4649
893.085	4683
893.207	4668
893.33	4512
893.452	4504
893.575	4717
893.697	4630
893.819	4850
893.941	4824
894.064	4816
894.186	4584
894.308	4596
894.43	4778
894.552	4835
894.674	4771
894.796	4584
894.918	4634
895.04	4630
895.161	4717
895.283	4710
895.405	4603
895.526	4675
895.648	4721
895.769	4763
895.891	4755
896.012	4790
896.134	4733
896.255	4710
896.376	4691
896.498	4694
896.619	4710
896.74	4664
896.861	4679
896.982	4995
897.103	5143
897.224	4828
897.345	4850
897.466	4675
897.587	4812
897.708	4892
897.828	4805
897.949	4755
898.07	4592
898.19	4653
898.311	4839
898.431	4691
898.552	4759
898.672	4835
898.792	4847
898.913	4778
899.033	4672
899.153	4519
899.273	4428
899.393	4504
899.513	4561
899.633	4565
899.753	4580
899.873	4565
899.993	4622
900.113	4565
900.232	4637
900.352	4584
900.472	4535
900.591	4409
900.711	4535
900.83	4443
900.95	4637
901.069	4717
901.189	4573
901.308	4363
901.427	4333
901.546	4440
901.665	4516
901.784	4538
901.904	4413
902.023	4337
902.141	4215
902.26	4196
902.379	4306
902.498	4265
902.617	4284
902.735	4424
902.854	4409
902.973	4402
903.091	4265
903.21	4280
903.328	4303
903.446	4276
903.565	4253
903.683	4379
903.801	4299
903.919	4413
904.038	4500
904.156	4363
904.274	4466
904.392	4443
904.51	4470
904.627	4508
904.745	4550
904.863	4687
904.981	4440
905.098	4303
905.216	4390
905.334	4413
905.451	4443
905.569	4504
905.686	4550
905.803	4599
905.921	4436
906.038	4554
906.155	4485
906.272	4417
906.389	4459
906.506	4371
906.623	4371
906.74	4440
906.857	4337
906.974	4417
907.091	4588
907.208	4675
907.324	4588
907.441	4500
907.557	4390
907.674	4371
907.79	4325
907.907	4432
908.023	4523
908.139	4519
908.256	4447
908.372	4489
908.488	4462
908.604	4398
908.72	4310
908.836	4375
908.952	4417
909.068	4451
909.184	4573
909.3	4516
909.415	4630
909.531	4592
909.647	4390
909.762	4367
909.878	4402
909.993	4478
910.108	4493
910.224	4485
910.339	4459
910.454	4413
910.57	4421
910.685	4299
910.8	4714
910.915	4660
911.03	4519
911.145	4386
911.259	4344
911.374	4367
911.489	4333
911.604	4291
911.718	4215
911.833	4230
911.947	4101
912.062	4025
912.176	4265
912.291	4257
912.405	4268
912.519	4535
912.633	4523
912.748	4394
912.862	4295
912.976	4242
913.09	4116
913.204	4211
913.318	4287
913.431	4424
913.545	4371
913.659	4398
913.772	4390
913.886	4322
914	4314
914.113	4398
914.226	4485
914.34	4432
914.453	4253
914.566	4451
914.68	4325
914.793	4367
914.906	4207
915.019	4139
915.132	4139
915.245	4166
915.358	4211
915.47	4306
915.583	4333
915.696	4303
915.809	4390
915.921	4470
916.034	4284
916.146	4299
916.259	4268
916.371	4402
916.483	4386
916.595	4287
916.708	4344
916.82	4337
916.932	4295
917.044	4322
917.156	4379
917.268	4230
917.38	4303
917.491	4329
917.603	4363
917.715	4421
917.826	4481
917.938	4371
918.049	4284
918.161	4440
918.272	4561
918.384	4573
918.495	4451
918.606	4344
918.717	4276
918.828	4379
918.939	4402
919.05	4295
919.161	4371
919.272	4185
919.383	4287
919.494	4466
919.604	4622
919.715	4462
919.826	4363
919.936	4413
920.047	4550
920.157	4516
920.267	4755
920.378	4546
920.488	4569
920.598	4725
920.708	4923
920.818	4812
920.928	4752
921.038	4980
921.148	4915
921.258	4664
921.368	4561
921.477	4519
921.587	4470
921.697	4409
921.806	4584
921.916	4462
922.025	4272
922.134	4268
922.244	4299
922.353	4394
922.462	4234
922.571	4188
922.68	4051
922.789	4013
922.898	4036
923.007	4029
923.116	4120
923.224	4067
923.333	4097
923.442	3964
923.55	4002
923.659	4074
923.767	4147
923.876	4017
923.984	4200
924.092	4013
924.201	4078
924.309	4109
924.417	4131
924.525	4093
924.633	4109
924.741	5025
924.849	3949
924.956	4181
925.064	4036
925.172	3892
925.279	4002
925.387	4082
925.494	4109
925.602	4272
925.709	4211
925.816	4063
925.924	4139
926.031	4280
926.138	4207
926.245	4204
926.352	4124
926.459	4299
926.566	4310
926.673	4154
926.779	4093
926.886	4093
926.993	3975
927.099	3956
927.206	3922
927.312	3979
927.419	4036
927.525	4013
927.631	4105
927.737	3968
927.843	3953
927.95	3896
928.056	4002
928.162	4006
928.267	4067
928.373	4603
928.479	4124
928.585	3869
928.69	3983
928.796	4147
928.901	3968
929.007	3846
929.112	4013
929.218	3979
929.323	3896
929.428	3918
929.533	4166
929.638	3911
929.743	3975
929.848	4097
929.953	4002
930.058	3945
930.163	3816
930.267	3827
930.372	3972
930.477	3812
930.581	4063
930.685	3934
930.79	3876
930.894	3922
930.998	3892
931.103	4036
931.207	3740
931.311	3740
931.415	3701
931.519	3553
931.623	3557
