Data from test_V78500241_879.txt Node
Date: Fri Mar 25 16:55:06 CST 2022
User: usil
Spectrometer: V785-0024
Trigger mode: 0
Integration Time (sec): 4.000000E-1
Scans to average: 1
Nonlinearity correction enabled: false
Boxcar width: 0
Storing dark spectrum: false
XAxis mode: Wavelengths
Number of Pixels in Spectrum: 1024
>>>>>Begin Spectral Data<<<<<
801.071	7997
801.214	8012
801.356	7841
801.499	7849
801.641	7822
801.783	7811
801.926	7997
802.068	7921
802.211	7928
802.353	7936
802.496	7807
802.638	7860
802.78	7917
802.923	7955
803.065	7887
803.208	7909
803.35	8020
803.492	8062
803.635	8191
803.777	8024
803.919	8081
804.061	8370
804.204	8130
804.346	8046
804.488	8027
804.63	8069
804.773	8050
804.915	8043
805.057	8275
805.199	8161
805.341	8259
805.483	8168
805.626	8164
805.768	8119
805.91	8191
806.052	8214
806.194	8039
806.336	8183
806.478	8062
806.62	8039
806.762	8183
806.904	8195
807.046	8434
807.188	8343
807.33	8290
807.472	8294
807.614	8115
807.756	8134
807.898	8062
808.04	7868
808.182	7864
808.324	7921
808.465	7864
808.607	7970
808.749	8046
808.891	8176
809.033	8298
809.174	8191
809.316	8103
809.458	8016
809.6	7883
809.741	7970
809.883	8027
810.025	8084
810.166	8043
810.308	8046
810.45	8012
810.591	7875
810.733	7757
810.875	7670
811.016	7525
811.158	7453
811.299	7529
811.441	7746
811.582	7674
811.724	7624
811.865	7571
812.007	7521
812.148	7616
812.29	7605
812.431	7738
812.573	7807
812.714	7902
812.855	8145
812.997	8187
813.138	8358
813.279	8180
813.421	8153
813.562	7963
813.703	7841
813.845	7761
813.986	7529
814.127	7274
814.268	7190
814.41	7156
814.551	7122
814.692	7152
814.833	7057
814.974	7034
815.115	7084
815.256	6970
815.397	6924
815.539	6966
815.68	6875
815.821	6802
815.962	6928
816.103	6818
816.244	6703
816.385	6650
816.526	6623
816.666	6551
816.807	6270
816.948	6441
817.089	6502
817.23	6395
817.371	6353
817.512	6357
817.653	6380
817.793	6407
817.934	6422
818.075	6445
818.216	6426
818.356	6350
818.497	6277
818.638	6106
818.778	6152
818.919	6057
819.06	6133
819.2	6292
819.341	6380
819.481	6308
819.622	6464
819.762	6692
819.903	6760
820.043	6559
820.184	6483
820.324	6532
820.465	6650
820.605	6696
820.746	6612
820.886	6456
821.026	6646
821.167	6768
821.307	6764
821.447	6772
821.588	6688
821.728	6517
821.868	6479
822.008	6266
822.149	6338
822.289	6361
822.429	6087
822.569	6060
822.709	6155
822.849	5870
822.99	5836
823.13	5946
823.27	5855
823.41	5756
823.55	5783
823.69	5771
823.83	5756
823.97	5649
824.11	5516
824.25	5459
824.389	5532
824.529	5619
824.669	5566
824.809	5642
824.949	5589
825.089	5558
825.228	5547
825.368	5425
825.508	5277
825.648	5303
825.787	5368
825.927	5368
826.067	5231
826.206	5299
826.346	5391
826.485	5326
826.625	5398
826.765	5520
826.904	5452
827.044	5201
827.183	5166
827.323	5124
827.462	5246
827.601	5121
827.741	5166
827.88	5174
828.02	5132
828.159	5204
828.298	5280
828.437	5414
828.577	5292
828.716	5482
828.855	5318
828.994	5155
829.134	5109
829.273	5181
829.412	5155
829.551	5143
829.69	5140
829.829	5216
829.968	5341
830.107	5265
830.246	5254
830.385	5201
830.524	5121
830.663	5075
830.802	4999
830.941	4866
831.08	4850
831.219	4987
831.357	4942
831.496	5162
831.635	4930
831.774	4812
831.913	4839
832.051	4694
832.19	4759
832.329	4824
832.467	4702
832.606	4641
832.744	4668
832.883	4725
833.022	4721
833.16	4733
833.299	4850
833.437	4755
833.576	4854
833.714	4839
833.852	4835
833.991	4881
834.129	4965
834.267	4904
834.406	4908
834.544	4972
834.682	4946
834.821	4938
834.959	5113
835.097	4972
835.235	5151
835.373	5056
835.511	4999
835.65	5010
835.788	4987
835.926	4854
836.064	4881
836.202	4957
836.34	5105
836.478	5239
836.615	5094
836.753	5204
836.891	5242
837.029	5178
837.167	5239
837.305	5166
837.443	5113
837.58	5079
837.718	5239
837.856	5136
837.993	5170
838.131	5204
838.269	5201
838.406	5147
838.544	5151
838.681	5014
838.819	4999
838.956	4850
839.094	4881
839.231	4949
839.369	5071
839.506	5402
839.643	5231
839.781	5045
839.918	5048
840.055	5003
840.193	5079
840.33	5124
840.467	5132
840.604	5102
840.742	5421
840.879	5086
841.016	5094
841.153	5102
841.29	5364
841.427	5353
841.564	5258
841.701	5284
841.838	5277
841.975	5235
842.112	5277
842.249	5170
842.385	5075
842.522	5318
842.659	5170
842.796	5109
842.933	5181
843.069	5113
843.206	5128
843.343	5269
843.479	5208
843.616	5246
843.752	4984
843.889	4972
844.025	5174
844.162	5003
844.298	5231
844.435	5060
844.571	5006
844.708	5178
844.844	5280
844.98	5349
845.117	5318
845.253	5090
845.389	5025
845.525	5181
845.661	5113
845.798	5048
845.934	5117
846.07	5033
846.206	5201
846.342	5288
846.478	5201
846.614	5033
846.75	4908
846.886	4919
847.022	5071
847.158	5029
847.294	5052
847.429	5056
847.565	5045
847.701	5326
847.837	4828
847.972	4736
848.108	4949
848.244	4980
848.379	4763
848.515	4759
848.65	4706
848.786	4691
848.921	4759
849.057	4831
849.192	4889
849.328	4790
849.463	4809
849.598	4733
849.734	4744
849.869	4641
850.004	4584
850.14	4653
850.275	4577
850.41	4493
850.545	4554
850.68	4565
850.815	4573
850.95	4618
851.085	4858
851.22	4687
851.355	4641
851.49	4599
851.625	4634
851.76	4626
851.895	4523
852.03	4535
852.165	4668
852.299	4672
852.434	4733
852.569	4675
852.703	4767
852.838	4850
852.973	4904
853.107	4908
853.242	4702
853.376	4672
853.511	4516
853.645	4580
853.78	4774
853.914	4702
854.048	4653
854.183	4630
854.317	4660
854.451	4801
854.585	4706
854.72	4584
854.854	4717
854.988	4573
855.122	4611
855.256	4504
855.39	4656
855.524	4763
855.658	4675
855.792	4656
855.926	4752
856.06	4702
856.194	4793
856.327	4710
856.461	4592
856.595	4599
856.729	4634
856.862	4702
856.996	4626
857.13	4698
857.263	4721
857.397	4790
857.53	4611
857.664	4656
857.797	4755
857.931	4786
858.064	4645
858.197	4694
858.331	4645
858.464	4599
858.597	4504
858.731	4596
858.864	4596
858.997	4592
859.13	4668
859.263	4683
859.396	4683
859.529	4554
859.662	4542
859.795	4538
859.928	4569
860.061	4710
860.194	4733
860.327	4542
860.46	4580
860.592	4717
860.725	4744
860.858	4721
860.99	4531
861.123	4531
861.256	4500
861.388	4599
861.521	5254
861.653	4470
861.786	4363
861.918	4440
862.05	4527
862.183	4531
862.315	4580
862.447	4626
862.58	4516
862.712	4409
862.844	4329
862.976	4489
863.108	4436
863.24	4771
863.372	4322
863.504	4398
863.636	4390
863.768	4455
863.9	4421
864.032	4383
864.164	4344
864.296	4470
864.428	4546
864.559	4546
864.691	4500
864.823	4470
864.954	4481
865.086	4478
865.217	4371
865.349	4447
865.48	4421
865.612	4440
865.743	4668
865.875	4455
866.006	4428
866.137	4417
866.269	4455
866.4	4443
866.531	4417
866.662	4417
866.793	4462
866.924	4409
867.055	4493
867.186	4432
867.317	4432
867.448	4363
867.579	4409
867.71	4363
867.841	4398
867.972	4432
868.103	4440
868.233	4421
868.364	4459
868.495	4508
868.625	4656
868.756	4736
868.886	4611
869.017	4599
869.147	4797
869.278	4828
869.408	4675
869.539	4675
869.669	4733
869.799	4656
869.929	4721
870.06	4740
870.19	4923
870.32	4965
870.45	4953
870.58	5014
870.71	5105
870.84	5140
870.97	4968
871.1	4976
871.23	5143
871.36	5143
871.489	5029
871.619	5109
871.749	5143
871.879	5174
872.008	5201
872.138	5067
872.267	5064
872.397	4877
872.526	4809
872.656	4748
872.785	4816
872.915	4991
873.044	5079
873.173	4957
873.303	5045
873.432	5067
873.561	4953
873.69	4889
873.819	4923
873.948	4965
874.077	4847
874.206	4786
874.335	4805
874.464	4949
874.593	5090
874.722	5014
874.851	5102
874.979	5090
875.108	5083
875.237	4927
875.365	4900
875.494	4923
875.623	4999
875.751	4812
875.88	4885
876.008	5041
876.136	5075
876.265	5212
876.393	5326
876.521	5273
876.65	5231
876.778	5143
876.906	5117
877.034	4987
877.162	5086
877.29	4999
877.418	5071
877.546	5083
877.674	5041
877.802	5121
877.93	5010
878.058	4976
878.185	4881
878.313	4999
878.441	4995
878.568	4828
878.696	4896
878.824	4972
878.951	4987
879.079	5136
879.206	5311
879.333	5121
879.461	5025
879.588	5079
879.715	5185
879.842	5220
879.97	5048
880.097	4797
880.224	4767
880.351	4812
880.478	4862
880.605	4843
880.732	4805
880.859	5136
880.986	4938
881.112	4934
881.239	4805
881.366	4725
881.493	4607
881.619	4615
881.746	4675
881.872	4698
881.999	4698
882.125	4702
882.252	4774
882.378	4835
882.505	4976
882.631	4828
882.757	4786
882.883	4767
883.01	4763
883.136	4664
883.262	4664
883.388	4683
883.514	4824
883.64	4889
883.766	4809
883.892	4679
884.018	4759
884.143	4927
884.269	5067
884.395	4759
884.52	4641
884.646	4736
884.772	4645
884.897	4554
885.023	4675
885.148	4828
885.274	4877
885.399	4812
885.524	4740
885.65	4706
885.775	4763
885.9	4767
886.025	4831
886.15	4824
886.275	4755
886.4	4675
886.525	4744
886.65	4668
886.775	4717
886.9	4965
887.025	5006
887.149	4850
887.274	4664
887.399	4641
887.523	4710
887.648	4653
887.773	4584
887.897	4744
888.021	4839
888.146	4691
888.27	4839
888.395	4942
888.519	4858
888.643	4828
888.767	4858
888.891	4698
889.015	4641
889.139	4645
889.263	4611
889.387	4763
889.511	4858
889.635	4828
889.759	4687
889.883	4641
890.006	4721
890.13	4885
890.254	4641
890.377	4645
890.501	4569
890.624	4504
890.748	4618
890.871	4519
890.995	4493
891.118	4428
891.241	4516
891.364	4561
891.488	4634
891.611	4558
891.734	4592
891.857	4645
891.98	4641
892.103	4679
892.226	4641
892.349	4558
892.471	4413
892.594	4577
892.717	4596
892.839	4531
892.962	4634
893.085	4698
893.207	4592
893.33	4500
893.452	4538
893.575	4683
893.697	4592
893.819	4755
893.941	4858
894.064	4793
894.186	4607
894.308	4599
894.43	4740
894.552	4839
894.674	4748
894.796	4584
894.918	4630
895.04	4584
895.161	4710
895.283	4668
895.405	4603
895.526	4664
895.648	4717
895.769	4656
895.891	4740
896.012	4755
896.134	4801
896.255	4672
896.376	4706
896.498	4653
896.619	4683
896.74	4626
896.861	4691
896.982	4927
897.103	5083
897.224	4870
897.345	4733
897.466	4736
897.587	4786
897.708	4873
897.828	4828
897.949	4656
898.07	4569
898.19	4672
898.311	4824
898.431	4717
898.552	4755
898.672	4809
898.792	4858
898.913	4729
899.033	4641
899.153	4535
899.273	4481
899.393	4516
899.513	4580
899.633	4481
899.753	4603
899.873	4538
899.993	4649
900.113	4599
900.232	4588
900.352	4565
900.472	4527
900.591	4383
900.711	4489
900.83	4462
900.95	4637
901.069	4694
901.189	4588
901.308	4375
901.427	4344
901.546	4390
901.665	4478
901.784	4508
901.904	4409
902.023	4352
902.141	4204
902.26	4143
902.379	4363
902.498	4268
902.617	4280
902.735	4440
902.854	4371
902.973	4367
903.091	4261
903.21	4299
903.328	4337
903.446	4295
903.565	4287
903.683	4363
903.801	4291
903.919	4409
904.038	4466
904.156	4363
904.274	4447
904.392	4409
904.51	4462
904.627	4523
904.745	4577
904.863	4607
904.981	4436
905.098	4375
905.216	4356
905.334	4428
905.451	4436
905.569	4481
905.686	4565
905.803	4634
905.921	4409
906.038	4542
906.155	4470
906.272	4398
906.389	4497
906.506	4367
906.623	4375
906.74	4440
906.857	4299
906.974	4398
907.091	4535
907.208	4717
907.324	4656
907.441	4527
907.557	4379
907.674	4386
907.79	4325
907.907	4383
908.023	4447
908.139	4500
908.256	4436
908.372	4527
908.488	4455
908.604	4344
908.72	4333
908.836	4413
908.952	4360
909.068	4436
909.184	4565
909.3	4538
909.415	4573
909.531	4554
909.647	4402
909.762	4360
909.878	4329
909.993	4470
910.108	4413
910.224	4402
910.339	4535
910.454	4405
910.57	4394
910.685	4356
910.8	4641
910.915	4577
911.03	4500
911.145	4303
911.259	4375
911.374	4394
911.489	4333
911.604	4314
911.718	4150
911.833	4249
911.947	4093
912.062	4109
912.176	4215
912.291	4284
912.405	4276
912.519	4523
912.633	4523
912.748	4417
912.862	4291
912.976	4227
913.09	4078
913.204	4196
913.318	4257
913.431	4360
913.545	4413
913.659	4447
913.772	4375
913.886	4246
914	4253
914.113	4367
914.226	4447
914.34	4390
914.453	4257
914.566	4428
914.68	4329
914.793	4360
914.906	4169
915.019	4158
915.132	4078
915.245	4230
915.358	4249
915.47	4280
915.583	4257
915.696	4348
915.809	4348
915.921	4462
916.034	4268
916.146	4249
916.259	4265
916.371	4375
916.483	4409
916.595	4249
916.708	4322
916.82	4375
916.932	4318
917.044	4344
917.156	4333
917.268	4276
917.38	4265
917.491	4253
917.603	4322
917.715	4405
917.826	4474
917.938	4363
918.049	4291
918.161	4398
918.272	4554
918.384	4558
918.495	4424
918.606	4356
918.717	4242
918.828	4318
918.939	4371
919.05	4306
919.161	4314
919.272	4147
919.383	4261
919.494	4466
919.604	4622
919.715	4508
919.826	4318
919.936	4443
920.047	4542
920.157	4512
920.267	4752
920.378	4527
920.488	4508
920.598	4733
920.708	4892
920.818	4767
920.928	4778
921.038	4946
921.148	4900
921.258	4683
921.368	4569
921.477	4577
921.587	4451
921.697	4428
921.806	4531
921.916	4466
922.025	4223
922.134	4284
922.244	4242
922.353	4303
922.462	4234
922.571	4105
922.68	4010
922.789	3972
922.898	4097
923.007	4029
923.116	4112
923.224	4063
923.333	4059
923.442	4044
923.55	3975
923.659	4044
923.767	4128
923.876	4010
923.984	4082
924.092	4025
924.201	4109
924.309	4120
924.417	4124
924.525	4063
924.633	4124
924.741	4858
924.849	3941
924.956	4128
925.064	3994
925.172	3899
925.279	3975
925.387	4071
925.494	4063
925.602	4234
925.709	4166
925.816	4071
925.924	4154
926.031	4249
926.138	4188
926.245	4253
926.352	4143
926.459	4249
926.566	4375
926.673	4147
926.779	4063
926.886	4116
926.993	3983
927.099	4006
927.206	3949
927.312	3987
927.419	4059
927.525	4036
927.631	4086
927.737	3949
927.843	3975
927.95	3865
928.056	3930
928.162	3994
928.267	4063
928.373	4599
928.479	4097
928.585	3896
928.69	4013
928.796	4090
928.901	3998
929.007	3838
929.112	3998
929.218	3941
929.323	3968
929.428	3907
929.533	4105
929.638	3903
929.743	3926
929.848	4051
929.953	3979
930.058	3949
930.163	3759
930.267	3861
930.372	3964
930.477	3854
930.581	4071
930.685	3968
930.79	3816
930.894	3884
930.998	3896
931.103	4029
931.207	3660
931.311	3682
931.415	3705
931.519	3515
931.623	3557
