Data from test_V78500241_1987.txt Node
Date: Fri Mar 25 17:02:48 CST 2022
User: usil
Spectrometer: V785-0024
Trigger mode: 0
Integration Time (sec): 4.000000E-1
Scans to average: 1
Nonlinearity correction enabled: false
Boxcar width: 0
Storing dark spectrum: false
XAxis mode: Wavelengths
Number of Pixels in Spectrum: 1024
>>>>>Begin Spectral Data<<<<<
801.071	7940
801.214	7959
801.356	7830
801.499	7860
801.641	7761
801.783	7727
801.926	7868
802.068	7917
802.211	7959
802.353	7997
802.496	7826
802.638	7845
802.78	7826
802.923	7913
803.065	7917
803.208	7883
803.35	7913
803.492	8035
803.635	8073
803.777	7970
803.919	8134
804.061	8476
804.204	8115
804.346	8016
804.488	7970
804.63	8012
804.773	7955
804.915	8077
805.057	8309
805.199	8134
805.341	8107
805.483	8324
805.626	8176
805.768	8130
805.91	8187
806.052	8225
806.194	8069
806.336	8233
806.478	8027
806.62	7967
806.762	8142
806.904	8271
807.046	8442
807.188	8339
807.33	8370
807.472	8309
807.614	8123
807.756	8176
807.898	7951
808.04	7887
808.182	7879
808.324	7887
808.465	7902
808.607	8008
808.749	8050
808.891	8229
809.033	8259
809.174	8214
809.316	8043
809.458	8020
809.6	7947
809.741	8024
809.883	7925
810.025	8062
810.166	7974
810.308	7955
810.45	7921
810.591	7795
810.733	7708
810.875	7666
811.016	7464
811.158	7441
811.299	7548
811.441	7620
811.582	7605
811.724	7601
811.865	7571
812.007	7601
812.148	7567
812.29	7567
812.431	7700
812.573	7845
812.714	7928
812.855	8084
812.997	8187
813.138	8252
813.279	8145
813.421	8005
813.562	7974
813.703	7856
813.845	7681
813.986	7384
814.127	7266
814.268	7168
814.41	7171
814.551	7164
814.692	7244
814.833	7091
814.974	7152
815.115	7183
815.256	6989
815.397	6935
815.539	6985
815.68	6772
815.821	6795
815.962	6833
816.103	6703
816.244	6741
816.385	6570
816.526	6559
816.666	6490
816.807	6273
816.948	6445
817.089	6429
817.23	6418
817.371	6365
817.512	6361
817.653	6357
817.793	6342
817.934	6407
818.075	6422
818.216	6426
818.356	6410
818.497	6247
818.638	6110
818.778	6194
818.919	6114
819.06	6178
819.2	6323
819.341	6304
819.481	6388
819.622	6502
819.762	6719
819.903	6722
820.043	6604
820.184	6555
820.324	6555
820.465	6711
820.605	6673
820.746	6658
820.886	6445
821.026	6623
821.167	6749
821.307	6730
821.447	6722
821.588	6658
821.728	6544
821.868	6460
822.008	6331
822.149	6357
822.289	6311
822.429	6136
822.569	6060
822.709	6155
822.849	5931
822.99	5916
823.13	5893
823.27	5939
823.41	5726
823.55	5775
823.69	5752
823.83	5726
823.97	5661
824.11	5570
824.25	5512
824.389	5619
824.529	5554
824.669	5551
824.809	5630
824.949	5604
825.089	5539
825.228	5543
825.368	5395
825.508	5345
825.648	5349
825.787	5353
825.927	5391
826.067	5299
826.206	5254
826.346	5364
826.485	5395
826.625	5406
826.765	5528
826.904	5425
827.044	5239
827.183	5151
827.323	5128
827.462	5181
827.601	5197
827.741	5231
827.88	5181
828.02	5086
828.159	5261
828.298	5284
828.437	5360
828.577	5296
828.716	5471
828.855	5315
828.994	5189
829.134	5128
829.273	5174
829.412	5185
829.551	5094
829.69	5166
829.829	5216
829.968	5379
830.107	5280
830.246	5227
830.385	5166
830.524	5086
830.663	4984
830.802	4930
830.941	4866
831.08	4850
831.219	4923
831.357	4866
831.496	5113
831.635	4885
831.774	4816
831.913	4858
832.051	4740
832.19	4725
832.329	4820
832.467	4679
832.606	4626
832.744	4660
832.883	4714
833.022	4733
833.16	4710
833.299	4828
833.437	4835
833.576	4793
833.714	4866
833.852	4896
833.991	4870
834.129	4885
834.267	4889
834.406	4889
834.544	4972
834.682	4965
834.821	4984
834.959	5159
835.097	4927
835.235	5159
835.373	5029
835.511	5083
835.65	5033
835.788	5041
835.926	4896
836.064	4839
836.202	4949
836.34	5178
836.478	5223
836.615	5109
836.753	5174
836.891	5220
837.029	5227
837.167	5254
837.305	5204
837.443	5159
837.58	5124
837.718	5246
837.856	5197
837.993	5174
838.131	5220
838.269	5242
838.406	5216
838.544	5208
838.681	5086
838.819	5025
838.956	4908
839.094	4896
839.231	4946
839.369	5098
839.506	5398
839.643	5307
839.781	5083
839.918	5029
840.055	5128
840.193	5090
840.33	5208
840.467	5185
840.604	5254
840.742	5452
840.879	5098
841.016	5136
841.153	5204
841.29	5398
841.427	5353
841.564	5364
841.701	5357
841.838	5315
841.975	5246
842.112	5326
842.249	5147
842.385	5132
842.522	5395
842.659	5181
842.796	5159
842.933	5220
843.069	5151
843.206	5201
843.343	5273
843.479	5239
843.616	5288
843.752	5083
843.889	5067
844.025	5227
844.162	5064
844.298	5250
844.435	5121
844.571	5056
844.708	5265
844.844	5341
844.98	5398
845.117	5398
845.253	5147
845.389	5079
845.525	5220
845.661	5166
845.798	5105
845.934	5132
846.07	5075
846.206	5269
846.342	5288
846.478	5223
846.614	5094
846.75	5075
846.886	4999
847.022	5147
847.158	5067
847.294	5098
847.429	5143
847.565	5147
847.701	5349
847.837	4892
847.972	4828
848.108	4991
848.244	4915
848.379	4824
848.515	4786
848.65	4748
848.786	4744
848.921	4763
849.057	4911
849.192	4999
849.328	4812
849.463	4889
849.598	4812
849.734	4820
849.869	4725
850.004	4668
850.14	4717
850.275	4630
850.41	4584
850.545	4584
850.68	4645
850.815	4626
850.95	4675
851.085	4839
851.22	4748
851.355	4698
851.49	4679
851.625	4653
851.76	4698
851.895	4588
852.03	4565
852.165	4710
852.299	4767
852.434	4809
852.569	4736
852.703	4801
852.838	4824
852.973	4938
853.107	4938
853.242	4786
853.376	4691
853.511	4645
853.645	4656
853.78	4786
853.914	4683
854.048	4660
854.183	4634
854.317	4752
854.451	4892
854.585	4687
854.72	4717
854.854	4801
854.988	4580
855.122	4641
855.256	4569
855.39	4660
855.524	4839
855.658	4774
855.792	4714
855.926	4771
856.06	4793
856.194	4854
856.327	4725
856.461	4637
856.595	4637
856.729	4634
856.862	4752
856.996	4721
857.13	4752
857.263	4809
857.397	4847
857.53	4668
857.664	4710
857.797	4820
857.931	4797
858.064	4740
858.197	4752
858.331	4694
858.464	4653
858.597	4523
858.731	4660
858.864	4656
858.997	4641
859.13	4683
859.263	4698
859.396	4721
859.529	4584
859.662	4584
859.795	4596
859.928	4672
860.061	4786
860.194	4771
860.327	4618
860.46	4626
860.592	4714
860.725	4782
860.858	4763
860.99	4603
861.123	4577
861.256	4550
861.388	4622
861.521	5181
861.653	4497
861.786	4478
861.918	4474
862.05	4565
862.183	4565
862.315	4660
862.447	4679
862.58	4577
862.712	4459
862.844	4386
862.976	4561
863.108	4451
863.24	4790
863.372	4363
863.504	4470
863.636	4447
863.768	4546
863.9	4542
864.032	4379
864.164	4405
864.296	4519
864.428	4565
864.559	4573
864.691	4504
864.823	4580
864.954	4527
865.086	4531
865.217	4455
865.349	4459
865.48	4531
865.612	4523
865.743	4683
865.875	4451
866.006	4470
866.137	4523
866.269	4474
866.4	4478
866.531	4489
866.662	4428
866.793	4421
866.924	4493
867.055	4512
867.186	4481
867.317	4443
867.448	4405
867.579	4424
867.71	4432
867.841	4344
867.972	4516
868.103	4512
868.233	4466
868.364	4424
868.495	4538
868.625	4687
868.756	4771
868.886	4573
869.017	4675
869.147	4797
869.278	4820
869.408	4672
869.539	4706
869.669	4748
869.799	4672
869.929	4801
870.06	4733
870.19	4965
870.32	4968
870.45	4923
870.58	5045
870.71	5143
870.84	5090
870.97	4972
871.1	4961
871.23	5147
871.36	5151
871.489	5041
871.619	5090
871.749	5124
871.879	5090
872.008	5159
872.138	5064
872.267	5033
872.397	4854
872.526	4866
872.656	4809
872.785	4828
872.915	4923
873.044	5045
873.173	4927
873.303	4995
873.432	5010
873.561	4946
873.69	4877
873.819	4934
873.948	4915
874.077	4873
874.206	4774
874.335	4797
874.464	4892
874.593	5117
874.722	4984
874.851	5094
874.979	5052
875.108	5117
875.237	4957
875.365	4900
875.494	4938
875.623	4991
875.751	4881
875.88	4896
876.008	4991
876.136	5006
876.265	5185
876.393	5357
876.521	5265
876.65	5288
876.778	5185
876.906	5075
877.034	5045
877.162	5056
877.29	4999
877.418	5060
877.546	5102
877.674	5067
877.802	5064
877.93	5045
878.058	4908
878.185	4881
878.313	4942
878.441	4961
878.568	4828
878.696	4847
878.824	4965
878.951	5029
879.079	5181
879.206	5318
879.333	5117
879.461	4987
879.588	5006
879.715	5151
879.842	5235
879.97	5018
880.097	4850
880.224	4816
880.351	4862
880.478	4843
880.605	4828
880.732	4790
880.859	5113
880.986	4896
881.112	4896
881.239	4828
881.366	4717
881.493	4622
881.619	4611
881.746	4634
881.872	4687
881.999	4710
882.125	4679
882.252	4759
882.378	4873
882.505	4923
882.631	4793
882.757	4649
882.883	4721
883.01	4755
883.136	4725
883.262	4618
883.388	4672
883.514	4831
883.64	4934
883.766	4771
883.892	4679
884.018	4801
884.143	4892
884.269	4987
884.395	4748
884.52	4656
884.646	4660
884.772	4622
884.897	4565
885.023	4664
885.148	4805
885.274	4873
885.399	4793
885.524	4736
885.65	4729
885.775	4778
885.9	4706
886.025	4881
886.15	4839
886.275	4752
886.4	4675
886.525	4717
886.65	4710
886.775	4736
886.9	4930
887.025	5045
887.149	4782
887.274	4660
887.399	4615
887.523	4603
887.648	4584
887.773	4675
887.897	4778
888.021	4801
888.146	4675
888.27	4866
888.395	4953
888.519	4790
888.643	4790
888.767	4847
888.891	4691
889.015	4596
889.139	4641
889.263	4634
889.387	4778
889.511	4904
889.635	4793
889.759	4641
889.883	4694
890.006	4755
890.13	4847
890.254	4668
890.377	4717
890.501	4550
890.624	4577
890.748	4664
890.871	4523
890.995	4413
891.118	4428
891.241	4531
891.364	4527
891.488	4668
891.611	4485
891.734	4523
891.857	4603
891.98	4565
892.103	4641
892.226	4596
892.349	4538
892.471	4455
892.594	4603
892.717	4634
892.839	4565
892.962	4668
893.085	4698
893.207	4599
893.33	4523
893.452	4561
893.575	4660
893.697	4634
893.819	4843
893.941	4839
894.064	4771
894.186	4573
894.308	4577
894.43	4729
894.552	4824
894.674	4729
894.796	4550
894.918	4637
895.04	4558
895.161	4706
895.283	4675
895.405	4596
895.526	4683
895.648	4698
895.769	4687
895.891	4683
896.012	4744
896.134	4744
896.255	4687
896.376	4664
896.498	4626
896.619	4649
896.74	4664
896.861	4664
896.982	4938
897.103	5083
897.224	4866
897.345	4740
897.466	4683
897.587	4729
897.708	4870
897.828	4835
897.949	4672
898.07	4603
898.19	4679
898.311	4862
898.431	4679
898.552	4778
898.672	4839
898.792	4801
898.913	4797
899.033	4649
899.153	4561
899.273	4440
899.393	4470
899.513	4531
899.633	4538
899.753	4611
899.873	4512
899.993	4573
900.113	4542
900.232	4592
900.352	4546
900.472	4512
900.591	4451
900.711	4466
900.83	4455
900.95	4622
901.069	4683
901.189	4584
901.308	4383
901.427	4322
901.546	4394
901.665	4508
901.784	4554
901.904	4440
902.023	4314
902.141	4207
902.26	4181
902.379	4303
902.498	4249
902.617	4253
902.735	4371
902.854	4394
902.973	4386
903.091	4234
903.21	4230
903.328	4291
903.446	4337
903.565	4299
903.683	4348
903.801	4310
903.919	4413
904.038	4459
904.156	4322
904.274	4462
904.392	4402
904.51	4428
904.627	4470
904.745	4577
904.863	4622
904.981	4413
905.098	4299
905.216	4352
905.334	4455
905.451	4474
905.569	4451
905.686	4569
905.803	4519
905.921	4394
906.038	4542
906.155	4481
906.272	4428
906.389	4398
906.506	4322
906.623	4383
906.74	4379
906.857	4287
906.974	4386
907.091	4542
907.208	4683
907.324	4599
907.441	4489
907.557	4341
907.674	4314
907.79	4306
907.907	4360
908.023	4542
908.139	4451
908.256	4485
908.372	4459
908.488	4470
908.604	4363
908.72	4379
908.836	4375
908.952	4360
909.068	4447
909.184	4542
909.3	4489
909.415	4607
909.531	4615
909.647	4310
909.762	4405
909.878	4394
909.993	4466
910.108	4447
910.224	4428
910.339	4519
910.454	4405
910.57	4386
910.685	4344
910.8	4653
910.915	4596
911.03	4500
911.145	4375
911.259	4352
911.374	4409
911.489	4348
911.604	4337
911.718	4234
911.833	4280
911.947	4166
912.062	4101
912.176	4261
912.291	4280
912.405	4322
912.519	4519
912.633	4561
912.748	4432
912.862	4299
912.976	4265
913.09	4135
913.204	4234
913.318	4291
913.431	4424
913.545	4440
913.659	4519
913.772	4405
913.886	4280
914	4280
914.113	4459
914.226	4481
914.34	4440
914.453	4268
914.566	4485
914.68	4314
914.793	4428
914.906	4143
915.019	4109
915.132	4135
915.245	4223
915.358	4265
915.47	4249
915.583	4306
915.696	4367
915.809	4440
915.921	4436
916.034	4299
916.146	4280
916.259	4268
916.371	4432
916.483	4409
916.595	4306
916.708	4333
916.82	4375
916.932	4322
917.044	4329
917.156	4390
917.268	4257
917.38	4303
917.491	4318
917.603	4409
917.715	4478
917.826	4447
917.938	4363
918.049	4306
918.161	4432
918.272	4599
918.384	4554
918.495	4481
918.606	4325
918.717	4249
918.828	4371
918.939	4443
919.05	4314
919.161	4398
919.272	4177
919.383	4261
919.494	4500
919.604	4634
919.715	4462
919.826	4402
919.936	4462
920.047	4527
920.157	4459
920.267	4725
920.378	4596
920.488	4504
920.598	4755
920.708	4923
920.818	4755
920.928	4797
921.038	5010
921.148	4915
921.258	4634
921.368	4584
921.477	4527
921.587	4516
921.697	4394
921.806	4592
921.916	4436
922.025	4333
922.134	4318
922.244	4265
922.353	4367
922.462	4234
922.571	4177
922.68	4086
922.789	4051
922.898	4067
923.007	4067
923.116	4131
923.224	4116
923.333	4109
923.442	4021
923.55	4013
923.659	4074
923.767	4105
923.876	4051
923.984	4181
924.092	3987
924.201	4093
924.309	4185
924.417	4147
924.525	4105
924.633	4139
924.741	5121
924.849	3960
924.956	4173
925.064	3972
925.172	3907
925.279	3983
925.387	4116
925.494	4082
925.602	4314
925.709	4246
925.816	4086
925.924	4188
926.031	4227
926.138	4215
926.245	4265
926.352	4078
926.459	4284
926.566	4299
926.673	4173
926.779	4097
926.886	4090
926.993	4040
927.099	4002
927.206	3979
927.312	4013
927.419	4124
927.525	4048
927.631	4116
927.737	3968
927.843	3968
927.95	3850
928.056	4017
928.162	4036
928.267	4097
928.373	4649
928.479	4169
928.585	3922
928.69	3998
928.796	4093
928.901	4010
929.007	3911
929.112	4040
929.218	3991
929.323	3972
929.428	3994
929.533	4128
929.638	3876
929.743	3960
929.848	4055
929.953	4029
930.058	3960
930.163	3819
930.267	3827
930.372	3991
930.477	3838
930.581	4101
930.685	4017
930.79	3854
930.894	3861
930.998	3922
931.103	4078
931.207	3781
931.311	3717
931.415	3720
931.519	3549
931.623	3610
