Data from test_V78500241_416.txt Node
Date: Fri Mar 25 16:51:53 CST 2022
User: usil
Spectrometer: V785-0024
Trigger mode: 0
Integration Time (sec): 4.000000E-1
Scans to average: 1
Nonlinearity correction enabled: false
Boxcar width: 0
Storing dark spectrum: false
XAxis mode: Wavelengths
Number of Pixels in Spectrum: 1024
>>>>>Begin Spectral Data<<<<<
801.071	8088
801.214	7978
801.356	7940
801.499	7852
801.641	7868
801.783	7818
801.926	7974
802.068	7967
802.211	8008
802.353	7959
802.496	7837
802.638	7887
802.78	7856
802.923	7959
803.065	7890
803.208	7830
803.35	7951
803.492	8031
803.635	8084
803.777	8012
803.919	8065
804.061	8389
804.204	8107
804.346	7989
804.488	7928
804.63	8035
804.773	7989
804.915	8016
805.057	8351
805.199	8103
805.341	8157
805.483	8263
805.626	8161
805.768	7993
805.91	8100
806.052	8172
806.194	8062
806.336	8374
806.478	8187
806.62	8130
806.762	8180
806.904	8271
807.046	8419
807.188	8313
807.33	8294
807.472	8229
807.614	8161
807.756	8210
807.898	8043
808.04	7959
808.182	7967
808.324	8046
808.465	7993
808.607	7982
808.749	8077
808.891	8263
809.033	8305
809.174	8130
809.316	8081
809.458	8092
809.6	7970
809.741	8024
809.883	8039
810.025	8138
810.166	8142
810.308	8100
810.45	8008
810.591	7917
810.733	7784
810.875	7632
811.016	7567
811.158	7605
811.299	7666
811.441	7788
811.582	7814
811.724	7636
811.865	7639
812.007	7658
812.148	7639
812.29	7670
812.431	7913
812.573	7928
812.714	8035
812.855	8244
812.997	8298
813.138	8362
813.279	8298
813.421	8214
813.562	8054
813.703	8024
813.845	7757
813.986	7487
814.127	7384
814.268	7312
814.41	7259
814.551	7240
814.692	7213
814.833	7076
814.974	7152
815.115	7122
815.256	7023
815.397	6932
815.539	6973
815.68	6798
815.821	6878
815.962	6920
816.103	6909
816.244	6806
816.385	6677
816.526	6677
816.666	6544
816.807	6395
816.948	6456
817.089	6483
817.23	6483
817.371	6357
817.512	6369
817.653	6437
817.793	6410
817.934	6483
818.075	6582
818.216	6532
818.356	6445
818.497	6262
818.638	6163
818.778	6190
818.919	6209
819.06	6194
819.2	6361
819.341	6361
819.481	6334
819.622	6585
819.762	6863
819.903	6711
820.043	6627
820.184	6612
820.324	6593
820.465	6738
820.605	6692
820.746	6631
820.886	6566
821.026	6749
821.167	6757
821.307	6833
821.447	6791
821.588	6662
821.728	6601
821.868	6544
822.008	6388
822.149	6395
822.289	6433
822.429	6194
822.569	6114
822.709	6140
822.849	5954
822.99	5950
823.13	5939
823.27	5973
823.41	5828
823.55	5802
823.69	5840
823.83	5840
823.97	5676
824.11	5570
824.25	5638
824.389	5615
824.529	5661
824.669	5592
824.809	5649
824.949	5672
825.089	5646
825.228	5570
825.368	5436
825.508	5341
825.648	5444
825.787	5421
825.927	5433
826.067	5364
826.206	5330
826.346	5452
826.485	5406
826.625	5497
826.765	5585
826.904	5467
827.044	5246
827.183	5242
827.323	5170
827.462	5258
827.601	5178
827.741	5147
827.88	5277
828.02	5155
828.159	5254
828.298	5349
828.437	5391
828.577	5334
828.716	5528
828.855	5353
828.994	5212
829.134	5185
829.273	5223
829.412	5208
829.551	5185
829.69	5162
829.829	5288
829.968	5425
830.107	5299
830.246	5353
830.385	5185
830.524	5185
830.663	5121
830.802	4984
830.941	4919
831.08	4885
831.219	5060
831.357	5014
831.496	5155
831.635	4957
831.774	4953
831.913	4889
832.051	4736
832.19	4755
832.329	4839
832.467	4714
832.606	4626
832.744	4740
832.883	4721
833.022	4744
833.16	4828
833.299	4858
833.437	4873
833.576	4850
833.714	4805
833.852	4900
833.991	4923
834.129	4965
834.267	4987
834.406	4942
834.544	5014
834.682	4957
834.821	4991
834.959	5143
835.097	4987
835.235	5166
835.373	5067
835.511	5185
835.65	5056
835.788	5060
835.926	4904
836.064	4896
836.202	4961
836.34	5143
836.478	5261
836.615	5090
836.753	5242
836.891	5353
837.029	5299
837.167	5227
837.305	5197
837.443	5147
837.58	5109
837.718	5258
837.856	5147
837.993	5189
838.131	5227
838.269	5261
838.406	5258
838.544	5201
838.681	5117
838.819	5045
838.956	4877
839.094	4881
839.231	5010
839.369	5083
839.506	5463
839.643	5318
839.781	5117
839.918	5006
840.055	5109
840.193	5086
840.33	5105
840.467	5181
840.604	5170
840.742	5497
840.879	5083
841.016	5151
841.153	5212
841.29	5444
841.427	5395
841.564	5322
841.701	5349
841.838	5261
841.975	5280
842.112	5322
842.249	5151
842.385	5094
842.522	5364
842.659	5216
842.796	5197
842.933	5197
843.069	5162
843.206	5193
843.343	5349
843.479	5231
843.616	5242
843.752	5075
843.889	5014
844.025	5246
844.162	5079
844.298	5273
844.435	5117
844.571	5102
844.708	5223
844.844	5322
844.98	5414
845.117	5303
845.253	5178
845.389	5102
845.525	5147
845.661	5235
845.798	5109
845.934	5181
846.07	5060
846.206	5220
846.342	5349
846.478	5143
846.614	5064
846.75	5010
846.886	4972
847.022	5162
847.158	5037
847.294	5121
847.429	5159
847.565	5079
847.701	5410
847.837	4946
847.972	4831
848.108	4972
848.244	5029
848.379	4850
848.515	4752
848.65	4786
848.786	4786
848.921	4862
849.057	4957
849.192	5006
849.328	4831
849.463	4866
849.598	4831
849.734	4763
849.869	4721
850.004	4641
850.14	4698
850.275	4630
850.41	4554
850.545	4615
850.68	4675
850.815	4637
850.95	4675
851.085	4793
851.22	4790
851.355	4714
851.49	4672
851.625	4634
851.76	4660
851.895	4626
852.03	4565
852.165	4706
852.299	4763
852.434	4793
852.569	4748
852.703	4805
852.838	4847
852.973	5014
853.107	4980
853.242	4759
853.376	4714
853.511	4538
853.645	4645
853.78	4835
853.914	4733
854.048	4702
854.183	4725
854.317	4736
854.451	4892
854.585	4694
854.72	4675
854.854	4748
854.988	4599
855.122	4637
855.256	4573
855.39	4672
855.524	4835
855.658	4786
855.792	4759
855.926	4755
856.06	4778
856.194	4847
856.327	4702
856.461	4622
856.595	4683
856.729	4702
856.862	4801
856.996	4729
857.13	4755
857.263	4759
857.397	4831
857.53	4710
857.664	4725
857.797	4816
857.931	4820
858.064	4717
858.197	4740
858.331	4725
858.464	4630
858.597	4577
858.731	4683
858.864	4706
858.997	4607
859.13	4702
859.263	4706
859.396	4698
859.529	4630
859.662	4573
859.795	4611
859.928	4653
860.061	4748
860.194	4778
860.327	4649
860.46	4630
860.592	4752
860.725	4755
860.858	4744
860.99	4599
861.123	4516
861.256	4577
861.388	4630
861.521	5414
861.653	4531
861.786	4489
861.918	4470
862.05	4584
862.183	4603
862.315	4653
862.447	4649
862.58	4611
862.712	4428
862.844	4352
862.976	4474
863.108	4500
863.24	4816
863.372	4318
863.504	4459
863.636	4440
863.768	4538
863.9	4447
864.032	4371
864.164	4455
864.296	4493
864.428	4592
864.559	4554
864.691	4580
864.823	4573
864.954	4519
865.086	4542
865.217	4523
865.349	4470
865.48	4428
865.612	4558
865.743	4641
865.875	4527
866.006	4424
866.137	4485
866.269	4485
866.4	4497
866.531	4466
866.662	4432
866.793	4481
866.924	4459
867.055	4554
867.186	4497
867.317	4455
867.448	4409
867.579	4462
867.71	4375
867.841	4432
867.972	4481
868.103	4428
868.233	4443
868.364	4500
868.495	4443
868.625	4660
868.756	4774
868.886	4607
869.017	4664
869.147	4812
869.278	4763
869.408	4714
869.539	4649
869.669	4786
869.799	4645
869.929	4778
870.06	4733
870.19	4930
870.32	4987
870.45	4938
870.58	4995
870.71	5143
870.84	5136
870.97	4984
871.1	4972
871.23	5174
871.36	5170
871.489	5025
871.619	5128
871.749	5128
871.879	5185
872.008	5181
872.138	5102
872.267	4995
872.397	4881
872.526	4835
872.656	4740
872.785	4873
872.915	4968
873.044	5037
873.173	5018
873.303	5010
873.432	5014
873.561	4976
873.69	4927
873.819	4889
873.948	4927
874.077	4797
874.206	4748
874.335	4778
874.464	4980
874.593	5079
874.722	4999
874.851	5121
874.979	5056
875.108	5041
875.237	4930
875.365	4881
875.494	4881
875.623	4991
875.751	4908
875.88	4904
876.008	5037
876.136	5033
876.265	5239
876.393	5379
876.521	5242
876.65	5269
876.778	5212
876.906	5090
877.034	5037
877.162	5060
877.29	5067
877.418	5109
877.546	5052
877.674	5071
877.802	5037
877.93	5079
878.058	5018
878.185	4904
878.313	5003
878.441	4972
878.568	4862
878.696	4854
878.824	4999
878.951	5018
879.079	5201
879.206	5360
879.333	5067
879.461	5029
879.588	5014
879.715	5132
879.842	5269
879.97	5010
880.097	4843
880.224	4759
880.351	4877
880.478	4858
880.605	4839
880.732	4805
880.859	5048
880.986	4927
881.112	4946
881.239	4831
881.366	4679
881.493	4573
881.619	4577
881.746	4664
881.872	4691
881.999	4645
882.125	4691
882.252	4835
882.378	4805
882.505	5003
882.631	4843
882.757	4710
882.883	4759
883.01	4782
883.136	4660
883.262	4615
883.388	4656
883.514	4820
883.64	4862
883.766	4835
883.892	4717
884.018	4717
884.143	4965
884.269	5029
884.395	4706
884.52	4679
884.646	4691
884.772	4649
884.897	4596
885.023	4729
885.148	4816
885.274	4892
885.399	4847
885.524	4725
885.65	4702
885.775	4752
885.9	4744
886.025	4870
886.15	4816
886.275	4744
886.4	4645
886.525	4771
886.65	4763
886.775	4733
886.9	4911
887.025	5033
887.149	4843
887.274	4679
887.399	4577
887.523	4660
887.648	4569
887.773	4626
887.897	4755
888.021	4790
888.146	4725
888.27	4847
888.395	4904
888.519	4790
888.643	4843
888.767	4797
888.891	4683
889.015	4588
889.139	4679
889.263	4626
889.387	4805
889.511	4885
889.635	4793
889.759	4660
889.883	4683
890.006	4767
890.13	4816
890.254	4645
890.377	4706
890.501	4558
890.624	4535
890.748	4668
890.871	4489
890.995	4455
891.118	4462
891.241	4508
891.364	4523
891.488	4653
891.611	4550
891.734	4523
891.857	4592
891.98	4554
892.103	4607
892.226	4626
892.349	4542
892.471	4443
892.594	4561
892.717	4634
892.839	4615
892.962	4611
893.085	4664
893.207	4637
893.33	4542
893.452	4531
893.575	4664
893.697	4596
893.819	4812
893.941	4843
894.064	4774
894.186	4603
894.308	4603
894.43	4736
894.552	4866
894.674	4793
894.796	4603
894.918	4630
895.04	4584
895.161	4725
895.283	4672
895.405	4538
895.526	4672
895.648	4672
895.769	4710
895.891	4702
896.012	4725
896.134	4782
896.255	4725
896.376	4687
896.498	4653
896.619	4660
896.74	4645
896.861	4611
896.982	4923
897.103	5075
897.224	4862
897.345	4786
897.466	4679
897.587	4752
897.708	4877
897.828	4797
897.949	4668
898.07	4615
898.19	4675
898.311	4835
898.431	4668
898.552	4698
898.672	4812
898.792	4828
898.913	4763
899.033	4672
899.153	4500
899.273	4455
899.393	4455
899.513	4527
899.633	4535
899.753	4561
899.873	4481
899.993	4618
900.113	4531
900.232	4653
900.352	4573
900.472	4481
900.591	4436
900.711	4489
900.83	4489
900.95	4694
901.069	4664
901.189	4512
901.308	4367
901.427	4352
901.546	4409
901.665	4516
901.784	4527
901.904	4371
902.023	4390
902.141	4227
902.26	4188
902.379	4322
902.498	4287
902.617	4234
902.735	4360
902.854	4363
902.973	4375
903.091	4215
903.21	4223
903.328	4295
903.446	4265
903.565	4234
903.683	4360
903.801	4303
903.919	4447
904.038	4466
904.156	4348
904.274	4470
904.392	4424
904.51	4466
904.627	4485
904.745	4558
904.863	4653
904.981	4394
905.098	4379
905.216	4341
905.334	4440
905.451	4459
905.569	4447
905.686	4546
905.803	4565
905.921	4428
906.038	4550
906.155	4478
906.272	4417
906.389	4466
906.506	4375
906.623	4421
906.74	4413
906.857	4276
906.974	4356
907.091	4535
907.208	4736
907.324	4599
907.441	4508
907.557	4318
907.674	4367
907.79	4337
907.907	4360
908.023	4519
908.139	4440
908.256	4428
908.372	4478
908.488	4451
908.604	4360
908.72	4344
908.836	4367
908.952	4409
909.068	4424
909.184	4550
909.3	4485
909.415	4580
909.531	4569
909.647	4440
909.762	4363
909.878	4352
909.993	4459
910.108	4367
910.224	4375
910.339	4512
910.454	4424
910.57	4344
910.685	4322
910.8	4622
910.915	4599
911.03	4535
911.145	4337
911.259	4341
911.374	4379
911.489	4344
911.604	4295
911.718	4185
911.833	4207
911.947	4048
912.062	4017
912.176	4227
912.291	4261
912.405	4261
912.519	4462
912.633	4500
912.748	4352
912.862	4318
912.976	4230
913.09	4063
913.204	4207
913.318	4287
913.431	4383
913.545	4432
913.659	4447
913.772	4367
913.886	4249
914	4249
914.113	4344
914.226	4443
914.34	4417
914.453	4257
914.566	4428
914.68	4314
914.793	4295
914.906	4154
915.019	4124
915.132	4131
915.245	4169
915.358	4204
915.47	4230
915.583	4265
915.696	4299
915.809	4451
915.921	4398
916.034	4242
916.146	4204
916.259	4238
916.371	4402
916.483	4322
916.595	4303
916.708	4360
916.82	4344
916.932	4318
917.044	4341
917.156	4295
917.268	4265
917.38	4272
917.491	4303
917.603	4371
917.715	4459
917.826	4474
917.938	4375
918.049	4242
918.161	4413
918.272	4535
918.384	4577
918.495	4474
918.606	4295
918.717	4238
918.828	4344
918.939	4383
919.05	4253
919.161	4299
919.272	4169
919.383	4230
919.494	4481
919.604	4641
919.715	4466
919.826	4341
919.936	4421
920.047	4565
920.157	4474
920.267	4706
920.378	4550
920.488	4516
920.598	4683
920.708	4870
920.818	4752
920.928	4763
921.038	4934
921.148	4885
921.258	4672
921.368	4580
921.477	4485
921.587	4462
921.697	4405
921.806	4523
921.916	4383
922.025	4303
922.134	4234
922.244	4249
922.353	4379
922.462	4185
922.571	4143
922.68	4040
922.789	3960
922.898	4025
923.007	3983
923.116	4082
923.224	4082
923.333	4116
923.442	3991
923.55	3987
923.659	4017
923.767	4112
923.876	4029
923.984	4082
924.092	4010
924.201	4090
924.309	4101
924.417	4150
924.525	4029
924.633	4074
924.741	5033
924.849	3896
924.956	4147
925.064	4010
925.172	3861
925.279	3953
925.387	4055
925.494	4059
925.602	4223
925.709	4211
925.816	4017
925.924	4097
926.031	4211
926.138	4223
926.245	4227
926.352	4086
926.459	4253
926.566	4295
926.673	4166
926.779	4101
926.886	4063
926.993	3983
927.099	3960
927.206	3945
927.312	3937
927.419	4021
927.525	4025
927.631	4082
927.737	3968
927.843	3949
927.95	3835
928.056	3987
928.162	3991
928.267	4040
928.373	4675
928.479	4097
928.585	3869
928.69	4013
928.796	4105
928.901	3975
929.007	3831
929.112	3956
929.218	3968
929.323	3960
929.428	3979
929.533	4128
929.638	3953
929.743	3945
929.848	4040
929.953	4017
930.058	3876
930.163	3781
930.267	3835
930.372	3960
930.477	3827
930.581	4105
930.685	3953
930.79	3808
930.894	3899
930.998	3880
931.103	4040
931.207	3736
931.311	3682
931.415	3679
931.519	3557
931.623	3557
