Data from test_V78500241_2294.txt Node
Date: Fri Mar 25 17:04:57 CST 2022
User: usil
Spectrometer: V785-0024
Trigger mode: 0
Integration Time (sec): 4.000000E-1
Scans to average: 1
Nonlinearity correction enabled: false
Boxcar width: 0
Storing dark spectrum: false
XAxis mode: Wavelengths
Number of Pixels in Spectrum: 1024
>>>>>Begin Spectral Data<<<<<
801.071	7989
801.214	7997
801.356	7841
801.499	7925
801.641	7738
801.783	7860
801.926	8039
802.068	8027
802.211	7986
802.353	8001
802.496	7852
802.638	7894
802.78	7928
802.923	7925
803.065	7909
803.208	7951
803.35	7963
803.492	8058
803.635	8191
803.777	8035
803.919	8107
804.061	8511
804.204	8164
804.346	8134
804.488	7982
804.63	8119
804.773	7978
804.915	8130
805.057	8317
805.199	8149
805.341	8248
805.483	8259
805.626	8309
805.768	8153
805.91	8161
806.052	8240
806.194	8126
806.336	8263
806.478	8233
806.62	8111
806.762	8183
806.904	8183
807.046	8431
807.188	8320
807.33	8290
807.472	8328
807.614	8142
807.756	8142
807.898	8046
808.04	7917
808.182	7868
808.324	7841
808.465	7936
808.607	8073
808.749	8115
808.891	8187
809.033	8358
809.174	8279
809.316	8134
809.458	8100
809.6	7982
809.741	8050
809.883	8050
810.025	8100
810.166	8100
810.308	8081
810.45	7970
810.591	7856
810.733	7788
810.875	7639
811.016	7502
811.158	7449
811.299	7605
811.441	7746
811.582	7696
811.724	7559
811.865	7544
812.007	7605
812.148	7597
812.29	7605
812.431	7772
812.573	7917
812.714	7978
812.855	8183
812.997	8221
813.138	8267
813.279	8126
813.421	8069
813.562	8012
813.703	7860
813.845	7761
813.986	7472
814.127	7270
814.268	7240
814.41	7156
814.551	7099
814.692	7228
814.833	7103
814.974	7198
815.115	7126
815.256	6993
815.397	6905
815.539	6947
815.68	6867
815.821	6776
815.962	6920
816.103	6806
816.244	6768
816.385	6604
816.526	6631
816.666	6494
816.807	6369
816.948	6475
817.089	6452
817.23	6483
817.371	6410
817.512	6334
817.653	6410
817.793	6311
817.934	6410
818.075	6445
818.216	6429
818.356	6403
818.497	6270
818.638	6209
818.778	6110
818.919	6178
819.06	6140
819.2	6323
819.341	6353
819.481	6338
819.622	6521
819.762	6753
819.903	6658
820.043	6627
820.184	6585
820.324	6570
820.465	6707
820.605	6688
820.746	6665
820.886	6570
821.026	6681
821.167	6673
821.307	6833
821.447	6745
821.588	6631
821.728	6559
821.868	6532
822.008	6395
822.149	6414
822.289	6380
822.429	6171
822.569	6060
822.709	6117
822.849	5950
822.99	5885
823.13	5980
823.27	5904
823.41	5783
823.55	5798
823.69	5767
823.83	5760
823.97	5680
824.11	5516
824.25	5497
824.389	5532
824.529	5668
824.669	5528
824.809	5634
824.949	5630
825.089	5604
825.228	5554
825.368	5368
825.508	5353
825.648	5353
825.787	5406
825.927	5395
826.067	5280
826.206	5280
826.346	5414
826.485	5402
826.625	5436
826.765	5551
826.904	5524
827.044	5246
827.183	5189
827.323	5159
827.462	5246
827.601	5216
827.741	5166
827.88	5265
828.02	5124
828.159	5246
828.298	5326
828.437	5349
828.577	5303
828.716	5551
828.855	5360
828.994	5181
829.134	5155
829.273	5201
829.412	5124
829.551	5151
829.69	5170
829.829	5269
829.968	5326
830.107	5307
830.246	5292
830.385	5121
830.524	5124
830.663	5060
830.802	4995
830.941	4957
831.08	4896
831.219	4968
831.357	4984
831.496	5151
831.635	4892
831.774	4870
831.913	4854
832.051	4778
832.19	4786
832.329	4850
832.467	4729
832.606	4641
832.744	4729
832.883	4721
833.022	4752
833.16	4736
833.299	4877
833.437	4839
833.576	4786
833.714	4847
833.852	4881
833.991	4847
834.129	4968
834.267	4965
834.406	4911
834.544	4968
834.682	4991
834.821	4984
834.959	5170
835.097	4953
835.235	5216
835.373	5075
835.511	5132
835.65	5003
835.788	5014
835.926	4873
836.064	4866
836.202	4930
836.34	5227
836.478	5223
836.615	5143
836.753	5189
836.891	5277
837.029	5280
837.167	5212
837.305	5181
837.443	5143
837.58	5102
837.718	5269
837.856	5220
837.993	5174
838.131	5204
838.269	5220
838.406	5174
838.544	5208
838.681	5079
838.819	4999
838.956	4881
839.094	4915
839.231	4930
839.369	5056
839.506	5398
839.643	5258
839.781	5079
839.918	5037
840.055	5052
840.193	5075
840.33	5117
840.467	5201
840.604	5166
840.742	5493
840.879	5045
841.016	5132
841.153	5174
841.29	5349
841.427	5326
841.564	5349
841.701	5353
841.838	5284
841.975	5227
842.112	5239
842.249	5170
842.385	5098
842.522	5315
842.659	5147
842.796	5147
842.933	5174
843.069	5121
843.206	5132
843.343	5242
843.479	5220
843.616	5265
843.752	5025
843.889	4991
844.025	5261
844.162	5037
844.298	5189
844.435	5079
844.571	5041
844.708	5151
844.844	5273
844.98	5337
845.117	5296
845.253	5143
845.389	5037
845.525	5159
845.661	5162
845.798	5071
845.934	5117
846.07	5052
846.206	5166
846.342	5254
846.478	5155
846.614	5014
846.75	4968
846.886	4938
847.022	5143
847.158	5037
847.294	5048
847.429	5086
847.565	5006
847.701	5296
847.837	4831
847.972	4790
848.108	4915
848.244	4900
848.379	4801
848.515	4744
848.65	4702
848.786	4702
848.921	4786
849.057	4854
849.192	4889
849.328	4858
849.463	4831
849.598	4763
849.734	4786
849.869	4679
850.004	4596
850.14	4679
850.275	4645
850.41	4542
850.545	4531
850.68	4615
850.815	4637
850.95	4637
851.085	4805
851.22	4759
851.355	4710
851.49	4599
851.625	4630
851.76	4668
851.895	4584
852.03	4558
852.165	4649
852.299	4729
852.434	4801
852.569	4778
852.703	4763
852.838	4839
852.973	4923
853.107	4927
853.242	4679
853.376	4687
853.511	4546
853.645	4679
853.78	4839
853.914	4656
854.048	4706
854.183	4702
854.317	4710
854.451	4889
854.585	4664
854.72	4634
854.854	4736
854.988	4630
855.122	4599
855.256	4500
855.39	4675
855.524	4797
855.658	4717
855.792	4733
855.926	4729
856.06	4694
856.194	4790
856.327	4691
856.461	4660
856.595	4653
856.729	4660
856.862	4805
856.996	4694
857.13	4786
857.263	4733
857.397	4782
857.53	4630
857.664	4752
857.797	4771
857.931	4748
858.064	4694
858.197	4729
858.331	4675
858.464	4637
858.597	4523
858.731	4637
858.864	4637
858.997	4615
859.13	4622
859.263	4694
859.396	4679
859.529	4599
859.662	4546
859.795	4542
859.928	4588
860.061	4744
860.194	4774
860.327	4577
860.46	4577
860.592	4714
860.725	4641
860.858	4687
860.99	4634
861.123	4550
861.256	4519
861.388	4580
861.521	5246
861.653	4481
861.786	4409
861.918	4493
862.05	4497
862.183	4531
862.315	4637
862.447	4645
862.58	4584
862.712	4402
862.844	4299
862.976	4470
863.108	4424
863.24	4850
863.372	4314
863.504	4386
863.636	4344
863.768	4481
863.9	4459
864.032	4356
864.164	4436
864.296	4443
864.428	4523
864.559	4485
864.691	4538
864.823	4546
864.954	4500
865.086	4489
865.217	4459
865.349	4394
865.48	4462
865.612	4527
865.743	4603
865.875	4466
866.006	4417
866.137	4447
866.269	4455
866.4	4413
866.531	4428
866.662	4383
866.793	4409
866.924	4436
867.055	4455
867.186	4459
867.317	4424
867.448	4394
867.579	4383
867.71	4371
867.841	4394
867.972	4455
868.103	4478
868.233	4440
868.364	4466
868.495	4481
868.625	4664
868.756	4721
868.886	4565
869.017	4645
869.147	4733
869.278	4782
869.408	4649
869.539	4615
869.669	4774
869.799	4675
869.929	4744
870.06	4733
870.19	4930
870.32	4938
870.45	4911
870.58	5075
870.71	5121
870.84	5079
870.97	4904
871.1	4877
871.23	5147
871.36	5121
871.489	5018
871.619	5052
871.749	5124
871.879	5159
872.008	5159
872.138	5052
872.267	4980
872.397	4812
872.526	4733
872.656	4725
872.785	4816
872.915	4946
873.044	5056
873.173	4892
873.303	4930
873.432	4870
873.561	4934
873.69	4835
873.819	4831
873.948	4896
874.077	4809
874.206	4744
874.335	4824
874.464	4911
874.593	5060
874.722	4949
874.851	5090
874.979	5060
875.108	4999
875.237	4923
875.365	4885
875.494	4881
875.623	4968
875.751	4828
875.88	4908
876.008	4991
876.136	5052
876.265	5189
876.393	5391
876.521	5246
876.65	5204
876.778	5151
876.906	5067
877.034	5052
877.162	5056
877.29	5025
877.418	5033
877.546	5037
877.674	5045
877.802	5037
877.93	4968
878.058	4889
878.185	4877
878.313	4991
878.441	4987
878.568	4736
878.696	4889
878.824	4980
878.951	5010
879.079	5121
879.206	5341
879.333	5102
879.461	4976
879.588	4972
879.715	5102
879.842	5189
879.97	5010
880.097	4797
880.224	4801
880.351	4843
880.478	4790
880.605	4816
880.732	4763
880.859	5071
880.986	4919
881.112	4881
881.239	4744
881.366	4634
881.493	4561
881.619	4573
881.746	4645
881.872	4660
881.999	4641
882.125	4702
882.252	4790
882.378	4831
882.505	4968
882.631	4790
882.757	4664
882.883	4763
883.01	4710
883.136	4664
883.262	4588
883.388	4584
883.514	4801
883.64	4858
883.766	4786
883.892	4645
884.018	4767
884.143	4824
884.269	5033
884.395	4672
884.52	4607
884.646	4596
884.772	4584
884.897	4561
885.023	4634
885.148	4706
885.274	4843
885.399	4797
885.524	4641
885.65	4668
885.775	4733
885.9	4687
886.025	4862
886.15	4752
886.275	4710
886.4	4641
886.525	4740
886.65	4675
886.775	4675
886.9	4911
887.025	5025
887.149	4835
887.274	4626
887.399	4565
887.523	4611
887.648	4546
887.773	4596
887.897	4767
888.021	4786
888.146	4702
888.27	4778
888.395	4889
888.519	4805
888.643	4812
888.767	4828
888.891	4664
889.015	4637
889.139	4641
889.263	4569
889.387	4736
889.511	4854
889.635	4755
889.759	4622
889.883	4645
890.006	4717
890.13	4812
890.254	4622
890.377	4664
890.501	4512
890.624	4512
890.748	4634
890.871	4478
890.995	4413
891.118	4402
891.241	4516
891.364	4550
891.488	4599
891.611	4459
891.734	4527
891.857	4618
891.98	4527
892.103	4626
892.226	4580
892.349	4538
892.471	4394
892.594	4535
892.717	4615
892.839	4558
892.962	4626
893.085	4691
893.207	4622
893.33	4451
893.452	4531
893.575	4660
893.697	4527
893.819	4755
893.941	4778
894.064	4786
894.186	4569
894.308	4554
894.43	4717
894.552	4850
894.674	4748
894.796	4561
894.918	4611
895.04	4592
895.161	4729
895.283	4653
895.405	4611
895.526	4656
895.648	4668
895.769	4694
895.891	4706
896.012	4721
896.134	4717
896.255	4706
896.376	4634
896.498	4599
896.619	4656
896.74	4592
896.861	4630
896.982	4995
897.103	5067
897.224	4824
897.345	4733
897.466	4668
897.587	4733
897.708	4843
897.828	4790
897.949	4691
898.07	4542
898.19	4630
898.311	4843
898.431	4675
898.552	4733
898.672	4793
898.792	4828
898.913	4706
899.033	4615
899.153	4538
899.273	4436
899.393	4466
899.513	4538
899.633	4523
899.753	4478
899.873	4478
899.993	4596
900.113	4531
900.232	4607
900.352	4527
900.472	4500
900.591	4443
900.711	4497
900.83	4451
900.95	4626
901.069	4687
901.189	4523
901.308	4337
901.427	4314
901.546	4409
901.665	4489
901.784	4432
901.904	4371
902.023	4314
902.141	4173
902.26	4158
902.379	4310
902.498	4200
902.617	4192
902.735	4379
902.854	4409
902.973	4356
903.091	4249
903.21	4207
903.328	4280
903.446	4200
903.565	4306
903.683	4367
903.801	4272
903.919	4402
904.038	4443
904.156	4325
904.274	4451
904.392	4459
904.51	4432
904.627	4466
904.745	4599
904.863	4653
904.981	4352
905.098	4299
905.216	4348
905.334	4405
905.451	4485
905.569	4474
905.686	4550
905.803	4569
905.921	4413
906.038	4561
906.155	4462
906.272	4421
906.389	4402
906.506	4337
906.623	4314
906.74	4390
906.857	4276
906.974	4348
907.091	4561
907.208	4687
907.324	4611
907.441	4478
907.557	4386
907.674	4333
907.79	4337
907.907	4352
908.023	4504
908.139	4474
908.256	4405
908.372	4466
908.488	4474
908.604	4367
908.72	4329
908.836	4405
908.952	4344
909.068	4432
909.184	4580
909.3	4481
909.415	4569
909.531	4584
909.647	4356
909.762	4375
909.878	4375
909.993	4386
910.108	4421
910.224	4409
910.339	4481
910.454	4424
910.57	4367
910.685	4265
910.8	4653
910.915	4577
911.03	4478
911.145	4276
911.259	4356
911.374	4348
911.489	4284
911.604	4299
911.718	4158
911.833	4207
911.947	4063
912.062	4059
912.176	4200
912.291	4322
912.405	4238
912.519	4447
912.633	4493
912.748	4386
912.862	4310
912.976	4215
913.09	4074
913.204	4150
913.318	4227
913.431	4318
913.545	4363
913.659	4451
913.772	4363
913.886	4295
914	4227
914.113	4383
914.226	4394
914.34	4390
914.453	4249
914.566	4394
914.68	4287
914.793	4303
914.906	4162
915.019	4124
915.132	4112
915.245	4173
915.358	4207
915.47	4249
915.583	4249
915.696	4318
915.809	4398
915.921	4379
916.034	4303
916.146	4223
916.259	4227
916.371	4371
916.483	4348
916.595	4253
916.708	4276
916.82	4356
916.932	4333
917.044	4356
917.156	4287
917.268	4227
917.38	4314
917.491	4249
917.603	4322
917.715	4398
917.826	4436
917.938	4337
918.049	4211
918.161	4386
918.272	4580
918.384	4554
918.495	4462
918.606	4295
918.717	4257
918.828	4329
918.939	4386
919.05	4246
919.161	4348
919.272	4124
919.383	4253
919.494	4428
919.604	4599
919.715	4394
919.826	4363
919.936	4428
920.047	4542
920.157	4451
920.267	4675
920.378	4497
920.488	4538
920.598	4736
920.708	4877
920.818	4736
920.928	4774
921.038	4953
921.148	4908
921.258	4630
921.368	4523
921.477	4497
921.587	4451
921.697	4371
921.806	4546
921.916	4394
922.025	4303
922.134	4306
922.244	4246
922.353	4329
922.462	4207
922.571	4120
922.68	3991
922.789	3991
922.898	4032
923.007	4013
923.116	4128
923.224	4063
923.333	4029
923.442	3987
923.55	3956
923.659	4013
923.767	4120
923.876	3983
923.984	4082
924.092	3991
924.201	4086
924.309	4090
924.417	4143
924.525	4048
924.633	4109
924.741	5041
924.849	3911
924.956	4078
925.064	3975
925.172	3922
925.279	3979
925.387	4029
925.494	4051
925.602	4204
925.709	4204
925.816	4067
925.924	4109
926.031	4276
926.138	4162
926.245	4211
926.352	4105
926.459	4253
926.566	4348
926.673	4185
926.779	4071
926.886	4048
926.993	4010
927.099	3956
927.206	3915
927.312	3945
927.419	4055
927.525	4017
927.631	4116
927.737	3983
927.843	3953
927.95	3797
928.056	3953
928.162	3979
928.267	4036
928.373	4672
928.479	4109
928.585	3903
928.69	4010
928.796	4071
928.901	4002
929.007	3880
929.112	4013
929.218	3949
929.323	3953
929.428	3934
929.533	4074
929.638	3903
929.743	3964
929.848	4048
929.953	3998
930.058	3896
930.163	3774
930.267	3800
930.372	3956
930.477	3789
930.581	4120
930.685	3964
930.79	3846
930.894	3880
930.998	3838
931.103	4025
931.207	3701
931.311	3751
931.415	3648
931.519	3511
931.623	3580
