Data from test_V78500241_294.txt Node
Date: Fri Mar 25 16:51:02 CST 2022
User: usil
Spectrometer: V785-0024
Trigger mode: 0
Integration Time (sec): 4.000000E-1
Scans to average: 1
Nonlinearity correction enabled: false
Boxcar width: 0
Storing dark spectrum: false
XAxis mode: Wavelengths
Number of Pixels in Spectrum: 1024
>>>>>Begin Spectral Data<<<<<
801.071	8088
801.214	8035
801.356	7841
801.499	7913
801.641	7818
801.783	7864
801.926	7997
802.068	7974
802.211	7978
802.353	7989
802.496	7947
802.638	8012
802.78	8035
802.923	7909
803.065	7875
803.208	7864
803.35	7947
803.492	8115
803.635	8149
803.777	8005
803.919	8164
804.061	8469
804.204	8142
804.346	8008
804.488	7978
804.63	8092
804.773	8058
804.915	8126
805.057	8225
805.199	8115
805.341	8126
805.483	8294
805.626	8221
805.768	8100
805.91	8157
806.052	8191
806.194	8050
806.336	8309
806.478	8176
806.62	8123
806.762	8191
806.904	8286
807.046	8442
807.188	8317
807.33	8343
807.472	8351
807.614	8107
807.756	8084
807.898	8005
808.04	7906
808.182	7894
808.324	7913
808.465	7898
808.607	8081
808.749	8096
808.891	8176
809.033	8298
809.174	8149
809.316	8039
809.458	8035
809.6	7997
809.741	7989
809.883	7993
810.025	8115
810.166	8096
810.308	8027
810.45	8073
810.591	7860
810.733	7799
810.875	7677
811.016	7491
811.158	7502
811.299	7594
811.441	7761
811.582	7685
811.724	7605
811.865	7571
812.007	7594
812.148	7632
812.29	7616
812.431	7765
812.573	7849
812.714	7944
812.855	8142
812.997	8218
813.138	8309
813.279	8172
813.421	8176
813.562	7993
813.703	7879
813.845	7723
813.986	7441
814.127	7327
814.268	7270
814.41	7244
814.551	7095
814.692	7179
814.833	7122
814.974	7091
815.115	7129
815.256	7015
815.397	6958
815.539	6928
815.68	6840
815.821	6779
815.962	6875
816.103	6825
816.244	6700
816.385	6654
816.526	6631
816.666	6547
816.807	6292
816.948	6471
817.089	6483
817.23	6445
817.371	6388
817.512	6365
817.653	6437
817.793	6369
817.934	6407
818.075	6456
818.216	6460
818.356	6418
818.497	6251
818.638	6091
818.778	6171
818.919	6167
819.06	6114
819.2	6311
819.341	6281
819.481	6399
819.622	6559
819.762	6719
819.903	6669
820.043	6650
820.184	6547
820.324	6635
820.465	6711
820.605	6646
820.746	6627
820.886	6460
821.026	6631
821.167	6711
821.307	6760
821.447	6791
821.588	6658
821.728	6536
821.868	6475
822.008	6296
822.149	6365
822.289	6399
822.429	6152
822.569	6053
822.709	6121
822.849	5916
822.99	5912
823.13	5893
823.27	5950
823.41	5790
823.55	5824
823.69	5760
823.83	5756
823.97	5672
824.11	5509
824.25	5524
824.389	5581
824.529	5562
824.669	5516
824.809	5623
824.949	5691
825.089	5630
825.228	5528
825.368	5368
825.508	5341
825.648	5345
825.787	5311
825.927	5341
826.067	5311
826.206	5265
826.346	5376
826.485	5398
826.625	5444
826.765	5528
826.904	5493
827.044	5216
827.183	5181
827.323	5162
827.462	5227
827.601	5189
827.741	5216
827.88	5250
828.02	5105
828.159	5299
828.298	5311
828.437	5353
828.577	5265
828.716	5452
828.855	5311
828.994	5124
829.134	5155
829.273	5174
829.412	5132
829.551	5113
829.69	5121
829.829	5235
829.968	5341
830.107	5197
830.246	5242
830.385	5235
830.524	5117
830.663	5090
830.802	4968
830.941	4911
831.08	4896
831.219	4976
831.357	5045
831.496	5162
831.635	4900
831.774	4919
831.913	4923
832.051	4702
832.19	4767
832.329	4824
832.467	4668
832.606	4630
832.744	4672
832.883	4721
833.022	4736
833.16	4748
833.299	4797
833.437	4835
833.576	4828
833.714	4843
833.852	4938
833.991	4900
834.129	4953
834.267	4904
834.406	4919
834.544	4991
834.682	4995
834.821	4961
834.959	5117
835.097	4991
835.235	5136
835.373	5109
835.511	5086
835.65	5014
835.788	4976
835.926	4885
836.064	4873
836.202	4892
836.34	5185
836.478	5258
836.615	5147
836.753	5181
836.891	5311
837.029	5239
837.167	5181
837.305	5151
837.443	5197
837.58	5121
837.718	5254
837.856	5185
837.993	5151
838.131	5273
838.269	5254
838.406	5231
838.544	5201
838.681	5048
838.819	5014
838.956	4892
839.094	4858
839.231	4965
839.369	5075
839.506	5512
839.643	5284
839.781	5083
839.918	5029
840.055	5083
840.193	5098
840.33	5094
840.467	5117
840.604	5242
840.742	5471
840.879	5094
841.016	5117
841.153	5136
841.29	5360
841.427	5349
841.564	5288
841.701	5360
841.838	5326
841.975	5212
842.112	5216
842.249	5212
842.385	5109
842.522	5307
842.659	5178
842.796	5197
842.933	5143
843.069	5166
843.206	5208
843.343	5284
843.479	5258
843.616	5269
843.752	5022
843.889	5022
844.025	5254
844.162	5037
844.298	5250
844.435	5071
844.571	5052
844.708	5147
844.844	5273
844.98	5387
845.117	5258
845.253	5185
845.389	5117
845.525	5155
845.661	5094
845.798	4999
845.934	5185
846.07	5102
846.206	5159
846.342	5299
846.478	5212
846.614	5037
846.75	4999
846.886	4904
847.022	5128
847.158	5033
847.294	5060
847.429	5090
847.565	5060
847.701	5303
847.837	4839
847.972	4809
848.108	4938
848.244	4908
848.379	4790
848.515	4752
848.65	4755
848.786	4755
848.921	4820
849.057	4881
849.192	4919
849.328	4816
849.463	4812
849.598	4809
849.734	4767
849.869	4683
850.004	4649
850.14	4672
850.275	4630
850.41	4523
850.545	4573
850.68	4603
850.815	4649
850.95	4630
851.085	4812
851.22	4748
851.355	4637
851.49	4679
851.625	4649
851.76	4626
851.895	4561
852.03	4546
852.165	4649
852.299	4668
852.434	4744
852.569	4721
852.703	4755
852.838	4816
852.973	4946
853.107	4885
853.242	4736
853.376	4714
853.511	4523
853.645	4615
853.78	4847
853.914	4668
854.048	4653
854.183	4668
854.317	4725
854.451	4854
854.585	4664
854.72	4660
854.854	4805
854.988	4546
855.122	4660
855.256	4527
855.39	4630
855.524	4763
855.658	4694
855.792	4698
855.926	4736
856.06	4763
856.194	4797
856.327	4664
856.461	4584
856.595	4626
856.729	4599
856.862	4733
856.996	4668
857.13	4721
857.263	4790
857.397	4835
857.53	4691
857.664	4729
857.797	4733
857.931	4736
858.064	4702
858.197	4744
858.331	4626
858.464	4615
858.597	4542
858.731	4634
858.864	4645
858.997	4607
859.13	4641
859.263	4683
859.396	4664
859.529	4565
859.662	4577
859.795	4523
859.928	4630
860.061	4793
860.194	4778
860.327	4626
860.46	4535
860.592	4717
860.725	4675
860.858	4702
860.99	4615
861.123	4519
861.256	4478
861.388	4691
861.521	5303
861.653	4493
861.786	4405
861.918	4462
862.05	4550
862.183	4531
862.315	4615
862.447	4607
862.58	4550
862.712	4436
862.844	4341
862.976	4432
863.108	4462
863.24	4881
863.372	4314
863.504	4405
863.636	4383
863.768	4489
863.9	4409
864.032	4337
864.164	4428
864.296	4519
864.428	4512
864.559	4535
864.691	4519
864.823	4512
864.954	4489
865.086	4489
865.217	4447
865.349	4394
865.48	4440
865.612	4508
865.743	4599
865.875	4481
866.006	4459
866.137	4447
866.269	4481
866.4	4432
866.531	4417
866.662	4383
866.793	4440
866.924	4432
867.055	4516
867.186	4402
867.317	4436
867.448	4386
867.579	4394
867.71	4386
867.841	4383
867.972	4478
868.103	4440
868.233	4485
868.364	4443
868.495	4466
868.625	4656
868.756	4793
868.886	4569
869.017	4653
869.147	4809
869.278	4809
869.408	4634
869.539	4691
869.669	4767
869.799	4630
869.929	4721
870.06	4786
870.19	4930
870.32	4949
870.45	4934
870.58	5045
870.71	5094
870.84	5124
870.97	4930
871.1	4908
871.23	5109
871.36	5109
871.489	5075
871.619	5086
871.749	5155
871.879	5166
872.008	5155
872.138	5079
872.267	5006
872.397	4927
872.526	4866
872.656	4714
872.785	4820
872.915	4930
873.044	5003
873.173	4919
873.303	4976
873.432	5006
873.561	4961
873.69	4908
873.819	4866
873.948	4923
874.077	4850
874.206	4793
874.335	4809
874.464	4889
874.593	5086
874.722	4972
874.851	5143
874.979	5064
875.108	5037
875.237	4930
875.365	4930
875.494	4854
875.623	4930
875.751	4786
875.88	4934
876.008	4999
876.136	5037
876.265	5216
876.393	5303
876.521	5235
876.65	5189
876.778	5223
876.906	5064
877.034	4991
877.162	5075
877.29	4995
877.418	5037
877.546	5037
877.674	5060
877.802	5018
877.93	5018
878.058	4949
878.185	4877
878.313	4930
878.441	4949
878.568	4835
878.696	4854
878.824	4980
878.951	5033
879.079	5162
879.206	5277
879.333	5090
879.461	4957
879.588	5033
879.715	5140
879.842	5235
879.97	5003
880.097	4778
880.224	4797
880.351	4831
880.478	4820
880.605	4824
880.732	4774
880.859	5064
880.986	4896
881.112	4904
881.239	4714
881.366	4683
881.493	4615
881.619	4535
881.746	4607
881.872	4603
881.999	4672
882.125	4683
882.252	4790
882.378	4847
882.505	4980
882.631	4805
882.757	4683
882.883	4748
883.01	4725
883.136	4679
883.262	4641
883.388	4618
883.514	4866
883.64	4850
883.766	4809
883.892	4664
884.018	4710
884.143	4923
884.269	5079
884.395	4645
884.52	4618
884.646	4637
884.772	4630
884.897	4577
885.023	4664
885.148	4801
885.274	4873
885.399	4778
885.524	4710
885.65	4668
885.775	4710
885.9	4733
886.025	4850
886.15	4805
886.275	4725
886.4	4706
886.525	4717
886.65	4691
886.775	4672
886.9	4896
887.025	5045
887.149	4839
887.274	4702
887.399	4580
887.523	4615
887.648	4599
887.773	4550
887.897	4797
888.021	4790
888.146	4706
888.27	4858
888.395	4885
888.519	4820
888.643	4824
888.767	4847
888.891	4687
889.015	4573
889.139	4664
889.263	4584
889.387	4824
889.511	4873
889.635	4820
889.759	4698
889.883	4653
890.006	4725
890.13	4850
890.254	4622
890.377	4721
890.501	4569
890.624	4519
890.748	4592
890.871	4508
890.995	4443
891.118	4402
891.241	4542
891.364	4607
891.488	4637
891.611	4508
891.734	4569
891.857	4611
891.98	4538
892.103	4626
892.226	4565
892.349	4573
892.471	4443
892.594	4538
892.717	4622
892.839	4569
892.962	4618
893.085	4672
893.207	4611
893.33	4508
893.452	4531
893.575	4683
893.697	4554
893.819	4801
893.941	4881
894.064	4790
894.186	4554
894.308	4565
894.43	4744
894.552	4858
894.674	4744
894.796	4607
894.918	4611
895.04	4634
895.161	4733
895.283	4664
895.405	4577
895.526	4588
895.648	4729
895.769	4679
895.891	4679
896.012	4748
896.134	4755
896.255	4653
896.376	4683
896.498	4622
896.619	4710
896.74	4649
896.861	4634
896.982	4938
897.103	5086
897.224	4828
897.345	4729
897.466	4675
897.587	4698
897.708	4862
897.828	4793
897.949	4660
898.07	4565
898.19	4641
898.311	4831
898.431	4656
898.552	4729
898.672	4797
898.792	4805
898.913	4736
899.033	4664
899.153	4527
899.273	4443
899.393	4459
899.513	4497
899.633	4558
899.753	4516
899.873	4542
899.993	4626
900.113	4508
900.232	4584
900.352	4531
900.472	4527
900.591	4398
900.711	4519
900.83	4428
900.95	4584
901.069	4694
901.189	4489
901.308	4386
901.427	4329
901.546	4405
901.665	4489
901.784	4561
901.904	4360
902.023	4383
902.141	4207
902.26	4185
902.379	4325
902.498	4238
902.617	4223
902.735	4394
902.854	4379
902.973	4383
903.091	4211
903.21	4227
903.328	4341
903.446	4272
903.565	4268
903.683	4341
903.801	4272
903.919	4402
904.038	4421
904.156	4322
904.274	4390
904.392	4398
904.51	4451
904.627	4500
904.745	4584
904.863	4641
904.981	4417
905.098	4329
905.216	4379
905.334	4455
905.451	4451
905.569	4440
905.686	4577
905.803	4535
905.921	4352
906.038	4512
906.155	4481
906.272	4371
906.389	4451
906.506	4344
906.623	4409
906.74	4390
906.857	4310
906.974	4371
907.091	4550
907.208	4672
907.324	4573
907.441	4500
907.557	4375
907.674	4360
907.79	4291
907.907	4383
908.023	4516
908.139	4481
908.256	4443
908.372	4512
908.488	4493
908.604	4402
908.72	4356
908.836	4386
908.952	4367
909.068	4462
909.184	4535
909.3	4470
909.415	4516
909.531	4554
909.647	4383
909.762	4367
909.878	4344
909.993	4421
910.108	4405
910.224	4436
910.339	4455
910.454	4398
910.57	4363
910.685	4325
910.8	4641
910.915	4561
911.03	4489
911.145	4337
911.259	4333
911.374	4379
911.489	4295
911.604	4272
911.718	4181
911.833	4215
911.947	4082
912.062	4032
912.176	4185
912.291	4268
912.405	4242
912.519	4519
912.633	4497
912.748	4329
912.862	4325
912.976	4207
913.09	4139
913.204	4162
913.318	4280
913.431	4367
913.545	4386
913.659	4451
913.772	4356
913.886	4234
914	4223
914.113	4379
914.226	4413
914.34	4462
914.453	4219
914.566	4421
914.68	4306
914.793	4306
914.906	4204
915.019	4128
915.132	4116
915.245	4196
915.358	4215
915.47	4227
915.583	4227
915.696	4306
915.809	4409
915.921	4455
916.034	4223
916.146	4306
916.259	4204
916.371	4363
916.483	4363
916.595	4257
916.708	4329
916.82	4314
916.932	4287
917.044	4348
917.156	4356
917.268	4242
917.38	4303
917.491	4265
917.603	4352
917.715	4428
917.826	4421
917.938	4379
918.049	4287
918.161	4432
918.272	4592
918.384	4523
918.495	4481
918.606	4284
918.717	4257
918.828	4352
918.939	4344
919.05	4249
919.161	4341
919.272	4082
919.383	4272
919.494	4432
919.604	4599
919.715	4428
919.826	4360
919.936	4363
920.047	4561
920.157	4493
920.267	4687
920.378	4584
920.488	4504
920.598	4763
920.708	4885
920.818	4763
920.928	4752
921.038	4923
921.148	4946
921.258	4668
921.368	4577
921.477	4523
921.587	4424
921.697	4363
921.806	4538
921.916	4402
922.025	4272
922.134	4322
922.244	4246
922.353	4322
922.462	4158
922.571	4101
922.68	4029
922.789	3964
922.898	4010
923.007	3998
923.116	4071
923.224	4071
923.333	4078
923.442	3987
923.55	3964
923.659	3998
923.767	4135
923.876	3983
923.984	4112
924.092	3964
924.201	4093
924.309	4147
924.417	4093
924.525	4063
924.633	4147
924.741	5014
924.849	3934
924.956	4173
925.064	3960
925.172	3941
925.279	4006
925.387	4036
925.494	4048
925.602	4227
925.709	4238
925.816	4002
925.924	4173
926.031	4257
926.138	4169
926.245	4177
926.352	4040
926.459	4227
926.566	4352
926.673	4135
926.779	4124
926.886	4093
926.993	4006
927.099	3956
927.206	3918
927.312	3994
927.419	4032
927.525	4059
927.631	4105
927.737	3926
927.843	3987
927.95	3819
928.056	3915
928.162	4013
928.267	4090
928.373	4653
928.479	4090
928.585	3934
928.69	4036
928.796	4078
928.901	4032
929.007	3827
929.112	3983
929.218	3987
929.323	3991
929.428	3994
929.533	4147
929.638	3922
929.743	3934
929.848	4021
929.953	4010
930.058	3937
930.163	3789
930.267	3842
930.372	3945
930.477	3793
930.581	4101
930.685	3949
930.79	3850
930.894	3903
930.998	3827
931.103	4021
931.207	3713
931.311	3709
931.415	3682
931.519	3523
931.623	3557
