Data from test_V78500241_1122.txt Node
Date: Fri Mar 25 16:56:48 CST 2022
User: usil
Spectrometer: V785-0024
Trigger mode: 0
Integration Time (sec): 4.000000E-1
Scans to average: 1
Nonlinearity correction enabled: false
Boxcar width: 0
Storing dark spectrum: false
XAxis mode: Wavelengths
Number of Pixels in Spectrum: 1024
>>>>>Begin Spectral Data<<<<<
801.071	7989
801.214	8005
801.356	7871
801.499	7852
801.641	7811
801.783	7803
801.926	7917
802.068	7909
802.211	7940
802.353	7963
802.496	7856
802.638	7818
802.78	7883
802.923	7921
803.065	7921
803.208	7837
803.35	7936
803.492	8096
803.635	8092
803.777	8043
803.919	8035
804.061	8450
804.204	8206
804.346	8119
804.488	7944
804.63	8084
804.773	8024
804.915	8142
805.057	8244
805.199	8123
805.341	8221
805.483	8225
805.626	8164
805.768	8168
805.91	8149
806.052	8157
806.194	8084
806.336	8286
806.478	8073
806.62	8031
806.762	8081
806.904	8221
807.046	8427
807.188	8320
807.33	8267
807.472	8301
807.614	8119
807.756	8107
807.898	7932
808.04	7928
808.182	7944
808.324	7909
808.465	7932
808.607	8054
808.749	8168
808.891	8145
809.033	8244
809.174	8214
809.316	8073
809.458	8031
809.6	7986
809.741	7993
809.883	7978
810.025	8062
810.166	8046
810.308	7989
810.45	7982
810.591	7826
810.733	7784
810.875	7586
811.016	7449
811.158	7491
811.299	7601
811.441	7689
811.582	7582
811.724	7533
811.865	7438
812.007	7563
812.148	7651
812.29	7590
812.431	7811
812.573	7849
812.714	7921
812.855	8016
812.997	8240
813.138	8225
813.279	8119
813.421	8100
813.562	8027
813.703	7868
813.845	7731
813.986	7460
814.127	7209
814.268	7259
814.41	7164
814.551	7107
814.692	7168
814.833	7053
814.974	7061
815.115	7099
815.256	6977
815.397	6821
815.539	7012
815.68	6798
815.821	6760
815.962	6894
816.103	6795
816.244	6711
816.385	6582
816.526	6597
816.666	6532
816.807	6331
816.948	6376
817.089	6464
817.23	6441
817.371	6399
817.512	6441
817.653	6395
817.793	6342
817.934	6391
818.075	6437
818.216	6433
818.356	6357
818.497	6247
818.638	6098
818.778	6163
818.919	6114
819.06	6194
819.2	6289
819.341	6270
819.481	6395
819.622	6502
819.762	6719
819.903	6677
820.043	6593
820.184	6570
820.324	6570
820.465	6703
820.605	6623
820.746	6593
820.886	6456
821.026	6601
821.167	6677
821.307	6749
821.447	6726
821.588	6528
821.728	6585
821.868	6498
822.008	6308
822.149	6342
822.289	6365
822.429	6129
822.569	6068
822.709	6095
822.849	5961
822.99	5897
823.13	5923
823.27	5870
823.41	5817
823.55	5767
823.69	5745
823.83	5798
823.97	5634
824.11	5558
824.25	5471
824.389	5535
824.529	5539
824.669	5490
824.809	5608
824.949	5649
825.089	5589
825.228	5577
825.368	5379
825.508	5277
825.648	5303
825.787	5368
825.927	5341
826.067	5311
826.206	5303
826.346	5364
826.485	5410
826.625	5425
826.765	5551
826.904	5433
827.044	5239
827.183	5155
827.323	5117
827.462	5258
827.601	5155
827.741	5113
827.88	5208
828.02	5147
828.159	5261
828.298	5269
828.437	5296
828.577	5307
828.716	5505
828.855	5303
828.994	5162
829.134	5117
829.273	5212
829.412	5132
829.551	5140
829.69	5121
829.829	5246
829.968	5364
830.107	5273
830.246	5265
830.385	5174
830.524	5060
830.663	5025
830.802	4957
830.941	4885
831.08	4801
831.219	4915
831.357	4949
831.496	5136
831.635	4961
831.774	4847
831.913	4797
832.051	4740
832.19	4710
832.329	4847
832.467	4675
832.606	4626
832.744	4717
832.883	4748
833.022	4714
833.16	4774
833.299	4816
833.437	4767
833.576	4820
833.714	4824
833.852	4835
833.991	4877
834.129	4904
834.267	4949
834.406	4870
834.544	4927
834.682	4968
834.821	4942
834.959	5166
835.097	4953
835.235	5128
835.373	5056
835.511	5064
835.65	5033
835.788	5048
835.926	4866
836.064	4889
836.202	4900
836.34	5132
836.478	5178
836.615	5124
836.753	5201
836.891	5277
837.029	5197
837.167	5185
837.305	5136
837.443	5181
837.58	5075
837.718	5216
837.856	5193
837.993	5132
838.131	5242
838.269	5235
838.406	5162
838.544	5147
838.681	5018
838.819	4965
838.956	4900
839.094	4923
839.231	4995
839.369	5018
839.506	5372
839.643	5258
839.781	5075
839.918	5033
840.055	5075
840.193	5075
840.33	5045
840.467	5151
840.604	5166
840.742	5402
840.879	5006
841.016	5075
841.153	5185
841.29	5387
841.427	5280
841.564	5284
841.701	5334
841.838	5315
841.975	5201
842.112	5220
842.249	5132
842.385	5067
842.522	5284
842.659	5174
842.796	5124
842.933	5162
843.069	5128
843.206	5181
843.343	5330
843.479	5223
843.616	5242
843.752	5003
843.889	4980
844.025	5140
844.162	4987
844.298	5204
844.435	5075
844.571	5079
844.708	5140
844.844	5261
844.98	5326
845.117	5239
845.253	5193
845.389	5094
845.525	5113
845.661	5140
845.798	4972
845.934	5143
846.07	5014
846.206	5197
846.342	5292
846.478	5181
846.614	4968
846.75	4999
846.886	4949
847.022	5201
847.158	4938
847.294	5090
847.429	5052
847.565	4987
847.701	5360
847.837	4816
847.972	4843
848.108	4930
848.244	4885
848.379	4744
848.515	4740
848.65	4687
848.786	4736
848.921	4748
849.057	4870
849.192	4831
849.328	4839
849.463	4812
849.598	4797
849.734	4706
849.869	4664
850.004	4584
850.14	4637
850.275	4630
850.41	4527
850.545	4535
850.68	4535
850.815	4577
850.95	4603
851.085	4828
851.22	4706
851.355	4645
851.49	4622
851.625	4599
851.76	4630
851.895	4535
852.03	4542
852.165	4603
852.299	4706
852.434	4793
852.569	4729
852.703	4748
852.838	4809
852.973	4930
853.107	4877
853.242	4736
853.376	4637
853.511	4542
853.645	4626
853.78	4740
853.914	4664
854.048	4645
854.183	4588
854.317	4698
854.451	4805
854.585	4672
854.72	4664
854.854	4736
854.988	4584
855.122	4664
855.256	4470
855.39	4668
855.524	4748
855.658	4687
855.792	4691
855.926	4702
856.06	4752
856.194	4752
856.327	4729
856.461	4550
856.595	4634
856.729	4637
856.862	4759
856.996	4672
857.13	4679
857.263	4721
857.397	4809
857.53	4679
857.664	4721
857.797	4774
857.931	4767
858.064	4706
858.197	4733
858.331	4618
858.464	4577
858.597	4493
858.731	4637
858.864	4596
858.997	4580
859.13	4596
859.263	4687
859.396	4656
859.529	4607
859.662	4561
859.795	4478
859.928	4588
860.061	4736
860.194	4774
860.327	4588
860.46	4493
860.592	4687
860.725	4755
860.858	4721
860.99	4588
861.123	4489
861.256	4523
861.388	4580
861.521	5261
861.653	4451
861.786	4363
861.918	4394
862.05	4523
862.183	4531
862.315	4637
862.447	4611
862.58	4516
862.712	4455
862.844	4303
862.976	4432
863.108	4424
863.24	4755
863.372	4314
863.504	4402
863.636	4402
863.768	4459
863.9	4440
864.032	4394
864.164	4386
864.296	4447
864.428	4558
864.559	4561
864.691	4535
864.823	4485
864.954	4443
865.086	4504
865.217	4447
865.349	4428
865.48	4451
865.612	4478
865.743	4607
865.875	4447
866.006	4424
866.137	4459
866.269	4447
866.4	4440
866.531	4451
866.662	4352
866.793	4409
866.924	4409
867.055	4474
867.186	4440
867.317	4421
867.448	4371
867.579	4386
867.71	4386
867.841	4348
867.972	4459
868.103	4504
868.233	4440
868.364	4447
868.495	4455
868.625	4626
868.756	4774
868.886	4603
869.017	4607
869.147	4744
869.278	4714
869.408	4660
869.539	4599
869.669	4675
869.799	4656
869.929	4782
870.06	4729
870.19	4957
870.32	4885
870.45	4904
870.58	5060
870.71	5094
870.84	5136
870.97	4961
871.1	4904
871.23	5128
871.36	5098
871.489	5037
871.619	5018
871.749	5067
871.879	5105
872.008	5189
872.138	5003
872.267	4965
872.397	4816
872.526	4797
872.656	4710
872.785	4763
872.915	4949
873.044	4987
873.173	4862
873.303	4949
873.432	5018
873.561	4957
873.69	4870
873.819	4870
873.948	4870
874.077	4786
874.206	4778
874.335	4748
874.464	4934
874.593	5064
874.722	4953
874.851	5060
874.979	5025
875.108	4987
875.237	4900
875.365	4889
875.494	4877
875.623	4957
875.751	4797
875.88	4873
876.008	4957
876.136	5033
876.265	5178
876.393	5261
876.521	5258
876.65	5216
876.778	5178
876.906	5025
877.034	5014
877.162	5056
877.29	4915
877.418	5056
877.546	4984
877.674	5014
877.802	4968
877.93	4999
878.058	4923
878.185	4812
878.313	4870
878.441	4930
878.568	4790
878.696	4873
878.824	4911
878.951	4946
879.079	5132
879.206	5288
879.333	5094
879.461	4999
879.588	5025
879.715	5075
879.842	5159
879.97	5018
880.097	4782
880.224	4721
880.351	4782
880.478	4801
880.605	4862
880.732	4790
880.859	5117
880.986	4904
881.112	4900
881.239	4843
881.366	4664
881.493	4645
881.619	4546
881.746	4634
881.872	4706
881.999	4603
882.125	4672
882.252	4809
882.378	4805
882.505	4927
882.631	4725
882.757	4660
882.883	4679
883.01	4729
883.136	4698
883.262	4565
883.388	4637
883.514	4805
883.64	4866
883.766	4805
883.892	4656
884.018	4702
884.143	4900
884.269	4999
884.395	4683
884.52	4664
884.646	4622
884.772	4550
884.897	4565
885.023	4672
885.148	4744
885.274	4847
885.399	4816
885.524	4694
885.65	4675
885.775	4721
885.9	4736
886.025	4847
886.15	4866
886.275	4694
886.4	4611
886.525	4721
886.65	4630
886.775	4668
886.9	4854
887.025	4968
887.149	4790
887.274	4637
887.399	4580
887.523	4596
887.648	4573
887.773	4580
887.897	4736
888.021	4714
888.146	4637
888.27	4778
888.395	4877
888.519	4786
888.643	4786
888.767	4824
888.891	4656
889.015	4626
889.139	4618
889.263	4615
889.387	4710
889.511	4843
889.635	4774
889.759	4637
889.883	4577
890.006	4698
890.13	4805
890.254	4615
890.377	4664
890.501	4558
890.624	4504
890.748	4641
890.871	4478
890.995	4398
891.118	4413
891.241	4489
891.364	4550
891.488	4660
891.611	4478
891.734	4527
891.857	4580
891.98	4512
892.103	4622
892.226	4580
892.349	4527
892.471	4436
892.594	4531
892.717	4592
892.839	4561
892.962	4592
893.085	4683
893.207	4565
893.33	4436
893.452	4481
893.575	4630
893.697	4565
893.819	4717
893.941	4793
894.064	4725
894.186	4588
894.308	4561
894.43	4774
894.552	4786
894.674	4774
894.796	4580
894.918	4580
895.04	4519
895.161	4683
895.283	4675
895.405	4577
895.526	4649
895.648	4683
895.769	4683
895.891	4694
896.012	4755
896.134	4744
896.255	4664
896.376	4653
896.498	4641
896.619	4653
896.74	4603
896.861	4668
896.982	4889
897.103	5064
897.224	4805
897.345	4717
897.466	4656
897.587	4729
897.708	4831
897.828	4774
897.949	4649
898.07	4535
898.19	4683
898.311	4786
898.431	4706
898.552	4702
898.672	4767
898.792	4816
898.913	4729
899.033	4622
899.153	4459
899.273	4424
899.393	4489
899.513	4497
899.633	4516
899.753	4577
899.873	4504
899.993	4542
900.113	4504
900.232	4577
900.352	4546
900.472	4466
900.591	4424
900.711	4447
900.83	4421
900.95	4622
901.069	4630
901.189	4527
901.308	4337
901.427	4329
901.546	4333
901.665	4451
901.784	4497
901.904	4417
902.023	4291
902.141	4177
902.26	4154
902.379	4280
902.498	4207
902.617	4234
902.735	4367
902.854	4341
902.973	4348
903.091	4177
903.21	4200
903.328	4306
903.446	4234
903.565	4227
903.683	4344
903.801	4261
903.919	4405
904.038	4447
904.156	4318
904.274	4443
904.392	4428
904.51	4390
904.627	4417
904.745	4580
904.863	4580
904.981	4375
905.098	4284
905.216	4367
905.334	4462
905.451	4394
905.569	4440
905.686	4573
905.803	4577
905.921	4413
906.038	4558
906.155	4497
906.272	4402
906.389	4462
906.506	4379
906.623	4386
906.74	4394
906.857	4265
906.974	4341
907.091	4554
907.208	4641
907.324	4573
907.441	4489
907.557	4344
907.674	4322
907.79	4341
907.907	4360
908.023	4447
908.139	4432
908.256	4455
908.372	4424
908.488	4424
908.604	4325
908.72	4322
908.836	4352
908.952	4432
909.068	4455
909.184	4550
909.3	4516
909.415	4546
909.531	4542
909.647	4310
909.762	4356
909.878	4375
909.993	4424
910.108	4402
910.224	4421
910.339	4493
910.454	4402
910.57	4360
910.685	4310
910.8	4637
910.915	4584
911.03	4535
911.145	4333
911.259	4337
911.374	4337
911.489	4253
911.604	4291
911.718	4131
911.833	4150
911.947	4071
912.062	4029
912.176	4242
912.291	4234
912.405	4207
912.519	4508
912.633	4531
912.748	4363
912.862	4272
912.976	4200
913.09	4074
913.204	4143
913.318	4238
913.431	4325
913.545	4428
913.659	4455
913.772	4367
913.886	4272
914	4177
914.113	4348
914.226	4459
914.34	4363
914.453	4249
914.566	4508
914.68	4291
914.793	4341
914.906	4158
915.019	4082
915.132	4082
915.245	4181
915.358	4196
915.47	4207
915.583	4265
915.696	4325
915.809	4413
915.921	4417
916.034	4219
916.146	4295
916.259	4227
916.371	4360
916.483	4363
916.595	4291
916.708	4299
916.82	4306
916.932	4325
917.044	4333
917.156	4261
917.268	4207
917.38	4276
917.491	4272
917.603	4348
917.715	4421
917.826	4432
917.938	4280
918.049	4188
918.161	4367
918.272	4577
918.384	4493
918.495	4459
918.606	4291
918.717	4204
918.828	4341
918.939	4348
919.05	4249
919.161	4348
919.272	4063
919.383	4227
919.494	4413
919.604	4588
919.715	4432
919.826	4375
919.936	4402
920.047	4504
920.157	4489
920.267	4691
920.378	4554
920.488	4497
920.598	4656
920.708	4881
920.818	4721
920.928	4740
921.038	4976
921.148	4881
921.258	4641
921.368	4531
921.477	4474
921.587	4447
921.697	4371
921.806	4497
921.916	4417
922.025	4276
922.134	4246
922.244	4253
922.353	4337
922.462	4200
922.571	4093
922.68	3983
922.789	3949
922.898	4013
923.007	3987
923.116	4055
923.224	4101
923.333	4059
923.442	4002
923.55	3968
923.659	4021
923.767	4131
923.876	4017
923.984	4135
924.092	3972
924.201	4051
924.309	4078
924.417	4147
924.525	4040
924.633	4116
924.741	5022
924.849	3899
924.956	4097
925.064	3953
925.172	3865
925.279	3991
925.387	4063
925.494	4040
925.602	4200
925.709	4177
925.816	4067
925.924	4154
926.031	4265
926.138	4139
926.245	4188
926.352	4109
926.459	4253
926.566	4268
926.673	4131
926.779	4059
926.886	4074
926.993	3953
927.099	3930
927.206	3937
927.312	3899
927.419	4036
927.525	4051
927.631	4059
927.737	3968
927.843	3949
927.95	3857
928.056	3956
928.162	4002
928.267	4036
928.373	4653
928.479	4097
928.585	3892
928.69	4013
928.796	4044
928.901	3972
929.007	3873
929.112	4025
929.218	3956
929.323	3937
929.428	3918
929.533	4078
929.638	3903
929.743	3926
929.848	3998
929.953	4006
930.058	3930
930.163	3804
930.267	3800
930.372	3987
930.477	3766
930.581	4082
930.685	3975
930.79	3835
930.894	3888
930.998	3816
931.103	3998
931.207	3686
931.311	3671
931.415	3667
931.519	3542
931.623	3580
