Data from test_V78500241_2844.txt Node
Date: Fri Mar 25 17:08:46 CST 2022
User: usil
Spectrometer: V785-0024
Trigger mode: 0
Integration Time (sec): 4.000000E-1
Scans to average: 1
Nonlinearity correction enabled: false
Boxcar width: 0
Storing dark spectrum: false
XAxis mode: Wavelengths
Number of Pixels in Spectrum: 1024
>>>>>Begin Spectral Data<<<<<
801.071	8005
801.214	7970
801.356	7921
801.499	7902
801.641	7837
801.783	7784
801.926	8016
802.068	7963
802.211	7982
802.353	7982
802.496	7898
802.638	7917
802.78	7944
802.923	7967
803.065	7909
803.208	7906
803.35	7978
803.492	8138
803.635	8206
803.777	8065
803.919	8153
804.061	8492
804.204	8157
804.346	8107
804.488	7951
804.63	8050
804.773	8054
804.915	8145
805.057	8355
805.199	8157
805.341	8176
805.483	8290
805.626	8271
805.768	8126
805.91	8218
806.052	8206
806.194	8145
806.336	8267
806.478	8164
806.62	8157
806.762	8187
806.904	8259
807.046	8415
807.188	8347
807.33	8404
807.472	8343
807.614	8202
807.756	8183
807.898	8020
808.04	7898
808.182	7898
808.324	7887
808.465	7887
808.607	8088
808.749	8172
808.891	8210
809.033	8320
809.174	8191
809.316	8107
809.458	8058
809.6	7989
809.741	8046
809.883	8084
810.025	8134
810.166	8145
810.308	8027
810.45	7986
810.591	7852
810.733	7734
810.875	7681
811.016	7616
811.158	7525
811.299	7597
811.441	7715
811.582	7727
811.724	7609
811.865	7537
812.007	7609
812.148	7575
812.29	7700
812.431	7700
812.573	7879
812.714	7989
812.855	8107
812.997	8233
813.138	8309
813.279	8240
813.421	8145
813.562	8065
813.703	7944
813.845	7761
813.986	7457
814.127	7301
814.268	7221
814.41	7259
814.551	7209
814.692	7209
814.833	7103
814.974	7149
815.115	7122
815.256	6989
815.397	6928
815.539	6970
815.68	6871
815.821	6814
815.962	6901
816.103	6871
816.244	6764
816.385	6662
816.526	6631
816.666	6536
816.807	6376
816.948	6475
817.089	6513
817.23	6445
817.371	6338
817.512	6376
817.653	6433
817.793	6361
817.934	6517
818.075	6490
818.216	6437
818.356	6357
818.497	6232
818.638	6140
818.778	6186
818.919	6144
819.06	6205
819.2	6270
819.341	6292
819.481	6331
819.622	6517
819.762	6791
819.903	6696
820.043	6604
820.184	6612
820.324	6612
820.465	6669
820.605	6658
820.746	6658
820.886	6513
821.026	6703
821.167	6734
821.307	6814
821.447	6779
821.588	6665
821.728	6589
821.868	6479
822.008	6327
822.149	6407
822.289	6399
822.429	6159
822.569	6133
822.709	6144
822.849	5942
822.99	5870
823.13	5942
823.27	5923
823.41	5783
823.55	5809
823.69	5729
823.83	5794
823.97	5653
824.11	5509
824.25	5547
824.389	5585
824.529	5627
824.669	5585
824.809	5627
824.949	5672
825.089	5653
825.228	5512
825.368	5402
825.508	5379
825.648	5372
825.787	5398
825.927	5421
826.067	5315
826.206	5322
826.346	5360
826.485	5364
826.625	5414
826.765	5520
826.904	5490
827.044	5231
827.183	5261
827.323	5136
827.462	5288
827.601	5216
827.741	5174
827.88	5189
828.02	5124
828.159	5204
828.298	5330
828.437	5368
828.577	5315
828.716	5436
828.855	5303
828.994	5143
829.134	5132
829.273	5166
829.412	5105
829.551	5140
829.69	5174
829.829	5185
829.968	5360
830.107	5288
830.246	5250
830.385	5231
830.524	5143
830.663	5029
830.802	4991
830.941	4896
831.08	4904
831.219	4999
831.357	4972
831.496	5204
831.635	4949
831.774	4873
831.913	4854
832.051	4687
832.19	4752
832.329	4820
832.467	4656
832.606	4664
832.744	4740
832.883	4706
833.022	4763
833.16	4759
833.299	4831
833.437	4812
833.576	4824
833.714	4831
833.852	4923
833.991	4900
834.129	4938
834.267	4946
834.406	4892
834.544	4984
834.682	5048
834.821	4953
834.959	5140
835.097	4984
835.235	5094
835.373	5052
835.511	5025
835.65	5056
835.788	5067
835.926	4919
836.064	4904
836.202	4972
836.34	5174
836.478	5254
836.615	5128
836.753	5204
836.891	5277
837.029	5227
837.167	5181
837.305	5166
837.443	5155
837.58	5075
837.718	5239
837.856	5136
837.993	5166
838.131	5204
838.269	5212
838.406	5132
838.544	5189
838.681	5041
838.819	4987
838.956	4885
839.094	4900
839.231	4938
839.369	5037
839.506	5398
839.643	5246
839.781	5048
839.918	5056
840.055	5113
840.193	5102
840.33	5098
840.467	5162
840.604	5193
840.742	5440
840.879	5048
841.016	5079
841.153	5117
841.29	5414
841.427	5307
841.564	5337
841.701	5318
841.838	5277
841.975	5212
842.112	5284
842.249	5124
842.385	5094
842.522	5322
842.659	5197
842.796	5166
842.933	5208
843.069	5166
843.206	5140
843.343	5284
843.479	5235
843.616	5258
843.752	5048
843.889	4999
844.025	5242
844.162	5010
844.298	5193
844.435	5128
844.571	5079
844.708	5181
844.844	5288
844.98	5322
845.117	5307
845.253	5109
845.389	5121
845.525	5140
845.661	5105
845.798	5033
845.934	5170
846.07	5048
846.206	5166
846.342	5269
846.478	5181
846.614	5014
846.75	4995
846.886	4957
847.022	5124
847.158	5014
847.294	5083
847.429	5105
847.565	5045
847.701	5337
847.837	4866
847.972	4812
848.108	4976
848.244	4900
848.379	4763
848.515	4687
848.65	4706
848.786	4755
848.921	4771
849.057	4850
849.192	4885
849.328	4790
849.463	4843
849.598	4778
849.734	4733
849.869	4698
850.004	4622
850.14	4675
850.275	4637
850.41	4523
850.545	4561
850.68	4599
850.815	4599
850.95	4607
851.085	4847
851.22	4763
851.355	4675
851.49	4618
851.625	4641
851.76	4660
851.895	4607
852.03	4561
852.165	4653
852.299	4733
852.434	4809
852.569	4698
852.703	4763
852.838	4824
852.973	4946
853.107	4908
853.242	4710
853.376	4649
853.511	4592
853.645	4596
853.78	4771
853.914	4664
854.048	4675
854.183	4634
854.317	4729
854.451	4809
854.585	4656
854.72	4637
854.854	4729
854.988	4599
855.122	4634
855.256	4558
855.39	4603
855.524	4767
855.658	4733
855.792	4702
855.926	4725
856.06	4763
856.194	4854
856.327	4706
856.461	4596
856.595	4653
856.729	4626
856.862	4744
856.996	4664
857.13	4710
857.263	4774
857.397	4778
857.53	4691
857.664	4687
857.797	4786
857.931	4759
858.064	4672
858.197	4755
858.331	4637
858.464	4626
858.597	4512
858.731	4641
858.864	4611
858.997	4592
859.13	4622
859.263	4675
859.396	4698
859.529	4603
859.662	4554
859.795	4538
859.928	4599
860.061	4786
860.194	4771
860.327	4637
860.46	4550
860.592	4725
860.725	4694
860.858	4721
860.99	4607
861.123	4523
861.256	4485
861.388	4645
861.521	5421
861.653	4455
861.786	4440
861.918	4462
862.05	4466
862.183	4580
862.315	4615
862.447	4603
862.58	4550
862.712	4390
862.844	4295
862.976	4497
863.108	4474
863.24	4774
863.372	4329
863.504	4443
863.636	4390
863.768	4443
863.9	4421
864.032	4348
864.164	4432
864.296	4440
864.428	4504
864.559	4592
864.691	4508
864.823	4527
864.954	4508
865.086	4512
865.217	4481
865.349	4421
865.48	4470
865.612	4500
865.743	4630
865.875	4459
866.006	4424
866.137	4443
866.269	4478
866.4	4413
866.531	4402
866.662	4436
866.793	4432
866.924	4443
867.055	4508
867.186	4466
867.317	4402
867.448	4356
867.579	4371
867.71	4424
867.841	4383
867.972	4474
868.103	4417
868.233	4440
868.364	4428
868.495	4512
868.625	4683
868.756	4755
868.886	4584
869.017	4622
869.147	4763
869.278	4835
869.408	4675
869.539	4599
869.669	4714
869.799	4641
869.929	4763
870.06	4736
870.19	4911
870.32	4892
870.45	4923
870.58	4965
870.71	5140
870.84	5071
870.97	4942
871.1	4885
871.23	5174
871.36	5083
871.489	5022
871.619	5098
871.749	5109
871.879	5117
872.008	5159
872.138	5094
872.267	4953
872.397	4847
872.526	4835
872.656	4790
872.785	4809
872.915	4972
873.044	5018
873.173	4923
873.303	4968
873.432	4927
873.561	4987
873.69	4820
873.819	4850
873.948	4919
874.077	4797
874.206	4801
874.335	4801
874.464	4889
874.593	5071
874.722	4961
874.851	5098
874.979	5094
875.108	5029
875.237	4911
875.365	4858
875.494	4866
875.623	4957
875.751	4816
875.88	4870
876.008	4972
876.136	5041
876.265	5185
876.393	5337
876.521	5204
876.65	5193
876.778	5113
876.906	5064
877.034	5025
877.162	5029
877.29	5022
877.418	5045
877.546	5083
877.674	5048
877.802	5045
877.93	5064
878.058	4968
878.185	4904
878.313	4965
878.441	4961
878.568	4831
878.696	4877
878.824	4987
878.951	5014
879.079	5124
879.206	5235
879.333	5083
879.461	4980
879.588	5048
879.715	5151
879.842	5258
879.97	5018
880.097	4759
880.224	4733
880.351	4786
880.478	4774
880.605	4805
880.732	4820
880.859	5079
880.986	4911
881.112	4900
881.239	4752
881.366	4656
881.493	4577
881.619	4577
881.746	4626
881.872	4664
881.999	4679
882.125	4706
882.252	4831
882.378	4831
882.505	4946
882.631	4767
882.757	4656
882.883	4710
883.01	4691
883.136	4634
883.262	4615
883.388	4653
883.514	4793
883.64	4835
883.766	4790
883.892	4687
884.018	4702
884.143	4919
884.269	5003
884.395	4679
884.52	4634
884.646	4630
884.772	4535
884.897	4542
885.023	4630
885.148	4744
885.274	4885
885.399	4774
885.524	4702
885.65	4702
885.775	4752
885.9	4702
886.025	4831
886.15	4706
886.275	4721
886.4	4664
886.525	4668
886.65	4664
886.775	4706
886.9	4885
887.025	5010
887.149	4755
887.274	4645
887.399	4611
887.523	4573
887.648	4580
887.773	4584
887.897	4736
888.021	4790
888.146	4679
888.27	4809
888.395	4889
888.519	4805
888.643	4820
888.767	4847
888.891	4668
889.015	4561
889.139	4599
889.263	4596
889.387	4733
889.511	4843
889.635	4797
889.759	4656
889.883	4672
890.006	4736
890.13	4820
890.254	4622
890.377	4664
890.501	4558
890.624	4535
890.748	4615
890.871	4542
890.995	4440
891.118	4451
891.241	4489
891.364	4546
891.488	4615
891.611	4500
891.734	4580
891.857	4603
891.98	4615
892.103	4618
892.226	4603
892.349	4546
892.471	4447
892.594	4527
892.717	4580
892.839	4569
892.962	4573
893.085	4679
893.207	4607
893.33	4478
893.452	4519
893.575	4637
893.697	4599
893.819	4782
893.941	4801
894.064	4774
894.186	4596
894.308	4558
894.43	4752
894.552	4793
894.674	4786
894.796	4622
894.918	4580
895.04	4550
895.161	4698
895.283	4645
895.405	4577
895.526	4622
895.648	4645
895.769	4740
895.891	4702
896.012	4752
896.134	4752
896.255	4714
896.376	4649
896.498	4592
896.619	4683
896.74	4615
896.861	4599
896.982	4938
897.103	5086
897.224	4862
897.345	4752
897.466	4668
897.587	4755
897.708	4854
897.828	4790
897.949	4687
898.07	4569
898.19	4592
898.311	4835
898.431	4740
898.552	4786
898.672	4774
898.792	4824
898.913	4797
899.033	4622
899.153	4531
899.273	4398
899.393	4485
899.513	4523
899.633	4542
899.753	4542
899.873	4531
899.993	4580
900.113	4489
900.232	4561
900.352	4519
900.472	4485
900.591	4394
900.711	4512
900.83	4504
900.95	4622
901.069	4702
901.189	4569
901.308	4356
901.427	4314
901.546	4413
901.665	4481
901.784	4474
901.904	4337
902.023	4344
902.141	4177
902.26	4154
902.379	4306
902.498	4238
902.617	4234
902.735	4405
902.854	4371
902.973	4405
903.091	4227
903.21	4242
903.328	4322
903.446	4265
903.565	4257
903.683	4363
903.801	4295
903.919	4405
904.038	4383
904.156	4287
904.274	4485
904.392	4436
904.51	4417
904.627	4440
904.745	4535
904.863	4653
904.981	4413
905.098	4325
905.216	4398
905.334	4436
905.451	4451
905.569	4383
905.686	4527
905.803	4561
905.921	4417
906.038	4497
906.155	4550
906.272	4363
906.389	4478
906.506	4383
906.623	4402
906.74	4386
906.857	4287
906.974	4344
907.091	4599
907.208	4706
907.324	4580
907.441	4459
907.557	4329
907.674	4333
907.79	4325
907.907	4405
908.023	4470
908.139	4478
908.256	4451
908.372	4508
908.488	4409
908.604	4383
908.72	4310
908.836	4398
908.952	4379
909.068	4485
909.184	4592
909.3	4504
909.415	4611
909.531	4584
909.647	4341
909.762	4383
909.878	4344
909.993	4417
910.108	4421
910.224	4356
910.339	4489
910.454	4398
910.57	4383
910.685	4341
910.8	4649
910.915	4660
911.03	4500
911.145	4322
911.259	4291
911.374	4386
911.489	4272
911.604	4246
911.718	4177
911.833	4158
911.947	4078
912.062	4055
912.176	4207
912.291	4242
912.405	4257
912.519	4451
912.633	4500
912.748	4325
912.862	4299
912.976	4257
913.09	4105
913.204	4166
913.318	4276
913.431	4329
913.545	4424
913.659	4451
913.772	4383
913.886	4272
914	4204
914.113	4383
914.226	4436
914.34	4356
914.453	4219
914.566	4424
914.68	4291
914.793	4352
914.906	4143
915.019	4188
915.132	4131
915.245	4177
915.358	4234
915.47	4234
915.583	4253
915.696	4280
915.809	4455
915.921	4383
916.034	4276
916.146	4249
916.259	4227
916.371	4375
916.483	4375
916.595	4249
916.708	4284
916.82	4314
916.932	4322
917.044	4367
917.156	4325
917.268	4253
917.38	4295
917.491	4303
917.603	4329
917.715	4436
917.826	4436
917.938	4344
918.049	4192
918.161	4379
918.272	4512
918.384	4516
918.495	4417
918.606	4295
918.717	4234
918.828	4325
918.939	4394
919.05	4253
919.161	4337
919.272	4131
919.383	4242
919.494	4402
919.604	4634
919.715	4432
919.826	4337
919.936	4386
920.047	4550
920.157	4481
920.267	4710
920.378	4508
920.488	4546
920.598	4706
920.708	4938
920.818	4721
920.928	4736
921.038	4949
921.148	4919
921.258	4630
921.368	4580
921.477	4485
921.587	4459
921.697	4386
921.806	4531
921.916	4462
922.025	4280
922.134	4265
922.244	4234
922.353	4291
922.462	4200
922.571	4135
922.68	3983
922.789	4013
922.898	4086
923.007	3998
923.116	4086
923.224	4086
923.333	4082
923.442	3968
923.55	3972
923.659	4013
923.767	4101
923.876	4021
923.984	4139
924.092	3956
924.201	4048
924.309	4074
924.417	4143
924.525	4055
924.633	4131
924.741	4900
924.849	3934
924.956	4097
925.064	3979
925.172	3888
925.279	3979
925.387	4059
925.494	4051
925.602	4238
925.709	4181
925.816	4036
925.924	4097
926.031	4242
926.138	4162
926.245	4234
926.352	4128
926.459	4230
926.566	4303
926.673	4196
926.779	4135
926.886	4071
926.993	3998
927.099	3956
927.206	3911
927.312	3937
927.419	4032
927.525	4029
927.631	4105
927.737	3964
927.843	3911
927.95	3865
928.056	3972
928.162	3975
928.267	4059
928.373	4580
928.479	4109
928.585	3896
928.69	4029
928.796	4097
928.901	3956
929.007	3850
929.112	4055
929.218	3998
929.323	3941
929.428	3998
929.533	4154
929.638	3854
929.743	3945
929.848	4086
929.953	4002
930.058	3937
930.163	3800
930.267	3816
930.372	3964
930.477	3793
930.581	4135
930.685	3972
930.79	3804
930.894	3888
930.998	3907
931.103	4006
931.207	3724
931.311	3686
931.415	3652
931.519	3511
931.623	3504
