Data from test_V78500241_2210.txt Node
Date: Fri Mar 25 17:04:22 CST 2022
User: usil
Spectrometer: V785-0024
Trigger mode: 0
Integration Time (sec): 4.000000E-1
Scans to average: 1
Nonlinearity correction enabled: false
Boxcar width: 0
Storing dark spectrum: false
XAxis mode: Wavelengths
Number of Pixels in Spectrum: 1024
>>>>>Begin Spectral Data<<<<<
801.071	8001
801.214	8035
801.356	7814
801.499	7955
801.641	7814
801.783	7837
801.926	8031
802.068	7986
802.211	8001
802.353	8001
802.496	7868
802.638	7906
802.78	7936
802.923	7936
803.065	7925
803.208	7822
803.35	7970
803.492	8134
803.635	8161
803.777	8020
803.919	8107
804.061	8450
804.204	8161
804.346	8111
804.488	8027
804.63	8130
804.773	8039
804.915	8149
805.057	8309
805.199	8199
805.341	8187
805.483	8244
805.626	8248
805.768	8100
805.91	8267
806.052	8237
806.194	8130
806.336	8290
806.478	8092
806.62	8046
806.762	8100
806.904	8263
807.046	8427
807.188	8385
807.33	8301
807.472	8347
807.614	8084
807.756	8187
807.898	8046
808.04	7925
808.182	7875
808.324	7963
808.465	7898
808.607	8027
808.749	8092
808.891	8214
809.033	8358
809.174	8237
809.316	8065
809.458	8039
809.6	8062
809.741	8065
809.883	8077
810.025	8115
810.166	8111
810.308	8039
810.45	7993
810.591	7852
810.733	7704
810.875	7552
811.016	7544
811.158	7449
811.299	7571
811.441	7753
811.582	7632
811.724	7563
811.865	7502
812.007	7586
812.148	7586
812.29	7712
812.431	7795
812.573	7921
812.714	7928
812.855	8107
812.997	8199
813.138	8332
813.279	8153
813.421	8050
813.562	7970
813.703	7887
813.845	7723
813.986	7449
814.127	7266
814.268	7278
814.41	7240
814.551	7175
814.692	7236
814.833	7129
814.974	7015
815.115	7076
815.256	6996
815.397	6951
815.539	6935
815.68	6852
815.821	6840
815.962	6856
816.103	6848
816.244	6722
816.385	6623
816.526	6578
816.666	6452
816.807	6327
816.948	6479
817.089	6490
817.23	6437
817.371	6334
817.512	6308
817.653	6410
817.793	6426
817.934	6384
818.075	6513
818.216	6452
818.356	6414
818.497	6281
818.638	6155
818.778	6178
818.919	6152
819.06	6190
819.2	6365
819.341	6346
819.481	6388
819.622	6486
819.762	6787
819.903	6696
820.043	6589
820.184	6585
820.324	6608
820.465	6722
820.605	6722
820.746	6673
820.886	6486
821.026	6646
821.167	6669
821.307	6768
821.447	6738
821.588	6684
821.728	6631
821.868	6547
822.008	6289
822.149	6395
822.289	6331
822.429	6186
822.569	6114
822.709	6152
822.849	5893
822.99	5908
823.13	5904
823.27	6007
823.41	5790
823.55	5771
823.69	5760
823.83	5737
823.97	5649
824.11	5543
824.25	5512
824.389	5543
824.529	5581
824.669	5589
824.809	5653
824.949	5638
825.089	5630
825.228	5596
825.368	5395
825.508	5372
825.648	5326
825.787	5353
825.927	5318
826.067	5273
826.206	5261
826.346	5334
826.485	5364
826.625	5440
826.765	5551
826.904	5459
827.044	5246
827.183	5197
827.323	5143
827.462	5212
827.601	5189
827.741	5208
827.88	5162
828.02	5105
828.159	5220
828.298	5296
828.437	5391
828.577	5318
828.716	5501
828.855	5303
828.994	5185
829.134	5212
829.273	5189
829.412	5117
829.551	5159
829.69	5204
829.829	5273
829.968	5349
830.107	5277
830.246	5277
830.385	5189
830.524	5105
830.663	5056
830.802	4965
830.941	4877
831.08	4881
831.219	4995
831.357	4961
831.496	5204
831.635	4919
831.774	4831
831.913	4797
832.051	4782
832.19	4801
832.329	4873
832.467	4698
832.606	4664
832.744	4721
832.883	4725
833.022	4805
833.16	4812
833.299	4881
833.437	4877
833.576	4831
833.714	4881
833.852	4858
833.991	4839
834.129	4976
834.267	4980
834.406	4866
834.544	4942
834.682	4987
834.821	4957
834.959	5124
835.097	4995
835.235	5212
835.373	5098
835.511	5113
835.65	5018
835.788	5018
835.926	4881
836.064	4877
836.202	4889
836.34	5181
836.478	5250
836.615	5178
836.753	5185
836.891	5284
837.029	5239
837.167	5235
837.305	5140
837.443	5166
837.58	5067
837.718	5174
837.856	5208
837.993	5147
838.131	5265
838.269	5246
838.406	5231
838.544	5170
838.681	5041
838.819	5029
838.956	4850
839.094	4934
839.231	4976
839.369	5083
839.506	5425
839.643	5265
839.781	5109
839.918	5067
840.055	5079
840.193	5105
840.33	5113
840.467	5170
840.604	5189
840.742	5421
840.879	5128
841.016	5079
841.153	5136
841.29	5353
841.427	5353
841.564	5383
841.701	5341
841.838	5208
841.975	5246
842.112	5261
842.249	5185
842.385	5109
842.522	5326
842.659	5132
842.796	5166
842.933	5204
843.069	5128
843.206	5132
843.343	5292
843.479	5227
843.616	5265
843.752	5067
843.889	4995
844.025	5220
844.162	5006
844.298	5223
844.435	5060
844.571	5033
844.708	5227
844.844	5292
844.98	5349
845.117	5299
845.253	5136
845.389	5064
845.525	5216
845.661	5128
845.798	5045
845.934	5136
846.07	5098
846.206	5181
846.342	5292
846.478	5185
846.614	5067
846.75	4953
846.886	4957
847.022	5090
847.158	5010
847.294	5056
847.429	5105
847.565	5064
847.701	5345
847.837	4835
847.972	4793
848.108	4984
848.244	4930
848.379	4771
848.515	4698
848.65	4721
848.786	4736
848.921	4778
849.057	4896
849.192	4843
849.328	4820
849.463	4828
849.598	4809
849.734	4744
849.869	4702
850.004	4653
850.14	4649
850.275	4561
850.41	4542
850.545	4577
850.68	4596
850.815	4641
850.95	4607
851.085	4877
851.22	4733
851.355	4694
851.49	4645
851.625	4630
851.76	4653
851.895	4573
852.03	4504
852.165	4588
852.299	4645
852.434	4797
852.569	4755
852.703	4755
852.838	4858
852.973	4908
853.107	4904
853.242	4710
853.376	4717
853.511	4538
853.645	4603
853.78	4797
853.914	4702
854.048	4653
854.183	4630
854.317	4725
854.451	4843
854.585	4645
854.72	4641
854.854	4740
854.988	4607
855.122	4607
855.256	4565
855.39	4672
855.524	4706
855.658	4755
855.792	4672
855.926	4782
856.06	4797
856.194	4786
856.327	4710
856.461	4634
856.595	4611
856.729	4622
856.862	4736
856.996	4740
857.13	4721
857.263	4725
857.397	4790
857.53	4710
857.664	4714
857.797	4778
857.931	4786
858.064	4656
858.197	4767
858.331	4649
858.464	4561
858.597	4512
858.731	4637
858.864	4626
858.997	4607
859.13	4653
859.263	4637
859.396	4706
859.529	4554
859.662	4523
859.795	4542
859.928	4672
860.061	4774
860.194	4767
860.327	4577
860.46	4588
860.592	4717
860.725	4729
860.858	4710
860.99	4554
861.123	4489
861.256	4565
861.388	4618
861.521	5318
861.653	4462
861.786	4447
861.918	4474
862.05	4516
862.183	4554
862.315	4596
862.447	4634
862.58	4577
862.712	4390
862.844	4333
862.976	4485
863.108	4443
863.24	4805
863.372	4367
863.504	4428
863.636	4363
863.768	4497
863.9	4428
864.032	4367
864.164	4417
864.296	4489
864.428	4504
864.559	4550
864.691	4531
864.823	4523
864.954	4470
865.086	4519
865.217	4447
865.349	4383
865.48	4459
865.612	4489
865.743	4630
865.875	4440
866.006	4436
866.137	4466
866.269	4417
866.4	4424
866.531	4394
866.662	4375
866.793	4386
866.924	4428
867.055	4504
867.186	4470
867.317	4398
867.448	4367
867.579	4398
867.71	4386
867.841	4375
867.972	4481
868.103	4455
868.233	4455
868.364	4440
868.495	4489
868.625	4702
868.756	4733
868.886	4561
869.017	4626
869.147	4774
869.278	4771
869.408	4641
869.539	4668
869.669	4717
869.799	4626
869.929	4755
870.06	4752
870.19	4942
870.32	4889
870.45	4946
870.58	5033
870.71	5121
870.84	5064
870.97	4984
871.1	4900
871.23	5143
871.36	5132
871.489	4999
871.619	5083
871.749	5128
871.879	5132
872.008	5204
872.138	5041
872.267	4953
872.397	4820
872.526	4763
872.656	4717
872.785	4816
872.915	4987
873.044	4991
873.173	4915
873.303	4919
873.432	4976
873.561	4957
873.69	4923
873.819	4828
873.948	4896
874.077	4828
874.206	4729
874.335	4835
874.464	4900
874.593	5045
874.722	4953
874.851	5098
874.979	5048
875.108	5033
875.237	4949
875.365	4900
875.494	4881
875.623	5033
875.751	4881
875.88	4923
876.008	5003
876.136	5056
876.265	5170
876.393	5341
876.521	5288
876.65	5242
876.778	5132
876.906	5090
877.034	5071
877.162	5041
877.29	5003
877.418	5048
877.546	5067
877.674	5090
877.802	5006
877.93	4984
878.058	4946
878.185	4854
878.313	4934
878.441	4984
878.568	4816
878.696	4877
878.824	4946
878.951	5018
879.079	5124
879.206	5288
879.333	5113
879.461	4972
879.588	5006
879.715	5136
879.842	5208
879.97	4965
880.097	4778
880.224	4740
880.351	4793
880.478	4835
880.605	4767
880.732	4790
880.859	5067
880.986	4881
881.112	4911
881.239	4782
881.366	4679
881.493	4607
881.619	4615
881.746	4687
881.872	4687
881.999	4649
882.125	4717
882.252	4790
882.378	4774
882.505	4984
882.631	4767
882.757	4634
882.883	4725
883.01	4721
883.136	4721
883.262	4611
883.388	4641
883.514	4801
883.64	4877
883.766	4843
883.892	4683
884.018	4729
884.143	4850
884.269	5037
884.395	4691
884.52	4622
884.646	4615
884.772	4596
884.897	4599
885.023	4675
885.148	4778
885.274	4911
885.399	4847
885.524	4733
885.65	4714
885.775	4740
885.9	4706
886.025	4858
886.15	4801
886.275	4729
886.4	4645
886.525	4786
886.65	4660
886.775	4672
886.9	4908
887.025	5003
887.149	4820
887.274	4615
887.399	4558
887.523	4618
887.648	4588
887.773	4588
887.897	4778
888.021	4801
888.146	4744
888.27	4824
888.395	4919
888.519	4793
888.643	4820
888.767	4835
888.891	4687
889.015	4592
889.139	4649
889.263	4618
889.387	4714
889.511	4854
889.635	4809
889.759	4622
889.883	4634
890.006	4714
890.13	4862
890.254	4626
890.377	4679
890.501	4558
890.624	4523
890.748	4683
890.871	4493
890.995	4428
891.118	4409
891.241	4504
891.364	4531
891.488	4649
891.611	4485
891.734	4538
891.857	4554
891.98	4580
892.103	4599
892.226	4577
892.349	4493
892.471	4440
892.594	4542
892.717	4596
892.839	4592
892.962	4561
893.085	4630
893.207	4641
893.33	4428
893.452	4500
893.575	4664
893.697	4588
893.819	4805
893.941	4877
894.064	4797
894.186	4573
894.308	4577
894.43	4679
894.552	4778
894.674	4744
894.796	4573
894.918	4542
895.04	4542
895.161	4679
895.283	4634
895.405	4584
895.526	4615
895.648	4698
895.769	4687
895.891	4721
896.012	4702
896.134	4691
896.255	4668
896.376	4672
896.498	4630
896.619	4691
896.74	4607
896.861	4675
896.982	4889
897.103	5060
897.224	4820
897.345	4733
897.466	4687
897.587	4736
897.708	4820
897.828	4729
897.949	4664
898.07	4535
898.19	4626
898.311	4801
898.431	4694
898.552	4740
898.672	4790
898.792	4850
898.913	4755
899.033	4641
899.153	4519
899.273	4424
899.393	4485
899.513	4538
899.633	4493
899.753	4538
899.873	4516
899.993	4588
900.113	4512
900.232	4573
900.352	4550
900.472	4504
900.591	4390
900.711	4462
900.83	4455
900.95	4637
901.069	4683
901.189	4527
901.308	4314
901.427	4322
901.546	4356
901.665	4516
901.784	4527
901.904	4386
902.023	4322
902.141	4211
902.26	4143
902.379	4306
902.498	4253
902.617	4200
902.735	4375
902.854	4356
902.973	4344
903.091	4211
903.21	4242
903.328	4280
903.446	4253
903.565	4242
903.683	4363
903.801	4303
903.919	4394
904.038	4417
904.156	4356
904.274	4413
904.392	4386
904.51	4440
904.627	4474
904.745	4577
904.863	4656
904.981	4383
905.098	4310
905.216	4337
905.334	4402
905.451	4440
905.569	4459
905.686	4588
905.803	4538
905.921	4398
906.038	4569
906.155	4459
906.272	4386
906.389	4462
906.506	4314
906.623	4341
906.74	4398
906.857	4280
906.974	4375
907.091	4531
907.208	4626
907.324	4569
907.441	4523
907.557	4363
907.674	4363
907.79	4306
907.907	4394
908.023	4413
908.139	4489
908.256	4436
908.372	4466
908.488	4462
908.604	4341
908.72	4295
908.836	4394
908.952	4375
909.068	4421
909.184	4550
909.3	4485
909.415	4554
909.531	4546
909.647	4367
909.762	4303
909.878	4341
909.993	4451
910.108	4413
910.224	4447
910.339	4531
910.454	4440
910.57	4333
910.685	4268
910.8	4626
910.915	4599
911.03	4481
911.145	4318
911.259	4310
911.374	4341
911.489	4310
911.604	4261
911.718	4169
911.833	4154
911.947	4086
912.062	4036
912.176	4169
912.291	4207
912.405	4249
912.519	4417
912.633	4497
912.748	4375
912.862	4272
912.976	4204
913.09	4071
913.204	4181
913.318	4253
913.431	4344
913.545	4348
913.659	4413
913.772	4363
913.886	4261
914	4162
914.113	4360
914.226	4402
914.34	4394
914.453	4211
914.566	4390
914.68	4325
914.793	4344
914.906	4154
915.019	4124
915.132	4067
915.245	4143
915.358	4207
915.47	4261
915.583	4257
915.696	4310
915.809	4394
915.921	4409
916.034	4253
916.146	4238
916.259	4196
916.371	4413
916.483	4360
916.595	4280
916.708	4303
916.82	4344
916.932	4287
917.044	4291
917.156	4322
917.268	4246
917.38	4272
917.491	4246
917.603	4348
917.715	4417
917.826	4459
917.938	4329
918.049	4261
918.161	4363
918.272	4550
918.384	4546
918.495	4421
918.606	4299
918.717	4238
918.828	4360
918.939	4363
919.05	4261
919.161	4314
919.272	4154
919.383	4211
919.494	4470
919.604	4637
919.715	4428
919.826	4318
919.936	4417
920.047	4531
920.157	4497
920.267	4622
920.378	4569
920.488	4542
920.598	4744
920.708	4908
920.818	4736
920.928	4774
921.038	4911
921.148	4881
921.258	4637
921.368	4508
921.477	4485
921.587	4436
921.697	4375
921.806	4527
921.916	4462
922.025	4299
922.134	4272
922.244	4238
922.353	4322
922.462	4173
922.571	4135
922.68	4040
922.789	3953
922.898	4036
923.007	3960
923.116	4097
923.224	4059
923.333	4067
923.442	3968
923.55	3994
923.659	4036
923.767	4120
923.876	4002
923.984	4120
924.092	4025
924.201	4071
924.309	4082
924.417	4128
924.525	4086
924.633	4147
924.741	5037
924.849	3922
924.956	4109
925.064	3945
925.172	3918
925.279	3945
925.387	4044
925.494	4086
925.602	4207
925.709	4200
925.816	4044
925.924	4101
926.031	4249
926.138	4169
926.245	4196
926.352	4051
926.459	4223
926.566	4337
926.673	4147
926.779	4124
926.886	4105
926.993	3972
927.099	3945
927.206	3949
927.312	3934
927.419	4040
927.525	4013
927.631	4063
927.737	3956
927.843	3934
927.95	3907
928.056	3941
928.162	4002
928.267	4036
928.373	4656
928.479	4109
928.585	3865
928.69	4048
928.796	4044
928.901	4017
929.007	3861
929.112	4013
929.218	3991
929.323	3930
929.428	3934
929.533	4120
929.638	3930
929.743	3892
929.848	4021
929.953	4013
930.058	3930
930.163	3751
930.267	3861
930.372	3987
930.477	3800
930.581	4105
930.685	3934
930.79	3846
930.894	3880
930.998	3812
931.103	4029
931.207	3709
931.311	3682
931.415	3675
931.519	3523
931.623	3504
