Data from test_V78500241_2664.txt Node
Date: Fri Mar 25 17:07:31 CST 2022
User: usil
Spectrometer: V785-0024
Trigger mode: 0
Integration Time (sec): 4.000000E-1
Scans to average: 1
Nonlinearity correction enabled: false
Boxcar width: 0
Storing dark spectrum: false
XAxis mode: Wavelengths
Number of Pixels in Spectrum: 1024
>>>>>Begin Spectral Data<<<<<
801.071	7921
801.214	7986
801.356	7925
801.499	7818
801.641	7761
801.783	7788
801.926	8001
802.068	7902
802.211	8046
802.353	7986
802.496	7871
802.638	7898
802.78	7947
802.923	7906
803.065	7849
803.208	7871
803.35	7982
803.492	8123
803.635	8168
803.777	8043
803.919	8092
804.061	8423
804.204	8096
804.346	8039
804.488	7917
804.63	8100
804.773	8043
804.915	8176
805.057	8256
805.199	8149
805.341	8157
805.483	8309
805.626	8240
805.768	8012
805.91	8195
806.052	8176
806.194	8005
806.336	8279
806.478	8115
806.62	8031
806.762	8153
806.904	8206
807.046	8427
807.188	8347
807.33	8218
807.472	8347
807.614	8210
807.756	8142
807.898	8024
808.04	7811
808.182	7936
808.324	7890
808.465	7883
808.607	8126
808.749	8077
808.891	8233
809.033	8317
809.174	8206
809.316	8062
809.458	8043
809.6	7989
809.741	8054
809.883	8050
810.025	8039
810.166	8027
810.308	8024
810.45	7955
810.591	7894
810.733	7723
810.875	7662
811.016	7567
811.158	7499
811.299	7594
811.441	7674
811.582	7666
811.724	7544
811.865	7495
812.007	7616
812.148	7693
812.29	7620
812.431	7776
812.573	7913
812.714	8001
812.855	8176
812.997	8221
813.138	8206
813.279	8142
813.421	8134
813.562	8039
813.703	7833
813.845	7795
813.986	7441
814.127	7308
814.268	7293
814.41	7213
814.551	7198
814.692	7213
814.833	7042
814.974	7076
815.115	7084
815.256	6966
815.397	6996
815.539	6958
815.68	6818
815.821	6814
815.962	6897
816.103	6772
816.244	6741
816.385	6566
816.526	6616
816.666	6517
816.807	6289
816.948	6509
817.089	6483
817.23	6437
817.371	6380
817.512	6388
817.653	6460
817.793	6331
817.934	6445
818.075	6475
818.216	6460
818.356	6418
818.497	6273
818.638	6095
818.778	6079
818.919	6186
819.06	6197
819.2	6300
819.341	6353
819.481	6311
819.622	6540
819.762	6726
819.903	6776
820.043	6669
820.184	6631
820.324	6601
820.465	6741
820.605	6650
820.746	6665
820.886	6528
821.026	6681
821.167	6692
821.307	6840
821.447	6802
821.588	6677
821.728	6574
821.868	6475
822.008	6296
822.149	6391
822.289	6311
822.429	6159
822.569	6102
822.709	6114
822.849	5874
822.99	5882
823.13	5897
823.27	5950
823.41	5786
823.55	5805
823.69	5813
823.83	5824
823.97	5657
824.11	5581
824.25	5524
824.389	5570
824.529	5581
824.669	5577
824.809	5642
824.949	5592
825.089	5547
825.228	5554
825.368	5383
825.508	5379
825.648	5387
825.787	5353
825.927	5357
826.067	5360
826.206	5303
826.346	5315
826.485	5395
826.625	5433
826.765	5577
826.904	5433
827.044	5258
827.183	5235
827.323	5117
827.462	5315
827.601	5174
827.741	5136
827.88	5136
828.02	5075
828.159	5299
828.298	5372
828.437	5341
828.577	5303
828.716	5486
828.855	5322
828.994	5159
829.134	5143
829.273	5220
829.412	5178
829.551	5201
829.69	5204
829.829	5246
829.968	5372
830.107	5288
830.246	5280
830.385	5223
830.524	5166
830.663	5094
830.802	4930
830.941	4885
831.08	4854
831.219	5048
831.357	5003
831.496	5162
831.635	4927
831.774	4812
831.913	4847
832.051	4774
832.19	4752
832.329	4828
832.467	4714
832.606	4634
832.744	4714
832.883	4725
833.022	4729
833.16	4797
833.299	4820
833.437	4820
833.576	4805
833.714	4850
833.852	4843
833.991	4904
834.129	4965
834.267	4957
834.406	4915
834.544	4972
834.682	4934
834.821	4957
834.959	5147
835.097	4999
835.235	5178
835.373	5102
835.511	5056
835.65	5006
835.788	4938
835.926	4908
836.064	4927
836.202	4885
836.34	5136
836.478	5261
836.615	5136
836.753	5239
836.891	5265
837.029	5254
837.167	5239
837.305	5128
837.443	5170
837.58	5075
837.718	5235
837.856	5231
837.993	5136
838.131	5235
838.269	5242
838.406	5162
838.544	5204
838.681	5037
838.819	4934
838.956	4957
839.094	4892
839.231	4968
839.369	5048
839.506	5436
839.643	5273
839.781	5022
839.918	5060
840.055	5105
840.193	5109
840.33	5121
840.467	5151
840.604	5166
840.742	5467
840.879	5086
841.016	5083
841.153	5181
841.29	5398
841.427	5311
841.564	5315
841.701	5322
841.838	5280
841.975	5212
842.112	5235
842.249	5159
842.385	5083
842.522	5326
842.659	5143
842.796	5178
842.933	5193
843.069	5189
843.206	5159
843.343	5258
843.479	5261
843.616	5303
843.752	5048
843.889	4953
844.025	5231
844.162	4987
844.298	5185
844.435	5083
844.571	5037
844.708	5159
844.844	5261
844.98	5299
845.117	5246
845.253	5109
845.389	5083
845.525	5147
845.661	5128
845.798	5083
845.934	5113
846.07	5090
846.206	5204
846.342	5292
846.478	5178
846.614	5003
846.75	4987
846.886	4927
847.022	5113
847.158	4972
847.294	5060
847.429	5041
847.565	5094
847.701	5326
847.837	4843
847.972	4824
848.108	4946
848.244	4946
848.379	4782
848.515	4748
848.65	4679
848.786	4706
848.921	4790
849.057	4858
849.192	4862
849.328	4812
849.463	4870
849.598	4816
849.734	4729
849.869	4698
850.004	4596
850.14	4649
850.275	4577
850.41	4519
850.545	4561
850.68	4584
850.815	4626
850.95	4584
851.085	4835
851.22	4740
851.355	4622
851.49	4618
851.625	4649
851.76	4675
851.895	4558
852.03	4554
852.165	4721
852.299	4733
852.434	4812
852.569	4736
852.703	4801
852.838	4889
852.973	4930
853.107	4839
853.242	4744
853.376	4706
853.511	4504
853.645	4588
853.78	4809
853.914	4687
854.048	4687
854.183	4645
854.317	4679
854.451	4854
854.585	4668
854.72	4668
854.854	4759
854.988	4592
855.122	4596
855.256	4519
855.39	4645
855.524	4702
855.658	4736
855.792	4672
855.926	4763
856.06	4759
856.194	4847
856.327	4664
856.461	4622
856.595	4584
856.729	4649
856.862	4755
856.996	4664
857.13	4729
857.263	4733
857.397	4771
857.53	4634
857.664	4744
857.797	4763
857.931	4797
858.064	4656
858.197	4755
858.331	4687
858.464	4611
858.597	4523
858.731	4615
858.864	4634
858.997	4584
859.13	4672
859.263	4664
859.396	4656
859.529	4611
859.662	4588
859.795	4516
859.928	4565
860.061	4706
860.194	4740
860.327	4607
860.46	4584
860.592	4653
860.725	4706
860.858	4691
860.99	4569
861.123	4531
861.256	4542
861.388	4573
861.521	5398
861.653	4474
861.786	4462
861.918	4478
862.05	4580
862.183	4527
862.315	4580
862.447	4672
862.58	4531
862.712	4424
862.844	4352
862.976	4489
863.108	4481
863.24	4839
863.372	4333
863.504	4390
863.636	4398
863.768	4428
863.9	4428
864.032	4356
864.164	4344
864.296	4432
864.428	4512
864.559	4554
864.691	4558
864.823	4497
864.954	4519
865.086	4516
865.217	4436
865.349	4451
865.48	4421
865.612	4478
865.743	4618
865.875	4459
866.006	4409
866.137	4493
866.269	4432
866.4	4424
866.531	4405
866.662	4443
866.793	4398
866.924	4424
867.055	4531
867.186	4432
867.317	4379
867.448	4405
867.579	4390
867.71	4390
867.841	4386
867.972	4443
868.103	4478
868.233	4443
868.364	4462
868.495	4481
868.625	4649
868.756	4702
868.886	4546
869.017	4615
869.147	4763
869.278	4767
869.408	4721
869.539	4664
869.669	4759
869.799	4660
869.929	4740
870.06	4710
870.19	4942
870.32	4847
870.45	4927
870.58	4972
870.71	5098
870.84	5083
870.97	4976
871.1	4908
871.23	5128
871.36	5185
871.489	5014
871.619	5075
871.749	5067
871.879	5151
872.008	5159
872.138	5060
872.267	4965
872.397	4870
872.526	4805
872.656	4744
872.785	4828
872.915	4965
873.044	5037
873.173	4911
873.303	4995
873.432	4968
873.561	4995
873.69	4873
873.819	4850
873.948	4904
874.077	4866
874.206	4752
874.335	4793
874.464	4938
874.593	5006
874.722	4961
874.851	5117
874.979	5003
875.108	5029
875.237	4904
875.365	4908
875.494	4919
875.623	4946
875.751	4820
875.88	4889
876.008	4949
876.136	4976
876.265	5239
876.393	5315
876.521	5246
876.65	5269
876.778	5178
876.906	5071
877.034	4987
877.162	5083
877.29	4976
877.418	5060
877.546	5056
877.674	5041
877.802	4984
877.93	5045
878.058	4953
878.185	4839
878.313	4991
878.441	4965
878.568	4790
878.696	4847
878.824	4930
878.951	4995
879.079	5147
879.206	5318
879.333	5090
879.461	4999
879.588	4987
879.715	5113
879.842	5239
879.97	5029
880.097	4782
880.224	4763
880.351	4831
880.478	4812
880.605	4831
880.732	4778
880.859	5113
880.986	4927
881.112	4862
881.239	4809
881.366	4649
881.493	4691
881.619	4569
881.746	4675
881.872	4660
881.999	4656
882.125	4675
882.252	4782
882.378	4809
882.505	4957
882.631	4835
882.757	4656
882.883	4725
883.01	4774
883.136	4653
883.262	4577
883.388	4626
883.514	4835
883.64	4892
883.766	4782
883.892	4668
884.018	4729
884.143	4854
884.269	4976
884.395	4683
884.52	4653
884.646	4618
884.772	4558
884.897	4577
885.023	4649
885.148	4778
885.274	4889
885.399	4850
885.524	4725
885.65	4710
885.775	4710
885.9	4679
886.025	4862
886.15	4790
886.275	4717
886.4	4691
886.525	4725
886.65	4702
886.775	4698
886.9	4900
887.025	5037
887.149	4820
887.274	4683
887.399	4573
887.523	4561
887.648	4592
887.773	4592
887.897	4759
888.021	4812
888.146	4687
888.27	4843
888.395	4896
888.519	4759
888.643	4835
888.767	4805
888.891	4664
889.015	4615
889.139	4656
889.263	4580
889.387	4763
889.511	4835
889.635	4820
889.759	4679
889.883	4656
890.006	4759
890.13	4858
890.254	4641
890.377	4717
890.501	4569
890.624	4478
890.748	4637
890.871	4550
890.995	4447
891.118	4383
891.241	4489
891.364	4478
891.488	4637
891.611	4447
891.734	4523
891.857	4577
891.98	4569
892.103	4653
892.226	4588
892.349	4504
892.471	4428
892.594	4599
892.717	4569
892.839	4546
892.962	4599
893.085	4656
893.207	4607
893.33	4493
893.452	4519
893.575	4645
893.697	4531
893.819	4767
893.941	4858
894.064	4740
894.186	4622
894.308	4577
894.43	4740
894.552	4816
894.674	4774
894.796	4592
894.918	4554
895.04	4546
895.161	4733
895.283	4645
895.405	4615
895.526	4626
895.648	4672
895.769	4683
895.891	4675
896.012	4755
896.134	4687
896.255	4668
896.376	4656
896.498	4634
896.619	4675
896.74	4603
896.861	4691
896.982	4911
897.103	5037
897.224	4885
897.345	4801
897.466	4656
897.587	4717
897.708	4831
897.828	4725
897.949	4675
898.07	4538
898.19	4660
898.311	4854
898.431	4691
898.552	4702
898.672	4805
898.792	4801
898.913	4733
899.033	4611
899.153	4489
899.273	4443
899.393	4478
899.513	4550
899.633	4523
899.753	4565
899.873	4493
899.993	4618
900.113	4561
900.232	4599
900.352	4516
900.472	4474
900.591	4390
900.711	4512
900.83	4466
900.95	4599
901.069	4679
901.189	4558
901.308	4402
901.427	4379
901.546	4386
901.665	4443
901.784	4508
901.904	4348
902.023	4360
902.141	4181
902.26	4177
902.379	4318
902.498	4215
902.617	4219
902.735	4352
902.854	4383
902.973	4375
903.091	4238
903.21	4246
903.328	4299
903.446	4280
903.565	4257
903.683	4379
903.801	4284
903.919	4379
904.038	4440
904.156	4322
904.274	4440
904.392	4383
904.51	4451
904.627	4497
904.745	4615
904.863	4641
904.981	4424
905.098	4318
905.216	4348
905.334	4440
905.451	4459
905.569	4459
905.686	4573
905.803	4580
905.921	4375
906.038	4607
906.155	4470
906.272	4394
906.389	4474
906.506	4322
906.623	4409
906.74	4383
906.857	4291
906.974	4379
907.091	4542
907.208	4714
907.324	4584
907.441	4443
907.557	4348
907.674	4348
907.79	4295
907.907	4413
908.023	4474
908.139	4424
908.256	4462
908.372	4470
908.488	4470
908.604	4413
908.72	4299
908.836	4360
908.952	4322
909.068	4405
909.184	4622
909.3	4432
909.415	4634
909.531	4519
909.647	4375
909.762	4394
909.878	4367
909.993	4394
910.108	4398
910.224	4417
910.339	4508
910.454	4447
910.57	4409
910.685	4306
910.8	4664
910.915	4584
911.03	4455
911.145	4383
911.259	4276
911.374	4409
911.489	4318
911.604	4295
911.718	4158
911.833	4242
911.947	4051
912.062	4025
912.176	4150
912.291	4249
912.405	4291
912.519	4497
912.633	4489
912.748	4371
912.862	4360
912.976	4230
913.09	4135
913.204	4219
913.318	4299
913.431	4383
913.545	4379
913.659	4424
913.772	4344
913.886	4238
914	4219
914.113	4386
914.226	4390
914.34	4428
914.453	4204
914.566	4421
914.68	4322
914.793	4363
914.906	4150
915.019	4120
915.132	4059
915.245	4181
915.358	4196
915.47	4207
915.583	4246
915.696	4329
915.809	4363
915.921	4405
916.034	4265
916.146	4322
916.259	4249
916.371	4402
916.483	4341
916.595	4299
916.708	4329
916.82	4310
916.932	4314
917.044	4333
917.156	4303
917.268	4219
917.38	4272
917.491	4268
917.603	4344
917.715	4432
917.826	4417
917.938	4386
918.049	4268
918.161	4413
918.272	4611
918.384	4538
918.495	4409
918.606	4280
918.717	4196
918.828	4341
918.939	4375
919.05	4272
919.161	4284
919.272	4101
919.383	4268
919.494	4443
919.604	4580
919.715	4455
919.826	4383
919.936	4413
920.047	4512
920.157	4493
920.267	4717
920.378	4489
920.488	4500
920.598	4725
920.708	4870
920.818	4740
920.928	4797
921.038	4915
921.148	4877
921.258	4653
921.368	4573
921.477	4516
921.587	4432
921.697	4344
921.806	4558
921.916	4436
922.025	4314
922.134	4276
922.244	4230
922.353	4295
922.462	4162
922.571	4135
922.68	4017
922.789	3994
922.898	4002
923.007	3998
923.116	4086
923.224	4040
923.333	4120
923.442	3979
923.55	3975
923.659	4051
923.767	4063
923.876	4010
923.984	4101
924.092	4010
924.201	4067
924.309	4078
924.417	4131
924.525	4071
924.633	4128
924.741	5052
924.849	3949
924.956	4150
925.064	3953
925.172	3918
925.279	3960
925.387	4032
925.494	4017
925.602	4196
925.709	4188
925.816	4055
925.924	4082
926.031	4215
926.138	4150
926.245	4238
926.352	4071
926.459	4211
926.566	4341
926.673	4173
926.779	4109
926.886	4097
926.993	3953
927.099	3915
927.206	3953
927.312	3899
927.419	4082
927.525	4067
927.631	4101
927.737	3987
927.843	3975
927.95	3797
928.056	3930
928.162	3987
928.267	4040
928.373	4656
928.479	4169
928.585	3884
928.69	3991
928.796	4029
928.901	3972
929.007	3846
929.112	4017
929.218	3998
929.323	3960
929.428	3949
929.533	4150
929.638	3934
929.743	3953
929.848	4074
929.953	3998
930.058	3964
930.163	3778
930.267	3831
930.372	3991
930.477	3793
930.581	4097
930.685	3941
930.79	3823
930.894	3861
930.998	3861
931.103	4048
931.207	3743
931.311	3728
931.415	3652
931.519	3507
931.623	3500
