Data from test_V78500241_2020.txt Node
Date: Fri Mar 25 17:03:02 CST 2022
User: usil
Spectrometer: V785-0024
Trigger mode: 0
Integration Time (sec): 4.000000E-1
Scans to average: 1
Nonlinearity correction enabled: false
Boxcar width: 0
Storing dark spectrum: false
XAxis mode: Wavelengths
Number of Pixels in Spectrum: 1024
>>>>>Begin Spectral Data<<<<<
801.071	7978
801.214	8001
801.356	7792
801.499	7772
801.641	7742
801.783	7894
801.926	7947
802.068	7925
802.211	8016
802.353	7951
802.496	7841
802.638	7879
802.78	7852
802.923	7887
803.065	7826
803.208	7830
803.35	7982
803.492	8081
803.635	8191
803.777	8088
803.919	8164
804.061	8415
804.204	8130
804.346	8058
804.488	8008
804.63	8069
804.773	8031
804.915	8164
805.057	8305
805.199	8206
805.341	8176
805.483	8279
805.626	8221
805.768	8103
805.91	8267
806.052	8214
806.194	8081
806.336	8263
806.478	8100
806.62	8035
806.762	8187
806.904	8225
807.046	8503
807.188	8396
807.33	8313
807.472	8286
807.614	8214
807.756	8142
807.898	8039
808.04	7890
808.182	7913
808.324	7837
808.465	7868
808.607	8065
808.749	8096
808.891	8138
809.033	8313
809.174	8172
809.316	8092
809.458	8107
809.6	8081
809.741	8065
809.883	8043
810.025	8130
810.166	8054
810.308	8054
810.45	8016
810.591	7833
810.733	7761
810.875	7613
811.016	7491
811.158	7445
811.299	7628
811.441	7696
811.582	7643
811.724	7548
811.865	7567
812.007	7567
812.148	7537
812.29	7594
812.431	7765
812.573	7963
812.714	7913
812.855	8149
812.997	8252
813.138	8267
813.279	8183
813.421	8069
813.562	7989
813.703	7799
813.845	7753
813.986	7445
814.127	7266
814.268	7225
814.41	7190
814.551	7156
814.692	7251
814.833	7160
814.974	7114
815.115	7023
815.256	6985
815.397	6897
815.539	6886
815.68	6814
815.821	6726
815.962	6859
816.103	6787
816.244	6757
816.385	6604
816.526	6559
816.666	6498
816.807	6285
816.948	6445
817.089	6502
817.23	6315
817.371	6304
817.512	6418
817.653	6429
817.793	6357
817.934	6414
818.075	6384
818.216	6460
818.356	6372
818.497	6209
818.638	6171
818.778	6144
818.919	6133
819.06	6159
819.2	6372
819.341	6251
819.481	6342
819.622	6521
819.762	6696
819.903	6681
820.043	6616
820.184	6509
820.324	6578
820.465	6642
820.605	6608
820.746	6639
820.886	6486
821.026	6635
821.167	6654
821.307	6802
821.447	6802
821.588	6707
821.728	6574
821.868	6528
822.008	6414
822.149	6376
822.289	6334
822.429	6136
822.569	6106
822.709	6095
822.849	5946
822.99	5942
823.13	5893
823.27	5954
823.41	5851
823.55	5805
823.69	5771
823.83	5752
823.97	5726
824.11	5532
824.25	5524
824.389	5619
824.529	5581
824.669	5528
824.809	5668
824.949	5699
825.089	5642
825.228	5600
825.368	5455
825.508	5406
825.648	5376
825.787	5372
825.927	5372
826.067	5326
826.206	5296
826.346	5436
826.485	5444
826.625	5433
826.765	5551
826.904	5486
827.044	5334
827.183	5284
827.323	5178
827.462	5273
827.601	5254
827.741	5170
827.88	5303
828.02	5185
828.159	5265
828.298	5379
828.437	5364
828.577	5280
828.716	5467
828.855	5349
828.994	5185
829.134	5162
829.273	5227
829.412	5143
829.551	5166
829.69	5201
829.829	5326
829.968	5433
830.107	5307
830.246	5326
830.385	5216
830.524	5155
830.663	5094
830.802	5060
830.941	4881
831.08	4877
831.219	4991
831.357	5003
831.496	5178
831.635	4915
831.774	4881
831.913	4866
832.051	4729
832.19	4801
832.329	4843
832.467	4740
832.606	4649
832.744	4778
832.883	4767
833.022	4694
833.16	4752
833.299	4843
833.437	4816
833.576	4881
833.714	4911
833.852	4877
833.991	4904
834.129	4938
834.267	4949
834.406	4961
834.544	5041
834.682	5014
834.821	5018
834.959	5227
835.097	5010
835.235	5216
835.373	5113
835.511	5132
835.65	5094
835.788	5048
835.926	4896
836.064	4858
836.202	4984
836.34	5212
836.478	5223
836.615	5136
836.753	5239
836.891	5322
837.029	5315
837.167	5231
837.305	5151
837.443	5181
837.58	5117
837.718	5254
837.856	5204
837.993	5170
838.131	5235
838.269	5261
838.406	5159
838.544	5227
838.681	5064
838.819	5029
838.956	4927
839.094	4942
839.231	5037
839.369	5067
839.506	5467
839.643	5239
839.781	5071
839.918	5064
840.055	5128
840.193	5109
840.33	5105
840.467	5098
840.604	5220
840.742	5452
840.879	5124
841.016	5132
841.153	5227
841.29	5410
841.427	5357
841.564	5326
841.701	5376
841.838	5307
841.975	5239
842.112	5303
842.249	5174
842.385	5151
842.522	5368
842.659	5258
842.796	5178
842.933	5227
843.069	5220
843.206	5159
843.343	5326
843.479	5220
843.616	5334
843.752	5041
843.889	4991
844.025	5273
844.162	5060
844.298	5216
844.435	5140
844.571	5090
844.708	5208
844.844	5322
844.98	5410
845.117	5368
845.253	5162
845.389	5132
845.525	5174
845.661	5170
845.798	5060
845.934	5143
846.07	5029
846.206	5155
846.342	5292
846.478	5193
846.614	5010
846.75	5014
846.886	4984
847.022	5121
847.158	5067
847.294	5105
847.429	5121
847.565	5075
847.701	5307
847.837	4904
847.972	4801
848.108	5022
848.244	4953
848.379	4759
848.515	4763
848.65	4774
848.786	4809
848.921	4854
849.057	4923
849.192	4976
849.328	4873
849.463	4885
849.598	4850
849.734	4767
849.869	4721
850.004	4615
850.14	4687
850.275	4622
850.41	4569
850.545	4603
850.68	4637
850.815	4660
850.95	4641
851.085	4877
851.22	4782
851.355	4717
851.49	4660
851.625	4687
851.76	4683
851.895	4565
852.03	4573
852.165	4679
852.299	4763
852.434	4816
852.569	4793
852.703	4820
852.838	4915
852.973	4957
853.107	4927
853.242	4744
853.376	4687
853.511	4653
853.645	4626
853.78	4831
853.914	4679
854.048	4706
854.183	4622
854.317	4714
854.451	4847
854.585	4725
854.72	4679
854.854	4805
854.988	4630
855.122	4626
855.256	4546
855.39	4687
855.524	4809
855.658	4755
855.792	4736
855.926	4748
856.06	4771
856.194	4843
856.327	4736
856.461	4611
856.595	4622
856.729	4637
856.862	4767
856.996	4736
857.13	4744
857.263	4801
857.397	4774
857.53	4706
857.664	4763
857.797	4809
857.931	4835
858.064	4725
858.197	4778
858.331	4637
858.464	4634
858.597	4538
858.731	4672
858.864	4687
858.997	4577
859.13	4717
859.263	4683
859.396	4672
859.529	4687
859.662	4622
859.795	4565
859.928	4637
860.061	4793
860.194	4797
860.327	4580
860.46	4561
860.592	4702
860.725	4759
860.858	4736
860.99	4599
861.123	4527
861.256	4561
861.388	4679
861.521	5311
861.653	4519
861.786	4500
861.918	4497
862.05	4508
862.183	4561
862.315	4607
862.447	4637
862.58	4577
862.712	4421
862.844	4394
862.976	4535
863.108	4443
863.24	4790
863.372	4363
863.504	4497
863.636	4432
863.768	4493
863.9	4470
864.032	4417
864.164	4424
864.296	4516
864.428	4558
864.559	4603
864.691	4554
864.823	4523
864.954	4493
865.086	4542
865.217	4451
865.349	4405
865.48	4481
865.612	4519
865.743	4641
865.875	4535
866.006	4462
866.137	4451
866.269	4497
866.4	4485
866.531	4466
866.662	4443
866.793	4459
866.924	4478
867.055	4535
867.186	4455
867.317	4462
867.448	4379
867.579	4402
867.71	4443
867.841	4333
867.972	4516
868.103	4474
868.233	4474
868.364	4455
868.495	4500
868.625	4691
868.756	4744
868.886	4615
869.017	4672
869.147	4782
869.278	4809
869.408	4733
869.539	4691
869.669	4740
869.799	4706
869.929	4801
870.06	4725
870.19	4942
870.32	4946
870.45	4942
870.58	5048
870.71	5105
870.84	5075
870.97	4946
871.1	4938
871.23	5151
871.36	5086
871.489	5045
871.619	5117
871.749	5075
871.879	5090
872.008	5189
872.138	5113
872.267	5025
872.397	4904
872.526	4809
872.656	4812
872.785	4843
872.915	4957
873.044	5098
873.173	4923
873.303	4980
873.432	4934
873.561	5048
873.69	4896
873.819	4839
873.948	4930
874.077	4873
874.206	4805
874.335	4824
874.464	4946
874.593	5079
874.722	4972
874.851	5105
874.979	5090
875.108	5064
875.237	4911
875.365	4908
875.494	4911
875.623	5018
875.751	4828
875.88	4866
876.008	4987
876.136	5025
876.265	5242
876.393	5357
876.521	5288
876.65	5231
876.778	5223
876.906	5109
877.034	5033
877.162	5064
877.29	4968
877.418	5075
877.546	5056
877.674	5079
877.802	4999
877.93	5041
878.058	5014
878.185	4847
878.313	4968
878.441	4946
878.568	4790
878.696	4896
878.824	4991
878.951	5045
879.079	5124
879.206	5318
879.333	5124
879.461	5006
879.588	5018
879.715	5136
879.842	5204
879.97	4968
880.097	4805
880.224	4771
880.351	4824
880.478	4801
880.605	4835
880.732	4850
880.859	5067
880.986	4850
881.112	4946
881.239	4824
881.366	4691
881.493	4653
881.619	4588
881.746	4630
881.872	4672
881.999	4637
882.125	4660
882.252	4797
882.378	4839
882.505	4976
882.631	4835
882.757	4691
882.883	4763
883.01	4763
883.136	4687
883.262	4615
883.388	4603
883.514	4847
883.64	4885
883.766	4873
883.892	4691
884.018	4755
884.143	4896
884.269	5006
884.395	4672
884.52	4641
884.646	4675
884.772	4565
884.897	4577
885.023	4660
885.148	4774
885.274	4839
885.399	4820
885.524	4733
885.65	4706
885.775	4790
885.9	4767
886.025	4877
886.15	4763
886.275	4733
886.4	4694
886.525	4755
886.65	4656
886.775	4714
886.9	4923
887.025	5052
887.149	4831
887.274	4653
887.399	4580
887.523	4615
887.648	4588
887.773	4599
887.897	4767
888.021	4809
888.146	4717
888.27	4843
888.395	4915
888.519	4831
888.643	4820
888.767	4805
888.891	4694
889.015	4656
889.139	4668
889.263	4596
889.387	4752
889.511	4957
889.635	4786
889.759	4634
889.883	4664
890.006	4786
890.13	4858
890.254	4645
890.377	4679
890.501	4580
890.624	4538
890.748	4645
890.871	4531
890.995	4489
891.118	4417
891.241	4508
891.364	4527
891.488	4649
891.611	4516
891.734	4550
891.857	4630
891.98	4497
892.103	4596
892.226	4573
892.349	4561
892.471	4443
892.594	4512
892.717	4577
892.839	4596
892.962	4580
893.085	4687
893.207	4603
893.33	4436
893.452	4538
893.575	4672
893.697	4603
893.819	4820
893.941	4854
894.064	4733
894.186	4622
894.308	4584
894.43	4706
894.552	4858
894.674	4786
894.796	4519
894.918	4565
895.04	4596
895.161	4714
895.283	4637
895.405	4558
895.526	4615
895.648	4725
895.769	4687
895.891	4714
896.012	4790
896.134	4710
896.255	4664
896.376	4649
896.498	4664
896.619	4687
896.74	4577
896.861	4611
896.982	4930
897.103	5090
897.224	4843
897.345	4774
897.466	4626
897.587	4714
897.708	4889
897.828	4774
897.949	4687
898.07	4569
898.19	4645
898.311	4816
898.431	4637
898.552	4710
898.672	4835
898.792	4828
898.913	4763
899.033	4698
899.153	4508
899.273	4466
899.393	4485
899.513	4512
899.633	4489
899.753	4523
899.873	4542
899.993	4550
900.113	4519
900.232	4645
900.352	4542
900.472	4478
900.591	4394
900.711	4542
900.83	4466
900.95	4607
901.069	4683
901.189	4519
901.308	4398
901.427	4253
901.546	4371
901.665	4470
901.784	4519
901.904	4386
902.023	4322
902.141	4234
902.26	4242
902.379	4341
902.498	4272
902.617	4211
902.735	4363
902.854	4363
902.973	4329
903.091	4223
903.21	4219
903.328	4337
903.446	4261
903.565	4299
903.683	4337
903.801	4227
903.919	4375
904.038	4447
904.156	4306
904.274	4481
904.392	4462
904.51	4470
904.627	4436
904.745	4596
904.863	4603
904.981	4432
905.098	4314
905.216	4367
905.334	4443
905.451	4413
905.569	4459
905.686	4550
905.803	4565
905.921	4478
906.038	4569
906.155	4459
906.272	4436
906.389	4508
906.506	4367
906.623	4424
906.74	4402
906.857	4280
906.974	4337
907.091	4584
907.208	4649
907.324	4603
907.441	4516
907.557	4333
907.674	4356
907.79	4314
907.907	4333
908.023	4443
908.139	4443
908.256	4424
908.372	4428
908.488	4489
908.604	4329
908.72	4310
908.836	4337
908.952	4383
909.068	4424
909.184	4508
909.3	4516
909.415	4603
909.531	4569
909.647	4352
909.762	4352
909.878	4371
909.993	4421
910.108	4386
910.224	4409
910.339	4493
910.454	4398
910.57	4409
910.685	4360
910.8	4637
910.915	4611
911.03	4523
911.145	4303
911.259	4356
911.374	4348
911.489	4337
911.604	4246
911.718	4139
911.833	4196
911.947	4120
912.062	4051
912.176	4223
912.291	4238
912.405	4207
912.519	4474
912.633	4462
912.748	4341
912.862	4379
912.976	4227
913.09	4074
913.204	4227
913.318	4215
913.431	4379
913.545	4390
913.659	4432
913.772	4409
913.886	4276
914	4230
914.113	4360
914.226	4489
914.34	4405
914.453	4246
914.566	4424
914.68	4291
914.793	4341
914.906	4139
915.019	4143
915.132	4067
915.245	4192
915.358	4295
915.47	4238
915.583	4284
915.696	4344
915.809	4405
915.921	4447
916.034	4242
916.146	4200
916.259	4215
916.371	4402
916.483	4344
916.595	4242
916.708	4318
916.82	4344
916.932	4337
917.044	4325
917.156	4287
917.268	4230
917.38	4280
917.491	4284
917.603	4367
917.715	4413
917.826	4451
917.938	4371
918.049	4207
918.161	4386
918.272	4527
918.384	4516
918.495	4428
918.606	4291
918.717	4272
918.828	4318
918.939	4371
919.05	4272
919.161	4329
919.272	4116
919.383	4223
919.494	4459
919.604	4596
919.715	4432
919.826	4383
919.936	4394
920.047	4565
920.157	4424
920.267	4656
920.378	4580
920.488	4470
920.598	4721
920.708	4858
920.818	4717
920.928	4763
921.038	4942
921.148	4930
921.258	4634
921.368	4554
921.477	4493
921.587	4466
921.697	4409
921.806	4523
921.916	4478
922.025	4272
922.134	4253
922.244	4211
922.353	4325
922.462	4166
922.571	4143
922.68	4032
922.789	3964
922.898	4086
923.007	3998
923.116	4116
923.224	4067
923.333	4055
923.442	3972
923.55	3945
923.659	4025
923.767	4067
923.876	3972
923.984	4109
924.092	3968
924.201	4116
924.309	4112
924.417	4112
924.525	4036
924.633	4071
924.741	5025
924.849	3918
924.956	4166
925.064	3941
925.172	3911
925.279	3960
925.387	4036
925.494	4044
925.602	4162
925.709	4234
925.816	4021
925.924	4131
926.031	4200
926.138	4200
926.245	4200
926.352	4067
926.459	4242
926.566	4322
926.673	4112
926.779	4112
926.886	4128
926.993	3972
927.099	3987
927.206	3926
927.312	3907
927.419	4071
927.525	4029
927.631	4078
927.737	3975
927.843	3899
927.95	3873
928.056	3911
928.162	3975
928.267	4044
928.373	4573
928.479	4158
928.585	3899
928.69	4002
928.796	4090
928.901	3937
929.007	3911
929.112	3972
929.218	3956
929.323	3972
929.428	3907
929.533	4112
929.638	3888
929.743	3964
929.848	3979
929.953	3991
930.058	3899
930.163	3755
930.267	3804
930.372	3983
930.477	3797
930.581	4116
930.685	3937
930.79	3816
930.894	3884
930.998	3876
931.103	4040
931.207	3732
931.311	3656
931.415	3690
931.519	3500
931.623	3511
