Data from test_V78500241_995.txt Node
Date: Fri Mar 25 16:55:55 CST 2022
User: usil
Spectrometer: V785-0024
Trigger mode: 0
Integration Time (sec): 4.000000E-1
Scans to average: 1
Nonlinearity correction enabled: false
Boxcar width: 0
Storing dark spectrum: false
XAxis mode: Wavelengths
Number of Pixels in Spectrum: 1024
>>>>>Begin Spectral Data<<<<<
801.071	8092
801.214	8077
801.356	7818
801.499	7902
801.641	7868
801.783	7780
801.926	7993
802.068	7909
802.211	7906
802.353	7925
802.496	7849
802.638	7875
802.78	7871
802.923	7925
803.065	7860
803.208	7871
803.35	7997
803.492	8138
803.635	8138
803.777	8031
803.919	8161
804.061	8442
804.204	8115
804.346	8084
804.488	7989
804.63	8119
804.773	7997
804.915	8123
805.057	8332
805.199	8195
805.341	8225
805.483	8256
805.626	8195
805.768	8134
805.91	8256
806.052	8172
806.194	8130
806.336	8282
806.478	8054
806.62	8123
806.762	8172
806.904	8256
807.046	8400
807.188	8298
807.33	8324
807.472	8317
807.614	8252
807.756	8172
807.898	8046
808.04	7917
808.182	7944
808.324	7902
808.465	7902
808.607	8031
808.749	8069
808.891	8195
809.033	8305
809.174	8225
809.316	8084
809.458	8039
809.6	8016
809.741	8046
809.883	8046
810.025	8001
810.166	8054
810.308	8005
810.45	7974
810.591	7917
810.733	7780
810.875	7655
811.016	7571
811.158	7468
811.299	7605
811.441	7677
811.582	7700
811.724	7594
811.865	7548
812.007	7586
812.148	7514
812.29	7647
812.431	7704
812.573	7879
812.714	7997
812.855	8126
812.997	8237
813.138	8298
813.279	8195
813.421	8142
813.562	8054
813.703	7841
813.845	7803
813.986	7514
814.127	7308
814.268	7259
814.41	7187
814.551	7149
814.692	7110
814.833	7084
814.974	7061
815.115	7061
815.256	6928
815.397	6954
815.539	6973
815.68	6913
815.821	6833
815.962	6840
816.103	6837
816.244	6703
816.385	6623
816.526	6635
816.666	6528
816.807	6270
816.948	6441
817.089	6479
817.23	6460
817.371	6407
817.512	6395
817.653	6410
817.793	6331
817.934	6448
818.075	6441
818.216	6410
818.356	6410
818.497	6258
818.638	6163
818.778	6197
818.919	6175
819.06	6186
819.2	6327
819.341	6289
819.481	6296
819.622	6513
819.762	6707
819.903	6696
820.043	6589
820.184	6559
820.324	6604
820.465	6711
820.605	6616
820.746	6673
820.886	6582
821.026	6662
821.167	6734
821.307	6840
821.447	6741
821.588	6650
821.728	6570
821.868	6544
822.008	6357
822.149	6327
822.289	6361
822.429	6152
822.569	6106
822.709	6136
822.849	5923
822.99	5901
823.13	5920
823.27	5908
823.41	5809
823.55	5786
823.69	5767
823.83	5855
823.97	5691
824.11	5516
824.25	5505
824.389	5573
824.529	5600
824.669	5509
824.809	5638
824.949	5699
825.089	5596
825.228	5520
825.368	5391
825.508	5345
825.648	5337
825.787	5395
825.927	5414
826.067	5353
826.206	5318
826.346	5345
826.485	5368
826.625	5391
826.765	5543
826.904	5471
827.044	5258
827.183	5227
827.323	5147
827.462	5227
827.601	5185
827.741	5166
827.88	5208
828.02	5105
828.159	5239
828.298	5299
828.437	5315
828.577	5292
828.716	5516
828.855	5303
828.994	5204
829.134	5143
829.273	5151
829.412	5155
829.551	5185
829.69	5128
829.829	5261
829.968	5387
830.107	5250
830.246	5292
830.385	5193
830.524	5162
830.663	5083
830.802	4949
830.941	4862
831.08	4828
831.219	5014
831.357	4995
831.496	5132
831.635	4919
831.774	4835
831.913	4843
832.051	4717
832.19	4793
832.329	4858
832.467	4641
832.606	4630
832.744	4721
832.883	4725
833.022	4710
833.16	4782
833.299	4824
833.437	4816
833.576	4820
833.714	4854
833.852	4870
833.991	4915
834.129	4946
834.267	4980
834.406	4942
834.544	4949
834.682	4965
834.821	5003
834.959	5204
835.097	4984
835.235	5185
835.373	5056
835.511	5113
835.65	5003
835.788	5022
835.926	4866
836.064	4858
836.202	4854
836.34	5124
836.478	5201
836.615	5121
836.753	5223
836.891	5288
837.029	5231
837.167	5197
837.305	5124
837.443	5162
837.58	5090
837.718	5250
837.856	5136
837.993	5147
838.131	5254
838.269	5197
838.406	5216
838.544	5117
838.681	5033
838.819	5010
838.956	4919
839.094	4930
839.231	4984
839.369	5094
839.506	5372
839.643	5292
839.781	5071
839.918	5010
840.055	5075
840.193	5079
840.33	5178
840.467	5132
840.604	5197
840.742	5433
840.879	5124
841.016	5090
841.153	5170
841.29	5391
841.427	5341
841.564	5273
841.701	5292
841.838	5277
841.975	5166
842.112	5227
842.249	5147
842.385	5113
842.522	5334
842.659	5113
842.796	5159
842.933	5212
843.069	5193
843.206	5124
843.343	5307
843.479	5254
843.616	5242
843.752	5006
843.889	5045
844.025	5227
844.162	5052
844.298	5147
844.435	5052
844.571	5098
844.708	5204
844.844	5288
844.98	5341
845.117	5307
845.253	5128
845.389	5086
845.525	5178
845.661	5136
845.798	5041
845.934	5140
846.07	5075
846.206	5220
846.342	5296
846.478	5174
846.614	5022
846.75	4991
846.886	4927
847.022	5113
847.158	5014
847.294	5048
847.429	5136
847.565	5045
847.701	5376
847.837	4881
847.972	4797
848.108	4892
848.244	4927
848.379	4774
848.515	4706
848.65	4755
848.786	4748
848.921	4774
849.057	4877
849.192	4831
849.328	4831
849.463	4831
849.598	4778
849.734	4733
849.869	4710
850.004	4603
850.14	4660
850.275	4645
850.41	4538
850.545	4599
850.68	4599
850.815	4569
850.95	4630
851.085	4805
851.22	4767
851.355	4683
851.49	4618
851.625	4607
851.76	4626
851.895	4599
852.03	4538
852.165	4656
852.299	4717
852.434	4820
852.569	4752
852.703	4755
852.838	4850
852.973	4957
853.107	4908
853.242	4767
853.376	4630
853.511	4561
853.645	4596
853.78	4790
853.914	4736
854.048	4645
854.183	4641
854.317	4691
854.451	4847
854.585	4679
854.72	4641
854.854	4752
854.988	4607
855.122	4637
855.256	4481
855.39	4683
855.524	4744
855.658	4694
855.792	4706
855.926	4740
856.06	4767
856.194	4820
856.327	4687
856.461	4622
856.595	4641
856.729	4607
856.862	4698
856.996	4641
857.13	4767
857.263	4740
857.397	4786
857.53	4656
857.664	4668
857.797	4721
857.931	4767
858.064	4687
858.197	4755
858.331	4660
858.464	4599
858.597	4508
858.731	4645
858.864	4592
858.997	4554
859.13	4626
859.263	4660
859.396	4679
859.529	4577
859.662	4584
859.795	4504
859.928	4622
860.061	4748
860.194	4786
860.327	4535
860.46	4565
860.592	4660
860.725	4683
860.858	4687
860.99	4481
861.123	4527
861.256	4497
861.388	4584
861.521	5265
861.653	4474
861.786	4432
861.918	4443
862.05	4512
862.183	4523
862.315	4618
862.447	4687
862.58	4527
862.712	4413
862.844	4303
862.976	4470
863.108	4455
863.24	4850
863.372	4318
863.504	4386
863.636	4379
863.768	4466
863.9	4474
864.032	4337
864.164	4383
864.296	4523
864.428	4531
864.559	4554
864.691	4527
864.823	4550
864.954	4474
865.086	4519
865.217	4447
865.349	4432
865.48	4455
865.612	4481
865.743	4603
865.875	4424
866.006	4398
866.137	4447
866.269	4432
866.4	4413
866.531	4432
866.662	4375
866.793	4375
866.924	4394
867.055	4504
867.186	4455
867.317	4371
867.448	4402
867.579	4371
867.71	4333
867.841	4314
867.972	4470
868.103	4447
868.233	4440
868.364	4455
868.495	4470
868.625	4649
868.756	4752
868.886	4577
869.017	4622
869.147	4782
869.278	4710
869.408	4714
869.539	4664
869.669	4733
869.799	4672
869.929	4748
870.06	4668
870.19	4995
870.32	4892
870.45	4927
870.58	5022
870.71	5045
870.84	5086
870.97	4934
871.1	4870
871.23	5140
871.36	5105
871.489	4957
871.619	5041
871.749	5079
871.879	5094
872.008	5178
872.138	5033
872.267	4965
872.397	4881
872.526	4721
872.656	4736
872.785	4801
872.915	4984
873.044	4995
873.173	4904
873.303	4980
873.432	4965
873.561	4972
873.69	4854
873.819	4881
873.948	4915
874.077	4847
874.206	4755
874.335	4740
874.464	4915
874.593	5067
874.722	4923
874.851	5121
874.979	5029
875.108	5048
875.237	4949
875.365	4889
875.494	4927
875.623	4904
875.751	4793
875.88	4896
876.008	4934
876.136	5056
876.265	5162
876.393	5368
876.521	5231
876.65	5208
876.778	5128
876.906	5067
877.034	5033
877.162	4987
877.29	4991
877.418	5010
877.546	5022
877.674	5079
877.802	4991
877.93	5037
878.058	4892
878.185	4881
878.313	4919
878.441	4930
878.568	4767
878.696	4889
878.824	4968
878.951	4991
879.079	5094
879.206	5277
879.333	5094
879.461	4972
879.588	5006
879.715	5094
879.842	5204
879.97	4946
880.097	4782
880.224	4748
880.351	4812
880.478	4809
880.605	4759
880.732	4793
880.859	5052
880.986	4892
881.112	4889
881.239	4748
881.366	4675
881.493	4573
881.619	4573
881.746	4649
881.872	4611
881.999	4702
882.125	4653
882.252	4740
882.378	4774
882.505	4953
882.631	4778
882.757	4664
882.883	4729
883.01	4733
883.136	4634
883.262	4588
883.388	4607
883.514	4767
883.64	4839
883.766	4801
883.892	4698
884.018	4664
884.143	4831
884.269	5003
884.395	4653
884.52	4630
884.646	4596
884.772	4569
884.897	4516
885.023	4630
885.148	4744
885.274	4843
885.399	4759
885.524	4691
885.65	4698
885.775	4740
885.9	4683
886.025	4812
886.15	4812
886.275	4668
886.4	4615
886.525	4679
886.65	4668
886.775	4675
886.9	4904
887.025	5018
887.149	4809
887.274	4653
887.399	4569
887.523	4603
887.648	4558
887.773	4565
887.897	4782
888.021	4771
888.146	4656
888.27	4763
888.395	4934
888.519	4782
888.643	4828
888.767	4828
888.891	4649
889.015	4538
889.139	4603
889.263	4565
889.387	4790
889.511	4805
889.635	4774
889.759	4626
889.883	4668
890.006	4691
890.13	4816
890.254	4618
890.377	4702
890.501	4546
890.624	4512
890.748	4596
890.871	4485
890.995	4432
891.118	4417
891.241	4512
891.364	4531
891.488	4645
891.611	4481
891.734	4546
891.857	4607
891.98	4531
892.103	4645
892.226	4607
892.349	4478
892.471	4367
892.594	4546
892.717	4637
892.839	4546
892.962	4599
893.085	4668
893.207	4607
893.33	4462
893.452	4512
893.575	4603
893.697	4599
893.819	4763
893.941	4790
894.064	4736
894.186	4588
894.308	4569
894.43	4759
894.552	4812
894.674	4824
894.796	4554
894.918	4584
895.04	4527
895.161	4672
895.283	4656
895.405	4584
895.526	4599
895.648	4687
895.769	4649
895.891	4721
896.012	4748
896.134	4664
896.255	4653
896.376	4649
896.498	4618
896.619	4649
896.74	4615
896.861	4645
896.982	4938
897.103	5086
897.224	4767
897.345	4755
897.466	4637
897.587	4725
897.708	4892
897.828	4729
897.949	4656
898.07	4580
898.19	4653
898.311	4835
898.431	4698
898.552	4717
898.672	4793
898.792	4782
898.913	4683
899.033	4615
899.153	4554
899.273	4413
899.393	4508
899.513	4527
899.633	4512
899.753	4546
899.873	4459
899.993	4599
900.113	4527
900.232	4615
900.352	4519
900.472	4478
900.591	4402
900.711	4466
900.83	4390
900.95	4592
901.069	4687
901.189	4550
901.308	4344
901.427	4310
901.546	4352
901.665	4497
901.784	4485
901.904	4356
902.023	4314
902.141	4131
902.26	4120
902.379	4295
902.498	4238
902.617	4200
902.735	4363
902.854	4371
902.973	4375
903.091	4207
903.21	4215
903.328	4299
903.446	4265
903.565	4234
903.683	4284
903.801	4291
903.919	4432
904.038	4417
904.156	4363
904.274	4405
904.392	4360
904.51	4413
904.627	4424
904.745	4580
904.863	4615
904.981	4390
905.098	4306
905.216	4348
905.334	4455
905.451	4478
905.569	4386
905.686	4550
905.803	4573
905.921	4451
906.038	4508
906.155	4436
906.272	4348
906.389	4459
906.506	4348
906.623	4394
906.74	4386
906.857	4306
906.974	4318
907.091	4535
907.208	4668
907.324	4538
907.441	4531
907.557	4314
907.674	4375
907.79	4303
907.907	4398
908.023	4508
908.139	4512
908.256	4424
908.372	4485
908.488	4405
908.604	4333
908.72	4386
908.836	4417
908.952	4352
909.068	4398
909.184	4535
909.3	4466
909.415	4580
909.531	4519
909.647	4314
909.762	4341
909.878	4318
909.993	4428
910.108	4440
910.224	4383
910.339	4493
910.454	4379
910.57	4371
910.685	4318
910.8	4637
910.915	4596
911.03	4459
911.145	4318
911.259	4303
911.374	4341
911.489	4280
911.604	4272
911.718	4139
911.833	4188
911.947	4097
912.062	4010
912.176	4200
912.291	4207
912.405	4230
912.519	4451
912.633	4455
912.748	4398
912.862	4310
912.976	4169
913.09	4101
913.204	4173
913.318	4295
913.431	4352
913.545	4417
913.659	4421
913.772	4310
913.886	4287
914	4207
914.113	4360
914.226	4428
914.34	4322
914.453	4249
914.566	4417
914.68	4287
914.793	4314
914.906	4131
915.019	4162
915.132	4044
915.245	4192
915.358	4192
915.47	4234
915.583	4253
915.696	4272
915.809	4379
915.921	4386
916.034	4261
916.146	4227
916.259	4234
916.371	4383
916.483	4356
916.595	4261
916.708	4344
916.82	4318
916.932	4299
917.044	4314
917.156	4295
917.268	4204
917.38	4265
917.491	4291
917.603	4333
917.715	4413
917.826	4436
917.938	4360
918.049	4246
918.161	4356
918.272	4527
918.384	4512
918.495	4519
918.606	4284
918.717	4265
918.828	4341
918.939	4356
919.05	4265
919.161	4360
919.272	4166
919.383	4223
919.494	4413
919.604	4592
919.715	4447
919.826	4352
919.936	4413
920.047	4466
920.157	4485
920.267	4752
920.378	4497
920.488	4478
920.598	4736
920.708	4858
920.818	4748
920.928	4755
921.038	4923
921.148	4911
921.258	4679
921.368	4569
921.477	4489
921.587	4451
921.697	4341
921.806	4531
921.916	4443
922.025	4303
922.134	4253
922.244	4211
922.353	4352
922.462	4154
922.571	4116
922.68	3964
922.789	3991
922.898	4002
923.007	3975
923.116	4067
923.224	4032
923.333	4055
923.442	4017
923.55	3983
923.659	4002
923.767	4105
923.876	3964
923.984	4116
924.092	3991
924.201	4078
924.309	4074
924.417	4105
924.525	4051
924.633	4120
924.741	5052
924.849	3930
924.956	4173
925.064	3945
925.172	3903
925.279	3926
925.387	4051
925.494	4036
925.602	4234
925.709	4169
925.816	4032
925.924	4124
926.031	4204
926.138	4192
926.245	4227
926.352	4063
926.459	4234
926.566	4291
926.673	4162
926.779	4097
926.886	4078
926.993	4025
927.099	3972
927.206	3934
927.312	3953
927.419	4082
927.525	4006
927.631	4090
927.737	3934
927.843	3934
927.95	3797
928.056	3937
928.162	3972
928.267	4048
928.373	4679
928.479	4124
928.585	3892
928.69	3987
928.796	4032
928.901	3945
929.007	3816
929.112	4017
929.218	3987
929.323	3941
929.428	3953
929.533	4093
929.638	3926
929.743	3934
929.848	4048
929.953	4010
930.058	3907
930.163	3774
930.267	3812
930.372	3930
930.477	3831
930.581	4082
930.685	3941
930.79	3846
930.894	3873
930.998	3873
931.103	4025
931.207	3701
931.311	3713
931.415	3667
931.519	3530
931.623	3553
