Data from test_V78500241_978.txt Node
Date: Fri Mar 25 16:55:48 CST 2022
User: usil
Spectrometer: V785-0024
Trigger mode: 0
Integration Time (sec): 4.000000E-1
Scans to average: 1
Nonlinearity correction enabled: false
Boxcar width: 0
Storing dark spectrum: false
XAxis mode: Wavelengths
Number of Pixels in Spectrum: 1024
>>>>>Begin Spectral Data<<<<<
801.071	8043
801.214	7982
801.356	7864
801.499	7826
801.641	7734
801.783	7879
801.926	7963
802.068	7849
802.211	7959
802.353	7982
802.496	7845
802.638	7864
802.78	7868
802.923	7932
803.065	7864
803.208	7921
803.35	8054
803.492	8073
803.635	8161
803.777	8046
803.919	8115
804.061	8385
804.204	8088
804.346	8024
804.488	7986
804.63	8100
804.773	8065
804.915	8138
805.057	8259
805.199	8142
805.341	8206
805.483	8259
805.626	8187
805.768	8119
805.91	8183
806.052	8180
806.194	8111
806.336	8237
806.478	8134
806.62	8046
806.762	8077
806.904	8286
807.046	8423
807.188	8324
807.33	8313
807.472	8271
807.614	8142
807.756	8130
807.898	7978
808.04	7906
808.182	7887
808.324	7871
808.465	7894
808.607	8024
808.749	8138
808.891	8202
809.033	8244
809.174	8202
809.316	8111
809.458	8012
809.6	8027
809.741	8062
809.883	8012
810.025	8168
810.166	8065
810.308	8039
810.45	8100
810.591	7860
810.733	7727
810.875	7632
811.016	7544
811.158	7567
811.299	7685
811.441	7723
811.582	7666
811.724	7605
811.865	7514
812.007	7582
812.148	7586
812.29	7609
812.431	7727
812.573	7860
812.714	7982
812.855	8096
812.997	8195
813.138	8317
813.279	8187
813.421	8119
813.562	7982
813.703	7856
813.845	7811
813.986	7468
814.127	7266
814.268	7183
814.41	7225
814.551	7129
814.692	7187
814.833	7046
814.974	7053
815.115	7072
815.256	7015
815.397	6897
815.539	6943
815.68	6863
815.821	6772
815.962	6935
816.103	6859
816.244	6719
816.385	6662
816.526	6639
816.666	6475
816.807	6281
816.948	6433
817.089	6509
817.23	6475
817.371	6422
817.512	6391
817.653	6403
817.793	6380
817.934	6471
818.075	6464
818.216	6418
818.356	6403
818.497	6216
818.638	6125
818.778	6159
818.919	6102
819.06	6167
819.2	6281
819.341	6376
819.481	6372
819.622	6593
819.762	6749
819.903	6814
820.043	6669
820.184	6589
820.324	6563
820.465	6665
820.605	6669
820.746	6616
820.886	6506
821.026	6650
821.167	6650
821.307	6783
821.447	6779
821.588	6662
821.728	6559
821.868	6464
822.008	6388
822.149	6327
822.289	6323
822.429	6171
822.569	6129
822.709	6148
822.849	5946
822.99	5893
823.13	5954
823.27	5916
823.41	5863
823.55	5733
823.69	5737
823.83	5786
823.97	5703
824.11	5623
824.25	5516
824.389	5589
824.529	5570
824.669	5528
824.809	5661
824.949	5707
825.089	5562
825.228	5539
825.368	5402
825.508	5345
825.648	5372
825.787	5345
825.927	5311
826.067	5250
826.206	5299
826.346	5383
826.485	5383
826.625	5406
826.765	5543
826.904	5505
827.044	5307
827.183	5181
827.323	5079
827.462	5246
827.601	5239
827.741	5208
827.88	5254
828.02	5090
828.159	5246
828.298	5261
828.437	5315
828.577	5296
828.716	5471
828.855	5349
828.994	5212
829.134	5121
829.273	5162
829.412	5128
829.551	5102
829.69	5170
829.829	5204
829.968	5341
830.107	5280
830.246	5337
830.385	5170
830.524	5140
830.663	5060
830.802	4995
830.941	4892
831.08	4927
831.219	5045
831.357	4976
831.496	5170
831.635	4934
831.774	4847
831.913	4866
832.051	4725
832.19	4721
832.329	4892
832.467	4752
832.606	4626
832.744	4729
832.883	4717
833.022	4733
833.16	4778
833.299	4854
833.437	4801
833.576	4843
833.714	4866
833.852	4835
833.991	4866
834.129	4949
834.267	4927
834.406	4858
834.544	4965
834.682	5003
834.821	4976
834.959	5159
835.097	4965
835.235	5086
835.373	5090
835.511	5041
835.65	5018
835.788	5014
835.926	4930
836.064	4858
836.202	4881
836.34	5113
836.478	5181
836.615	5094
836.753	5216
836.891	5235
837.029	5254
837.167	5212
837.305	5185
837.443	5124
837.58	5098
837.718	5265
837.856	5166
837.993	5117
838.131	5189
838.269	5162
838.406	5204
838.544	5143
838.681	5056
838.819	5029
838.956	4908
839.094	4927
839.231	5025
839.369	5102
839.506	5425
839.643	5258
839.781	5056
839.918	5060
840.055	5094
840.193	5109
840.33	5124
840.467	5094
840.604	5212
840.742	5471
840.879	5045
841.016	5098
841.153	5143
841.29	5337
841.427	5296
841.564	5280
841.701	5357
841.838	5277
841.975	5208
842.112	5231
842.249	5185
842.385	5121
842.522	5353
842.659	5155
842.796	5105
842.933	5185
843.069	5170
843.206	5132
843.343	5292
843.479	5258
843.616	5197
843.752	5045
843.889	4953
844.025	5174
844.162	5022
844.298	5227
844.435	5140
844.571	5029
844.708	5170
844.844	5326
844.98	5311
845.117	5337
845.253	5109
845.389	5117
845.525	5178
845.661	5132
845.798	5079
845.934	5113
846.07	5045
846.206	5212
846.342	5261
846.478	5178
846.614	5018
846.75	4957
846.886	4942
847.022	5132
847.158	5014
847.294	5056
847.429	5090
847.565	5029
847.701	5307
847.837	4881
847.972	4816
848.108	4904
848.244	4934
848.379	4763
848.515	4748
848.65	4725
848.786	4698
848.921	4763
849.057	4858
849.192	4858
849.328	4831
849.463	4782
849.598	4820
849.734	4763
849.869	4706
850.004	4649
850.14	4653
850.275	4542
850.41	4584
850.545	4542
850.68	4645
850.815	4626
850.95	4622
851.085	4812
851.22	4725
851.355	4691
851.49	4588
851.625	4641
851.76	4656
851.895	4596
852.03	4538
852.165	4660
852.299	4721
852.434	4771
852.569	4721
852.703	4801
852.838	4843
852.973	4938
853.107	4908
853.242	4691
853.376	4679
853.511	4546
853.645	4558
853.78	4774
853.914	4641
854.048	4710
854.183	4611
854.317	4698
854.451	4847
854.585	4706
854.72	4683
854.854	4759
854.988	4573
855.122	4660
855.256	4561
855.39	4668
855.524	4816
855.658	4698
855.792	4744
855.926	4714
856.06	4755
856.194	4835
856.327	4649
856.461	4615
856.595	4622
856.729	4588
856.862	4714
856.996	4706
857.13	4683
857.263	4755
857.397	4778
857.53	4675
857.664	4725
857.797	4748
857.931	4752
858.064	4653
858.197	4706
858.331	4672
858.464	4577
858.597	4512
858.731	4618
858.864	4641
858.997	4580
859.13	4653
859.263	4694
859.396	4672
859.529	4618
859.662	4592
859.795	4550
859.928	4588
860.061	4767
860.194	4763
860.327	4577
860.46	4577
860.592	4683
860.725	4710
860.858	4714
860.99	4512
861.123	4531
861.256	4485
861.388	4622
861.521	5235
861.653	4466
861.786	4455
861.918	4443
862.05	4531
862.183	4497
862.315	4584
862.447	4675
862.58	4519
862.712	4424
862.844	4363
862.976	4478
863.108	4470
863.24	4900
863.372	4348
863.504	4413
863.636	4424
863.768	4474
863.9	4443
864.032	4325
864.164	4348
864.296	4470
864.428	4535
864.559	4561
864.691	4542
864.823	4538
864.954	4481
865.086	4523
865.217	4466
865.349	4398
865.48	4436
865.612	4500
865.743	4618
865.875	4470
866.006	4440
866.137	4459
866.269	4470
866.4	4405
866.531	4367
866.662	4440
866.793	4421
866.924	4417
867.055	4538
867.186	4428
867.317	4390
867.448	4394
867.579	4375
867.71	4402
867.841	4398
867.972	4443
868.103	4428
868.233	4421
868.364	4432
868.495	4459
868.625	4656
868.756	4668
868.886	4596
869.017	4653
869.147	4771
869.278	4748
869.408	4675
869.539	4634
869.669	4725
869.799	4668
869.929	4793
870.06	4691
870.19	4938
870.32	4930
870.45	4942
870.58	4953
870.71	5086
870.84	5086
870.97	4976
871.1	4858
871.23	5121
871.36	5109
871.489	5033
871.619	5052
871.749	5075
871.879	5132
872.008	5147
872.138	5033
872.267	4942
872.397	4889
872.526	4778
872.656	4714
872.785	4767
872.915	4938
873.044	5003
873.173	4908
873.303	4980
873.432	4942
873.561	4953
873.69	4843
873.819	4870
873.948	4892
874.077	4793
874.206	4729
874.335	4774
874.464	4850
874.593	5033
874.722	4927
874.851	5098
874.979	5045
875.108	4995
875.237	4877
875.365	4828
875.494	4850
875.623	4942
875.751	4854
875.88	4858
876.008	4987
876.136	5018
876.265	5197
876.393	5341
876.521	5239
876.65	5235
876.778	5143
876.906	5018
877.034	5045
877.162	5037
877.29	4957
877.418	4961
877.546	4991
877.674	5006
877.802	4987
877.93	5006
878.058	4942
878.185	4870
878.313	4930
878.441	4908
878.568	4816
878.696	4873
878.824	4904
878.951	4991
879.079	5109
879.206	5204
879.333	5098
879.461	4961
879.588	5014
879.715	5113
879.842	5239
879.97	4968
880.097	4774
880.224	4736
880.351	4820
880.478	4881
880.605	4793
880.732	4782
880.859	5064
880.986	4885
881.112	4900
881.239	4755
881.366	4694
881.493	4618
881.619	4599
881.746	4634
881.872	4675
881.999	4592
882.125	4668
882.252	4790
882.378	4824
882.505	4930
882.631	4812
882.757	4672
882.883	4691
883.01	4683
883.136	4660
883.262	4626
883.388	4626
883.514	4854
883.64	4866
883.766	4752
883.892	4634
884.018	4717
884.143	4835
884.269	5010
884.395	4641
884.52	4573
884.646	4653
884.772	4569
884.897	4554
885.023	4675
885.148	4752
885.274	4831
885.399	4816
885.524	4706
885.65	4710
885.775	4752
885.9	4736
886.025	4839
886.15	4782
886.275	4683
886.4	4649
886.525	4725
886.65	4668
886.775	4710
886.9	4889
887.025	5048
887.149	4812
887.274	4679
887.399	4580
887.523	4599
887.648	4607
887.773	4588
887.897	4767
888.021	4774
888.146	4672
888.27	4797
888.395	4889
888.519	4786
888.643	4816
888.767	4797
888.891	4675
889.015	4550
889.139	4653
889.263	4607
889.387	4725
889.511	4824
889.635	4767
889.759	4634
889.883	4634
890.006	4729
890.13	4763
890.254	4656
890.377	4611
890.501	4542
890.624	4489
890.748	4611
890.871	4504
890.995	4371
891.118	4371
891.241	4519
891.364	4531
891.488	4630
891.611	4474
891.734	4504
891.857	4588
891.98	4500
892.103	4653
892.226	4603
892.349	4550
892.471	4421
892.594	4580
892.717	4573
892.839	4584
892.962	4599
893.085	4622
893.207	4584
893.33	4462
893.452	4519
893.575	4599
893.697	4550
893.819	4767
893.941	4873
894.064	4763
894.186	4561
894.308	4542
894.43	4729
894.552	4809
894.674	4725
894.796	4519
894.918	4599
895.04	4592
895.161	4679
895.283	4630
895.405	4584
895.526	4675
895.648	4702
895.769	4668
895.891	4668
896.012	4714
896.134	4721
896.255	4634
896.376	4634
896.498	4641
896.619	4656
896.74	4611
896.861	4656
896.982	4919
897.103	5079
897.224	4816
897.345	4691
897.466	4645
897.587	4721
897.708	4904
897.828	4733
897.949	4634
898.07	4558
898.19	4577
898.311	4824
898.431	4679
898.552	4717
898.672	4801
898.792	4820
898.913	4721
899.033	4611
899.153	4504
899.273	4360
899.393	4542
899.513	4481
899.633	4516
899.753	4512
899.873	4519
899.993	4580
900.113	4519
900.232	4596
900.352	4531
900.472	4489
900.591	4383
900.711	4516
900.83	4451
900.95	4611
901.069	4664
901.189	4531
901.308	4348
901.427	4348
901.546	4379
901.665	4447
901.784	4504
901.904	4371
902.023	4356
902.141	4177
902.26	4150
902.379	4287
902.498	4253
902.617	4207
902.735	4375
902.854	4386
902.973	4310
903.091	4215
903.21	4249
903.328	4299
903.446	4272
903.565	4280
903.683	4398
903.801	4276
903.919	4360
904.038	4451
904.156	4333
904.274	4443
904.392	4436
904.51	4443
904.627	4470
904.745	4558
904.863	4637
904.981	4402
905.098	4291
905.216	4375
905.334	4394
905.451	4451
905.569	4455
905.686	4565
905.803	4561
905.921	4383
906.038	4554
906.155	4500
906.272	4367
906.389	4474
906.506	4314
906.623	4341
906.74	4432
906.857	4291
906.974	4348
907.091	4622
907.208	4672
907.324	4607
907.441	4531
907.557	4348
907.674	4318
907.79	4295
907.907	4333
908.023	4428
908.139	4428
908.256	4386
908.372	4447
908.488	4470
908.604	4363
908.72	4295
908.836	4363
908.952	4402
909.068	4413
909.184	4596
909.3	4478
909.415	4592
909.531	4527
909.647	4375
909.762	4367
909.878	4318
909.993	4409
910.108	4375
910.224	4402
910.339	4512
910.454	4371
910.57	4333
910.685	4291
910.8	4637
910.915	4573
911.03	4459
911.145	4291
911.259	4299
911.374	4367
911.489	4303
911.604	4261
911.718	4173
911.833	4204
911.947	4086
912.062	4029
912.176	4188
912.291	4230
912.405	4268
912.519	4493
912.633	4554
912.748	4360
912.862	4299
912.976	4215
913.09	4044
913.204	4173
913.318	4238
913.431	4371
913.545	4337
913.659	4455
913.772	4363
913.886	4249
914	4207
914.113	4390
914.226	4421
914.34	4386
914.453	4200
914.566	4367
914.68	4314
914.793	4306
914.906	4139
915.019	4112
915.132	4101
915.245	4173
915.358	4234
915.47	4207
915.583	4284
915.696	4276
915.809	4394
915.921	4394
916.034	4238
916.146	4207
916.259	4169
916.371	4348
916.483	4329
916.595	4272
916.708	4291
916.82	4287
916.932	4287
917.044	4337
917.156	4402
917.268	4246
917.38	4268
917.491	4253
917.603	4314
917.715	4424
917.826	4424
917.938	4303
918.049	4234
918.161	4344
918.272	4516
918.384	4508
918.495	4466
918.606	4265
918.717	4219
918.828	4405
918.939	4405
919.05	4242
919.161	4306
919.272	4162
919.383	4204
919.494	4379
919.604	4607
919.715	4367
919.826	4390
919.936	4428
920.047	4527
920.157	4489
920.267	4740
920.378	4535
920.488	4478
920.598	4698
920.708	4854
920.818	4759
920.928	4774
921.038	4927
921.148	4919
921.258	4596
921.368	4535
921.477	4497
921.587	4481
921.697	4371
921.806	4550
921.916	4409
922.025	4261
922.134	4272
922.244	4249
922.353	4337
922.462	4211
922.571	4120
922.68	3998
922.789	3998
922.898	3994
923.007	3987
923.116	4139
923.224	4059
923.333	4105
923.442	4013
923.55	3949
923.659	4013
923.767	4097
923.876	4040
923.984	4093
924.092	3960
924.201	4063
924.309	4067
924.417	4150
924.525	4067
924.633	4135
924.741	5022
924.849	3899
924.956	4116
925.064	3873
925.172	3907
925.279	3945
925.387	4040
925.494	4010
925.602	4200
925.709	4196
925.816	4071
925.924	4135
926.031	4215
926.138	4135
926.245	4177
926.352	4067
926.459	4249
926.566	4325
926.673	4169
926.779	4067
926.886	4059
926.993	3960
927.099	3945
927.206	3899
927.312	3930
927.419	4074
927.525	4063
927.631	4051
927.737	3934
927.843	3934
927.95	3857
928.056	3949
928.162	3979
928.267	3998
928.373	4660
928.479	4116
928.585	3835
928.69	3979
928.796	4048
928.901	3983
929.007	3850
929.112	3987
929.218	3953
929.323	3972
929.428	3915
929.533	4086
929.638	3892
929.743	3960
929.848	4032
929.953	4002
930.058	3911
930.163	3743
930.267	3846
930.372	3956
930.477	3804
930.581	4059
930.685	3892
930.79	3781
930.894	3873
930.998	3823
931.103	4051
931.207	3686
931.311	3701
931.415	3622
931.519	3534
931.623	3561
