Data from test_V78500241_1330.txt Node
Date: Fri Mar 25 16:58:14 CST 2022
User: usil
Spectrometer: V785-0024
Trigger mode: 0
Integration Time (sec): 4.000000E-1
Scans to average: 1
Nonlinearity correction enabled: false
Boxcar width: 0
Storing dark spectrum: false
XAxis mode: Wavelengths
Number of Pixels in Spectrum: 1024
>>>>>Begin Spectral Data<<<<<
801.071	7989
801.214	8024
801.356	7871
801.499	7845
801.641	7792
801.783	7795
801.926	7974
802.068	7947
802.211	7963
802.353	7909
802.496	7776
802.638	7841
802.78	7970
802.923	7989
803.065	7932
803.208	7833
803.35	7894
803.492	8031
803.635	8176
803.777	8012
803.919	8065
804.061	8419
804.204	8077
804.346	8035
804.488	7913
804.63	8119
804.773	7982
804.915	8077
805.057	8358
805.199	8172
805.341	8187
805.483	8210
805.626	8202
805.768	8172
805.91	8157
806.052	8252
806.194	8130
806.336	8279
806.478	8111
806.62	8012
806.762	8088
806.904	8252
807.046	8461
807.188	8271
807.33	8362
807.472	8320
807.614	8161
807.756	8115
807.898	8016
808.04	7830
808.182	7890
808.324	7852
808.465	7997
808.607	8084
808.749	8092
808.891	8138
809.033	8298
809.174	8161
809.316	8088
809.458	7974
809.6	7967
809.741	7986
809.883	7986
810.025	8054
810.166	8043
810.308	8001
810.45	8001
810.591	7807
810.733	7693
810.875	7647
811.016	7540
811.158	7434
811.299	7624
811.441	7681
811.582	7655
811.724	7597
811.865	7495
812.007	7575
812.148	7533
812.29	7575
812.431	7700
812.573	7833
812.714	7986
812.855	8130
812.997	8176
813.138	8271
813.279	8168
813.421	8077
813.562	8008
813.703	7788
813.845	7689
813.986	7453
814.127	7206
814.268	7232
814.41	7202
814.551	7110
814.692	7190
814.833	7084
814.974	7110
815.115	7110
815.256	6993
815.397	6894
815.539	6882
815.68	6837
815.821	6764
815.962	6848
816.103	6844
816.244	6787
816.385	6623
816.526	6684
816.666	6475
816.807	6296
816.948	6445
817.089	6429
817.23	6448
817.371	6418
817.512	6376
817.653	6407
817.793	6376
817.934	6327
818.075	6414
818.216	6388
818.356	6426
818.497	6186
818.638	6091
818.778	6072
818.919	6129
819.06	6121
819.2	6270
819.341	6319
819.481	6281
819.622	6513
819.762	6719
819.903	6757
820.043	6544
820.184	6574
820.324	6525
820.465	6654
820.605	6681
820.746	6616
820.886	6506
821.026	6692
821.167	6684
821.307	6776
821.447	6783
821.588	6650
821.728	6513
821.868	6475
822.008	6338
822.149	6342
822.289	6361
822.429	6148
822.569	6030
822.709	6072
822.849	5882
822.99	5901
823.13	5832
823.27	5882
823.41	5771
823.55	5821
823.69	5726
823.83	5786
823.97	5581
824.11	5493
824.25	5410
824.389	5516
824.529	5547
824.669	5463
824.809	5615
824.949	5630
825.089	5577
825.228	5543
825.368	5376
825.508	5349
825.648	5337
825.787	5383
825.927	5315
826.067	5307
826.206	5299
826.346	5353
826.485	5376
826.625	5349
826.765	5535
826.904	5436
827.044	5227
827.183	5166
827.323	5159
827.462	5212
827.601	5128
827.741	5166
827.88	5220
828.02	5102
828.159	5231
828.298	5299
828.437	5337
828.577	5227
828.716	5497
828.855	5326
828.994	5105
829.134	5121
829.273	5197
829.412	5056
829.551	5128
829.69	5174
829.829	5242
829.968	5318
830.107	5216
830.246	5311
830.385	5162
830.524	5113
830.663	5041
830.802	4957
830.941	4820
831.08	4873
831.219	4953
831.357	4930
831.496	5140
831.635	4892
831.774	4847
831.913	4809
832.051	4736
832.19	4717
832.329	4858
832.467	4691
832.606	4577
832.744	4702
832.883	4710
833.022	4714
833.16	4729
833.299	4809
833.437	4797
833.576	4824
833.714	4843
833.852	4820
833.991	4870
834.129	4957
834.267	4949
834.406	4881
834.544	4942
834.682	4965
834.821	4934
834.959	5117
835.097	4930
835.235	5094
835.373	5045
835.511	5056
835.65	5033
835.788	5003
835.926	4873
836.064	4858
836.202	4885
836.34	5102
836.478	5220
836.615	5113
836.753	5201
836.891	5254
837.029	5265
837.167	5220
837.305	5098
837.443	5121
837.58	5045
837.718	5223
837.856	5159
837.993	5094
838.131	5216
838.269	5155
838.406	5216
838.544	5147
838.681	4984
838.819	4976
838.956	4873
839.094	4873
839.231	5003
839.369	5060
839.506	5448
839.643	5280
839.781	5029
839.918	5045
840.055	5105
840.193	5102
840.33	5094
840.467	5151
840.604	5193
840.742	5425
840.879	5006
841.016	5132
841.153	5162
841.29	5417
841.427	5357
841.564	5322
841.701	5357
841.838	5292
841.975	5250
842.112	5307
842.249	5170
842.385	5136
842.522	5391
842.659	5155
842.796	5239
842.933	5231
843.069	5193
843.206	5159
843.343	5315
843.479	5273
843.616	5307
843.752	5048
843.889	4991
844.025	5223
844.162	5033
844.298	5231
844.435	5136
844.571	5113
844.708	5185
844.844	5334
844.98	5330
845.117	5307
845.253	5201
845.389	5075
845.525	5159
845.661	5208
845.798	5048
845.934	5170
846.07	5105
846.206	5162
846.342	5357
846.478	5212
846.614	5064
846.75	5010
846.886	4968
847.022	5162
847.158	5083
847.294	5075
847.429	5128
847.565	5102
847.701	5379
847.837	4892
847.972	4824
848.108	4984
848.244	5003
848.379	4847
848.515	4786
848.65	4755
848.786	4771
848.921	4847
849.057	4847
849.192	4927
849.328	4847
849.463	4892
849.598	4801
849.734	4805
849.869	4714
850.004	4714
850.14	4668
850.275	4660
850.41	4596
850.545	4599
850.68	4615
850.815	4653
850.95	4653
851.085	4923
851.22	4790
851.355	4725
851.49	4630
851.625	4641
851.76	4637
851.895	4584
852.03	4550
852.165	4611
852.299	4744
852.434	4805
852.569	4786
852.703	4820
852.838	4881
852.973	4953
853.107	4938
853.242	4736
853.376	4679
853.511	4618
853.645	4668
853.78	4885
853.914	4702
854.048	4710
854.183	4706
854.317	4752
854.451	4919
854.585	4744
854.72	4645
854.854	4752
854.988	4634
855.122	4653
855.256	4542
855.39	4653
855.524	4816
855.658	4748
855.792	4721
855.926	4774
856.06	4782
856.194	4805
856.327	4763
856.461	4660
856.595	4649
856.729	4653
856.862	4733
856.996	4752
857.13	4683
857.263	4805
857.397	4870
857.53	4637
857.664	4748
857.797	4744
857.931	4778
858.064	4694
858.197	4694
858.331	4637
858.464	4637
858.597	4535
858.731	4649
858.864	4675
858.997	4611
859.13	4630
859.263	4687
859.396	4744
859.529	4607
859.662	4603
859.795	4558
859.928	4603
860.061	4801
860.194	4820
860.327	4615
860.46	4577
860.592	4748
860.725	4752
860.858	4717
860.99	4607
861.123	4538
861.256	4554
861.388	4618
861.521	5201
861.653	4489
861.786	4478
861.918	4508
862.05	4508
862.183	4603
862.315	4622
862.447	4645
862.58	4546
862.712	4394
862.844	4367
862.976	4485
863.108	4500
863.24	4904
863.372	4363
863.504	4455
863.636	4440
863.768	4512
863.9	4466
864.032	4417
864.164	4405
864.296	4489
864.428	4596
864.559	4580
864.691	4558
864.823	4546
864.954	4554
865.086	4489
865.217	4451
865.349	4398
865.48	4516
865.612	4519
865.743	4622
865.875	4489
866.006	4493
866.137	4462
866.269	4413
866.4	4470
866.531	4447
866.662	4451
866.793	4443
866.924	4417
867.055	4459
867.186	4489
867.317	4424
867.448	4383
867.579	4424
867.71	4383
867.841	4367
867.972	4546
868.103	4508
868.233	4428
868.364	4485
868.495	4527
868.625	4714
868.756	4790
868.886	4580
869.017	4622
869.147	4790
869.278	4797
869.408	4660
869.539	4603
869.669	4706
869.799	4698
869.929	4733
870.06	4717
870.19	4980
870.32	4911
870.45	4961
870.58	5010
870.71	5109
870.84	5117
870.97	4995
871.1	4908
871.23	5166
871.36	5109
871.489	5067
871.619	5090
871.749	5098
871.879	5143
872.008	5159
872.138	5045
872.267	5010
872.397	4850
872.526	4877
872.656	4729
872.785	4786
872.915	4934
873.044	5029
873.173	4942
873.303	5003
873.432	5029
873.561	4968
873.69	4900
873.819	4873
873.948	4957
874.077	4850
874.206	4740
874.335	4797
874.464	4953
874.593	5140
874.722	4984
874.851	5124
874.979	5083
875.108	5041
875.237	4968
875.365	4904
875.494	4927
875.623	5033
875.751	4858
875.88	4877
876.008	4980
876.136	5037
876.265	5151
876.393	5345
876.521	5250
876.65	5220
876.778	5174
876.906	5113
877.034	5025
877.162	5086
877.29	5014
877.418	5094
877.546	5029
877.674	5090
877.802	5048
877.93	5048
878.058	4915
878.185	4923
878.313	4976
878.441	4987
878.568	4816
878.696	4919
878.824	4972
878.951	5033
879.079	5140
879.206	5318
879.333	5105
879.461	4976
879.588	4999
879.715	5105
879.842	5220
879.97	5018
880.097	4801
880.224	4755
880.351	4831
880.478	4843
880.605	4870
880.732	4824
880.859	5079
880.986	4896
881.112	4946
881.239	4820
881.366	4626
881.493	4611
881.619	4584
881.746	4622
881.872	4645
881.999	4672
882.125	4698
882.252	4809
882.378	4809
882.505	4984
882.631	4816
882.757	4664
882.883	4763
883.01	4786
883.136	4702
883.262	4637
883.388	4630
883.514	4820
883.64	4847
883.766	4767
883.892	4660
884.018	4710
884.143	4915
884.269	5003
884.395	4717
884.52	4660
884.646	4740
884.772	4542
884.897	4599
885.023	4645
885.148	4797
885.274	4877
885.399	4839
885.524	4774
885.65	4710
885.775	4721
885.9	4672
886.025	4889
886.15	4790
886.275	4706
886.4	4675
886.525	4767
886.65	4721
886.775	4721
886.9	4885
887.025	5033
887.149	4793
887.274	4694
887.399	4618
887.523	4596
887.648	4573
887.773	4577
887.897	4782
888.021	4828
888.146	4706
888.27	4824
888.395	4911
888.519	4854
888.643	4763
888.767	4900
888.891	4717
889.015	4630
889.139	4645
889.263	4607
889.387	4740
889.511	4885
889.635	4793
889.759	4630
889.883	4702
890.006	4706
890.13	4847
890.254	4668
890.377	4679
890.501	4592
890.624	4577
890.748	4683
890.871	4527
890.995	4417
891.118	4436
891.241	4523
891.364	4584
891.488	4611
891.611	4489
891.734	4542
891.857	4599
891.98	4561
892.103	4679
892.226	4645
892.349	4523
892.471	4402
892.594	4580
892.717	4588
892.839	4569
892.962	4641
893.085	4668
893.207	4607
893.33	4474
893.452	4481
893.575	4694
893.697	4580
893.819	4801
893.941	4812
894.064	4790
894.186	4603
894.308	4577
894.43	4763
894.552	4843
894.674	4782
894.796	4580
894.918	4630
895.04	4523
895.161	4691
895.283	4687
895.405	4603
895.526	4660
895.648	4717
895.769	4710
895.891	4717
896.012	4710
896.134	4710
896.255	4656
896.376	4656
896.498	4668
896.619	4653
896.74	4607
896.861	4618
896.982	4946
897.103	5067
897.224	4831
897.345	4767
897.466	4694
897.587	4714
897.708	4858
897.828	4786
897.949	4691
898.07	4569
898.19	4660
898.311	4835
898.431	4645
898.552	4767
898.672	4782
898.792	4790
898.913	4797
899.033	4653
899.153	4485
899.273	4459
899.393	4455
899.513	4535
899.633	4561
899.753	4554
899.873	4527
899.993	4599
900.113	4546
900.232	4615
900.352	4546
900.472	4493
900.591	4402
900.711	4485
900.83	4516
900.95	4573
901.069	4672
901.189	4497
901.308	4367
901.427	4318
901.546	4383
901.665	4470
901.784	4516
901.904	4417
902.023	4329
902.141	4238
902.26	4177
902.379	4337
902.498	4295
902.617	4227
902.735	4402
902.854	4383
902.973	4394
903.091	4230
903.21	4265
903.328	4284
903.446	4268
903.565	4276
903.683	4390
903.801	4299
903.919	4428
904.038	4474
904.156	4341
904.274	4478
904.392	4424
904.51	4462
904.627	4523
904.745	4611
904.863	4645
904.981	4383
905.098	4306
905.216	4409
905.334	4432
905.451	4413
905.569	4432
905.686	4565
905.803	4550
905.921	4417
906.038	4542
906.155	4485
906.272	4432
906.389	4447
906.506	4344
906.623	4413
906.74	4379
906.857	4333
906.974	4379
907.091	4550
907.208	4660
907.324	4550
907.441	4546
907.557	4344
907.674	4306
907.79	4329
907.907	4383
908.023	4489
908.139	4440
908.256	4421
908.372	4485
908.488	4485
908.604	4348
908.72	4337
908.836	4394
908.952	4398
909.068	4451
909.184	4523
909.3	4485
909.415	4584
909.531	4504
909.647	4352
909.762	4383
909.878	4386
909.993	4447
910.108	4394
910.224	4424
910.339	4478
910.454	4424
910.57	4341
910.685	4306
910.8	4645
910.915	4626
911.03	4462
911.145	4337
911.259	4337
911.374	4371
911.489	4310
911.604	4287
911.718	4200
911.833	4185
911.947	4059
912.062	4067
912.176	4204
912.291	4280
912.405	4219
912.519	4455
912.633	4554
912.748	4337
912.862	4348
912.976	4181
913.09	4112
913.204	4158
913.318	4246
913.431	4348
913.545	4344
913.659	4462
913.772	4409
913.886	4257
914	4196
914.113	4379
914.226	4474
914.34	4405
914.453	4280
914.566	4451
914.68	4276
914.793	4367
914.906	4185
915.019	4185
915.132	4086
915.245	4196
915.358	4223
915.47	4272
915.583	4257
915.696	4303
915.809	4462
915.921	4459
916.034	4265
916.146	4287
916.259	4257
916.371	4424
916.483	4405
916.595	4291
916.708	4337
916.82	4348
916.932	4325
917.044	4341
917.156	4352
917.268	4219
917.38	4287
917.491	4333
917.603	4386
917.715	4451
917.826	4516
917.938	4367
918.049	4291
918.161	4398
918.272	4599
918.384	4569
918.495	4504
918.606	4337
918.717	4295
918.828	4383
918.939	4379
919.05	4284
919.161	4348
919.272	4196
919.383	4249
919.494	4466
919.604	4702
919.715	4447
919.826	4405
919.936	4428
920.047	4588
920.157	4542
920.267	4759
920.378	4577
920.488	4535
920.598	4782
920.708	4984
920.818	4820
920.928	4793
921.038	4999
921.148	4991
921.258	4683
921.368	4538
921.477	4519
921.587	4508
921.697	4394
921.806	4531
921.916	4478
922.025	4291
922.134	4318
922.244	4238
922.353	4352
922.462	4223
922.571	4154
922.68	4090
922.789	4063
922.898	4059
923.007	4036
923.116	4116
923.224	4112
923.333	4131
923.442	4105
923.55	4010
923.659	4051
923.767	4177
923.876	4006
923.984	4192
924.092	4051
924.201	4116
924.309	4112
924.417	4124
924.525	4074
924.633	4158
924.741	5083
924.849	3956
924.956	4150
925.064	3972
925.172	3941
925.279	3987
925.387	4128
925.494	4101
925.602	4299
925.709	4215
925.816	4044
925.924	4181
926.031	4257
926.138	4234
926.245	4196
926.352	4166
926.459	4280
926.566	4352
926.673	4169
926.779	4128
926.886	4124
926.993	4029
927.099	3956
927.206	3964
927.312	3975
927.419	4124
927.525	4051
927.631	4169
927.737	4013
927.843	3964
927.95	3884
928.056	4036
928.162	4059
928.267	4029
928.373	4672
928.479	4139
928.585	3915
928.69	4078
928.796	4135
928.901	4002
929.007	3873
929.112	4029
929.218	4032
929.323	3975
929.428	4017
929.533	4139
929.638	3945
929.743	4025
929.848	4044
929.953	4036
930.058	3934
930.163	3781
930.267	3880
930.372	4025
930.477	3823
930.581	4135
930.685	3983
930.79	3831
930.894	3899
930.998	3896
931.103	4032
931.207	3743
931.311	3743
931.415	3717
931.519	3538
931.623	3557
