Data from test_V78500241_1200.txt Node
Date: Fri Mar 25 16:57:20 CST 2022
User: usil
Spectrometer: V785-0024
Trigger mode: 0
Integration Time (sec): 4.000000E-1
Scans to average: 1
Nonlinearity correction enabled: false
Boxcar width: 0
Storing dark spectrum: false
XAxis mode: Wavelengths
Number of Pixels in Spectrum: 1024
>>>>>Begin Spectral Data<<<<<
801.071	8111
801.214	8096
801.356	7944
801.499	7864
801.641	7776
801.783	7871
801.926	8020
802.068	8035
802.211	7970
802.353	8012
802.496	7944
802.638	7841
802.78	7936
802.923	7982
803.065	7932
803.208	7887
803.35	7986
803.492	8149
803.635	8256
803.777	8050
803.919	8153
804.061	8503
804.204	8164
804.346	8123
804.488	7989
804.63	8126
804.773	8092
804.915	8168
805.057	8332
805.199	8161
805.341	8263
805.483	8343
805.626	8267
805.768	8145
805.91	8244
806.052	8202
806.194	8111
806.336	8279
806.478	8157
806.62	8123
806.762	8172
806.904	8259
807.046	8484
807.188	8351
807.33	8301
807.472	8328
807.614	8134
807.756	8103
807.898	8031
808.04	7944
808.182	7947
808.324	7936
808.465	7917
808.607	8081
808.749	8119
808.891	8221
809.033	8317
809.174	8191
809.316	8088
809.458	8077
809.6	8043
809.741	8039
809.883	8096
810.025	8126
810.166	8107
810.308	8081
810.45	8046
810.591	7864
810.733	7685
810.875	7651
811.016	7571
811.158	7487
811.299	7594
811.441	7734
811.582	7658
811.724	7609
811.865	7525
812.007	7582
812.148	7548
812.29	7605
812.431	7803
812.573	7883
812.714	8005
812.855	8084
812.997	8180
813.138	8381
813.279	8187
813.421	8096
813.562	8058
813.703	7833
813.845	7757
813.986	7529
814.127	7263
814.268	7255
814.41	7263
814.551	7152
814.692	7171
814.833	7145
814.974	7122
815.115	7129
815.256	6996
815.397	6958
815.539	6989
815.68	6810
815.821	6810
815.962	6916
816.103	6863
816.244	6734
816.385	6627
816.526	6616
816.666	6460
816.807	6323
816.948	6498
817.089	6502
817.23	6426
817.371	6467
817.512	6414
817.653	6452
817.793	6437
817.934	6437
818.075	6460
818.216	6433
818.356	6399
818.497	6285
818.638	6159
818.778	6167
818.919	6167
819.06	6190
819.2	6331
819.341	6346
819.481	6369
819.622	6544
819.762	6707
819.903	6715
820.043	6563
820.184	6631
820.324	6589
820.465	6734
820.605	6684
820.746	6665
820.886	6410
821.026	6658
821.167	6650
821.307	6818
821.447	6776
821.588	6711
821.728	6517
821.868	6471
822.008	6239
822.149	6338
822.289	6391
822.429	6155
822.569	6106
822.709	6148
822.849	5965
822.99	5901
823.13	5923
823.27	5908
823.41	5828
823.55	5809
823.69	5779
823.83	5828
823.97	5684
824.11	5562
824.25	5520
824.389	5551
824.529	5589
824.669	5573
824.809	5661
824.949	5653
825.089	5619
825.228	5554
825.368	5414
825.508	5383
825.648	5345
825.787	5360
825.927	5379
826.067	5334
826.206	5318
826.346	5414
826.485	5383
826.625	5421
826.765	5604
826.904	5547
827.044	5265
827.183	5197
827.323	5155
827.462	5296
827.601	5197
827.741	5250
827.88	5231
828.02	5109
828.159	5258
828.298	5353
828.437	5383
828.577	5296
828.716	5532
828.855	5368
828.994	5166
829.134	5197
829.273	5201
829.412	5174
829.551	5102
829.69	5166
829.829	5227
829.968	5410
830.107	5269
830.246	5322
830.385	5166
830.524	5136
830.663	5045
830.802	4987
830.941	4900
831.08	4881
831.219	4995
831.357	4980
831.496	5132
831.635	4968
831.774	4824
831.913	4862
832.051	4740
832.19	4797
832.329	4850
832.467	4668
832.606	4622
832.744	4736
832.883	4744
833.022	4763
833.16	4778
833.299	4816
833.437	4820
833.576	4847
833.714	4862
833.852	4870
833.991	4949
834.129	4984
834.267	4965
834.406	4934
834.544	4953
834.682	4995
834.821	4938
834.959	5155
835.097	4968
835.235	5166
835.373	5132
835.511	5098
835.65	5033
835.788	5033
835.926	4949
836.064	4870
836.202	4908
836.34	5166
836.478	5250
836.615	5102
836.753	5227
836.891	5273
837.029	5258
837.167	5235
837.305	5216
837.443	5136
837.58	5014
837.718	5212
837.856	5231
837.993	5117
838.131	5246
838.269	5250
838.406	5197
838.544	5223
838.681	5067
838.819	4999
838.956	4904
839.094	4892
839.231	5010
839.369	5102
839.506	5459
839.643	5239
839.781	5045
839.918	5022
840.055	5109
840.193	5128
840.33	5132
840.467	5159
840.604	5174
840.742	5452
840.879	5071
841.016	5113
841.153	5132
841.29	5341
841.427	5326
841.564	5341
841.701	5368
841.838	5277
841.975	5208
842.112	5322
842.249	5140
842.385	5067
842.522	5349
842.659	5181
842.796	5143
842.933	5204
843.069	5132
843.206	5121
843.343	5334
843.479	5261
843.616	5246
843.752	5033
843.889	5041
844.025	5239
844.162	5025
844.298	5239
844.435	5128
844.571	5006
844.708	5143
844.844	5277
844.98	5406
845.117	5311
845.253	5166
845.389	5105
845.525	5181
845.661	5193
845.798	5090
845.934	5132
846.07	5105
846.206	5216
846.342	5261
846.478	5159
846.614	5029
846.75	4976
846.886	4927
847.022	5178
847.158	4972
847.294	5075
847.429	5124
847.565	5109
847.701	5360
847.837	4904
847.972	4778
848.108	4957
848.244	4961
848.379	4782
848.515	4717
848.65	4744
848.786	4675
848.921	4763
849.057	4885
849.192	4904
849.328	4812
849.463	4881
849.598	4816
849.734	4714
849.869	4691
850.004	4622
850.14	4664
850.275	4592
850.41	4561
850.545	4603
850.68	4622
850.815	4630
850.95	4656
851.085	4858
851.22	4805
851.355	4668
851.49	4599
851.625	4653
851.76	4637
851.895	4622
852.03	4554
852.165	4679
852.299	4721
852.434	4812
852.569	4759
852.703	4805
852.838	4889
852.973	4938
853.107	4938
853.242	4717
853.376	4691
853.511	4592
853.645	4584
853.78	4831
853.914	4683
854.048	4653
854.183	4653
854.317	4691
854.451	4889
854.585	4649
854.72	4592
854.854	4805
854.988	4596
855.122	4634
855.256	4542
855.39	4706
855.524	4744
855.658	4736
855.792	4714
855.926	4729
856.06	4778
856.194	4820
856.327	4660
856.461	4596
856.595	4611
856.729	4634
856.862	4771
856.996	4675
857.13	4698
857.263	4767
857.397	4812
857.53	4675
857.664	4714
857.797	4778
857.931	4752
858.064	4721
858.197	4710
858.331	4645
858.464	4588
858.597	4573
858.731	4672
858.864	4607
858.997	4615
859.13	4664
859.263	4672
859.396	4683
859.529	4580
859.662	4527
859.795	4542
859.928	4607
860.061	4755
860.194	4748
860.327	4596
860.46	4561
860.592	4736
860.725	4744
860.858	4687
860.99	4603
861.123	4565
861.256	4542
861.388	4630
861.521	5265
861.653	4451
861.786	4417
861.918	4531
862.05	4485
862.183	4535
862.315	4596
862.447	4656
862.58	4535
862.712	4402
862.844	4303
862.976	4497
863.108	4466
863.24	4854
863.372	4348
863.504	4402
863.636	4436
863.768	4443
863.9	4443
864.032	4356
864.164	4421
864.296	4428
864.428	4531
864.559	4580
864.691	4508
864.823	4546
864.954	4447
865.086	4519
865.217	4432
865.349	4405
865.48	4478
865.612	4516
865.743	4580
865.875	4466
866.006	4424
866.137	4455
866.269	4432
866.4	4447
866.531	4405
866.662	4413
866.793	4440
866.924	4421
867.055	4504
867.186	4470
867.317	4409
867.448	4386
867.579	4367
867.71	4371
867.841	4405
867.972	4432
868.103	4443
868.233	4409
868.364	4474
868.495	4466
868.625	4672
868.756	4752
868.886	4554
869.017	4653
869.147	4812
869.278	4740
869.408	4668
869.539	4649
869.669	4733
869.799	4694
869.929	4740
870.06	4733
870.19	4942
870.32	4911
870.45	4908
870.58	4995
870.71	5090
870.84	5147
870.97	4987
871.1	4889
871.23	5105
871.36	5132
871.489	5041
871.619	5014
871.749	5113
871.879	5121
872.008	5181
872.138	5075
872.267	5018
872.397	4805
872.526	4805
872.656	4714
872.785	4801
872.915	4999
873.044	5003
873.173	4946
873.303	4885
873.432	4915
873.561	4946
873.69	4904
873.819	4885
873.948	4938
874.077	4782
874.206	4729
874.335	4755
874.464	4923
874.593	5056
874.722	4934
874.851	5067
874.979	4991
875.108	5041
875.237	4911
875.365	4877
875.494	4877
875.623	4961
875.751	4858
875.88	4877
876.008	4968
876.136	5033
876.265	5143
876.393	5364
876.521	5254
876.65	5223
876.778	5197
876.906	5056
877.034	5003
877.162	5060
877.29	5003
877.418	5113
877.546	5003
877.674	5010
877.802	4987
877.93	5052
878.058	4965
878.185	4858
878.313	4949
878.441	4930
878.568	4824
878.696	4828
878.824	4961
878.951	4980
879.079	5086
879.206	5242
879.333	5102
879.461	4980
879.588	5014
879.715	5143
879.842	5239
879.97	5003
880.097	4771
880.224	4733
880.351	4797
880.478	4866
880.605	4820
880.732	4786
880.859	5128
880.986	4877
881.112	4911
881.239	4767
881.366	4675
881.493	4588
881.619	4618
881.746	4637
881.872	4664
881.999	4668
882.125	4706
882.252	4782
882.378	4801
882.505	4930
882.631	4805
882.757	4679
882.883	4767
883.01	4755
883.136	4611
883.262	4641
883.388	4599
883.514	4839
883.64	4881
883.766	4782
883.892	4649
884.018	4717
884.143	4885
884.269	5003
884.395	4653
884.52	4611
884.646	4615
884.772	4550
884.897	4527
885.023	4618
885.148	4793
885.274	4824
885.399	4782
885.524	4691
885.65	4683
885.775	4687
885.9	4755
886.025	4801
886.15	4782
886.275	4683
886.4	4668
886.525	4729
886.65	4687
886.775	4691
886.9	4877
887.025	5067
887.149	4812
887.274	4675
887.399	4577
887.523	4656
887.648	4561
887.773	4615
887.897	4721
888.021	4782
888.146	4668
888.27	4850
888.395	4904
888.519	4771
888.643	4786
888.767	4782
888.891	4630
889.015	4630
889.139	4675
889.263	4561
889.387	4733
889.511	4820
889.635	4831
889.759	4645
889.883	4599
890.006	4710
890.13	4839
890.254	4637
890.377	4687
890.501	4519
890.624	4447
890.748	4641
890.871	4516
890.995	4417
891.118	4402
891.241	4519
891.364	4512
891.488	4668
891.611	4474
891.734	4523
891.857	4546
891.98	4535
892.103	4641
892.226	4592
892.349	4580
892.471	4428
892.594	4527
892.717	4561
892.839	4596
892.962	4573
893.085	4637
893.207	4584
893.33	4478
893.452	4554
893.575	4683
893.697	4603
893.819	4854
893.941	4843
894.064	4790
894.186	4546
894.308	4561
894.43	4694
894.552	4831
894.674	4767
894.796	4550
894.918	4615
895.04	4550
895.161	4698
895.283	4626
895.405	4569
895.526	4660
895.648	4622
895.769	4687
895.891	4702
896.012	4755
896.134	4721
896.255	4649
896.376	4618
896.498	4607
896.619	4641
896.74	4592
896.861	4664
896.982	4927
897.103	5109
897.224	4824
897.345	4759
897.466	4634
897.587	4748
897.708	4862
897.828	4809
897.949	4683
898.07	4554
898.19	4653
898.311	4847
898.431	4683
898.552	4691
898.672	4835
898.792	4714
898.913	4668
899.033	4607
899.153	4519
899.273	4436
899.393	4500
899.513	4546
899.633	4500
899.753	4565
899.873	4512
899.993	4569
900.113	4558
900.232	4618
900.352	4519
900.472	4485
900.591	4383
900.711	4489
900.83	4417
900.95	4622
901.069	4653
901.189	4538
901.308	4383
901.427	4322
901.546	4386
901.665	4424
901.784	4481
901.904	4409
902.023	4329
902.141	4181
902.26	4192
902.379	4265
902.498	4219
902.617	4219
902.735	4398
902.854	4436
902.973	4322
903.091	4234
903.21	4223
903.328	4310
903.446	4306
903.565	4227
903.683	4325
903.801	4207
903.919	4344
904.038	4421
904.156	4272
904.274	4432
904.392	4386
904.51	4421
904.627	4459
904.745	4554
904.863	4569
904.981	4405
905.098	4352
905.216	4394
905.334	4417
905.451	4432
905.569	4409
905.686	4538
905.803	4497
905.921	4379
906.038	4592
906.155	4478
906.272	4417
906.389	4421
906.506	4379
906.623	4329
906.74	4360
906.857	4306
906.974	4386
907.091	4531
907.208	4694
907.324	4603
907.441	4516
907.557	4390
907.674	4314
907.79	4284
907.907	4352
908.023	4481
908.139	4504
908.256	4466
908.372	4459
908.488	4443
908.604	4318
908.72	4333
908.836	4402
908.952	4386
909.068	4459
909.184	4531
909.3	4459
909.415	4611
909.531	4550
909.647	4341
909.762	4341
909.878	4390
909.993	4447
910.108	4413
910.224	4402
910.339	4538
910.454	4413
910.57	4329
910.685	4291
910.8	4630
910.915	4565
911.03	4481
911.145	4344
911.259	4295
911.374	4318
911.489	4299
911.604	4280
911.718	4207
911.833	4192
911.947	4093
912.062	4082
912.176	4230
912.291	4207
912.405	4257
912.519	4493
912.633	4443
912.748	4348
912.862	4280
912.976	4188
913.09	4131
913.204	4169
913.318	4272
913.431	4386
913.545	4325
913.659	4436
913.772	4379
913.886	4223
914	4211
914.113	4402
914.226	4405
914.34	4383
914.453	4249
914.566	4402
914.68	4318
914.793	4352
914.906	4135
915.019	4097
915.132	4078
915.245	4143
915.358	4196
915.47	4230
915.583	4295
915.696	4329
915.809	4409
915.921	4405
916.034	4253
916.146	4215
916.259	4185
916.371	4337
916.483	4352
916.595	4246
916.708	4344
916.82	4299
916.932	4322
917.044	4314
917.156	4287
917.268	4223
917.38	4276
917.491	4276
917.603	4398
917.715	4394
917.826	4432
917.938	4333
918.049	4227
918.161	4428
918.272	4554
918.384	4561
918.495	4440
918.606	4344
918.717	4219
918.828	4325
918.939	4375
919.05	4215
919.161	4356
919.272	4158
919.383	4196
919.494	4417
919.604	4588
919.715	4417
919.826	4360
919.936	4405
920.047	4535
920.157	4493
920.267	4683
920.378	4592
920.488	4542
920.598	4740
920.708	4877
920.818	4790
920.928	4763
921.038	4980
921.148	4877
921.258	4645
921.368	4561
921.477	4470
921.587	4451
921.697	4379
921.806	4519
921.916	4462
922.025	4257
922.134	4204
922.244	4188
922.353	4333
922.462	4188
922.571	4162
922.68	4006
922.789	3960
922.898	4090
923.007	4006
923.116	4097
923.224	4078
923.333	4067
923.442	4021
923.55	3960
923.659	3956
923.767	4093
923.876	4013
923.984	4124
924.092	3972
924.201	4090
924.309	4082
924.417	4116
924.525	4090
924.633	4093
924.741	5022
924.849	3880
924.956	4101
925.064	3941
925.172	3857
925.279	3968
925.387	4021
925.494	4032
925.602	4246
925.709	4166
925.816	4036
925.924	4112
926.031	4204
926.138	4147
926.245	4215
926.352	4109
926.459	4227
926.566	4291
926.673	4158
926.779	4093
926.886	4086
926.993	4002
927.099	3918
927.206	3896
927.312	3945
927.419	4048
927.525	4036
927.631	4048
927.737	3930
927.843	3934
927.95	3835
928.056	3964
928.162	3968
928.267	4071
928.373	4698
928.479	4124
928.585	3861
928.69	4017
928.796	4051
928.901	3918
929.007	3827
929.112	4044
929.218	3960
929.323	3934
929.428	3911
929.533	4086
929.638	3907
929.743	3960
929.848	4036
929.953	4010
930.058	3922
930.163	3789
930.267	3842
930.372	3983
930.477	3762
930.581	4090
930.685	3960
930.79	3774
930.894	3915
930.998	3899
931.103	4048
931.207	3728
931.311	3694
931.415	3641
931.519	3485
931.623	3580
