Data from test_V78500241_916.txt Node
Date: Fri Mar 25 16:55:22 CST 2022
User: usil
Spectrometer: V785-0024
Trigger mode: 0
Integration Time (sec): 4.000000E-1
Scans to average: 1
Nonlinearity correction enabled: false
Boxcar width: 0
Storing dark spectrum: false
XAxis mode: Wavelengths
Number of Pixels in Spectrum: 1024
>>>>>Begin Spectral Data<<<<<
801.071	8027
801.214	8027
801.356	7963
801.499	7807
801.641	7868
801.783	7814
801.926	7986
802.068	7909
802.211	8012
802.353	7913
802.496	7833
802.638	7921
802.78	7898
802.923	7936
803.065	7928
803.208	7902
803.35	8005
803.492	8187
803.635	8180
803.777	8020
803.919	8096
804.061	8438
804.204	8206
804.346	8096
804.488	8054
804.63	8138
804.773	8016
804.915	8092
805.057	8267
805.199	8229
805.341	8214
805.483	8240
805.626	8183
805.768	8126
805.91	8229
806.052	8233
806.194	8115
806.336	8370
806.478	8123
806.62	8077
806.762	8145
806.904	8343
807.046	8488
807.188	8412
807.33	8313
807.472	8347
807.614	8142
807.756	8103
807.898	8050
808.04	7955
808.182	7963
808.324	7837
808.465	7852
808.607	8062
808.749	8103
808.891	8225
809.033	8263
809.174	8218
809.316	8054
809.458	8100
809.6	7887
809.741	8005
809.883	8005
810.025	8123
810.166	8084
810.308	8024
810.45	8027
810.591	7921
810.733	7715
810.875	7685
811.016	7590
811.158	7529
811.299	7601
811.441	7674
811.582	7734
811.724	7586
811.865	7480
812.007	7544
812.148	7544
812.29	7666
812.431	7799
812.573	7913
812.714	7997
812.855	8164
812.997	8286
813.138	8324
813.279	8195
813.421	8077
813.562	8012
813.703	7951
813.845	7772
813.986	7445
814.127	7278
814.268	7293
814.41	7190
814.551	7046
814.692	7190
814.833	7046
814.974	7122
815.115	7099
815.256	6954
815.397	6943
815.539	6935
815.68	6806
815.821	6806
815.962	6875
816.103	6802
816.244	6707
816.385	6726
816.526	6673
816.666	6471
816.807	6292
816.948	6456
817.089	6479
817.23	6448
817.371	6369
817.512	6456
817.653	6403
817.793	6395
817.934	6403
818.075	6388
818.216	6365
818.356	6380
818.497	6224
818.638	6091
818.778	6136
818.919	6186
819.06	6175
819.2	6334
819.341	6331
819.481	6437
819.622	6536
819.762	6734
819.903	6684
820.043	6597
820.184	6574
820.324	6585
820.465	6662
820.605	6662
820.746	6642
820.886	6502
821.026	6692
821.167	6745
821.307	6787
821.447	6741
821.588	6677
821.728	6547
821.868	6475
822.008	6353
822.149	6319
822.289	6350
822.429	6155
822.569	6068
822.709	6144
822.849	5916
822.99	5882
823.13	5916
823.27	5908
823.41	5836
823.55	5741
823.69	5790
823.83	5771
823.97	5703
824.11	5486
824.25	5482
824.389	5585
824.529	5543
824.669	5577
824.809	5661
824.949	5661
825.089	5668
825.228	5562
825.368	5425
825.508	5364
825.648	5322
825.787	5429
825.927	5364
826.067	5292
826.206	5337
826.346	5402
826.485	5398
826.625	5406
826.765	5577
826.904	5467
827.044	5280
827.183	5170
827.323	5102
827.462	5265
827.601	5185
827.741	5185
827.88	5235
828.02	5128
828.159	5261
828.298	5261
828.437	5334
828.577	5246
828.716	5512
828.855	5315
828.994	5193
829.134	5151
829.273	5223
829.412	5159
829.551	5166
829.69	5178
829.829	5269
829.968	5379
830.107	5299
830.246	5269
830.385	5170
830.524	5067
830.663	5086
830.802	4965
830.941	4892
831.08	4847
831.219	4961
831.357	4930
831.496	5178
831.635	4938
831.774	4892
831.913	4843
832.051	4702
832.19	4752
832.329	4831
832.467	4675
832.606	4641
832.744	4736
832.883	4752
833.022	4725
833.16	4778
833.299	4885
833.437	4816
833.576	4847
833.714	4828
833.852	4862
833.991	4908
834.129	4957
834.267	4953
834.406	4911
834.544	4961
834.682	4938
834.821	4911
834.959	5166
835.097	5010
835.235	5140
835.373	5113
835.511	5113
835.65	5033
835.788	5041
835.926	4885
836.064	4911
836.202	4919
836.34	5155
836.478	5235
836.615	5090
836.753	5189
836.891	5273
837.029	5208
837.167	5208
837.305	5193
837.443	5189
837.58	5098
837.718	5250
837.856	5166
837.993	5113
838.131	5223
838.269	5235
838.406	5212
838.544	5162
838.681	5006
838.819	4991
838.956	4843
839.094	4923
839.231	4972
839.369	5060
839.506	5410
839.643	5303
839.781	5071
839.918	4999
840.055	5102
840.193	5094
840.33	5128
840.467	5136
840.604	5235
840.742	5402
840.879	5045
841.016	5094
841.153	5117
841.29	5353
841.427	5322
841.564	5315
841.701	5372
841.838	5318
841.975	5258
842.112	5239
842.249	5147
842.385	5155
842.522	5277
842.659	5204
842.796	5193
842.933	5201
843.069	5166
843.206	5170
843.343	5277
843.479	5185
843.616	5280
843.752	5033
843.889	5006
844.025	5220
844.162	5060
844.298	5189
844.435	5067
844.571	4987
844.708	5189
844.844	5311
844.98	5341
845.117	5227
845.253	5166
845.389	5045
845.525	5185
845.661	5128
845.798	5056
845.934	5098
846.07	5033
846.206	5162
846.342	5269
846.478	5128
846.614	5041
846.75	5010
846.886	4915
847.022	5162
847.158	4972
847.294	5102
847.429	5102
847.565	5056
847.701	5341
847.837	4835
847.972	4801
848.108	4946
848.244	4949
848.379	4721
848.515	4759
848.65	4683
848.786	4721
848.921	4778
849.057	4866
849.192	4900
849.328	4870
849.463	4870
849.598	4824
849.734	4736
849.869	4706
850.004	4626
850.14	4634
850.275	4561
850.41	4554
850.545	4527
850.68	4622
850.815	4603
850.95	4611
851.085	4793
851.22	4714
851.355	4679
851.49	4672
851.625	4653
851.76	4645
851.895	4584
852.03	4531
852.165	4694
852.299	4687
852.434	4820
852.569	4759
852.703	4748
852.838	4828
852.973	4938
853.107	4946
853.242	4740
853.376	4691
853.511	4546
853.645	4611
853.78	4816
853.914	4694
854.048	4675
854.183	4687
854.317	4622
854.451	4839
854.585	4698
854.72	4596
854.854	4759
854.988	4630
855.122	4641
855.256	4500
855.39	4664
855.524	4767
855.658	4759
855.792	4653
855.926	4702
856.06	4797
856.194	4771
856.327	4687
856.461	4592
856.595	4569
856.729	4622
856.862	4752
856.996	4725
857.13	4733
857.263	4698
857.397	4778
857.53	4660
857.664	4733
857.797	4748
857.931	4759
858.064	4702
858.197	4774
858.331	4641
858.464	4603
858.597	4584
858.731	4603
858.864	4664
858.997	4599
859.13	4592
859.263	4656
859.396	4660
859.529	4592
859.662	4569
859.795	4531
859.928	4634
860.061	4759
860.194	4767
860.327	4637
860.46	4558
860.592	4641
860.725	4763
860.858	4729
860.99	4611
861.123	4508
861.256	4485
861.388	4615
861.521	5185
861.653	4451
861.786	4462
861.918	4421
862.05	4531
862.183	4558
862.315	4569
862.447	4653
862.58	4577
862.712	4424
862.844	4344
862.976	4466
863.108	4462
863.24	4744
863.372	4379
863.504	4386
863.636	4383
863.768	4497
863.9	4405
864.032	4367
864.164	4421
864.296	4421
864.428	4542
864.559	4554
864.691	4546
864.823	4508
864.954	4478
865.086	4504
865.217	4443
865.349	4379
865.48	4462
865.612	4497
865.743	4611
865.875	4478
866.006	4432
866.137	4459
866.269	4451
866.4	4440
866.531	4459
866.662	4402
866.793	4402
866.924	4367
867.055	4478
867.186	4481
867.317	4402
867.448	4421
867.579	4413
867.71	4398
867.841	4409
867.972	4451
868.103	4386
868.233	4478
868.364	4466
868.495	4497
868.625	4618
868.756	4725
868.886	4599
869.017	4603
869.147	4763
869.278	4748
869.408	4649
869.539	4607
869.669	4717
869.799	4698
869.929	4771
870.06	4694
870.19	4930
870.32	4946
870.45	4957
870.58	4968
870.71	5124
870.84	5056
870.97	4980
871.1	4850
871.23	5090
871.36	5083
871.489	5010
871.619	5029
871.749	5045
871.879	5090
872.008	5193
872.138	5056
872.267	4908
872.397	4900
872.526	4790
872.656	4733
872.785	4744
872.915	4911
873.044	5025
873.173	4908
873.303	4965
873.432	4949
873.561	4946
873.69	4900
873.819	4870
873.948	4915
874.077	4850
874.206	4809
874.335	4763
874.464	4991
874.593	5056
874.722	4927
874.851	5117
874.979	5018
875.108	5041
875.237	4904
875.365	4885
875.494	4892
875.623	4946
875.751	4820
875.88	4885
876.008	4980
876.136	5014
876.265	5220
876.393	5345
876.521	5299
876.65	5201
876.778	5113
876.906	5083
877.034	5079
877.162	4980
877.29	4968
877.418	4999
877.546	4995
877.674	5052
877.802	4999
877.93	4972
878.058	4881
878.185	4881
878.313	4953
878.441	4968
878.568	4790
878.696	4805
878.824	4934
878.951	4995
879.079	5128
879.206	5258
879.333	5086
879.461	4976
879.588	4957
879.715	5094
879.842	5231
879.97	4961
880.097	4824
880.224	4805
880.351	4809
880.478	4797
880.605	4782
880.732	4774
880.859	5056
880.986	4911
881.112	4904
881.239	4816
881.366	4645
881.493	4558
881.619	4569
881.746	4622
881.872	4649
881.999	4656
882.125	4675
882.252	4790
882.378	4801
882.505	4927
882.631	4801
882.757	4675
882.883	4725
883.01	4698
883.136	4649
883.262	4634
883.388	4645
883.514	4850
883.64	4862
883.766	4790
883.892	4694
884.018	4664
884.143	4858
884.269	4934
884.395	4714
884.52	4611
884.646	4596
884.772	4584
884.897	4538
885.023	4618
885.148	4828
885.274	4870
885.399	4793
885.524	4706
885.65	4714
885.775	4733
885.9	4763
886.025	4847
886.15	4771
886.275	4725
886.4	4721
886.525	4752
886.65	4687
886.775	4649
886.9	4835
887.025	4984
887.149	4786
887.274	4672
887.399	4607
887.523	4607
887.648	4550
887.773	4596
887.897	4778
888.021	4828
888.146	4691
888.27	4824
888.395	4885
888.519	4763
888.643	4793
888.767	4870
888.891	4694
889.015	4615
889.139	4668
889.263	4588
889.387	4752
889.511	4870
889.635	4771
889.759	4637
889.883	4622
890.006	4721
890.13	4812
890.254	4664
890.377	4679
890.501	4573
890.624	4478
890.748	4588
890.871	4493
890.995	4455
891.118	4322
891.241	4504
891.364	4508
891.488	4637
891.611	4459
891.734	4508
891.857	4634
891.98	4546
892.103	4664
892.226	4580
892.349	4523
892.471	4356
892.594	4512
892.717	4565
892.839	4542
892.962	4580
893.085	4622
893.207	4596
893.33	4447
893.452	4546
893.575	4630
893.697	4611
893.819	4831
893.941	4850
894.064	4786
894.186	4599
894.308	4550
894.43	4729
894.552	4839
894.674	4725
894.796	4512
894.918	4626
895.04	4565
895.161	4698
895.283	4664
895.405	4527
895.526	4641
895.648	4672
895.769	4691
895.891	4660
896.012	4694
896.134	4717
896.255	4653
896.376	4634
896.498	4611
896.619	4694
896.74	4618
896.861	4611
896.982	4896
897.103	5094
897.224	4835
897.345	4717
897.466	4637
897.587	4634
897.708	4843
897.828	4809
897.949	4664
898.07	4535
898.19	4634
898.311	4755
898.431	4687
898.552	4675
898.672	4809
898.792	4786
898.913	4763
899.033	4599
899.153	4523
899.273	4455
899.393	4523
899.513	4538
899.633	4542
899.753	4546
899.873	4531
899.993	4565
900.113	4531
900.232	4561
900.352	4512
900.472	4470
900.591	4371
900.711	4443
900.83	4424
900.95	4622
901.069	4672
901.189	4535
901.308	4322
901.427	4337
901.546	4367
901.665	4421
901.784	4466
901.904	4409
902.023	4318
902.141	4135
902.26	4169
902.379	4291
902.498	4242
902.617	4227
902.735	4333
902.854	4394
902.973	4348
903.091	4207
903.21	4227
903.328	4276
903.446	4280
903.565	4272
903.683	4341
903.801	4276
903.919	4436
904.038	4462
904.156	4303
904.274	4447
904.392	4413
904.51	4360
904.627	4402
904.745	4535
904.863	4615
904.981	4409
905.098	4295
905.216	4337
905.334	4455
905.451	4436
905.569	4421
905.686	4580
905.803	4588
905.921	4470
906.038	4554
906.155	4462
906.272	4386
906.389	4443
906.506	4344
906.623	4383
906.74	4363
906.857	4303
906.974	4379
907.091	4542
907.208	4641
907.324	4561
907.441	4504
907.557	4287
907.674	4284
907.79	4268
907.907	4386
908.023	4497
908.139	4519
908.256	4398
908.372	4432
908.488	4447
908.604	4310
908.72	4341
908.836	4367
908.952	4341
909.068	4371
909.184	4531
909.3	4481
909.415	4561
909.531	4561
909.647	4318
909.762	4344
909.878	4314
909.993	4417
910.108	4360
910.224	4386
910.339	4485
910.454	4379
910.57	4344
910.685	4303
910.8	4641
910.915	4542
911.03	4424
911.145	4276
911.259	4337
911.374	4367
911.489	4291
911.604	4253
911.718	4154
911.833	4204
911.947	4078
912.062	4013
912.176	4169
912.291	4268
912.405	4246
912.519	4478
912.633	4512
912.748	4352
912.862	4299
912.976	4169
913.09	4116
913.204	4192
913.318	4246
913.431	4379
913.545	4325
913.659	4405
913.772	4417
913.886	4211
914	4234
914.113	4390
914.226	4428
914.34	4421
914.453	4249
914.566	4436
914.68	4295
914.793	4318
914.906	4124
915.019	4147
915.132	4051
915.245	4192
915.358	4204
915.47	4196
915.583	4238
915.696	4299
915.809	4390
915.921	4337
916.034	4207
916.146	4284
916.259	4227
916.371	4421
916.483	4344
916.595	4287
916.708	4348
916.82	4314
916.932	4295
917.044	4325
917.156	4333
917.268	4207
917.38	4268
917.491	4272
917.603	4303
917.715	4424
917.826	4394
917.938	4348
918.049	4238
918.161	4421
918.272	4546
918.384	4531
918.495	4402
918.606	4299
918.717	4265
918.828	4333
918.939	4360
919.05	4223
919.161	4329
919.272	4059
919.383	4200
919.494	4409
919.604	4641
919.715	4394
919.826	4295
919.936	4413
920.047	4546
920.157	4508
920.267	4702
920.378	4504
920.488	4508
920.598	4714
920.708	4923
920.818	4714
920.928	4786
921.038	4870
921.148	4900
921.258	4675
921.368	4542
921.477	4489
921.587	4459
921.697	4333
921.806	4519
921.916	4360
922.025	4211
922.134	4257
922.244	4211
922.353	4291
922.462	4162
922.571	4120
922.68	4013
922.789	3983
922.898	4074
923.007	3968
923.116	4109
923.224	4059
923.333	4067
923.442	3998
923.55	3964
923.659	4032
923.767	4105
923.876	3991
923.984	4105
924.092	3972
924.201	4071
924.309	4131
924.417	4135
924.525	4048
924.633	4112
924.741	4904
924.849	3937
924.956	4086
925.064	3960
925.172	3838
925.279	3926
925.387	4017
925.494	4048
925.602	4147
925.709	4185
925.816	3994
925.924	4124
926.031	4223
926.138	4143
926.245	4192
926.352	4101
926.459	4227
926.566	4299
926.673	4128
926.779	4048
926.886	4044
926.993	3930
927.099	3930
927.206	3953
927.312	3941
927.419	4063
927.525	4048
927.631	4135
927.737	3949
927.843	3896
927.95	3869
928.056	3915
928.162	3994
928.267	4051
928.373	4558
928.479	4105
928.585	3915
928.69	3972
928.796	4029
928.901	3937
929.007	3831
929.112	4002
929.218	3960
929.323	3918
929.428	3934
929.533	4078
929.638	3896
929.743	3945
929.848	4063
929.953	3941
930.058	3960
930.163	3720
930.267	3804
930.372	3960
930.477	3785
930.581	4097
930.685	3960
930.79	3869
930.894	3880
930.998	3850
931.103	3998
931.207	3732
931.311	3679
931.415	3625
931.519	3507
931.623	3557
