Data from test_V78500241_281.txt Node
Date: Fri Mar 25 16:50:57 CST 2022
User: usil
Spectrometer: V785-0024
Trigger mode: 0
Integration Time (sec): 4.000000E-1
Scans to average: 1
Nonlinearity correction enabled: false
Boxcar width: 0
Storing dark spectrum: false
XAxis mode: Wavelengths
Number of Pixels in Spectrum: 1024
>>>>>Begin Spectral Data<<<<<
801.071	8054
801.214	8039
801.356	7906
801.499	7841
801.641	7837
801.783	7883
801.926	8020
802.068	8005
802.211	8027
802.353	8046
802.496	7864
802.638	7913
802.78	7974
802.923	7963
803.065	7849
803.208	7845
803.35	8012
803.492	8031
803.635	8157
803.777	8020
803.919	8054
804.061	8450
804.204	8168
804.346	8100
804.488	7890
804.63	8123
804.773	7963
804.915	8046
805.057	8195
805.199	8130
805.341	8183
805.483	8263
805.626	8214
805.768	8134
805.91	8168
806.052	8172
806.194	8103
806.336	8267
806.478	8161
806.62	8145
806.762	8077
806.904	8286
807.046	8450
807.188	8374
807.33	8279
807.472	8279
807.614	8134
807.756	8081
807.898	7974
808.04	7909
808.182	7963
808.324	7902
808.465	7940
808.607	8058
808.749	8103
808.891	8267
809.033	8309
809.174	8180
809.316	8054
809.458	8058
809.6	8031
809.741	8008
809.883	8050
810.025	8054
810.166	8065
810.308	8039
810.45	7986
810.591	7849
810.733	7753
810.875	7624
811.016	7525
811.158	7403
811.299	7624
811.441	7746
811.582	7643
811.724	7559
811.865	7567
812.007	7632
812.148	7632
812.29	7613
812.431	7776
812.573	7864
812.714	8012
812.855	8081
812.997	8161
813.138	8305
813.279	8145
813.421	8134
813.562	7982
813.703	7833
813.845	7761
813.986	7480
814.127	7289
814.268	7285
814.41	7209
814.551	7145
814.692	7141
814.833	7057
814.974	7091
815.115	7103
815.256	6894
815.397	6909
815.539	6939
815.68	6913
815.821	6859
815.962	6913
816.103	6802
816.244	6768
816.385	6616
816.526	6635
816.666	6578
816.807	6327
816.948	6441
817.089	6498
817.23	6433
817.371	6426
817.512	6407
817.653	6376
817.793	6407
817.934	6433
818.075	6441
818.216	6399
818.356	6361
818.497	6266
818.638	6140
818.778	6133
818.919	6114
819.06	6136
819.2	6327
819.341	6273
819.481	6403
819.622	6525
819.762	6753
819.903	6662
820.043	6608
820.184	6593
820.324	6566
820.465	6692
820.605	6635
820.746	6703
820.886	6551
821.026	6627
821.167	6707
821.307	6779
821.447	6757
821.588	6646
821.728	6608
821.868	6544
822.008	6334
822.149	6388
822.289	6361
822.429	6182
822.569	6129
822.709	6095
822.849	5958
822.99	5893
823.13	5878
823.27	5874
823.41	5794
823.55	5817
823.69	5817
823.83	5767
823.97	5668
824.11	5566
824.25	5459
824.389	5566
824.529	5577
824.669	5543
824.809	5680
824.949	5653
825.089	5596
825.228	5528
825.368	5417
825.508	5326
825.648	5311
825.787	5368
825.927	5357
826.067	5318
826.206	5280
826.346	5387
826.485	5372
826.625	5425
826.765	5535
826.904	5520
827.044	5239
827.183	5197
827.323	5128
827.462	5273
827.601	5193
827.741	5147
827.88	5204
828.02	5162
828.159	5246
828.298	5303
828.437	5322
828.577	5288
828.716	5471
828.855	5326
828.994	5136
829.134	5132
829.273	5220
829.412	5132
829.551	5147
829.69	5193
829.829	5220
829.968	5368
830.107	5261
830.246	5284
830.385	5181
830.524	5083
830.663	5079
830.802	4957
830.941	4862
831.08	4854
831.219	4965
831.357	4957
831.496	5170
831.635	4919
831.774	4885
831.913	4828
832.051	4691
832.19	4767
832.329	4847
832.467	4664
832.606	4618
832.744	4706
832.883	4736
833.022	4740
833.16	4809
833.299	4850
833.437	4820
833.576	4831
833.714	4854
833.852	4892
833.991	4862
834.129	4965
834.267	4965
834.406	4961
834.544	4965
834.682	4976
834.821	4968
834.959	5151
835.097	4984
835.235	5136
835.373	5064
835.511	5041
835.65	5060
835.788	5014
835.926	4961
836.064	4858
836.202	4915
836.34	5189
836.478	5254
836.615	5147
836.753	5208
836.891	5265
837.029	5204
837.167	5201
837.305	5204
837.443	5109
837.58	5083
837.718	5296
837.856	5170
837.993	5189
838.131	5307
838.269	5193
838.406	5189
838.544	5185
838.681	5041
838.819	5003
838.956	4862
839.094	4927
839.231	5033
839.369	5090
839.506	5402
839.643	5231
839.781	5037
839.918	5025
840.055	5117
840.193	5090
840.33	5109
840.467	5174
840.604	5227
840.742	5474
840.879	5102
841.016	5094
841.153	5094
841.29	5387
841.427	5364
841.564	5318
841.701	5383
841.838	5250
841.975	5242
842.112	5269
842.249	5136
842.385	5052
842.522	5357
842.659	5223
842.796	5170
842.933	5143
843.069	5136
843.206	5155
843.343	5261
843.479	5201
843.616	5227
843.752	5083
843.889	5041
844.025	5216
844.162	5022
844.298	5185
844.435	5060
844.571	5056
844.708	5231
844.844	5334
844.98	5315
845.117	5307
845.253	5166
845.389	5083
845.525	5105
845.661	5090
845.798	5071
845.934	5117
846.07	5071
846.206	5235
846.342	5227
846.478	5181
846.614	5052
846.75	4968
846.886	4923
847.022	5174
847.158	5064
847.294	5105
847.429	5086
847.565	5045
847.701	5296
847.837	4831
847.972	4801
848.108	4995
848.244	4930
848.379	4767
848.515	4710
848.65	4763
848.786	4778
848.921	4831
849.057	4847
849.192	4946
849.328	4809
849.463	4824
849.598	4763
849.734	4771
849.869	4694
850.004	4653
850.14	4691
850.275	4558
850.41	4462
850.545	4550
850.68	4599
850.815	4626
850.95	4637
851.085	4873
851.22	4782
851.355	4691
851.49	4698
851.625	4588
851.76	4656
851.895	4573
852.03	4527
852.165	4637
852.299	4714
852.434	4793
852.569	4782
852.703	4782
852.838	4870
852.973	4923
853.107	4927
853.242	4744
853.376	4706
853.511	4466
853.645	4607
853.78	4793
853.914	4664
854.048	4694
854.183	4675
854.317	4725
854.451	4828
854.585	4725
854.72	4653
854.854	4740
854.988	4653
855.122	4630
855.256	4523
855.39	4683
855.524	4812
855.658	4717
855.792	4645
855.926	4748
856.06	4714
856.194	4774
856.327	4653
856.461	4618
856.595	4645
856.729	4649
856.862	4786
856.996	4687
857.13	4698
857.263	4790
857.397	4801
857.53	4569
857.664	4698
857.797	4748
857.931	4790
858.064	4653
858.197	4793
858.331	4641
858.464	4660
858.597	4538
858.731	4653
858.864	4622
858.997	4615
859.13	4626
859.263	4656
859.396	4694
859.529	4561
859.662	4584
859.795	4535
859.928	4622
860.061	4763
860.194	4748
860.327	4622
860.46	4584
860.592	4687
860.725	4687
860.858	4736
860.99	4622
861.123	4523
861.256	4565
861.388	4618
861.521	5322
861.653	4462
861.786	4447
861.918	4485
862.05	4485
862.183	4554
862.315	4607
862.447	4675
862.58	4577
862.712	4398
862.844	4310
862.976	4500
863.108	4485
863.24	4870
863.372	4314
863.504	4428
863.636	4417
863.768	4436
863.9	4440
864.032	4360
864.164	4405
864.296	4481
864.428	4542
864.559	4584
864.691	4542
864.823	4573
864.954	4516
865.086	4527
865.217	4436
865.349	4402
865.48	4447
865.612	4500
865.743	4622
865.875	4455
866.006	4413
866.137	4535
866.269	4470
866.4	4398
866.531	4436
866.662	4428
866.793	4459
866.924	4390
867.055	4546
867.186	4470
867.317	4470
867.448	4432
867.579	4394
867.71	4405
867.841	4375
867.972	4474
868.103	4417
868.233	4489
868.364	4443
868.495	4451
868.625	4660
868.756	4782
868.886	4603
869.017	4599
869.147	4744
869.278	4725
869.408	4675
869.539	4641
869.669	4733
869.799	4698
869.929	4752
870.06	4706
870.19	4885
870.32	4938
870.45	4946
870.58	4976
870.71	5086
870.84	5170
870.97	4972
871.1	4892
871.23	5162
871.36	5105
871.489	5033
871.619	5121
871.749	5109
871.879	5147
872.008	5170
872.138	5060
872.267	5010
872.397	4866
872.526	4782
872.656	4771
872.785	4797
872.915	4968
873.044	4991
873.173	4972
873.303	4976
873.432	4946
873.561	4957
873.69	4831
873.819	4877
873.948	4870
874.077	4771
874.206	4790
874.335	4797
874.464	4930
874.593	5117
874.722	4991
874.851	5094
874.979	5071
875.108	4984
875.237	4870
875.365	4927
875.494	4915
875.623	5003
875.751	4900
875.88	4889
876.008	5041
876.136	5041
876.265	5239
876.393	5334
876.521	5288
876.65	5170
876.778	5094
876.906	5056
877.034	5018
877.162	5033
877.29	4976
877.418	5067
877.546	5033
877.674	5033
877.802	4991
877.93	5037
878.058	4949
878.185	4900
878.313	4957
878.441	4873
878.568	4801
878.696	4904
878.824	4980
878.951	5029
879.079	5090
879.206	5284
879.333	5117
879.461	4972
879.588	5014
879.715	5121
879.842	5269
879.97	5033
880.097	4778
880.224	4763
880.351	4797
880.478	4862
880.605	4809
880.732	4782
880.859	5079
880.986	4919
881.112	4961
881.239	4786
881.366	4702
881.493	4584
881.619	4584
881.746	4645
881.872	4675
881.999	4656
882.125	4656
882.252	4824
882.378	4820
882.505	4934
882.631	4839
882.757	4668
882.883	4710
883.01	4736
883.136	4668
883.262	4645
883.388	4622
883.514	4866
883.64	4858
883.766	4828
883.892	4721
884.018	4698
884.143	4896
884.269	5041
884.395	4687
884.52	4584
884.646	4656
884.772	4599
884.897	4611
885.023	4668
885.148	4786
885.274	4877
885.399	4805
885.524	4698
885.65	4683
885.775	4774
885.9	4733
886.025	4862
886.15	4786
886.275	4744
886.4	4645
886.525	4721
886.65	4729
886.775	4694
886.9	4934
887.025	5033
887.149	4793
887.274	4672
887.399	4558
887.523	4622
887.648	4630
887.773	4580
887.897	4771
888.021	4790
888.146	4694
888.27	4870
888.395	4858
888.519	4774
888.643	4847
888.767	4843
888.891	4729
889.015	4596
889.139	4702
889.263	4603
889.387	4744
889.511	4850
889.635	4812
889.759	4645
889.883	4622
890.006	4752
890.13	4809
890.254	4649
890.377	4656
890.501	4546
890.624	4554
890.748	4637
890.871	4508
890.995	4459
891.118	4413
891.241	4500
891.364	4527
891.488	4656
891.611	4546
891.734	4561
891.857	4656
891.98	4565
892.103	4618
892.226	4577
892.349	4535
892.471	4470
892.594	4531
892.717	4584
892.839	4584
892.962	4611
893.085	4664
893.207	4603
893.33	4512
893.452	4516
893.575	4649
893.697	4592
893.819	4778
893.941	4809
894.064	4774
894.186	4588
894.308	4580
894.43	4767
894.552	4843
894.674	4714
894.796	4577
894.918	4649
895.04	4592
895.161	4717
895.283	4683
895.405	4569
895.526	4660
895.648	4672
895.769	4679
895.891	4714
896.012	4778
896.134	4748
896.255	4630
896.376	4656
896.498	4615
896.619	4748
896.74	4641
896.861	4672
896.982	4942
897.103	5060
897.224	4870
897.345	4729
897.466	4694
897.587	4771
897.708	4870
897.828	4733
897.949	4714
898.07	4550
898.19	4660
898.311	4908
898.431	4668
898.552	4759
898.672	4847
898.792	4854
898.913	4694
899.033	4637
899.153	4531
899.273	4409
899.393	4489
899.513	4481
899.633	4508
899.753	4561
899.873	4516
899.993	4538
900.113	4527
900.232	4626
900.352	4538
900.472	4474
900.591	4386
900.711	4538
900.83	4470
900.95	4656
901.069	4744
901.189	4538
901.308	4379
901.427	4360
901.546	4394
901.665	4432
901.784	4527
901.904	4424
902.023	4299
902.141	4177
902.26	4128
902.379	4325
902.498	4227
902.617	4200
902.735	4325
902.854	4394
902.973	4375
903.091	4219
903.21	4219
903.328	4337
903.446	4253
903.565	4257
903.683	4352
903.801	4325
903.919	4375
904.038	4371
904.156	4348
904.274	4428
904.392	4405
904.51	4428
904.627	4462
904.745	4584
904.863	4630
904.981	4405
905.098	4303
905.216	4383
905.334	4413
905.451	4428
905.569	4497
905.686	4550
905.803	4538
905.921	4367
906.038	4580
906.155	4478
906.272	4402
906.389	4459
906.506	4356
906.623	4379
906.74	4371
906.857	4344
906.974	4352
907.091	4561
907.208	4672
907.324	4580
907.441	4527
907.557	4367
907.674	4352
907.79	4310
907.907	4386
908.023	4512
908.139	4474
908.256	4432
908.372	4470
908.488	4519
908.604	4363
908.72	4371
908.836	4344
908.952	4363
909.068	4428
909.184	4565
909.3	4459
909.415	4577
909.531	4569
909.647	4348
909.762	4322
909.878	4325
909.993	4443
910.108	4390
910.224	4443
910.339	4481
910.454	4386
910.57	4367
910.685	4322
910.8	4664
910.915	4626
911.03	4516
911.145	4322
911.259	4394
911.374	4417
911.489	4268
911.604	4314
911.718	4204
911.833	4185
911.947	4059
912.062	4071
912.176	4249
912.291	4257
912.405	4242
912.519	4436
912.633	4519
912.748	4390
912.862	4295
912.976	4234
913.09	4101
913.204	4188
913.318	4253
913.431	4371
913.545	4318
913.659	4428
913.772	4363
913.886	4280
914	4223
914.113	4402
914.226	4405
914.34	4379
914.453	4204
914.566	4405
914.68	4329
914.793	4363
914.906	4147
915.019	4128
915.132	4086
915.245	4124
915.358	4211
915.47	4227
915.583	4280
915.696	4344
915.809	4424
915.921	4462
916.034	4257
916.146	4253
916.259	4234
916.371	4348
916.483	4333
916.595	4188
916.708	4348
916.82	4310
916.932	4367
917.044	4337
917.156	4375
917.268	4192
917.38	4261
917.491	4257
917.603	4341
917.715	4440
917.826	4440
917.938	4386
918.049	4272
918.161	4436
918.272	4542
918.384	4546
918.495	4481
918.606	4318
918.717	4249
918.828	4363
918.939	4398
919.05	4268
919.161	4295
919.272	4158
919.383	4253
919.494	4443
919.604	4675
919.715	4489
919.826	4333
919.936	4417
920.047	4535
920.157	4493
920.267	4736
920.378	4569
920.488	4478
920.598	4714
920.708	4889
920.818	4759
920.928	4782
921.038	4934
921.148	4927
921.258	4630
921.368	4577
921.477	4512
921.587	4447
921.697	4405
921.806	4561
921.916	4436
922.025	4295
922.134	4268
922.244	4173
922.353	4318
922.462	4185
922.571	4177
922.68	4010
922.789	3983
922.898	4071
923.007	4013
923.116	4124
923.224	4112
923.333	4074
923.442	3987
923.55	4032
923.659	4002
923.767	4147
923.876	3983
923.984	4074
924.092	4029
924.201	4055
924.309	4074
924.417	4147
924.525	4093
924.633	4097
924.741	5048
924.849	3865
924.956	4135
925.064	3975
925.172	3884
925.279	3941
925.387	4067
925.494	4086
925.602	4169
925.709	4192
925.816	4013
925.924	4131
926.031	4276
926.138	4169
926.245	4181
926.352	4082
926.459	4261
926.566	4291
926.673	4196
926.779	4090
926.886	4055
926.993	3983
927.099	3983
927.206	3918
927.312	3991
927.419	4048
927.525	4017
927.631	4128
927.737	3994
927.843	3926
927.95	3823
928.056	3953
928.162	3975
928.267	4036
928.373	4706
928.479	4101
928.585	3884
928.69	3994
928.796	4048
928.901	3960
929.007	3823
929.112	3975
929.218	3994
929.323	3975
929.428	3964
929.533	4101
929.638	3915
929.743	3960
929.848	4097
929.953	3991
930.058	3956
930.163	3778
930.267	3827
930.372	4036
930.477	3797
930.581	4074
930.685	3937
930.79	3831
930.894	3918
930.998	3842
931.103	3994
931.207	3694
931.311	3701
931.415	3701
931.519	3473
931.623	3545
