Data from test_V78500241_1978.txt Node
Date: Fri Mar 25 17:02:45 CST 2022
User: usil
Spectrometer: V785-0024
Trigger mode: 0
Integration Time (sec): 4.000000E-1
Scans to average: 1
Nonlinearity correction enabled: false
Boxcar width: 0
Storing dark spectrum: false
XAxis mode: Wavelengths
Number of Pixels in Spectrum: 1024
>>>>>Begin Spectral Data<<<<<
801.071	7963
801.214	7989
801.356	7890
801.499	7875
801.641	7788
801.783	7788
801.926	8031
802.068	7894
802.211	8005
802.353	8008
802.496	7845
802.638	7852
802.78	7841
802.923	7879
803.065	7860
803.208	7909
803.35	7986
803.492	8065
803.635	8164
803.777	7925
803.919	8107
804.061	8495
804.204	8202
804.346	8054
804.488	7928
804.63	8145
804.773	8020
804.915	8164
805.057	8290
805.199	8195
805.341	8157
805.483	8214
805.626	8229
805.768	8130
805.91	8199
806.052	8195
806.194	8119
806.336	8286
806.478	8062
806.62	8020
806.762	8168
806.904	8233
807.046	8560
807.188	8396
807.33	8351
807.472	8362
807.614	8157
807.756	8199
807.898	8058
808.04	7947
808.182	7830
808.324	7887
808.465	7879
808.607	8008
808.749	8088
808.891	8183
809.033	8366
809.174	8233
809.316	8008
809.458	8027
809.6	7989
809.741	8077
809.883	8069
810.025	8107
810.166	8096
810.308	8039
810.45	7989
810.591	7871
810.733	7742
810.875	7674
811.016	7556
811.158	7464
811.299	7594
811.441	7674
811.582	7719
811.724	7548
811.865	7609
812.007	7613
812.148	7544
812.29	7597
812.431	7784
812.573	7917
812.714	7944
812.855	8210
812.997	8164
813.138	8324
813.279	8176
813.421	8103
813.562	7967
813.703	7837
813.845	7704
813.986	7438
814.127	7240
814.268	7255
814.41	7217
814.551	7114
814.692	7255
814.833	7069
814.974	7069
815.115	7164
815.256	6951
815.397	6897
815.539	7012
815.68	6818
815.821	6783
815.962	6890
816.103	6802
816.244	6703
816.385	6601
816.526	6646
816.666	6509
816.807	6323
816.948	6456
817.089	6513
817.23	6467
817.371	6399
817.512	6410
817.653	6391
817.793	6331
817.934	6433
818.075	6433
818.216	6380
818.356	6353
818.497	6300
818.638	6129
818.778	6182
818.919	6167
819.06	6175
819.2	6254
819.341	6273
819.481	6346
819.622	6498
819.762	6749
819.903	6753
820.043	6608
820.184	6608
820.324	6631
820.465	6711
820.605	6711
820.746	6658
820.886	6528
821.026	6669
821.167	6684
821.307	6802
821.447	6802
821.588	6646
821.728	6559
821.868	6486
822.008	6323
822.149	6365
822.289	6331
822.429	6121
822.569	6106
822.709	6095
822.849	5935
822.99	5942
823.13	5935
823.27	5939
823.41	5783
823.55	5802
823.69	5817
823.83	5794
823.97	5684
824.11	5486
824.25	5547
824.389	5520
824.529	5566
824.669	5547
824.809	5661
824.949	5627
825.089	5649
825.228	5535
825.368	5353
825.508	5337
825.648	5345
825.787	5357
825.927	5341
826.067	5284
826.206	5299
826.346	5337
826.485	5334
826.625	5406
826.765	5539
826.904	5539
827.044	5303
827.183	5212
827.323	5189
827.462	5235
827.601	5174
827.741	5208
827.88	5250
828.02	5121
828.159	5223
828.298	5284
828.437	5349
828.577	5277
828.716	5520
828.855	5349
828.994	5121
829.134	5128
829.273	5227
829.412	5113
829.551	5155
829.69	5204
829.829	5261
829.968	5387
830.107	5296
830.246	5277
830.385	5216
830.524	5143
830.663	5071
830.802	5022
830.941	4885
831.08	4889
831.219	4987
831.357	5003
831.496	5140
831.635	4942
831.774	4908
831.913	4885
832.051	4767
832.19	4752
832.329	4774
832.467	4656
832.606	4645
832.744	4774
832.883	4717
833.022	4759
833.16	4786
833.299	4797
833.437	4801
833.576	4820
833.714	4862
833.852	4835
833.991	4881
834.129	4987
834.267	4927
834.406	4892
834.544	4938
834.682	5010
834.821	4976
834.959	5136
835.097	4999
835.235	5117
835.373	5086
835.511	5029
835.65	5060
835.788	5048
835.926	4911
836.064	4839
836.202	4919
836.34	5162
836.478	5162
836.615	5170
836.753	5235
836.891	5303
837.029	5258
837.167	5162
837.305	5166
837.443	5113
837.58	5109
837.718	5280
837.856	5208
837.993	5132
838.131	5250
838.269	5197
838.406	5212
838.544	5201
838.681	5025
838.819	4987
838.956	4908
839.094	4915
839.231	4953
839.369	5064
839.506	5467
839.643	5235
839.781	5094
839.918	4953
840.055	5109
840.193	5098
840.33	5117
840.467	5181
840.604	5189
840.742	5497
840.879	5079
841.016	5071
841.153	5124
841.29	5417
841.427	5368
841.564	5258
841.701	5360
841.838	5261
841.975	5204
842.112	5246
842.249	5170
842.385	5102
842.522	5292
842.659	5178
842.796	5178
842.933	5140
843.069	5128
843.206	5136
843.343	5311
843.479	5185
843.616	5318
843.752	5048
843.889	5033
844.025	5174
844.162	5041
844.298	5204
844.435	5094
844.571	5029
844.708	5132
844.844	5311
844.98	5307
845.117	5227
845.253	5140
845.389	5056
845.525	5151
845.661	5121
845.798	4999
845.934	5132
846.07	5067
846.206	5170
846.342	5303
846.478	5147
846.614	4987
846.75	4953
846.886	4900
847.022	5212
847.158	5037
847.294	5079
847.429	5105
847.565	5067
847.701	5334
847.837	4782
847.972	4759
848.108	4911
848.244	4896
848.379	4763
848.515	4778
848.65	4733
848.786	4752
848.921	4812
849.057	4847
849.192	4877
849.328	4801
849.463	4885
849.598	4816
849.734	4816
849.869	4687
850.004	4637
850.14	4687
850.275	4592
850.41	4554
850.545	4565
850.68	4603
850.815	4596
850.95	4599
851.085	4820
851.22	4717
851.355	4668
851.49	4649
851.625	4664
851.76	4656
851.895	4584
852.03	4531
852.165	4622
852.299	4725
852.434	4801
852.569	4774
852.703	4755
852.838	4801
852.973	4885
853.107	4904
853.242	4755
853.376	4706
853.511	4516
853.645	4611
853.78	4805
853.914	4706
854.048	4675
854.183	4683
854.317	4725
854.451	4801
854.585	4687
854.72	4656
854.854	4763
854.988	4626
855.122	4607
855.256	4554
855.39	4656
855.524	4763
855.658	4694
855.792	4717
855.926	4717
856.06	4748
856.194	4824
856.327	4702
856.461	4611
856.595	4603
856.729	4615
856.862	4675
856.996	4691
857.13	4755
857.263	4740
857.397	4755
857.53	4641
857.664	4744
857.797	4778
857.931	4820
858.064	4641
858.197	4710
858.331	4615
858.464	4554
858.597	4542
858.731	4649
858.864	4653
858.997	4588
859.13	4611
859.263	4679
859.396	4721
859.529	4558
859.662	4580
859.795	4508
859.928	4637
860.061	4774
860.194	4736
860.327	4569
860.46	4542
860.592	4675
860.725	4710
860.858	4755
860.99	4542
861.123	4481
861.256	4558
861.388	4592
861.521	5181
861.653	4485
861.786	4470
861.918	4504
862.05	4462
862.183	4531
862.315	4599
862.447	4603
862.58	4558
862.712	4428
862.844	4329
862.976	4466
863.108	4462
863.24	4767
863.372	4325
863.504	4436
863.636	4379
863.768	4470
863.9	4428
864.032	4344
864.164	4375
864.296	4489
864.428	4523
864.559	4542
864.691	4523
864.823	4523
864.954	4474
865.086	4497
865.217	4459
865.349	4402
865.48	4421
865.612	4466
865.743	4672
865.875	4466
866.006	4432
866.137	4478
866.269	4466
866.4	4455
866.531	4360
866.662	4375
866.793	4386
866.924	4390
867.055	4485
867.186	4436
867.317	4436
867.448	4325
867.579	4432
867.71	4348
867.841	4363
867.972	4485
868.103	4443
868.233	4466
868.364	4409
868.495	4455
868.625	4672
868.756	4740
868.886	4538
869.017	4675
869.147	4809
869.278	4782
869.408	4645
869.539	4672
869.669	4729
869.799	4653
869.929	4812
870.06	4725
870.19	4934
870.32	4866
870.45	4911
870.58	4957
870.71	5079
870.84	5025
870.97	4965
871.1	4923
871.23	5083
871.36	5109
871.489	5018
871.619	5086
871.749	5102
871.879	5124
872.008	5178
872.138	5010
872.267	4991
872.397	4862
872.526	4858
872.656	4733
872.785	4839
872.915	4938
873.044	5003
873.173	4995
873.303	4930
873.432	4968
873.561	4877
873.69	4873
873.819	4847
873.948	4919
874.077	4824
874.206	4744
874.335	4774
874.464	4892
874.593	5086
874.722	4942
874.851	5056
874.979	5029
875.108	5018
875.237	4885
875.365	4877
875.494	4889
875.623	5029
875.751	4835
875.88	4885
876.008	5010
876.136	5048
876.265	5174
876.393	5307
876.521	5288
876.65	5261
876.778	5174
876.906	5041
877.034	5048
877.162	5052
877.29	4976
877.418	5067
877.546	5022
877.674	4999
877.802	4987
877.93	5003
878.058	4896
878.185	4934
878.313	4957
878.441	4968
878.568	4790
878.696	4816
878.824	4949
878.951	5003
879.079	5083
879.206	5303
879.333	5121
879.461	4972
879.588	4976
879.715	5121
879.842	5201
879.97	5010
880.097	4801
880.224	4771
880.351	4831
880.478	4824
880.605	4797
880.732	4782
880.859	5117
880.986	4881
881.112	4908
881.239	4812
881.366	4637
881.493	4664
881.619	4580
881.746	4691
881.872	4630
881.999	4630
882.125	4740
882.252	4763
882.378	4835
882.505	4984
882.631	4797
882.757	4615
882.883	4717
883.01	4714
883.136	4653
883.262	4668
883.388	4615
883.514	4801
883.64	4877
883.766	4752
883.892	4660
884.018	4710
884.143	4862
884.269	5014
884.395	4649
884.52	4660
884.646	4687
884.772	4596
884.897	4516
885.023	4675
885.148	4793
885.274	4862
885.399	4782
885.524	4725
885.65	4714
885.775	4717
885.9	4714
886.025	4793
886.15	4790
886.275	4664
886.4	4649
886.525	4656
886.65	4710
886.775	4683
886.9	4885
887.025	5067
887.149	4866
887.274	4626
887.399	4622
887.523	4603
887.648	4599
887.773	4599
887.897	4778
888.021	4755
888.146	4641
888.27	4828
888.395	4934
888.519	4793
888.643	4790
888.767	4797
888.891	4675
889.015	4615
889.139	4637
889.263	4596
889.387	4733
889.511	4896
889.635	4809
889.759	4626
889.883	4691
890.006	4774
890.13	4847
890.254	4630
890.377	4664
890.501	4554
890.624	4542
890.748	4607
890.871	4497
890.995	4413
891.118	4386
891.241	4565
891.364	4546
891.488	4611
891.611	4481
891.734	4527
891.857	4615
891.98	4546
892.103	4626
892.226	4565
892.349	4535
892.471	4405
892.594	4512
892.717	4573
892.839	4588
892.962	4611
893.085	4656
893.207	4580
893.33	4481
893.452	4531
893.575	4634
893.697	4596
893.819	4744
893.941	4835
894.064	4755
894.186	4561
894.308	4531
894.43	4740
894.552	4774
894.674	4736
894.796	4577
894.918	4592
895.04	4596
895.161	4672
895.283	4645
895.405	4558
895.526	4641
895.648	4672
895.769	4717
895.891	4740
896.012	4733
896.134	4755
896.255	4675
896.376	4668
896.498	4634
896.619	4698
896.74	4615
896.861	4660
896.982	4919
897.103	5041
897.224	4843
897.345	4782
897.466	4649
897.587	4683
897.708	4885
897.828	4774
897.949	4641
898.07	4584
898.19	4615
898.311	4801
898.431	4626
898.552	4748
898.672	4767
898.792	4839
898.913	4805
899.033	4618
899.153	4516
899.273	4413
899.393	4447
899.513	4512
899.633	4535
899.753	4565
899.873	4500
899.993	4569
900.113	4546
900.232	4573
900.352	4504
900.472	4485
900.591	4394
900.711	4497
900.83	4455
900.95	4542
901.069	4687
901.189	4527
901.308	4375
901.427	4318
901.546	4398
901.665	4519
901.784	4569
901.904	4348
902.023	4341
902.141	4181
902.26	4169
902.379	4291
902.498	4257
902.617	4219
902.735	4417
902.854	4402
902.973	4348
903.091	4188
903.21	4223
903.328	4295
903.446	4230
903.565	4227
903.683	4299
903.801	4306
903.919	4379
904.038	4405
904.156	4325
904.274	4428
904.392	4360
904.51	4413
904.627	4466
904.745	4599
904.863	4615
904.981	4421
905.098	4325
905.216	4333
905.334	4489
905.451	4421
905.569	4466
905.686	4504
905.803	4554
905.921	4394
906.038	4546
906.155	4512
906.272	4398
906.389	4500
906.506	4363
906.623	4360
906.74	4356
906.857	4322
906.974	4398
907.091	4550
907.208	4672
907.324	4584
907.441	4478
907.557	4333
907.674	4306
907.79	4337
907.907	4386
908.023	4428
908.139	4508
908.256	4447
908.372	4436
908.488	4443
908.604	4329
908.72	4333
908.836	4363
908.952	4363
909.068	4386
909.184	4561
909.3	4466
909.415	4577
909.531	4550
909.647	4360
909.762	4341
909.878	4379
909.993	4432
910.108	4413
910.224	4428
910.339	4466
910.454	4440
910.57	4360
910.685	4325
910.8	4668
910.915	4561
911.03	4512
911.145	4329
911.259	4291
911.374	4421
911.489	4268
911.604	4287
911.718	4181
911.833	4242
911.947	4101
912.062	4029
912.176	4158
912.291	4227
912.405	4246
912.519	4443
912.633	4462
912.748	4417
912.862	4322
912.976	4215
913.09	4097
913.204	4242
913.318	4261
913.431	4325
913.545	4375
913.659	4409
913.772	4341
913.886	4253
914	4223
914.113	4383
914.226	4432
914.34	4413
914.453	4238
914.566	4462
914.68	4306
914.793	4318
914.906	4112
915.019	4124
915.132	4063
915.245	4188
915.358	4230
915.47	4261
915.583	4238
915.696	4322
915.809	4428
915.921	4451
916.034	4211
916.146	4253
916.259	4200
916.371	4325
916.483	4314
916.595	4253
916.708	4257
916.82	4329
916.932	4360
917.044	4329
917.156	4363
917.268	4238
917.38	4280
917.491	4257
917.603	4306
917.715	4432
917.826	4440
917.938	4360
918.049	4253
918.161	4337
918.272	4561
918.384	4535
918.495	4470
918.606	4295
918.717	4253
918.828	4310
918.939	4360
919.05	4276
919.161	4318
919.272	4147
919.383	4192
919.494	4413
919.604	4660
919.715	4417
919.826	4314
919.936	4371
920.047	4523
920.157	4497
920.267	4645
920.378	4538
920.488	4451
920.598	4736
920.708	4862
920.818	4755
920.928	4729
921.038	4968
921.148	4881
921.258	4599
921.368	4527
921.477	4459
921.587	4440
921.697	4337
921.806	4535
921.916	4417
922.025	4249
922.134	4333
922.244	4227
922.353	4363
922.462	4207
922.571	4090
922.68	4025
922.789	3953
922.898	4044
923.007	3987
923.116	4112
923.224	4078
923.333	4086
923.442	3945
923.55	3964
923.659	4067
923.767	4029
923.876	3983
923.984	4173
924.092	3964
924.201	4105
924.309	4071
924.417	4135
924.525	4044
924.633	4078
924.741	4980
924.849	3930
924.956	4143
925.064	3960
925.172	3896
925.279	3945
925.387	4013
925.494	4101
925.602	4265
925.709	4188
925.816	4025
925.924	4082
926.031	4215
926.138	4112
926.245	4211
926.352	4143
926.459	4261
926.566	4318
926.673	4131
926.779	4078
926.886	4124
926.993	4021
927.099	3956
927.206	3922
927.312	3926
927.419	4059
927.525	4032
927.631	4040
927.737	3968
927.843	3945
927.95	3892
928.056	3907
928.162	4048
928.267	4055
928.373	4603
928.479	4135
928.585	3888
928.69	4021
928.796	4063
928.901	3937
929.007	3846
929.112	4013
929.218	3964
929.323	3937
929.428	3979
929.533	4071
929.638	3911
929.743	3964
929.848	4017
929.953	3987
930.058	3903
930.163	3740
930.267	3804
930.372	3937
930.477	3831
930.581	4071
930.685	3941
930.79	3785
930.894	3888
930.998	3816
931.103	4055
931.207	3709
931.311	3663
931.415	3679
931.519	3519
931.623	3519
