Data from test_V78500241_1988.txt Node
Date: Fri Mar 25 17:02:49 CST 2022
User: usil
Spectrometer: V785-0024
Trigger mode: 0
Integration Time (sec): 4.000000E-1
Scans to average: 1
Nonlinearity correction enabled: false
Boxcar width: 0
Storing dark spectrum: false
XAxis mode: Wavelengths
Number of Pixels in Spectrum: 1024
>>>>>Begin Spectral Data<<<<<
801.071	8020
801.214	7947
801.356	7822
801.499	7860
801.641	7776
801.783	7841
801.926	7906
802.068	7974
802.211	7906
802.353	7906
802.496	7818
802.638	7837
802.78	7814
802.923	7890
803.065	7887
803.208	7822
803.35	8005
803.492	8039
803.635	8130
803.777	7928
803.919	8088
804.061	8362
804.204	8164
804.346	8024
804.488	7932
804.63	8103
804.773	8012
804.915	8069
805.057	8309
805.199	8130
805.341	8134
805.483	8195
805.626	8195
805.768	8123
805.91	8233
806.052	8256
806.194	8069
806.336	8206
806.478	8107
806.62	8069
806.762	8103
806.904	8279
807.046	8488
807.188	8400
807.33	8279
807.472	8309
807.614	8168
807.756	8115
807.898	7989
808.04	7830
808.182	7849
808.324	7879
808.465	7841
808.607	8027
808.749	8134
808.891	8240
809.033	8301
809.174	8290
809.316	8039
809.458	8031
809.6	8027
809.741	8020
809.883	8039
810.025	8062
810.166	7989
810.308	7978
810.45	7970
810.591	7906
810.733	7696
810.875	7651
811.016	7472
811.158	7499
811.299	7597
811.441	7715
811.582	7674
811.724	7571
811.865	7556
812.007	7605
812.148	7575
812.29	7639
812.431	7765
812.573	7879
812.714	7978
812.855	8073
812.997	8138
813.138	8244
813.279	8134
813.421	7963
813.562	7944
813.703	7875
813.845	7727
813.986	7365
814.127	7209
814.268	7213
814.41	7187
814.551	7175
814.692	7263
814.833	7099
814.974	7072
815.115	7126
815.256	6928
815.397	6939
815.539	6890
815.68	6730
815.821	6757
815.962	6821
816.103	6753
816.244	6707
816.385	6601
816.526	6574
816.666	6471
816.807	6285
816.948	6414
817.089	6502
817.23	6437
817.371	6357
817.512	6327
817.653	6433
817.793	6353
817.934	6380
818.075	6422
818.216	6441
818.356	6433
818.497	6311
818.638	6038
818.778	6152
818.919	6163
819.06	6133
819.2	6342
819.341	6285
819.481	6407
819.622	6555
819.762	6730
819.903	6665
820.043	6616
820.184	6585
820.324	6627
820.465	6745
820.605	6753
820.746	6604
820.886	6509
821.026	6593
821.167	6684
821.307	6798
821.447	6696
821.588	6642
821.728	6544
821.868	6452
822.008	6323
822.149	6342
822.289	6357
822.429	6178
822.569	6068
822.709	6136
822.849	5927
822.99	5897
823.13	5927
823.27	5916
823.41	5851
823.55	5764
823.69	5741
823.83	5737
823.97	5600
824.11	5528
824.25	5497
824.389	5554
824.529	5520
824.669	5551
824.809	5630
824.949	5604
825.089	5570
825.228	5577
825.368	5376
825.508	5379
825.648	5372
825.787	5357
825.927	5353
826.067	5277
826.206	5261
826.346	5372
826.485	5379
826.625	5433
826.765	5528
826.904	5406
827.044	5284
827.183	5185
827.323	5083
827.462	5254
827.601	5170
827.741	5239
827.88	5216
828.02	5033
828.159	5166
828.298	5315
828.437	5387
828.577	5277
828.716	5448
828.855	5334
828.994	5170
829.134	5140
829.273	5185
829.412	5113
829.551	5109
829.69	5197
829.829	5193
829.968	5318
830.107	5277
830.246	5357
830.385	5162
830.524	5140
830.663	5048
830.802	4946
830.941	4923
831.08	4889
831.219	5006
831.357	4965
831.496	5140
831.635	4938
831.774	4812
831.913	4782
832.051	4721
832.19	4767
832.329	4866
832.467	4721
832.606	4672
832.744	4767
832.883	4687
833.022	4729
833.16	4717
833.299	4831
833.437	4805
833.576	4828
833.714	4820
833.852	4873
833.991	4889
834.129	4938
834.267	4949
834.406	4873
834.544	5006
834.682	4987
834.821	4915
834.959	5143
835.097	4980
835.235	5166
835.373	5037
835.511	5132
835.65	5041
835.788	4991
835.926	4892
836.064	4847
836.202	4915
836.34	5132
836.478	5201
836.615	5140
836.753	5181
836.891	5318
837.029	5246
837.167	5212
837.305	5151
837.443	5113
837.58	5083
837.718	5216
837.856	5170
837.993	5105
838.131	5197
838.269	5204
838.406	5170
838.544	5193
838.681	4984
838.819	4965
838.956	4870
839.094	4866
839.231	4961
839.369	5041
839.506	5417
839.643	5212
839.781	5128
839.918	4999
840.055	5083
840.193	5147
840.33	5140
840.467	5113
840.604	5159
840.742	5417
840.879	5056
841.016	5086
841.153	5105
841.29	5395
841.427	5307
841.564	5231
841.701	5334
841.838	5269
841.975	5216
842.112	5231
842.249	5204
842.385	5109
842.522	5315
842.659	5162
842.796	5071
842.933	5174
843.069	5136
843.206	5151
843.343	5315
843.479	5208
843.616	5296
843.752	5086
843.889	4972
844.025	5216
844.162	5029
844.298	5185
844.435	5132
844.571	5018
844.708	5147
844.844	5337
844.98	5398
845.117	5265
845.253	5105
845.389	5075
845.525	5166
845.661	5178
845.798	5052
845.934	5178
846.07	5025
846.206	5132
846.342	5239
846.478	5136
846.614	4999
846.75	4953
846.886	4968
847.022	5105
847.158	5003
847.294	5064
847.429	5086
847.565	5056
847.701	5299
847.837	4892
847.972	4816
848.108	4908
848.244	4911
848.379	4752
848.515	4717
848.65	4736
848.786	4793
848.921	4839
849.057	4889
849.192	4915
849.328	4782
849.463	4824
849.598	4782
849.734	4774
849.869	4675
850.004	4637
850.14	4660
850.275	4630
850.41	4538
850.545	4565
850.68	4630
850.815	4622
850.95	4649
851.085	4850
851.22	4778
851.355	4698
851.49	4615
851.625	4599
851.76	4656
851.895	4588
852.03	4592
852.165	4706
852.299	4729
852.434	4755
852.569	4687
852.703	4797
852.838	4816
852.973	4957
853.107	4915
853.242	4710
853.376	4683
853.511	4535
853.645	4580
853.78	4828
853.914	4668
854.048	4668
854.183	4637
854.317	4706
854.451	4862
854.585	4675
854.72	4668
854.854	4733
854.988	4637
855.122	4573
855.256	4497
855.39	4653
855.524	4774
855.658	4714
855.792	4672
855.926	4736
856.06	4752
856.194	4782
856.327	4706
856.461	4550
856.595	4634
856.729	4618
856.862	4774
856.996	4706
857.13	4752
857.263	4759
857.397	4767
857.53	4626
857.664	4714
857.797	4767
857.931	4763
858.064	4683
858.197	4763
858.331	4622
858.464	4573
858.597	4493
858.731	4607
858.864	4630
858.997	4565
859.13	4615
859.263	4641
859.396	4702
859.529	4550
859.662	4538
859.795	4569
859.928	4611
860.061	4710
860.194	4763
860.327	4611
860.46	4554
860.592	4675
860.725	4717
860.858	4717
860.99	4588
861.123	4603
861.256	4497
861.388	4626
861.521	5197
861.653	4565
861.786	4428
861.918	4443
862.05	4531
862.183	4596
862.315	4550
862.447	4630
862.58	4519
862.712	4405
862.844	4371
862.976	4447
863.108	4451
863.24	4729
863.372	4344
863.504	4493
863.636	4447
863.768	4500
863.9	4405
864.032	4360
864.164	4405
864.296	4478
864.428	4561
864.559	4573
864.691	4542
864.823	4550
864.954	4459
865.086	4542
865.217	4424
865.349	4417
865.48	4421
865.612	4478
865.743	4580
865.875	4478
866.006	4402
866.137	4405
866.269	4405
866.4	4417
866.531	4417
866.662	4329
866.793	4383
866.924	4371
867.055	4561
867.186	4455
867.317	4402
867.448	4405
867.579	4383
867.71	4375
867.841	4375
867.972	4459
868.103	4424
868.233	4436
868.364	4428
868.495	4489
868.625	4660
868.756	4748
868.886	4516
869.017	4634
869.147	4744
869.278	4755
869.408	4641
869.539	4615
869.669	4694
869.799	4694
869.929	4778
870.06	4790
870.19	4934
870.32	4930
870.45	4885
870.58	4984
870.71	5056
870.84	5102
870.97	4938
871.1	4881
871.23	5102
871.36	5117
871.489	5025
871.619	5006
871.749	5052
871.879	5140
872.008	5178
872.138	5018
872.267	4953
872.397	4843
872.526	4828
872.656	4721
872.785	4793
872.915	4934
873.044	5056
873.173	4957
873.303	4968
873.432	4972
873.561	4949
873.69	4839
873.819	4809
873.948	4927
874.077	4801
874.206	4774
874.335	4843
874.464	4847
874.593	5060
874.722	4965
874.851	5090
874.979	5086
875.108	5025
875.237	4911
875.365	4904
875.494	4816
875.623	4987
875.751	4797
875.88	4873
876.008	4961
876.136	5022
876.265	5185
876.393	5299
876.521	5280
876.65	5227
876.778	5223
876.906	5083
877.034	4957
877.162	5086
877.29	5029
877.418	5025
877.546	5071
877.674	5071
877.802	5014
877.93	5010
878.058	4889
878.185	4854
878.313	4927
878.441	4930
878.568	4767
878.696	4877
878.824	4946
878.951	5052
879.079	5109
879.206	5223
879.333	5090
879.461	4961
879.588	4968
879.715	5102
879.842	5216
879.97	4984
880.097	4778
880.224	4714
880.351	4771
880.478	4820
880.605	4801
880.732	4786
880.859	5045
880.986	4885
881.112	4873
881.239	4782
881.366	4668
881.493	4603
881.619	4618
881.746	4649
881.872	4664
881.999	4611
882.125	4706
882.252	4786
882.378	4782
882.505	4942
882.631	4782
882.757	4637
882.883	4771
883.01	4717
883.136	4683
883.262	4573
883.388	4596
883.514	4793
883.64	4828
883.766	4778
883.892	4672
884.018	4687
884.143	4885
884.269	4961
884.395	4668
884.52	4607
884.646	4630
884.772	4550
884.897	4561
885.023	4668
885.148	4740
885.274	4908
885.399	4793
885.524	4729
885.65	4717
885.775	4748
885.9	4694
886.025	4828
886.15	4767
886.275	4702
886.4	4653
886.525	4740
886.65	4683
886.775	4748
886.9	4923
887.025	4995
887.149	4786
887.274	4664
887.399	4554
887.523	4649
887.648	4550
887.773	4588
887.897	4774
888.021	4774
888.146	4645
888.27	4786
888.395	4908
888.519	4847
888.643	4809
888.767	4847
888.891	4660
889.015	4634
889.139	4649
889.263	4611
889.387	4691
889.511	4858
889.635	4831
889.759	4626
889.883	4660
890.006	4683
890.13	4835
890.254	4660
890.377	4634
890.501	4519
890.624	4542
890.748	4641
890.871	4478
890.995	4451
891.118	4360
891.241	4497
891.364	4519
891.488	4645
891.611	4497
891.734	4523
891.857	4577
891.98	4561
892.103	4656
892.226	4637
892.349	4516
892.471	4424
892.594	4535
892.717	4599
892.839	4546
892.962	4531
893.085	4660
893.207	4584
893.33	4512
893.452	4546
893.575	4649
893.697	4554
893.819	4752
893.941	4767
894.064	4767
894.186	4546
894.308	4550
894.43	4714
894.552	4858
894.674	4767
894.796	4538
894.918	4561
895.04	4531
895.161	4649
895.283	4622
895.405	4618
895.526	4653
895.648	4653
895.769	4653
895.891	4698
896.012	4744
896.134	4755
896.255	4683
896.376	4615
896.498	4573
896.619	4691
896.74	4599
896.861	4702
896.982	4911
897.103	5037
897.224	4831
897.345	4706
897.466	4630
897.587	4691
897.708	4877
897.828	4786
897.949	4645
898.07	4565
898.19	4660
898.311	4847
898.431	4645
898.552	4759
898.672	4763
898.792	4835
898.913	4729
899.033	4630
899.153	4535
899.273	4413
899.393	4523
899.513	4519
899.633	4504
899.753	4569
899.873	4527
899.993	4580
900.113	4538
900.232	4538
900.352	4573
900.472	4493
900.591	4356
900.711	4523
900.83	4428
900.95	4577
901.069	4714
901.189	4538
901.308	4337
901.427	4310
901.546	4413
901.665	4443
901.784	4508
901.904	4386
902.023	4329
902.141	4215
902.26	4158
902.379	4303
902.498	4246
902.617	4219
902.735	4367
902.854	4409
902.973	4394
903.091	4173
903.21	4207
903.328	4295
903.446	4268
903.565	4276
903.683	4379
903.801	4207
903.919	4440
904.038	4421
904.156	4318
904.274	4466
904.392	4375
904.51	4424
904.627	4451
904.745	4573
904.863	4626
904.981	4405
905.098	4291
905.216	4363
905.334	4447
905.451	4390
905.569	4459
905.686	4519
905.803	4516
905.921	4356
906.038	4565
906.155	4451
906.272	4398
906.389	4405
906.506	4367
906.623	4363
906.74	4405
906.857	4325
906.974	4344
907.091	4546
907.208	4653
907.324	4542
907.441	4516
907.557	4303
907.674	4333
907.79	4318
907.907	4352
908.023	4481
908.139	4436
908.256	4424
908.372	4417
908.488	4413
908.604	4383
908.72	4272
908.836	4356
908.952	4333
909.068	4402
909.184	4580
909.3	4466
909.415	4592
909.531	4527
909.647	4337
909.762	4383
909.878	4371
909.993	4470
910.108	4421
910.224	4436
910.339	4478
910.454	4367
910.57	4341
910.685	4299
910.8	4618
910.915	4546
911.03	4478
911.145	4318
911.259	4383
911.374	4348
911.489	4329
911.604	4242
911.718	4166
911.833	4204
911.947	4082
912.062	4063
912.176	4215
912.291	4227
912.405	4242
912.519	4417
912.633	4489
912.748	4413
912.862	4363
912.976	4215
913.09	4078
913.204	4192
913.318	4242
913.431	4344
913.545	4348
913.659	4417
913.772	4383
913.886	4272
914	4196
914.113	4337
914.226	4432
914.34	4375
914.453	4234
914.566	4440
914.68	4314
914.793	4287
914.906	4162
915.019	4131
915.132	4082
915.245	4166
915.358	4200
915.47	4249
915.583	4246
915.696	4291
915.809	4402
915.921	4421
916.034	4227
916.146	4272
916.259	4230
916.371	4299
916.483	4348
916.595	4196
916.708	4261
916.82	4310
916.932	4280
917.044	4325
917.156	4310
917.268	4223
917.38	4227
917.491	4272
917.603	4371
917.715	4413
917.826	4424
917.938	4341
918.049	4276
918.161	4421
918.272	4519
918.384	4512
918.495	4447
918.606	4295
918.717	4253
918.828	4337
918.939	4405
919.05	4280
919.161	4341
919.272	4200
919.383	4234
919.494	4409
919.604	4603
919.715	4443
919.826	4348
919.936	4371
920.047	4519
920.157	4500
920.267	4683
920.378	4523
920.488	4519
920.598	4736
920.708	4889
920.818	4725
920.928	4786
921.038	4965
921.148	4896
921.258	4622
921.368	4519
921.477	4443
921.587	4436
921.697	4402
921.806	4550
921.916	4413
922.025	4295
922.134	4268
922.244	4230
922.353	4341
922.462	4150
922.571	4135
922.68	4017
922.789	3975
922.898	4040
923.007	4006
923.116	4074
923.224	4059
923.333	4090
923.442	3964
923.55	3964
923.659	4013
923.767	4093
923.876	3964
923.984	4120
924.092	3991
924.201	4063
924.309	4059
924.417	4128
924.525	4036
924.633	4074
924.741	5056
924.849	3945
924.956	4109
925.064	3937
925.172	3915
925.279	3918
925.387	4044
925.494	4029
925.602	4227
925.709	4185
925.816	4029
925.924	4105
926.031	4234
926.138	4154
926.245	4230
926.352	4101
926.459	4287
926.566	4329
926.673	4143
926.779	4082
926.886	4063
926.993	3987
927.099	3991
927.206	3956
927.312	3934
927.419	4051
927.525	4036
927.631	4116
927.737	3937
927.843	3941
927.95	3854
928.056	3922
928.162	4021
928.267	4078
928.373	4592
928.479	4158
928.585	3865
928.69	4032
928.796	4082
928.901	3991
929.007	3816
929.112	4010
929.218	3972
929.323	3937
929.428	3896
929.533	4135
929.638	3873
929.743	3907
929.848	4025
929.953	3998
930.058	3922
930.163	3774
930.267	3797
930.372	3998
930.477	3785
930.581	4059
930.685	3903
930.79	3819
930.894	3884
930.998	3835
931.103	4090
931.207	3694
931.311	3690
931.415	3648
931.519	3488
931.623	3523
