Data from test_V78500241_886.txt Node
Date: Fri Mar 25 16:55:09 CST 2022
User: usil
Spectrometer: V785-0024
Trigger mode: 0
Integration Time (sec): 4.000000E-1
Scans to average: 1
Nonlinearity correction enabled: false
Boxcar width: 0
Storing dark spectrum: false
XAxis mode: Wavelengths
Number of Pixels in Spectrum: 1024
>>>>>Begin Spectral Data<<<<<
801.071	8058
801.214	8005
801.356	7875
801.499	7811
801.641	7769
801.783	7826
801.926	7944
802.068	7978
802.211	8016
802.353	7928
802.496	7864
802.638	7860
802.78	7909
802.923	7879
803.065	7852
803.208	7909
803.35	7997
803.492	8191
803.635	8130
803.777	8069
803.919	8069
804.061	8412
804.204	8111
804.346	7986
804.488	7967
804.63	8130
804.773	8088
804.915	8035
805.057	8301
805.199	8183
805.341	8172
805.483	8195
805.626	8138
805.768	8062
805.91	8199
806.052	8126
806.194	8126
806.336	8279
806.478	8111
806.62	8039
806.762	8180
806.904	8298
807.046	8503
807.188	8339
807.33	8351
807.472	8324
807.614	8126
807.756	8145
807.898	7959
808.04	7868
808.182	7841
808.324	7826
808.465	7871
808.607	8084
808.749	8054
808.891	8153
809.033	8244
809.174	8138
809.316	8088
809.458	8039
809.6	7917
809.741	8065
809.883	7997
810.025	8115
810.166	8027
810.308	8073
810.45	8062
810.591	7902
810.733	7712
810.875	7597
811.016	7464
811.158	7521
811.299	7567
811.441	7734
811.582	7693
811.724	7586
811.865	7571
812.007	7597
812.148	7571
812.29	7582
812.431	7712
812.573	7849
812.714	7917
812.855	8119
812.997	8206
813.138	8355
813.279	8161
813.421	8092
813.562	8062
813.703	7814
813.845	7765
813.986	7464
814.127	7255
814.268	7236
814.41	7194
814.551	7114
814.692	7171
814.833	7038
814.974	7095
815.115	7057
815.256	7012
815.397	6913
815.539	6981
815.68	6852
815.821	6753
815.962	6844
816.103	6783
816.244	6665
816.385	6662
816.526	6597
816.666	6456
816.807	6277
816.948	6342
817.089	6494
817.23	6418
817.371	6350
817.512	6353
817.653	6384
817.793	6380
817.934	6365
818.075	6372
818.216	6418
818.356	6376
818.497	6205
818.638	6091
818.778	6114
818.919	6095
819.06	6117
819.2	6285
819.341	6273
819.481	6372
819.622	6509
819.762	6707
819.903	6684
820.043	6589
820.184	6563
820.324	6582
820.465	6734
820.605	6654
820.746	6669
820.886	6498
821.026	6566
821.167	6688
821.307	6791
821.447	6768
821.588	6681
821.728	6532
821.868	6517
822.008	6281
822.149	6342
822.289	6350
822.429	6110
822.569	6068
822.709	6095
822.849	5920
822.99	5946
823.13	5923
823.27	5931
823.41	5756
823.55	5790
823.69	5760
823.83	5790
823.97	5676
824.11	5577
824.25	5577
824.389	5566
824.529	5638
824.669	5486
824.809	5619
824.949	5703
825.089	5570
825.228	5558
825.368	5440
825.508	5307
825.648	5345
825.787	5429
825.927	5421
826.067	5280
826.206	5311
826.346	5402
826.485	5463
826.625	5478
826.765	5581
826.904	5535
827.044	5254
827.183	5204
827.323	5174
827.462	5318
827.601	5220
827.741	5246
827.88	5223
828.02	5121
828.159	5299
828.298	5326
828.437	5349
828.577	5311
828.716	5493
828.855	5379
828.994	5201
829.134	5197
829.273	5254
829.412	5181
829.551	5178
829.69	5170
829.829	5246
829.968	5429
830.107	5303
830.246	5303
830.385	5227
830.524	5159
830.663	5090
830.802	5003
830.941	4987
831.08	4938
831.219	4980
831.357	5033
831.496	5159
831.635	4923
831.774	4835
831.913	4896
832.051	4725
832.19	4748
832.329	4892
832.467	4714
832.606	4649
832.744	4763
832.883	4694
833.022	4763
833.16	4771
833.299	4835
833.437	4820
833.576	4877
833.714	4927
833.852	4892
833.991	4965
834.129	4984
834.267	4987
834.406	4965
834.544	5033
834.682	5006
834.821	4995
834.959	5208
835.097	5052
835.235	5178
835.373	5121
835.511	5162
835.65	5075
835.788	4999
835.926	4911
836.064	4915
836.202	4938
836.34	5208
836.478	5235
836.615	5132
836.753	5216
836.891	5296
837.029	5307
837.167	5246
837.305	5189
837.443	5174
837.58	5162
837.718	5246
837.856	5201
837.993	5178
838.131	5227
838.269	5258
838.406	5189
838.544	5204
838.681	5033
838.819	5064
838.956	4908
839.094	4949
839.231	5045
839.369	5136
839.506	5452
839.643	5280
839.781	5071
839.918	5041
840.055	5140
840.193	5098
840.33	5121
840.467	5132
840.604	5220
840.742	5478
840.879	5121
841.016	5113
841.153	5185
841.29	5429
841.427	5360
841.564	5311
841.701	5376
841.838	5284
841.975	5235
842.112	5288
842.249	5151
842.385	5102
842.522	5330
842.659	5197
842.796	5155
842.933	5223
843.069	5193
843.206	5151
843.343	5299
843.479	5280
843.616	5296
843.752	5056
843.889	5048
844.025	5235
844.162	5045
844.298	5201
844.435	5079
844.571	5102
844.708	5239
844.844	5318
844.98	5387
845.117	5349
845.253	5105
845.389	5090
845.525	5143
845.661	5075
845.798	5071
845.934	5193
846.07	5052
846.206	5280
846.342	5292
846.478	5170
846.614	5064
846.75	4987
846.886	4968
847.022	5147
847.158	5075
847.294	5064
847.429	5147
847.565	5102
847.701	5349
847.837	4839
847.972	4812
848.108	5010
848.244	5018
848.379	4816
848.515	4736
848.65	4717
848.786	4786
848.921	4797
849.057	4930
849.192	4927
849.328	4812
849.463	4873
849.598	4759
849.734	4797
849.869	4691
850.004	4618
850.14	4702
850.275	4668
850.41	4554
850.545	4584
850.68	4615
850.815	4626
850.95	4615
851.085	4862
851.22	4755
851.355	4698
851.49	4641
851.625	4660
851.76	4691
851.895	4592
852.03	4580
852.165	4672
852.299	4725
852.434	4828
852.569	4778
852.703	4793
852.838	4820
852.973	4968
853.107	4934
853.242	4752
853.376	4694
853.511	4611
853.645	4637
853.78	4828
853.914	4672
854.048	4660
854.183	4694
854.317	4752
854.451	4866
854.585	4767
854.72	4599
854.854	4755
854.988	4599
855.122	4653
855.256	4584
855.39	4752
855.524	4767
855.658	4717
855.792	4679
855.926	4729
856.06	4752
856.194	4790
856.327	4691
856.461	4603
856.595	4611
856.729	4641
856.862	4793
856.996	4721
857.13	4778
857.263	4744
857.397	4828
857.53	4626
857.664	4725
857.797	4786
857.931	4759
858.064	4714
858.197	4755
858.331	4679
858.464	4664
858.597	4550
858.731	4702
858.864	4691
858.997	4653
859.13	4637
859.263	4714
859.396	4706
859.529	4607
859.662	4634
859.795	4546
859.928	4607
860.061	4759
860.194	4778
860.327	4641
860.46	4615
860.592	4767
860.725	4729
860.858	4752
860.99	4611
861.123	4546
861.256	4554
861.388	4637
861.521	5360
861.653	4519
861.786	4451
861.918	4440
862.05	4508
862.183	4523
862.315	4637
862.447	4664
862.58	4542
862.712	4394
862.844	4383
862.976	4516
863.108	4504
863.24	4759
863.372	4352
863.504	4417
863.636	4428
863.768	4504
863.9	4421
864.032	4386
864.164	4398
864.296	4542
864.428	4561
864.559	4588
864.691	4519
864.823	4538
864.954	4508
865.086	4516
865.217	4470
865.349	4451
865.48	4462
865.612	4500
865.743	4630
865.875	4493
866.006	4466
866.137	4440
866.269	4409
866.4	4428
866.531	4440
866.662	4356
866.793	4409
866.924	4421
867.055	4462
867.186	4462
867.317	4459
867.448	4394
867.579	4424
867.71	4421
867.841	4386
867.972	4508
868.103	4462
868.233	4493
868.364	4455
868.495	4497
868.625	4683
868.756	4767
868.886	4546
869.017	4634
869.147	4839
869.278	4790
869.408	4683
869.539	4702
869.669	4721
869.799	4660
869.929	4774
870.06	4717
870.19	4961
870.32	4892
870.45	4923
870.58	5018
870.71	5113
870.84	5121
870.97	4968
871.1	4881
871.23	5128
871.36	5124
871.489	5018
871.619	5094
871.749	5067
871.879	5140
872.008	5174
872.138	5079
872.267	4976
872.397	4889
872.526	4816
872.656	4748
872.785	4831
872.915	4999
873.044	4999
873.173	4976
873.303	4949
873.432	4965
873.561	4976
873.69	4885
873.819	4873
873.948	4923
874.077	4847
874.206	4786
874.335	4816
874.464	4911
874.593	5064
874.722	5014
874.851	5151
874.979	5014
875.108	5014
875.237	4919
875.365	4877
875.494	4881
875.623	4953
875.751	4862
875.88	4877
876.008	4980
876.136	5052
876.265	5208
876.393	5379
876.521	5239
876.65	5235
876.778	5193
876.906	5067
877.034	5052
877.162	5045
877.29	5029
877.418	5052
877.546	5018
877.674	4980
877.802	5045
877.93	5109
878.058	4976
878.185	4885
878.313	4984
878.441	4984
878.568	4801
878.696	4873
878.824	4987
878.951	4976
879.079	5174
879.206	5296
879.333	5064
879.461	4968
879.588	5003
879.715	5143
879.842	5193
879.97	5014
880.097	4725
880.224	4763
880.351	4793
880.478	4809
880.605	4752
880.732	4797
880.859	5056
880.986	4923
881.112	4915
881.239	4755
881.366	4649
881.493	4618
881.619	4599
881.746	4611
881.872	4664
881.999	4675
882.125	4714
882.252	4843
882.378	4847
882.505	4938
882.631	4790
882.757	4634
882.883	4755
883.01	4740
883.136	4668
883.262	4596
883.388	4645
883.514	4812
883.64	4889
883.766	4786
883.892	4668
884.018	4710
884.143	4881
884.269	5037
884.395	4672
884.52	4603
884.646	4664
884.772	4596
884.897	4550
885.023	4656
885.148	4801
885.274	4870
885.399	4793
885.524	4755
885.65	4687
885.775	4755
885.9	4706
886.025	4881
886.15	4755
886.275	4752
886.4	4702
886.525	4755
886.65	4664
886.775	4706
886.9	4873
887.025	5029
887.149	4782
887.274	4626
887.399	4630
887.523	4611
887.648	4542
887.773	4649
887.897	4748
888.021	4816
888.146	4683
888.27	4850
888.395	4870
888.519	4816
888.643	4820
888.767	4793
888.891	4717
889.015	4550
889.139	4694
889.263	4588
889.387	4778
889.511	4850
889.635	4797
889.759	4615
889.883	4664
890.006	4683
890.13	4790
890.254	4641
890.377	4653
890.501	4565
890.624	4538
890.748	4649
890.871	4493
890.995	4417
891.118	4394
891.241	4489
891.364	4519
891.488	4615
891.611	4519
891.734	4546
891.857	4550
891.98	4569
892.103	4641
892.226	4588
892.349	4546
892.471	4405
892.594	4523
892.717	4626
892.839	4596
892.962	4599
893.085	4637
893.207	4546
893.33	4455
893.452	4519
893.575	4729
893.697	4550
893.819	4759
893.941	4889
894.064	4740
894.186	4565
894.308	4588
894.43	4717
894.552	4771
894.674	4767
894.796	4542
894.918	4634
895.04	4550
895.161	4672
895.283	4637
895.405	4596
895.526	4584
895.648	4725
895.769	4698
895.891	4710
896.012	4767
896.134	4736
896.255	4660
896.376	4664
896.498	4615
896.619	4641
896.74	4573
896.861	4607
896.982	4953
897.103	5060
897.224	4824
897.345	4763
897.466	4641
897.587	4710
897.708	4866
897.828	4816
897.949	4706
898.07	4573
898.19	4626
898.311	4828
898.431	4698
898.552	4714
898.672	4755
898.792	4812
898.913	4763
899.033	4637
899.153	4519
899.273	4462
899.393	4481
899.513	4485
899.633	4550
899.753	4550
899.873	4535
899.993	4569
900.113	4569
900.232	4550
900.352	4577
900.472	4516
900.591	4413
900.711	4481
900.83	4440
900.95	4561
901.069	4714
901.189	4523
901.308	4417
901.427	4314
901.546	4398
901.665	4481
901.784	4508
901.904	4394
902.023	4303
902.141	4196
902.26	4154
902.379	4272
902.498	4196
902.617	4207
902.735	4379
902.854	4383
902.973	4386
903.091	4185
903.21	4227
903.328	4329
903.446	4238
903.565	4291
903.683	4356
903.801	4299
903.919	4428
904.038	4451
904.156	4318
904.274	4421
904.392	4409
904.51	4413
904.627	4478
904.745	4569
904.863	4645
904.981	4398
905.098	4306
905.216	4386
905.334	4436
905.451	4417
905.569	4443
905.686	4558
905.803	4561
905.921	4447
906.038	4519
906.155	4493
906.272	4348
906.389	4451
906.506	4375
906.623	4329
906.74	4398
906.857	4314
906.974	4333
907.091	4538
907.208	4645
907.324	4607
907.441	4508
907.557	4348
907.674	4379
907.79	4322
907.907	4398
908.023	4500
908.139	4504
908.256	4424
908.372	4516
908.488	4489
908.604	4367
908.72	4329
908.836	4398
908.952	4371
909.068	4417
909.184	4569
909.3	4462
909.415	4561
909.531	4531
909.647	4371
909.762	4375
909.878	4337
909.993	4432
910.108	4436
910.224	4413
910.339	4508
910.454	4398
910.57	4394
910.685	4295
910.8	4645
910.915	4561
911.03	4489
911.145	4337
911.259	4314
911.374	4367
911.489	4310
911.604	4272
911.718	4154
911.833	4204
911.947	4105
912.062	3994
912.176	4200
912.291	4249
912.405	4230
912.519	4459
912.633	4531
912.748	4363
912.862	4310
912.976	4204
913.09	4105
913.204	4158
913.318	4246
913.431	4363
913.545	4341
913.659	4474
913.772	4356
913.886	4219
914	4211
914.113	4348
914.226	4428
914.34	4398
914.453	4287
914.566	4394
914.68	4306
914.793	4337
914.906	4128
915.019	4105
915.132	4097
915.245	4192
915.358	4238
915.47	4227
915.583	4227
915.696	4284
915.809	4390
915.921	4481
916.034	4249
916.146	4261
916.259	4215
916.371	4405
916.483	4367
916.595	4246
916.708	4333
916.82	4284
916.932	4306
917.044	4291
917.156	4367
917.268	4242
917.38	4253
917.491	4272
917.603	4352
917.715	4386
917.826	4417
917.938	4363
918.049	4242
918.161	4341
918.272	4474
918.384	4489
918.495	4485
918.606	4291
918.717	4219
918.828	4291
918.939	4402
919.05	4246
919.161	4314
919.272	4139
919.383	4242
919.494	4466
919.604	4622
919.715	4447
919.826	4348
919.936	4363
920.047	4542
920.157	4497
920.267	4698
920.378	4546
920.488	4561
920.598	4698
920.708	4877
920.818	4748
920.928	4790
921.038	5003
921.148	4911
921.258	4618
921.368	4538
921.477	4527
921.587	4455
921.697	4375
921.806	4535
921.916	4424
922.025	4261
922.134	4322
922.244	4200
922.353	4306
922.462	4196
922.571	4109
922.68	3998
922.789	3975
922.898	4017
923.007	3991
923.116	4086
923.224	4063
923.333	4059
923.442	4010
923.55	3983
923.659	4017
923.767	4109
923.876	3972
923.984	4120
924.092	3998
924.201	4040
924.309	4120
924.417	4097
924.525	4086
924.633	4120
924.741	4877
924.849	3896
924.956	4086
925.064	3956
925.172	3926
925.279	3956
925.387	4059
925.494	4017
925.602	4185
925.709	4166
925.816	4040
925.924	4097
926.031	4219
926.138	4147
926.245	4196
926.352	4090
926.459	4246
926.566	4295
926.673	4154
926.779	4055
926.886	4067
926.993	3968
927.099	3941
927.206	3934
927.312	3922
927.419	4021
927.525	4017
927.631	4063
927.737	3979
927.843	3975
927.95	3838
928.056	3964
928.162	3968
928.267	4090
928.373	4565
928.479	4120
928.585	3827
928.69	4010
928.796	4067
928.901	3979
929.007	3812
929.112	4002
929.218	3972
929.323	3907
929.428	3964
929.533	4086
929.638	3903
929.743	3972
929.848	4013
929.953	3994
930.058	3937
930.163	3816
930.267	3838
930.372	3983
930.477	3789
930.581	4078
930.685	3945
930.79	3819
930.894	3896
930.998	3854
931.103	4063
931.207	3709
931.311	3720
931.415	3660
931.519	3526
931.623	3557
