Data from test_V78500241_1434.txt Node
Date: Fri Mar 25 16:58:58 CST 2022
User: usil
Spectrometer: V785-0024
Trigger mode: 0
Integration Time (sec): 4.000000E-1
Scans to average: 1
Nonlinearity correction enabled: false
Boxcar width: 0
Storing dark spectrum: false
XAxis mode: Wavelengths
Number of Pixels in Spectrum: 1024
>>>>>Begin Spectral Data<<<<<
801.071	8001
801.214	8012
801.356	7875
801.499	7856
801.641	7784
801.783	7826
801.926	7944
802.068	7928
802.211	7921
802.353	7986
802.496	7833
802.638	7868
802.78	7921
802.923	7974
803.065	7894
803.208	7803
803.35	7986
803.492	8050
803.635	8149
803.777	8027
803.919	8119
804.061	8469
804.204	8153
804.346	7997
804.488	7970
804.63	8119
804.773	8001
804.915	8119
805.057	8358
805.199	8195
805.341	8267
805.483	8202
805.626	8206
805.768	8202
805.91	8275
806.052	8214
806.194	8077
806.336	8290
806.478	8065
806.62	8073
806.762	8168
806.904	8279
807.046	8526
807.188	8320
807.33	8336
807.472	8305
807.614	8206
807.756	8157
807.898	8012
808.04	7894
808.182	7940
808.324	7932
808.465	7898
808.607	8123
808.749	8130
808.891	8206
809.033	8282
809.174	8126
809.316	8069
809.458	8046
809.6	8058
809.741	8123
809.883	8039
810.025	8126
810.166	8027
810.308	8054
810.45	8123
810.591	7864
810.733	7689
810.875	7647
811.016	7533
811.158	7575
811.299	7605
811.441	7731
811.582	7609
811.724	7632
811.865	7559
812.007	7525
812.148	7559
812.29	7575
812.431	7742
812.573	7833
812.714	8012
812.855	8130
812.997	8168
813.138	8347
813.279	8195
813.421	8096
813.562	8050
813.703	7822
813.845	7822
813.986	7400
814.127	7255
814.268	7190
814.41	7171
814.551	7168
814.692	7160
814.833	7091
814.974	7103
815.115	7076
815.256	6947
815.397	6947
815.539	6901
815.68	6848
815.821	6753
815.962	6882
816.103	6806
816.244	6730
816.385	6646
816.526	6604
816.666	6547
816.807	6277
816.948	6471
817.089	6490
817.23	6369
817.371	6353
817.512	6391
817.653	6369
817.793	6380
817.934	6418
818.075	6445
818.216	6441
818.356	6403
818.497	6190
818.638	6144
818.778	6152
818.919	6213
819.06	6197
819.2	6296
819.341	6331
819.481	6338
819.622	6525
819.762	6730
819.903	6764
820.043	6604
820.184	6616
820.324	6620
820.465	6646
820.605	6681
820.746	6677
820.886	6540
821.026	6650
821.167	6646
821.307	6772
821.447	6798
821.588	6665
821.728	6521
821.868	6532
822.008	6350
822.149	6388
822.289	6334
822.429	6140
822.569	6095
822.709	6129
822.849	5927
822.99	5866
823.13	5874
823.27	5904
823.41	5775
823.55	5748
823.69	5771
823.83	5779
823.97	5688
824.11	5516
824.25	5478
824.389	5596
824.529	5638
824.669	5516
824.809	5680
824.949	5646
825.089	5642
825.228	5528
825.368	5353
825.508	5330
825.648	5372
825.787	5387
825.927	5406
826.067	5330
826.206	5330
826.346	5387
826.485	5425
826.625	5421
826.765	5551
826.904	5509
827.044	5231
827.183	5216
827.323	5140
827.462	5292
827.601	5178
827.741	5185
827.88	5239
828.02	5166
828.159	5220
828.298	5311
828.437	5307
828.577	5280
828.716	5482
828.855	5280
828.994	5136
829.134	5147
829.273	5204
829.412	5121
829.551	5121
829.69	5132
829.829	5197
829.968	5330
830.107	5254
830.246	5265
830.385	5159
830.524	5121
830.663	5022
830.802	4987
830.941	4854
831.08	4892
831.219	4965
831.357	4946
831.496	5143
831.635	4911
831.774	4873
831.913	4812
832.051	4725
832.19	4778
832.329	4843
832.467	4675
832.606	4637
832.744	4740
832.883	4752
833.022	4714
833.16	4763
833.299	4797
833.437	4824
833.576	4843
833.714	4786
833.852	4877
833.991	4949
834.129	4942
834.267	4930
834.406	4934
834.544	5003
834.682	4999
834.821	4942
834.959	5094
835.097	4904
835.235	5113
835.373	5109
835.511	5102
835.65	5022
835.788	5018
835.926	4942
836.064	4847
836.202	4927
836.34	5170
836.478	5216
836.615	5094
836.753	5174
836.891	5265
837.029	5216
837.167	5151
837.305	5083
837.443	5086
837.58	5056
837.718	5250
837.856	5201
837.993	5090
838.131	5235
838.269	5223
838.406	5204
838.544	5159
838.681	5018
838.819	4987
838.956	4858
839.094	4873
839.231	4965
839.369	5098
839.506	5433
839.643	5307
839.781	5064
839.918	5022
840.055	5071
840.193	5105
840.33	5094
840.467	5140
840.604	5189
840.742	5474
840.879	5105
841.016	5045
841.153	5155
841.29	5414
841.427	5330
841.564	5326
841.701	5330
841.838	5277
841.975	5235
842.112	5280
842.249	5132
842.385	5052
842.522	5357
842.659	5197
842.796	5132
842.933	5193
843.069	5155
843.206	5181
843.343	5299
843.479	5208
843.616	5292
843.752	5006
843.889	4991
844.025	5231
844.162	5067
844.298	5231
844.435	5052
844.571	5079
844.708	5143
844.844	5284
844.98	5311
845.117	5269
845.253	5109
845.389	5018
845.525	5147
845.661	5159
845.798	5022
845.934	5121
846.07	5045
846.206	5193
846.342	5250
846.478	5178
846.614	4995
846.75	4938
846.886	4949
847.022	5102
847.158	5067
847.294	5052
847.429	5083
847.565	5041
847.701	5322
847.837	4892
847.972	4824
848.108	4953
848.244	4919
848.379	4797
848.515	4736
848.65	4721
848.786	4778
848.921	4714
849.057	4820
849.192	4911
849.328	4828
849.463	4870
849.598	4805
849.734	4778
849.869	4660
850.004	4599
850.14	4672
850.275	4588
850.41	4516
850.545	4550
850.68	4596
850.815	4596
850.95	4588
851.085	4862
851.22	4740
851.355	4641
851.49	4626
851.625	4637
851.76	4687
851.895	4599
852.03	4504
852.165	4668
852.299	4736
852.434	4805
852.569	4767
852.703	4771
852.838	4847
852.973	4934
853.107	4927
853.242	4736
853.376	4649
853.511	4596
853.645	4588
853.78	4767
853.914	4698
854.048	4683
854.183	4634
854.317	4679
854.451	4839
854.585	4668
854.72	4626
854.854	4774
854.988	4618
855.122	4607
855.256	4516
855.39	4660
855.524	4767
855.658	4694
855.792	4714
855.926	4733
856.06	4767
856.194	4816
856.327	4694
856.461	4660
856.595	4615
856.729	4649
856.862	4767
856.996	4653
857.13	4740
857.263	4744
857.397	4786
857.53	4626
857.664	4736
857.797	4771
857.931	4767
858.064	4691
858.197	4706
858.331	4649
858.464	4649
858.597	4546
858.731	4615
858.864	4664
858.997	4569
859.13	4634
859.263	4645
859.396	4702
859.529	4565
859.662	4565
859.795	4538
859.928	4603
860.061	4767
860.194	4763
860.327	4592
860.46	4561
860.592	4706
860.725	4717
860.858	4687
860.99	4596
861.123	4554
861.256	4512
861.388	4653
861.521	5414
861.653	4474
861.786	4474
861.918	4474
862.05	4519
862.183	4577
862.315	4561
862.447	4675
862.58	4580
862.712	4394
862.844	4363
862.976	4474
863.108	4474
863.24	4862
863.372	4363
863.504	4447
863.636	4390
863.768	4447
863.9	4462
864.032	4306
864.164	4390
864.296	4424
864.428	4527
864.559	4584
864.691	4519
864.823	4519
864.954	4443
865.086	4538
865.217	4447
865.349	4413
865.48	4409
865.612	4504
865.743	4653
865.875	4478
866.006	4398
866.137	4455
866.269	4504
866.4	4447
866.531	4440
866.662	4371
866.793	4398
866.924	4428
867.055	4462
867.186	4443
867.317	4417
867.448	4424
867.579	4386
867.71	4367
867.841	4375
867.972	4470
868.103	4436
868.233	4462
868.364	4394
868.495	4432
868.625	4641
868.756	4729
868.886	4550
869.017	4622
869.147	4790
869.278	4740
869.408	4675
869.539	4675
869.669	4698
869.799	4691
869.929	4752
870.06	4759
870.19	4892
870.32	4923
870.45	4942
870.58	4965
870.71	5094
870.84	5128
870.97	4919
871.1	4850
871.23	5113
871.36	5151
871.489	5041
871.619	5075
871.749	5086
871.879	5132
872.008	5159
872.138	5094
872.267	4995
872.397	4847
872.526	4778
872.656	4691
872.785	4812
872.915	4961
873.044	5006
873.173	4968
873.303	4942
873.432	4923
873.561	4949
873.69	4828
873.819	4835
873.948	4896
874.077	4820
874.206	4710
874.335	4797
874.464	4930
874.593	5045
874.722	4991
874.851	5079
874.979	5018
875.108	5052
875.237	4934
875.365	4881
875.494	4892
875.623	4957
875.751	4797
875.88	4873
876.008	4946
876.136	5045
876.265	5208
876.393	5288
876.521	5235
876.65	5227
876.778	5147
876.906	5071
877.034	5003
877.162	5090
877.29	4957
877.418	4980
877.546	5048
877.674	5037
877.802	5003
877.93	4984
878.058	4938
878.185	4930
878.313	4953
878.441	4927
878.568	4790
878.696	4885
878.824	4972
878.951	4976
879.079	5102
879.206	5280
879.333	5102
879.461	4915
879.588	4961
879.715	5147
879.842	5189
879.97	5022
880.097	4774
880.224	4748
880.351	4782
880.478	4786
880.605	4790
880.732	4740
880.859	5075
880.986	4904
881.112	4877
881.239	4744
881.366	4687
881.493	4611
881.619	4569
881.746	4618
881.872	4634
881.999	4660
882.125	4649
882.252	4797
882.378	4797
882.505	4957
882.631	4786
882.757	4714
882.883	4706
883.01	4714
883.136	4649
883.262	4615
883.388	4645
883.514	4767
883.64	4824
883.766	4778
883.892	4637
884.018	4706
884.143	4870
884.269	4984
884.395	4660
884.52	4622
884.646	4645
884.772	4592
884.897	4531
885.023	4653
885.148	4733
885.274	4828
885.399	4812
885.524	4679
885.65	4687
885.775	4698
885.9	4702
886.025	4850
886.15	4755
886.275	4698
886.4	4634
886.525	4733
886.65	4717
886.775	4683
886.9	4908
887.025	4995
887.149	4828
887.274	4660
887.399	4596
887.523	4592
887.648	4588
887.773	4527
887.897	4740
888.021	4778
888.146	4672
888.27	4797
888.395	4934
888.519	4816
888.643	4843
888.767	4831
888.891	4725
889.015	4565
889.139	4641
889.263	4558
889.387	4721
889.511	4843
889.635	4805
889.759	4618
889.883	4645
890.006	4710
890.13	4843
890.254	4580
890.377	4668
890.501	4550
890.624	4508
890.748	4668
890.871	4500
890.995	4394
891.118	4363
891.241	4493
891.364	4546
891.488	4603
891.611	4489
891.734	4512
891.857	4592
891.98	4535
892.103	4596
892.226	4596
892.349	4512
892.471	4417
892.594	4516
892.717	4577
892.839	4558
892.962	4607
893.085	4664
893.207	4588
893.33	4436
893.452	4527
893.575	4630
893.697	4542
893.819	4755
893.941	4820
894.064	4793
894.186	4558
894.308	4569
894.43	4763
894.552	4812
894.674	4702
894.796	4523
894.918	4607
895.04	4550
895.161	4675
895.283	4630
895.405	4573
895.526	4573
895.648	4645
895.769	4645
895.891	4702
896.012	4736
896.134	4691
896.255	4691
896.376	4634
896.498	4611
896.619	4687
896.74	4634
896.861	4672
896.982	4877
897.103	5075
897.224	4835
897.345	4698
897.466	4656
897.587	4763
897.708	4835
897.828	4717
897.949	4634
898.07	4580
898.19	4607
898.311	4824
898.431	4656
898.552	4698
898.672	4782
898.792	4774
898.913	4759
899.033	4649
899.153	4550
899.273	4394
899.393	4497
899.513	4493
899.633	4550
899.753	4558
899.873	4500
899.993	4592
900.113	4531
900.232	4565
900.352	4554
900.472	4436
900.591	4432
900.711	4481
900.83	4478
900.95	4611
901.069	4656
901.189	4516
901.308	4337
901.427	4291
901.546	4390
901.665	4417
901.784	4497
901.904	4436
902.023	4303
902.141	4196
902.26	4139
902.379	4318
902.498	4272
902.617	4192
902.735	4371
902.854	4432
902.973	4390
903.091	4188
903.21	4249
903.328	4249
903.446	4287
903.565	4238
903.683	4383
903.801	4272
903.919	4352
904.038	4409
904.156	4325
904.274	4432
904.392	4360
904.51	4462
904.627	4493
904.745	4516
904.863	4630
904.981	4348
905.098	4360
905.216	4352
905.334	4405
905.451	4436
905.569	4455
905.686	4565
905.803	4512
905.921	4413
906.038	4485
906.155	4508
906.272	4405
906.389	4436
906.506	4367
906.623	4344
906.74	4375
906.857	4306
906.974	4367
907.091	4512
907.208	4660
907.324	4599
907.441	4546
907.557	4360
907.674	4356
907.79	4310
907.907	4379
908.023	4474
908.139	4462
908.256	4497
908.372	4466
908.488	4424
908.604	4325
908.72	4333
908.836	4360
908.952	4348
909.068	4432
909.184	4550
909.3	4497
909.415	4577
909.531	4550
909.647	4352
909.762	4405
909.878	4341
909.993	4424
910.108	4424
910.224	4409
910.339	4478
910.454	4402
910.57	4383
910.685	4325
910.8	4645
910.915	4573
911.03	4447
911.145	4306
911.259	4360
911.374	4344
911.489	4314
911.604	4265
911.718	4112
911.833	4200
911.947	4093
912.062	4010
912.176	4173
912.291	4246
912.405	4219
912.519	4443
912.633	4538
912.748	4402
912.862	4284
912.976	4215
913.09	4090
913.204	4246
913.318	4238
913.431	4371
913.545	4390
913.659	4440
913.772	4337
913.886	4249
914	4192
914.113	4390
914.226	4386
914.34	4360
914.453	4249
914.566	4428
914.68	4344
914.793	4299
914.906	4128
915.019	4116
915.132	4040
915.245	4128
915.358	4185
915.47	4173
915.583	4230
915.696	4268
915.809	4405
915.921	4413
916.034	4238
916.146	4253
916.259	4234
916.371	4386
916.483	4352
916.595	4242
916.708	4333
916.82	4337
916.932	4272
917.044	4303
917.156	4322
917.268	4242
917.38	4295
917.491	4276
917.603	4310
917.715	4402
917.826	4459
917.938	4333
918.049	4276
918.161	4405
918.272	4512
918.384	4523
918.495	4432
918.606	4318
918.717	4234
918.828	4344
918.939	4379
919.05	4257
919.161	4295
919.272	4120
919.383	4238
919.494	4405
919.604	4599
919.715	4413
919.826	4348
919.936	4421
920.047	4504
920.157	4516
920.267	4683
920.378	4550
920.488	4519
920.598	4744
920.708	4866
920.818	4805
920.928	4736
921.038	4946
921.148	4938
921.258	4645
921.368	4542
921.477	4542
921.587	4447
921.697	4325
921.806	4504
921.916	4428
922.025	4280
922.134	4329
922.244	4223
922.353	4314
922.462	4135
922.571	4124
922.68	4013
922.789	4002
922.898	4010
923.007	3991
923.116	4067
923.224	4093
923.333	4101
923.442	4040
923.55	3945
923.659	4036
923.767	4090
923.876	4048
923.984	4128
924.092	4002
924.201	4109
924.309	4097
924.417	4112
924.525	4067
924.633	4116
924.741	5033
924.849	3896
924.956	4109
925.064	3956
925.172	3884
925.279	3937
925.387	4059
925.494	4074
925.602	4215
925.709	4177
925.816	4051
925.924	4135
926.031	4185
926.138	4162
926.245	4204
926.352	4090
926.459	4265
926.566	4280
926.673	4196
926.779	4067
926.886	4059
926.993	4013
927.099	3956
927.206	3911
927.312	3926
927.419	4063
927.525	4063
927.631	4082
927.737	3975
927.843	3960
927.95	3850
928.056	3975
928.162	3987
928.267	4032
928.373	4531
928.479	4135
928.585	3823
928.69	4006
928.796	4090
928.901	3953
929.007	3789
929.112	3975
929.218	3968
929.323	3937
929.428	3930
929.533	4063
929.638	3918
929.743	3949
929.848	4063
929.953	3998
930.058	3934
930.163	3732
930.267	3846
930.372	3983
930.477	3804
930.581	4055
930.685	3949
930.79	3800
930.894	3842
930.998	3865
931.103	4013
931.207	3705
931.311	3701
931.415	3675
931.519	3523
931.623	3549
