Data from test_V78500241_1668.txt Node
Date: Fri Mar 25 17:00:36 CST 2022
User: usil
Spectrometer: V785-0024
Trigger mode: 0
Integration Time (sec): 4.000000E-1
Scans to average: 1
Nonlinearity correction enabled: false
Boxcar width: 0
Storing dark spectrum: false
XAxis mode: Wavelengths
Number of Pixels in Spectrum: 1024
>>>>>Begin Spectral Data<<<<<
801.071	8008
801.214	7982
801.356	7860
801.499	7803
801.641	7852
801.783	7875
801.926	8001
802.068	7913
802.211	7951
802.353	8008
802.496	7833
802.638	7871
802.78	7871
802.923	7890
803.065	7928
803.208	7940
803.35	7917
803.492	8046
803.635	8199
803.777	8069
803.919	8092
804.061	8434
804.204	8126
804.346	8054
804.488	7887
804.63	8062
804.773	8043
804.915	8020
805.057	8317
805.199	8164
805.341	8275
805.483	8347
805.626	8210
805.768	8149
805.91	8214
806.052	8229
806.194	8149
806.336	8298
806.478	8081
806.62	8065
806.762	8180
806.904	8221
807.046	8511
807.188	8446
807.33	8248
807.472	8366
807.614	8214
807.756	8123
807.898	8050
808.04	7875
808.182	7902
808.324	7833
808.465	7906
808.607	8119
808.749	8096
808.891	8164
809.033	8332
809.174	8221
809.316	8054
809.458	8024
809.6	8054
809.741	8046
809.883	8031
810.025	8081
810.166	8062
810.308	7997
810.45	7947
810.591	7837
810.733	7727
810.875	7746
811.016	7502
811.158	7548
811.299	7597
811.441	7677
811.582	7738
811.724	7559
811.865	7510
812.007	7556
812.148	7578
812.29	7620
812.431	7750
812.573	7879
812.714	7993
812.855	8134
812.997	8149
813.138	8408
813.279	8180
813.421	8119
813.562	7997
813.703	7894
813.845	7658
813.986	7327
814.127	7202
814.268	7228
814.41	7171
814.551	7183
814.692	7213
814.833	7065
814.974	7095
815.115	7091
815.256	6935
815.397	6886
815.539	6966
815.68	6818
815.821	6798
815.962	6810
816.103	6791
816.244	6684
816.385	6604
816.526	6604
816.666	6483
816.807	6331
816.948	6490
817.089	6407
817.23	6448
817.371	6384
817.512	6353
817.653	6357
817.793	6270
817.934	6456
818.075	6448
818.216	6426
818.356	6380
818.497	6213
818.638	6102
818.778	6129
818.919	6155
819.06	6209
819.2	6292
819.341	6353
819.481	6380
819.622	6525
819.762	6707
819.903	6631
820.043	6582
820.184	6585
820.324	6604
820.465	6662
820.605	6669
820.746	6631
820.886	6559
821.026	6612
821.167	6673
821.307	6818
821.447	6837
821.588	6665
821.728	6574
821.868	6502
822.008	6281
822.149	6372
822.289	6380
822.429	6144
822.569	6102
822.709	6125
822.849	5908
822.99	5954
823.13	5912
823.27	5893
823.41	5771
823.55	5771
823.69	5748
823.83	5729
823.97	5672
824.11	5482
824.25	5512
824.389	5535
824.529	5570
824.669	5509
824.809	5589
824.949	5646
825.089	5566
825.228	5501
825.368	5330
825.508	5307
825.648	5353
825.787	5376
825.927	5387
826.067	5227
826.206	5318
826.346	5417
826.485	5421
826.625	5417
826.765	5509
826.904	5486
827.044	5231
827.183	5193
827.323	5124
827.462	5261
827.601	5220
827.741	5162
827.88	5227
828.02	5098
828.159	5223
828.298	5258
828.437	5360
828.577	5254
828.716	5459
828.855	5299
828.994	5174
829.134	5208
829.273	5174
829.412	5121
829.551	5159
829.69	5151
829.829	5258
829.968	5349
830.107	5208
830.246	5315
830.385	5151
830.524	5143
830.663	5025
830.802	4953
830.941	4911
831.08	4896
831.219	4915
831.357	4927
831.496	5124
831.635	4930
831.774	4858
831.913	4828
832.051	4672
832.19	4733
832.329	4824
832.467	4672
832.606	4618
832.744	4675
832.883	4672
833.022	4744
833.16	4820
833.299	4816
833.437	4801
833.576	4843
833.714	4854
833.852	4839
833.991	4904
834.129	4919
834.267	4972
834.406	4892
834.544	5029
834.682	4938
834.821	4927
834.959	5128
835.097	4968
835.235	5159
835.373	5064
835.511	5067
835.65	5037
835.788	5060
835.926	4885
836.064	4835
836.202	4915
836.34	5143
836.478	5201
836.615	5166
836.753	5197
836.891	5307
837.029	5284
837.167	5178
837.305	5181
837.443	5086
837.58	5075
837.718	5235
837.856	5212
837.993	5090
838.131	5212
838.269	5181
838.406	5189
838.544	5166
838.681	4976
838.819	5014
838.956	4892
839.094	4862
839.231	4984
839.369	5056
839.506	5471
839.643	5220
839.781	5102
839.918	5018
840.055	5102
840.193	5124
840.33	5124
840.467	5151
840.604	5143
840.742	5391
840.879	5060
841.016	5071
841.153	5136
841.29	5330
841.427	5341
841.564	5322
841.701	5307
841.838	5292
841.975	5216
842.112	5299
842.249	5204
842.385	5086
842.522	5322
842.659	5159
842.796	5117
842.933	5155
843.069	5124
843.206	5178
843.343	5318
843.479	5277
843.616	5261
843.752	5003
843.889	4995
844.025	5220
844.162	5010
844.298	5201
844.435	5025
844.571	5094
844.708	5201
844.844	5273
844.98	5315
845.117	5239
845.253	5178
845.389	5045
845.525	5166
845.661	5143
845.798	5025
845.934	5064
846.07	5098
846.206	5162
846.342	5296
846.478	5216
846.614	4976
846.75	4953
846.886	4896
847.022	5159
847.158	5006
847.294	5014
847.429	5090
847.565	5075
847.701	5334
847.837	4824
847.972	4835
848.108	4908
848.244	4904
848.379	4755
848.515	4687
848.65	4763
848.786	4717
848.921	4771
849.057	4824
849.192	4938
849.328	4790
849.463	4812
849.598	4771
849.734	4740
849.869	4645
850.004	4603
850.14	4675
850.275	4618
850.41	4535
850.545	4573
850.68	4588
850.815	4565
850.95	4641
851.085	4816
851.22	4736
851.355	4618
851.49	4588
851.625	4630
851.76	4649
851.895	4546
852.03	4516
852.165	4641
852.299	4683
852.434	4759
852.569	4736
852.703	4782
852.838	4873
852.973	4900
853.107	4934
853.242	4687
853.376	4611
853.511	4538
853.645	4607
853.78	4771
853.914	4691
854.048	4641
854.183	4668
854.317	4725
854.451	4820
854.585	4664
854.72	4653
854.854	4721
854.988	4618
855.122	4588
855.256	4504
855.39	4683
855.524	4835
855.658	4759
855.792	4698
855.926	4649
856.06	4748
856.194	4797
856.327	4698
856.461	4569
856.595	4615
856.729	4660
856.862	4759
856.996	4653
857.13	4736
857.263	4702
857.397	4778
857.53	4615
857.664	4714
857.797	4691
857.931	4774
858.064	4698
858.197	4679
858.331	4637
858.464	4569
858.597	4485
858.731	4653
858.864	4603
858.997	4618
859.13	4645
859.263	4675
859.396	4675
859.529	4573
859.662	4558
859.795	4508
859.928	4630
860.061	4782
860.194	4767
860.327	4599
860.46	4565
860.592	4714
860.725	4717
860.858	4702
860.99	4573
861.123	4527
861.256	4531
861.388	4626
861.521	5337
861.653	4443
861.786	4394
861.918	4417
862.05	4489
862.183	4538
862.315	4599
862.447	4649
862.58	4569
862.712	4371
862.844	4329
862.976	4470
863.108	4428
863.24	4755
863.372	4295
863.504	4417
863.636	4413
863.768	4474
863.9	4459
864.032	4352
864.164	4402
864.296	4500
864.428	4550
864.559	4531
864.691	4542
864.823	4481
864.954	4519
865.086	4470
865.217	4440
865.349	4424
865.48	4409
865.612	4462
865.743	4611
865.875	4485
866.006	4428
866.137	4447
866.269	4386
866.4	4443
866.531	4428
866.662	4405
866.793	4432
866.924	4405
867.055	4500
867.186	4474
867.317	4440
867.448	4329
867.579	4371
867.71	4367
867.841	4371
867.972	4436
868.103	4459
868.233	4451
868.364	4417
868.495	4466
868.625	4637
868.756	4748
868.886	4558
869.017	4611
869.147	4767
869.278	4755
869.408	4668
869.539	4656
869.669	4759
869.799	4634
869.929	4736
870.06	4694
870.19	4896
870.32	4870
870.45	4915
870.58	4987
870.71	5052
870.84	5102
870.97	4965
871.1	4919
871.23	5136
871.36	5136
871.489	5003
871.619	5071
871.749	5121
871.879	5102
872.008	5170
872.138	5075
872.267	4972
872.397	4812
872.526	4812
872.656	4694
872.785	4824
872.915	4976
873.044	5006
873.173	4965
873.303	4919
873.432	4896
873.561	4938
873.69	4847
873.819	4843
873.948	4858
874.077	4824
874.206	4733
874.335	4782
874.464	4923
874.593	5060
874.722	4946
874.851	5071
874.979	4995
875.108	5060
875.237	4847
875.365	4877
875.494	4870
875.623	4972
875.751	4824
875.88	4892
876.008	5003
876.136	5022
876.265	5174
876.393	5383
876.521	5250
876.65	5239
876.778	5185
876.906	5071
877.034	4976
877.162	5045
877.29	5022
877.418	4991
877.546	5010
877.674	5094
877.802	5022
877.93	5006
878.058	4885
878.185	4889
878.313	4953
878.441	4911
878.568	4771
878.696	4900
878.824	4961
878.951	4980
879.079	5197
879.206	5341
879.333	5117
879.461	4984
879.588	5018
879.715	5094
879.842	5277
879.97	4949
880.097	4793
880.224	4717
880.351	4759
880.478	4816
880.605	4812
880.732	4797
880.859	5083
880.986	4873
881.112	4919
881.239	4778
881.366	4675
881.493	4584
881.619	4630
881.746	4611
881.872	4626
881.999	4649
882.125	4683
882.252	4816
882.378	4763
882.505	4953
882.631	4797
882.757	4683
882.883	4702
883.01	4759
883.136	4656
883.262	4554
883.388	4550
883.514	4843
883.64	4839
883.766	4744
883.892	4637
884.018	4649
884.143	4915
884.269	4976
884.395	4668
884.52	4660
884.646	4618
884.772	4603
884.897	4519
885.023	4611
885.148	4763
885.274	4820
885.399	4847
885.524	4679
885.65	4710
885.775	4744
885.9	4748
886.025	4877
886.15	4774
886.275	4691
886.4	4656
886.525	4710
886.65	4683
886.775	4634
886.9	4915
887.025	5014
887.149	4790
887.274	4660
887.399	4588
887.523	4622
887.648	4558
887.773	4599
887.897	4744
888.021	4801
888.146	4702
888.27	4862
888.395	4889
888.519	4786
888.643	4847
888.767	4797
888.891	4615
889.015	4611
889.139	4588
889.263	4611
889.387	4774
889.511	4881
889.635	4778
889.759	4615
889.883	4660
890.006	4683
890.13	4778
890.254	4607
890.377	4668
890.501	4538
890.624	4523
890.748	4615
890.871	4535
890.995	4428
891.118	4405
891.241	4531
891.364	4565
891.488	4649
891.611	4497
891.734	4512
891.857	4599
891.98	4546
892.103	4645
892.226	4588
892.349	4538
892.471	4421
892.594	4527
892.717	4668
892.839	4561
892.962	4599
893.085	4687
893.207	4592
893.33	4428
893.452	4508
893.575	4675
893.697	4554
893.819	4805
893.941	4774
894.064	4771
894.186	4561
894.308	4561
894.43	4725
894.552	4809
894.674	4752
894.796	4535
894.918	4558
895.04	4535
895.161	4618
895.283	4656
895.405	4565
895.526	4626
895.648	4603
895.769	4672
895.891	4729
896.012	4729
896.134	4656
896.255	4649
896.376	4637
896.498	4577
896.619	4683
896.74	4535
896.861	4672
896.982	4942
897.103	5014
897.224	4847
897.345	4733
897.466	4637
897.587	4702
897.708	4824
897.828	4771
897.949	4634
898.07	4558
898.19	4630
898.311	4805
898.431	4725
898.552	4752
898.672	4835
898.792	4809
898.913	4733
899.033	4603
899.153	4489
899.273	4459
899.393	4432
899.513	4516
899.633	4504
899.753	4561
899.873	4478
899.993	4565
900.113	4558
900.232	4634
900.352	4565
900.472	4466
900.591	4390
900.711	4459
900.83	4424
900.95	4592
901.069	4634
901.189	4516
901.308	4383
901.427	4306
901.546	4356
901.665	4470
901.784	4500
901.904	4386
902.023	4333
902.141	4234
902.26	4246
902.379	4284
902.498	4261
902.617	4181
902.735	4375
902.854	4352
902.973	4348
903.091	4272
903.21	4238
903.328	4325
903.446	4230
903.565	4265
903.683	4318
903.801	4287
903.919	4337
904.038	4459
904.156	4261
904.274	4417
904.392	4398
904.51	4383
904.627	4481
904.745	4577
904.863	4641
904.981	4413
905.098	4299
905.216	4352
905.334	4428
905.451	4432
905.569	4417
905.686	4531
905.803	4542
905.921	4348
906.038	4527
906.155	4455
906.272	4405
906.389	4436
906.506	4344
906.623	4363
906.74	4379
906.857	4287
906.974	4383
907.091	4592
907.208	4679
907.324	4561
907.441	4455
907.557	4299
907.674	4363
907.79	4287
907.907	4394
908.023	4466
908.139	4462
908.256	4413
908.372	4481
908.488	4428
908.604	4333
908.72	4276
908.836	4379
908.952	4363
909.068	4424
909.184	4535
909.3	4500
909.415	4554
909.531	4538
909.647	4356
909.762	4344
909.878	4325
909.993	4455
910.108	4428
910.224	4432
910.339	4440
910.454	4375
910.57	4363
910.685	4303
910.8	4634
910.915	4577
911.03	4481
911.145	4306
911.259	4322
911.374	4356
911.489	4360
911.604	4268
911.718	4162
911.833	4169
911.947	4097
912.062	4006
912.176	4185
912.291	4215
912.405	4234
912.519	4466
912.633	4459
912.748	4325
912.862	4306
912.976	4169
913.09	4116
913.204	4143
913.318	4192
913.431	4363
913.545	4367
913.659	4413
913.772	4375
913.886	4268
914	4207
914.113	4375
914.226	4413
914.34	4325
914.453	4234
914.566	4428
914.68	4306
914.793	4341
914.906	4181
915.019	4082
915.132	4074
915.245	4177
915.358	4166
915.47	4257
915.583	4234
915.696	4318
915.809	4455
915.921	4394
916.034	4238
916.146	4230
916.259	4196
916.371	4344
916.483	4371
916.595	4204
916.708	4379
916.82	4348
916.932	4268
917.044	4371
917.156	4295
917.268	4188
917.38	4265
917.491	4253
917.603	4363
917.715	4424
917.826	4424
917.938	4318
918.049	4215
918.161	4386
918.272	4546
918.384	4508
918.495	4519
918.606	4261
918.717	4242
918.828	4367
918.939	4310
919.05	4265
919.161	4341
919.272	4071
919.383	4265
919.494	4413
919.604	4672
919.715	4474
919.826	4383
919.936	4379
920.047	4512
920.157	4531
920.267	4706
920.378	4565
920.488	4443
920.598	4687
920.708	4896
920.818	4748
920.928	4736
921.038	4953
921.148	4923
921.258	4622
921.368	4561
921.477	4489
921.587	4436
921.697	4348
921.806	4535
921.916	4409
922.025	4261
922.134	4249
922.244	4261
922.353	4348
922.462	4207
922.571	4105
922.68	4063
922.789	3941
922.898	3998
923.007	3960
923.116	4063
923.224	4074
923.333	4086
923.442	3979
923.55	3987
923.659	4010
923.767	4109
923.876	3994
923.984	4109
924.092	3937
924.201	4063
924.309	4082
924.417	4109
924.525	4090
924.633	4090
924.741	4896
924.849	3922
924.956	4158
925.064	3926
925.172	3888
925.279	3937
925.387	4063
925.494	4025
925.602	4227
925.709	4200
925.816	4021
925.924	4120
926.031	4246
926.138	4192
926.245	4196
926.352	4074
926.459	4215
926.566	4249
926.673	4154
926.779	4078
926.886	4029
926.993	3983
927.099	3987
927.206	3922
927.312	3941
927.419	4074
927.525	4010
927.631	4116
927.737	3991
927.843	3937
927.95	3816
928.056	3922
928.162	4010
928.267	3987
928.373	4599
928.479	4090
928.585	3800
928.69	4013
928.796	4082
928.901	3956
929.007	3808
929.112	3987
929.218	3979
929.323	3934
929.428	3896
929.533	4101
929.638	3892
929.743	3975
929.848	4040
929.953	4013
930.058	3911
930.163	3743
930.267	3819
930.372	3941
930.477	3827
930.581	4051
930.685	3915
930.79	3823
930.894	3884
930.998	3835
931.103	4044
931.207	3701
931.311	3713
931.415	3660
931.519	3515
931.623	3526
