Data from test_V78500241_432.txt Node
Date: Fri Mar 25 16:52:00 CST 2022
User: usil
Spectrometer: V785-0024
Trigger mode: 0
Integration Time (sec): 4.000000E-1
Scans to average: 1
Nonlinearity correction enabled: false
Boxcar width: 0
Storing dark spectrum: false
XAxis mode: Wavelengths
Number of Pixels in Spectrum: 1024
>>>>>Begin Spectral Data<<<<<
801.071	8111
801.214	8035
801.356	7986
801.499	7913
801.641	7871
801.783	7887
801.926	8008
802.068	7959
802.211	8035
802.353	8005
802.496	7871
802.638	7879
802.78	7909
802.923	7936
803.065	7894
803.208	7883
803.35	7959
803.492	8031
803.635	8096
803.777	8008
803.919	8126
804.061	8461
804.204	8248
804.346	8157
804.488	7902
804.63	8142
804.773	8043
804.915	8058
805.057	8301
805.199	8233
805.341	8225
805.483	8298
805.626	8172
805.768	8058
805.91	8119
806.052	8240
806.194	8172
806.336	8313
806.478	8187
806.62	8172
806.762	8225
806.904	8279
807.046	8454
807.188	8351
807.33	8237
807.472	8309
807.614	8172
807.756	8138
807.898	8065
808.04	7993
808.182	7890
808.324	7951
808.465	7967
808.607	8210
808.749	8073
808.891	8233
809.033	8282
809.174	8187
809.316	8065
809.458	8115
809.6	8016
809.741	8084
809.883	8039
810.025	8145
810.166	8126
810.308	8062
810.45	8050
810.591	7921
810.733	7753
810.875	7696
811.016	7563
811.158	7575
811.299	7670
811.441	7868
811.582	7734
811.724	7620
811.865	7563
812.007	7658
812.148	7605
812.29	7620
812.431	7799
812.573	7902
812.714	8077
812.855	8183
812.997	8195
813.138	8396
813.279	8256
813.421	8191
813.562	8050
813.703	7940
813.845	7799
813.986	7533
814.127	7403
814.268	7308
814.41	7251
814.551	7217
814.692	7240
814.833	7194
814.974	7099
815.115	7149
815.256	6989
815.397	6916
815.539	6970
815.68	6821
815.821	6734
815.962	6901
816.103	6897
816.244	6798
816.385	6654
816.526	6627
816.666	6563
816.807	6350
816.948	6475
817.089	6502
817.23	6407
817.371	6388
817.512	6357
817.653	6429
817.793	6456
817.934	6403
818.075	6448
818.216	6498
818.356	6471
818.497	6311
818.638	6140
818.778	6148
818.919	6159
819.06	6140
819.2	6391
819.341	6353
819.481	6342
819.622	6532
819.762	6787
819.903	6722
820.043	6570
820.184	6623
820.324	6612
820.465	6677
820.605	6681
820.746	6665
820.886	6547
821.026	6700
821.167	6753
821.307	6798
821.447	6738
821.588	6654
821.728	6566
821.868	6521
822.008	6391
822.149	6350
822.289	6395
822.429	6197
822.569	6155
822.709	6102
822.849	5961
822.99	5901
823.13	5931
823.27	5942
823.41	5783
823.55	5878
823.69	5760
823.83	5832
823.97	5627
824.11	5554
824.25	5535
824.389	5634
824.529	5619
824.669	5562
824.809	5657
824.949	5661
825.089	5657
825.228	5600
825.368	5406
825.508	5345
825.648	5345
825.787	5429
825.927	5402
826.067	5299
826.206	5322
826.346	5398
826.485	5372
826.625	5429
826.765	5570
826.904	5501
827.044	5284
827.183	5231
827.323	5132
827.462	5280
827.601	5159
827.741	5208
827.88	5261
828.02	5067
828.159	5227
828.298	5334
828.437	5372
828.577	5330
828.716	5482
828.855	5337
828.994	5174
829.134	5189
829.273	5227
829.412	5201
829.551	5174
829.69	5227
829.829	5189
829.968	5417
830.107	5265
830.246	5265
830.385	5102
830.524	5140
830.663	5128
830.802	5033
830.941	4923
831.08	4870
831.219	5010
831.357	5006
831.496	5185
831.635	4976
831.774	4847
831.913	4843
832.051	4752
832.19	4793
832.329	4892
832.467	4714
832.606	4653
832.744	4721
832.883	4752
833.022	4752
833.16	4858
833.299	4786
833.437	4828
833.576	4831
833.714	4847
833.852	4896
833.991	4881
834.129	4995
834.267	4976
834.406	4957
834.544	4965
834.682	4976
834.821	4965
834.959	5155
835.097	4999
835.235	5162
835.373	5079
835.511	5090
835.65	5064
835.788	4991
835.926	4904
836.064	4850
836.202	4987
836.34	5193
836.478	5265
836.615	5132
836.753	5197
836.891	5311
837.029	5258
837.167	5143
837.305	5166
837.443	5174
837.58	5086
837.718	5299
837.856	5174
837.993	5121
838.131	5223
838.269	5223
838.406	5239
838.544	5208
838.681	5079
838.819	5045
838.956	4889
839.094	4949
839.231	4987
839.369	5071
839.506	5376
839.643	5250
839.781	5075
839.918	5048
840.055	5117
840.193	5090
840.33	5075
840.467	5136
840.604	5147
840.742	5459
840.879	5124
841.016	5124
841.153	5185
841.29	5398
841.427	5414
841.564	5330
841.701	5395
841.838	5299
841.975	5269
842.112	5250
842.249	5128
842.385	5105
842.522	5299
842.659	5189
842.796	5117
842.933	5166
843.069	5102
843.206	5151
843.343	5292
843.479	5235
843.616	5258
843.752	5086
843.889	4991
844.025	5284
844.162	5083
844.298	5216
844.435	5124
844.571	5052
844.708	5166
844.844	5353
844.98	5337
845.117	5280
845.253	5121
845.389	5105
845.525	5170
845.661	5151
845.798	5056
845.934	5140
846.07	4999
846.206	5189
846.342	5299
846.478	5189
846.614	4995
846.75	5006
846.886	4911
847.022	5132
847.158	5029
847.294	5098
847.429	5128
847.565	5060
847.701	5292
847.837	4900
847.972	4854
848.108	4961
848.244	4923
848.379	4812
848.515	4702
848.65	4774
848.786	4759
848.921	4812
849.057	4870
849.192	4866
849.328	4839
849.463	4828
849.598	4790
849.734	4748
849.869	4656
850.004	4649
850.14	4634
850.275	4664
850.41	4558
850.545	4588
850.68	4679
850.815	4630
850.95	4630
851.085	4911
851.22	4748
851.355	4721
851.49	4615
851.625	4653
851.76	4664
851.895	4577
852.03	4554
852.165	4645
852.299	4721
852.434	4786
852.569	4763
852.703	4767
852.838	4866
852.973	4927
853.107	4919
853.242	4809
853.376	4656
853.511	4531
853.645	4622
853.78	4797
853.914	4748
854.048	4664
854.183	4641
854.317	4702
854.451	4873
854.585	4656
854.72	4653
854.854	4752
854.988	4626
855.122	4615
855.256	4523
855.39	4679
855.524	4755
855.658	4706
855.792	4694
855.926	4698
856.06	4774
856.194	4778
856.327	4729
856.461	4603
856.595	4618
856.729	4603
856.862	4740
856.996	4694
857.13	4736
857.263	4725
857.397	4771
857.53	4668
857.664	4763
857.797	4771
857.931	4839
858.064	4687
858.197	4797
858.331	4672
858.464	4615
858.597	4519
858.731	4668
858.864	4668
858.997	4618
859.13	4687
859.263	4664
859.396	4691
859.529	4561
859.662	4584
859.795	4546
859.928	4588
860.061	4706
860.194	4816
860.327	4626
860.46	4580
860.592	4691
860.725	4736
860.858	4744
860.99	4618
861.123	4519
861.256	4519
861.388	4622
861.521	5509
861.653	4493
861.786	4474
861.918	4470
862.05	4523
862.183	4546
862.315	4645
862.447	4653
862.58	4561
862.712	4379
862.844	4344
862.976	4424
863.108	4474
863.24	4748
863.372	4379
863.504	4428
863.636	4383
863.768	4489
863.9	4470
864.032	4379
864.164	4421
864.296	4440
864.428	4573
864.559	4580
864.691	4516
864.823	4558
864.954	4481
865.086	4474
865.217	4459
865.349	4447
865.48	4413
865.612	4485
865.743	4649
865.875	4535
866.006	4478
866.137	4462
866.269	4447
866.4	4440
866.531	4394
866.662	4413
866.793	4413
866.924	4409
867.055	4504
867.186	4440
867.317	4386
867.448	4440
867.579	4417
867.71	4398
867.841	4386
867.972	4474
868.103	4459
868.233	4443
868.364	4474
868.495	4474
868.625	4649
868.756	4748
868.886	4565
869.017	4584
869.147	4774
869.278	4759
869.408	4675
869.539	4626
869.669	4721
869.799	4637
869.929	4710
870.06	4725
870.19	4961
870.32	4957
870.45	4949
870.58	5033
870.71	5098
870.84	5113
870.97	4942
871.1	4927
871.23	5113
871.36	5140
871.489	5041
871.619	5086
871.749	5086
871.879	5105
872.008	5208
872.138	5048
872.267	4995
872.397	4870
872.526	4824
872.656	4733
872.785	4831
872.915	4946
873.044	5037
873.173	4957
873.303	4980
873.432	4999
873.561	4980
873.69	4862
873.819	4866
873.948	4949
874.077	4858
874.206	4790
874.335	4801
874.464	4923
874.593	5094
874.722	5018
874.851	5109
874.979	5079
875.108	5045
875.237	4915
875.365	4927
875.494	4904
875.623	4987
875.751	4854
875.88	4881
876.008	4991
876.136	5052
876.265	5208
876.393	5326
876.521	5246
876.65	5181
876.778	5212
876.906	5060
877.034	5025
877.162	5056
877.29	5014
877.418	5121
877.546	5079
877.674	5045
877.802	5075
877.93	4991
878.058	4927
878.185	4896
878.313	4987
878.441	4972
878.568	4816
878.696	4919
878.824	4987
878.951	4965
879.079	5128
879.206	5288
879.333	5124
879.461	4984
879.588	5041
879.715	5086
879.842	5254
879.97	5003
880.097	4786
880.224	4778
880.351	4866
880.478	4839
880.605	4767
880.732	4801
880.859	5102
880.986	4877
881.112	4927
881.239	4767
881.366	4664
881.493	4637
881.619	4596
881.746	4649
881.872	4641
881.999	4660
882.125	4679
882.252	4809
882.378	4828
882.505	4911
882.631	4839
882.757	4683
882.883	4687
883.01	4729
883.136	4664
883.262	4584
883.388	4596
883.514	4809
883.64	4873
883.766	4835
883.892	4653
884.018	4702
884.143	4896
884.269	5052
884.395	4656
884.52	4675
884.646	4668
884.772	4626
884.897	4523
885.023	4645
885.148	4790
885.274	4854
885.399	4793
885.524	4675
885.65	4691
885.775	4771
885.9	4675
886.025	4870
886.15	4771
886.275	4714
886.4	4691
886.525	4683
886.65	4694
886.775	4725
886.9	4904
887.025	5079
887.149	4786
887.274	4687
887.399	4607
887.523	4599
887.648	4603
887.773	4630
887.897	4805
888.021	4752
888.146	4702
888.27	4828
888.395	4908
888.519	4790
888.643	4835
888.767	4816
888.891	4668
889.015	4637
889.139	4664
889.263	4588
889.387	4736
889.511	4835
889.635	4774
889.759	4645
889.883	4626
890.006	4763
890.13	4793
890.254	4573
890.377	4725
890.501	4519
890.624	4550
890.748	4634
890.871	4497
890.995	4466
891.118	4383
891.241	4554
891.364	4542
891.488	4626
891.611	4508
891.734	4538
891.857	4626
891.98	4527
892.103	4687
892.226	4584
892.349	4519
892.471	4489
892.594	4558
892.717	4607
892.839	4580
892.962	4611
893.085	4679
893.207	4618
893.33	4466
893.452	4565
893.575	4660
893.697	4596
893.819	4847
893.941	4828
894.064	4786
894.186	4599
894.308	4596
894.43	4679
894.552	4797
894.674	4748
894.796	4565
894.918	4599
895.04	4558
895.161	4702
895.283	4668
895.405	4573
895.526	4649
895.648	4672
895.769	4668
895.891	4733
896.012	4714
896.134	4725
896.255	4634
896.376	4630
896.498	4580
896.619	4675
896.74	4637
896.861	4649
896.982	4957
897.103	5056
897.224	4790
897.345	4706
897.466	4675
897.587	4679
897.708	4835
897.828	4820
897.949	4675
898.07	4573
898.19	4649
898.311	4839
898.431	4664
898.552	4748
898.672	4843
898.792	4786
898.913	4744
899.033	4618
899.153	4542
899.273	4436
899.393	4516
899.513	4535
899.633	4558
899.753	4565
899.873	4535
899.993	4615
900.113	4546
900.232	4588
900.352	4542
900.472	4493
900.591	4459
900.711	4497
900.83	4455
900.95	4569
901.069	4698
901.189	4554
901.308	4383
901.427	4303
901.546	4402
901.665	4500
901.784	4519
901.904	4405
902.023	4322
902.141	4177
902.26	4188
902.379	4310
902.498	4276
902.617	4265
902.735	4375
902.854	4413
902.973	4398
903.091	4204
903.21	4261
903.328	4284
903.446	4253
903.565	4299
903.683	4379
903.801	4253
903.919	4409
904.038	4459
904.156	4371
904.274	4432
904.392	4390
904.51	4432
904.627	4478
904.745	4596
904.863	4611
904.981	4451
905.098	4344
905.216	4383
905.334	4409
905.451	4409
905.569	4485
905.686	4599
905.803	4523
905.921	4379
906.038	4527
906.155	4512
906.272	4421
906.389	4489
906.506	4318
906.623	4398
906.74	4379
906.857	4322
906.974	4409
907.091	4546
907.208	4664
907.324	4546
907.441	4512
907.557	4348
907.674	4337
907.79	4325
907.907	4386
908.023	4466
908.139	4481
908.256	4459
908.372	4504
908.488	4447
908.604	4348
908.72	4310
908.836	4398
908.952	4375
909.068	4402
909.184	4569
909.3	4466
909.415	4577
909.531	4561
909.647	4341
909.762	4341
909.878	4363
909.993	4451
910.108	4428
910.224	4421
910.339	4478
910.454	4409
910.57	4383
910.685	4291
910.8	4641
910.915	4580
911.03	4508
911.145	4337
911.259	4303
911.374	4386
911.489	4287
911.604	4234
911.718	4181
911.833	4169
911.947	4105
912.062	4059
912.176	4211
912.291	4207
912.405	4246
912.519	4436
912.633	4542
912.748	4356
912.862	4295
912.976	4200
913.09	4086
913.204	4196
913.318	4192
913.431	4348
913.545	4383
913.659	4443
913.772	4360
913.886	4249
914	4234
914.113	4352
914.226	4466
914.34	4394
914.453	4215
914.566	4443
914.68	4299
914.793	4299
914.906	4162
915.019	4147
915.132	4116
915.245	4173
915.358	4207
915.47	4242
915.583	4310
915.696	4322
915.809	4371
915.921	4462
916.034	4287
916.146	4253
916.259	4230
916.371	4344
916.483	4383
916.595	4287
916.708	4306
916.82	4314
916.932	4272
917.044	4276
917.156	4322
917.268	4299
917.38	4200
917.491	4253
917.603	4318
917.715	4409
917.826	4402
917.938	4325
918.049	4219
918.161	4424
918.272	4500
918.384	4542
918.495	4497
918.606	4306
918.717	4246
918.828	4367
918.939	4360
919.05	4257
919.161	4341
919.272	4131
919.383	4223
919.494	4459
919.604	4645
919.715	4409
919.826	4375
919.936	4455
920.047	4512
920.157	4535
920.267	4733
920.378	4527
920.488	4519
920.598	4736
920.708	4858
920.818	4778
920.928	4759
921.038	4934
921.148	4896
921.258	4637
921.368	4573
921.477	4451
921.587	4481
921.697	4375
921.806	4554
921.916	4493
922.025	4272
922.134	4253
922.244	4272
922.353	4333
922.462	4185
922.571	4116
922.68	4006
922.789	3983
922.898	4082
923.007	4044
923.116	4128
923.224	4143
923.333	4147
923.442	4006
923.55	4032
923.659	3994
923.767	4090
923.876	4013
923.984	4093
924.092	4002
924.201	4063
924.309	4143
924.417	4090
924.525	4086
924.633	4097
924.741	5098
924.849	3930
924.956	4135
925.064	3987
925.172	3945
925.279	3968
925.387	4086
925.494	4017
925.602	4253
925.709	4181
925.816	4040
925.924	4082
926.031	4257
926.138	4150
926.245	4268
926.352	4071
926.459	4246
926.566	4329
926.673	4147
926.779	4116
926.886	4086
926.993	3975
927.099	3964
927.206	3934
927.312	3918
927.419	4071
927.525	4029
927.631	4154
927.737	3968
927.843	3953
927.95	3831
928.056	3960
928.162	3979
928.267	4067
928.373	4710
928.479	4173
928.585	3857
928.69	4010
928.796	4116
928.901	3983
929.007	3850
929.112	4029
929.218	3998
929.323	3956
929.428	3937
929.533	4097
929.638	3911
929.743	4006
929.848	4109
929.953	3972
930.058	3975
930.163	3751
930.267	3838
930.372	3983
930.477	3800
930.581	4109
930.685	3956
930.79	3899
930.894	3922
930.998	3827
931.103	4063
931.207	3717
931.311	3679
931.415	3660
931.519	3500
931.623	3576
