Data from test_V78500241_1397.txt Node
Date: Fri Mar 25 16:58:42 CST 2022
User: usil
Spectrometer: V785-0024
Trigger mode: 0
Integration Time (sec): 4.000000E-1
Scans to average: 1
Nonlinearity correction enabled: false
Boxcar width: 0
Storing dark spectrum: false
XAxis mode: Wavelengths
Number of Pixels in Spectrum: 1024
>>>>>Begin Spectral Data<<<<<
801.071	8008
801.214	8012
801.356	7917
801.499	7868
801.641	7784
801.783	7814
801.926	7902
802.068	7906
802.211	8062
802.353	7963
802.496	7830
802.638	7894
802.78	7890
802.923	7868
803.065	7845
803.208	7871
803.35	7974
803.492	8035
803.635	8172
803.777	8043
803.919	8172
804.061	8450
804.204	8069
804.346	8031
804.488	7955
804.63	8123
804.773	8031
804.915	8126
805.057	8320
805.199	8195
805.341	8168
805.483	8259
805.626	8229
805.768	8119
805.91	8164
806.052	8191
806.194	8138
806.336	8298
806.478	8119
806.62	8024
806.762	8149
806.904	8244
807.046	8495
807.188	8328
807.33	8282
807.472	8351
807.614	8088
807.756	8069
807.898	8027
808.04	7887
808.182	7894
808.324	7902
808.465	7959
808.607	8092
808.749	8142
808.891	8172
809.033	8317
809.174	8237
809.316	8096
809.458	8103
809.6	8008
809.741	8012
809.883	8062
810.025	8062
810.166	8073
810.308	8039
810.45	8008
810.591	7883
810.733	7704
810.875	7616
811.016	7525
811.158	7552
811.299	7597
811.441	7723
811.582	7651
811.724	7609
811.865	7540
812.007	7556
812.148	7552
812.29	7689
812.431	7719
812.573	7860
812.714	7982
812.855	8073
812.997	8214
813.138	8290
813.279	8202
813.421	8138
813.562	7978
813.703	7845
813.845	7765
813.986	7369
814.127	7236
814.268	7198
814.41	7217
814.551	7129
814.692	7156
814.833	7103
814.974	7118
815.115	7069
815.256	7019
815.397	6966
815.539	6909
815.68	6802
815.821	6753
815.962	6894
816.103	6844
816.244	6787
816.385	6608
816.526	6612
816.666	6471
816.807	6311
816.948	6464
817.089	6464
817.23	6422
817.371	6410
817.512	6410
817.653	6445
817.793	6323
817.934	6395
818.075	6429
818.216	6422
818.356	6319
818.497	6235
818.638	6140
818.778	6182
818.919	6136
819.06	6186
819.2	6266
819.341	6285
819.481	6319
819.622	6517
819.762	6722
819.903	6627
820.043	6566
820.184	6517
820.324	6593
820.465	6722
820.605	6646
820.746	6631
820.886	6467
821.026	6665
821.167	6700
821.307	6738
821.447	6700
821.588	6684
821.728	6589
821.868	6437
822.008	6308
822.149	6384
822.289	6311
822.429	6125
822.569	6030
822.709	6106
822.849	5942
822.99	5885
823.13	5950
823.27	5866
823.41	5779
823.55	5802
823.69	5752
823.83	5790
823.97	5619
824.11	5486
824.25	5467
824.389	5562
824.529	5558
824.669	5463
824.809	5623
824.949	5665
825.089	5619
825.228	5566
825.368	5383
825.508	5322
825.648	5341
825.787	5345
825.927	5357
826.067	5235
826.206	5261
826.346	5326
826.485	5360
826.625	5379
826.765	5554
826.904	5516
827.044	5204
827.183	5204
827.323	5056
827.462	5235
827.601	5151
827.741	5136
827.88	5193
828.02	5151
828.159	5193
828.298	5277
828.437	5322
828.577	5299
828.716	5497
828.855	5307
828.994	5140
829.134	5124
829.273	5189
829.412	5105
829.551	5128
829.69	5170
829.829	5254
829.968	5360
830.107	5258
830.246	5296
830.385	5170
830.524	5178
830.663	5033
830.802	4976
830.941	4866
831.08	4881
831.219	4923
831.357	4953
831.496	5109
831.635	4908
831.774	4809
831.913	4824
832.051	4725
832.19	4774
832.329	4790
832.467	4687
832.606	4618
832.744	4721
832.883	4774
833.022	4698
833.16	4767
833.299	4858
833.437	4809
833.576	4812
833.714	4908
833.852	4839
833.991	4896
834.129	4892
834.267	4949
834.406	4850
834.544	4953
834.682	5003
834.821	4957
834.959	5166
835.097	4961
835.235	5090
835.373	5075
835.511	5090
835.65	5003
835.788	5006
835.926	4881
836.064	4904
836.202	4892
836.34	5166
836.478	5197
836.615	5109
836.753	5189
836.891	5250
837.029	5299
837.167	5166
837.305	5147
837.443	5140
837.58	5094
837.718	5242
837.856	5159
837.993	5136
838.131	5216
838.269	5204
838.406	5181
838.544	5258
838.681	5022
838.819	5006
838.956	4927
839.094	4892
839.231	4980
839.369	5052
839.506	5433
839.643	5277
839.781	5048
839.918	5014
840.055	5060
840.193	5109
840.33	5102
840.467	5109
840.604	5155
840.742	5448
840.879	5045
841.016	5014
841.153	5128
841.29	5391
841.427	5322
841.564	5311
841.701	5337
841.838	5296
841.975	5246
842.112	5235
842.249	5201
842.385	5109
842.522	5288
842.659	5159
842.796	5162
842.933	5113
843.069	5166
843.206	5166
843.343	5296
843.479	5273
843.616	5254
843.752	5033
843.889	5003
844.025	5204
844.162	5033
844.298	5162
844.435	5094
844.571	5079
844.708	5166
844.844	5307
844.98	5284
845.117	5318
845.253	5102
845.389	5045
845.525	5143
845.661	5102
845.798	4946
845.934	5056
846.07	5006
846.206	5170
846.342	5307
846.478	5181
846.614	5029
846.75	5018
846.886	4892
847.022	5086
847.158	5014
847.294	5109
847.429	5090
847.565	5029
847.701	5326
847.837	4850
847.972	4812
848.108	4919
848.244	4946
848.379	4809
848.515	4744
848.65	4691
848.786	4736
848.921	4763
849.057	4805
849.192	4961
849.328	4786
849.463	4835
849.598	4843
849.734	4740
849.869	4725
850.004	4653
850.14	4645
850.275	4561
850.41	4554
850.545	4554
850.68	4637
850.815	4622
850.95	4592
851.085	4824
851.22	4748
851.355	4660
851.49	4622
851.625	4664
851.76	4622
851.895	4565
852.03	4546
852.165	4645
852.299	4675
852.434	4763
852.569	4733
852.703	4755
852.838	4839
852.973	4930
853.107	4915
853.242	4694
853.376	4702
853.511	4546
853.645	4634
853.78	4831
853.914	4645
854.048	4634
854.183	4656
854.317	4664
854.451	4835
854.585	4637
854.72	4618
854.854	4744
854.988	4558
855.122	4641
855.256	4546
855.39	4679
855.524	4759
855.658	4736
855.792	4683
855.926	4706
856.06	4736
856.194	4771
856.327	4668
856.461	4637
856.595	4626
856.729	4611
856.862	4702
856.996	4660
857.13	4729
857.263	4736
857.397	4752
857.53	4596
857.664	4706
857.797	4721
857.931	4759
858.064	4710
858.197	4744
858.331	4675
858.464	4580
858.597	4527
858.731	4664
858.864	4637
858.997	4580
859.13	4664
859.263	4649
859.396	4706
859.529	4592
859.662	4592
859.795	4519
859.928	4603
860.061	4702
860.194	4771
860.327	4634
860.46	4497
860.592	4691
860.725	4721
860.858	4733
860.99	4542
861.123	4569
861.256	4516
861.388	4618
861.521	5372
861.653	4478
861.786	4424
861.918	4428
862.05	4527
862.183	4546
862.315	4542
862.447	4615
862.58	4588
862.712	4451
862.844	4310
862.976	4459
863.108	4432
863.24	4870
863.372	4280
863.504	4405
863.636	4367
863.768	4474
863.9	4440
864.032	4363
864.164	4386
864.296	4443
864.428	4542
864.559	4523
864.691	4497
864.823	4489
864.954	4451
865.086	4500
865.217	4409
865.349	4390
865.48	4424
865.612	4436
865.743	4618
865.875	4436
866.006	4405
866.137	4443
866.269	4417
866.4	4390
866.531	4470
866.662	4398
866.793	4402
866.924	4424
867.055	4478
867.186	4394
867.317	4413
867.448	4356
867.579	4417
867.71	4383
867.841	4390
867.972	4447
868.103	4428
868.233	4432
868.364	4455
868.495	4462
868.625	4641
868.756	4740
868.886	4558
869.017	4580
869.147	4706
869.278	4824
869.408	4679
869.539	4615
869.669	4729
869.799	4596
869.929	4752
870.06	4698
870.19	4930
870.32	4919
870.45	4968
870.58	5041
870.71	5079
870.84	5071
870.97	4946
871.1	4896
871.23	5109
871.36	5124
871.489	5010
871.619	5090
871.749	5048
871.879	5117
872.008	5113
872.138	5079
872.267	4934
872.397	4866
872.526	4820
872.656	4736
872.785	4778
872.915	4911
873.044	5018
873.173	4908
873.303	4946
873.432	4957
873.561	4911
873.69	4892
873.819	4835
873.948	4892
874.077	4809
874.206	4733
874.335	4816
874.464	4968
874.593	5045
874.722	4934
874.851	5064
874.979	5037
875.108	5025
875.237	4919
875.365	4885
875.494	4862
875.623	4946
875.751	4805
875.88	4866
876.008	4980
876.136	5022
876.265	5197
876.393	5360
876.521	5227
876.65	5223
876.778	5170
876.906	5071
877.034	4987
877.162	5029
877.29	4961
877.418	5071
877.546	5067
877.674	5033
877.802	5014
877.93	5006
878.058	4930
878.185	4866
878.313	4942
878.441	4965
878.568	4782
878.696	4850
878.824	4949
878.951	4995
879.079	5166
879.206	5303
879.333	5136
879.461	4972
879.588	5010
879.715	5094
879.842	5197
879.97	5025
880.097	4774
880.224	4748
880.351	4831
880.478	4828
880.605	4854
880.732	4755
880.859	5029
880.986	4870
881.112	4862
881.239	4797
881.366	4679
881.493	4596
881.619	4592
881.746	4603
881.872	4603
881.999	4645
882.125	4702
882.252	4831
882.378	4809
882.505	5018
882.631	4767
882.757	4649
882.883	4740
883.01	4687
883.136	4653
883.262	4561
883.388	4599
883.514	4809
883.64	4843
883.766	4816
883.892	4660
884.018	4702
884.143	4892
884.269	4991
884.395	4641
884.52	4634
884.646	4656
884.772	4561
884.897	4546
885.023	4694
885.148	4774
885.274	4873
885.399	4782
885.524	4668
885.65	4679
885.775	4790
885.9	4733
886.025	4835
886.15	4793
886.275	4687
886.4	4660
886.525	4736
886.65	4645
886.775	4675
886.9	4873
887.025	5029
887.149	4782
887.274	4588
887.399	4588
887.523	4565
887.648	4577
887.773	4577
887.897	4755
888.021	4755
888.146	4668
888.27	4831
888.395	4908
888.519	4816
888.643	4782
888.767	4759
888.891	4630
889.015	4584
889.139	4622
889.263	4550
889.387	4752
889.511	4858
889.635	4782
889.759	4630
889.883	4618
890.006	4736
890.13	4824
890.254	4592
890.377	4668
890.501	4535
890.624	4481
890.748	4592
890.871	4516
890.995	4459
891.118	4424
891.241	4508
891.364	4554
891.488	4653
891.611	4508
891.734	4542
891.857	4607
891.98	4573
892.103	4599
892.226	4561
892.349	4516
892.471	4405
892.594	4542
892.717	4607
892.839	4599
892.962	4561
893.085	4687
893.207	4618
893.33	4481
893.452	4485
893.575	4645
893.697	4550
893.819	4782
893.941	4870
894.064	4774
894.186	4584
894.308	4558
894.43	4721
894.552	4816
894.674	4790
894.796	4527
894.918	4618
895.04	4584
895.161	4687
895.283	4580
895.405	4592
895.526	4637
895.648	4710
895.769	4698
895.891	4675
896.012	4748
896.134	4755
896.255	4649
896.376	4603
896.498	4653
896.619	4653
896.74	4592
896.861	4626
896.982	4919
897.103	5014
897.224	4771
897.345	4744
897.466	4641
897.587	4717
897.708	4816
897.828	4755
897.949	4637
898.07	4584
898.19	4649
898.311	4824
898.431	4630
898.552	4679
898.672	4805
898.792	4809
898.913	4736
899.033	4596
899.153	4489
899.273	4409
899.393	4462
899.513	4531
899.633	4519
899.753	4504
899.873	4504
899.993	4584
900.113	4493
900.232	4622
900.352	4546
900.472	4493
900.591	4424
900.711	4481
900.83	4447
900.95	4641
901.069	4664
901.189	4508
901.308	4356
901.427	4310
901.546	4371
901.665	4459
901.784	4512
901.904	4379
902.023	4352
902.141	4177
902.26	4162
902.379	4253
902.498	4276
902.617	4246
902.735	4363
902.854	4363
902.973	4314
903.091	4219
903.21	4223
903.328	4322
903.446	4268
903.565	4280
903.683	4371
903.801	4200
903.919	4440
904.038	4447
904.156	4261
904.274	4478
904.392	4348
904.51	4455
904.627	4459
904.745	4573
904.863	4641
904.981	4356
905.098	4291
905.216	4371
905.334	4417
905.451	4424
905.569	4440
905.686	4516
905.803	4542
905.921	4405
906.038	4573
906.155	4470
906.272	4421
906.389	4443
906.506	4375
906.623	4363
906.74	4314
906.857	4299
906.974	4371
907.091	4519
907.208	4641
907.324	4554
907.441	4447
907.557	4325
907.674	4348
907.79	4291
907.907	4417
908.023	4493
908.139	4443
908.256	4402
908.372	4497
908.488	4451
908.604	4348
908.72	4329
908.836	4348
908.952	4333
909.068	4424
909.184	4512
909.3	4466
909.415	4573
909.531	4542
909.647	4363
909.762	4402
909.878	4333
909.993	4428
910.108	4417
910.224	4383
910.339	4470
910.454	4383
910.57	4356
910.685	4265
910.8	4588
910.915	4565
911.03	4500
911.145	4299
911.259	4329
911.374	4386
911.489	4299
911.604	4223
911.718	4192
911.833	4185
911.947	4086
912.062	4029
912.176	4219
912.291	4223
912.405	4257
912.519	4462
912.633	4489
912.748	4360
912.862	4249
912.976	4181
913.09	4074
913.204	4143
913.318	4238
913.431	4333
913.545	4322
913.659	4421
913.772	4333
913.886	4261
914	4204
914.113	4344
914.226	4443
914.34	4383
914.453	4265
914.566	4436
914.68	4318
914.793	4234
914.906	4166
915.019	4135
915.132	4109
915.245	4147
915.358	4185
915.47	4192
915.583	4253
915.696	4265
915.809	4409
915.921	4398
916.034	4227
916.146	4227
916.259	4192
916.371	4363
916.483	4306
916.595	4215
916.708	4249
916.82	4322
916.932	4322
917.044	4337
917.156	4246
917.268	4246
917.38	4265
917.491	4249
917.603	4341
917.715	4383
917.826	4432
917.938	4344
918.049	4230
918.161	4375
918.272	4493
918.384	4535
918.495	4451
918.606	4333
918.717	4227
918.828	4318
918.939	4314
919.05	4253
919.161	4295
919.272	4120
919.383	4219
919.494	4489
919.604	4618
919.715	4451
919.826	4363
919.936	4424
920.047	4538
920.157	4478
920.267	4683
920.378	4546
920.488	4504
920.598	4710
920.708	4850
920.818	4740
920.928	4736
921.038	4942
921.148	4900
921.258	4596
921.368	4550
921.477	4523
921.587	4478
921.697	4367
921.806	4527
921.916	4440
922.025	4280
922.134	4287
922.244	4185
922.353	4341
922.462	4154
922.571	4169
922.68	4025
922.789	3983
922.898	4013
923.007	3937
923.116	4116
923.224	4048
923.333	4032
923.442	3987
923.55	3956
923.659	4021
923.767	4120
923.876	4002
923.984	4101
924.092	3964
924.201	4074
924.309	4090
924.417	4139
924.525	4025
924.633	4139
924.741	5052
924.849	3903
924.956	4105
925.064	3972
925.172	3922
925.279	3968
925.387	4017
925.494	4044
925.602	4211
925.709	4162
925.816	4051
925.924	4120
926.031	4234
926.138	4154
926.245	4238
926.352	4105
926.459	4219
926.566	4287
926.673	4147
926.779	4086
926.886	4139
926.993	3975
927.099	3998
927.206	3960
927.312	3953
927.419	4082
927.525	3987
927.631	4040
927.737	3987
927.843	3918
927.95	3869
928.056	3903
928.162	3930
928.267	4044
928.373	4634
928.479	4048
928.585	3865
928.69	4021
928.796	4074
928.901	3892
929.007	3838
929.112	3998
929.218	3930
929.323	3930
929.428	3907
929.533	4097
929.638	3850
929.743	3937
929.848	4032
929.953	4006
930.058	3941
930.163	3759
930.267	3812
930.372	3945
930.477	3808
930.581	4082
930.685	3922
930.79	3804
930.894	3903
930.998	3873
931.103	4032
931.207	3724
931.311	3709
931.415	3644
931.519	3477
931.623	3564
