Data from test_V78500241_2421.txt Node
Date: Fri Mar 25 17:05:50 CST 2022
User: usil
Spectrometer: V785-0024
Trigger mode: 0
Integration Time (sec): 4.000000E-1
Scans to average: 1
Nonlinearity correction enabled: false
Boxcar width: 0
Storing dark spectrum: false
XAxis mode: Wavelengths
Number of Pixels in Spectrum: 1024
>>>>>Begin Spectral Data<<<<<
801.071	8012
801.214	8024
801.356	7925
801.499	7875
801.641	7803
801.783	7921
801.926	8012
802.068	7974
802.211	7970
802.353	7989
802.496	7822
802.638	7928
802.78	7936
802.923	7894
803.065	7887
803.208	7921
803.35	8005
803.492	8107
803.635	8187
803.777	8062
803.919	8088
804.061	8454
804.204	8161
804.346	8046
804.488	8012
804.63	8153
804.773	7986
804.915	8149
805.057	8305
805.199	8176
805.341	8161
805.483	8298
805.626	8286
805.768	8206
805.91	8256
806.052	8225
806.194	8168
806.336	8290
806.478	8065
806.62	8020
806.762	8077
806.904	8259
807.046	8461
807.188	8385
807.33	8263
807.472	8309
807.614	8180
807.756	8195
807.898	8016
808.04	7902
808.182	7917
808.324	7887
808.465	7875
808.607	8088
808.749	8100
808.891	8180
809.033	8279
809.174	8237
809.316	8084
809.458	8027
809.6	7989
809.741	8012
809.883	8008
810.025	8077
810.166	8092
810.308	7997
810.45	8016
810.591	7936
810.733	7761
810.875	7677
811.016	7521
811.158	7460
811.299	7613
811.441	7712
811.582	7693
811.724	7578
811.865	7460
812.007	7594
812.148	7556
812.29	7670
812.431	7715
812.573	7871
812.714	7951
812.855	8161
812.997	8206
813.138	8290
813.279	8142
813.421	8065
813.562	8005
813.703	7883
813.845	7746
813.986	7419
814.127	7266
814.268	7198
814.41	7175
814.551	7137
814.692	7187
814.833	7114
814.974	7129
815.115	7160
815.256	6981
815.397	7004
815.539	7053
815.68	6795
815.821	6818
815.962	6867
816.103	6848
816.244	6764
816.385	6639
816.526	6639
816.666	6528
816.807	6342
816.948	6486
817.089	6544
817.23	6506
817.371	6410
817.512	6372
817.653	6384
817.793	6350
817.934	6403
818.075	6521
818.216	6464
818.356	6410
818.497	6243
818.638	6098
818.778	6178
818.919	6171
819.06	6247
819.2	6311
819.341	6391
819.481	6395
819.622	6559
819.762	6749
819.903	6700
820.043	6620
820.184	6563
820.324	6635
820.465	6757
820.605	6722
820.746	6673
820.886	6525
821.026	6654
821.167	6719
821.307	6810
821.447	6821
821.588	6696
821.728	6589
821.868	6494
822.008	6334
822.149	6422
822.289	6361
822.429	6155
822.569	6114
822.709	6140
822.849	6003
822.99	5901
823.13	5904
823.27	5942
823.41	5855
823.55	5844
823.69	5767
823.83	5748
823.97	5688
824.11	5505
824.25	5486
824.389	5558
824.529	5585
824.669	5562
824.809	5630
824.949	5665
825.089	5573
825.228	5558
825.368	5417
825.508	5322
825.648	5364
825.787	5444
825.927	5376
826.067	5280
826.206	5349
826.346	5387
826.485	5421
826.625	5410
826.765	5524
826.904	5516
827.044	5307
827.183	5181
827.323	5155
827.462	5250
827.601	5170
827.741	5216
827.88	5235
828.02	5124
828.159	5235
828.298	5296
828.437	5406
828.577	5292
828.716	5474
828.855	5345
828.994	5128
829.134	5162
829.273	5189
829.412	5124
829.551	5147
829.69	5159
829.829	5235
829.968	5417
830.107	5288
830.246	5231
830.385	5223
830.524	5143
830.663	5075
830.802	4957
830.941	4930
831.08	4870
831.219	4930
831.357	4946
831.496	5151
831.635	4934
831.774	4828
831.913	4873
832.051	4725
832.19	4748
832.329	4850
832.467	4694
832.606	4694
832.744	4725
832.883	4763
833.022	4748
833.16	4820
833.299	4816
833.437	4835
833.576	4889
833.714	4854
833.852	4873
833.991	4923
834.129	4892
834.267	4908
834.406	4896
834.544	5014
834.682	4987
834.821	4900
834.959	5170
835.097	4919
835.235	5151
835.373	5102
835.511	5136
835.65	5052
835.788	5041
835.926	4900
836.064	4885
836.202	4896
836.34	5231
836.478	5239
836.615	5105
836.753	5193
836.891	5284
837.029	5265
837.167	5204
837.305	5147
837.443	5132
837.58	5064
837.718	5239
837.856	5181
837.993	5166
838.131	5178
838.269	5204
838.406	5212
838.544	5220
838.681	5010
838.819	4991
838.956	4892
839.094	4889
839.231	5010
839.369	5064
839.506	5410
839.643	5296
839.781	5060
839.918	4991
840.055	5121
840.193	5086
840.33	5090
840.467	5109
840.604	5216
840.742	5444
840.879	5033
841.016	5086
841.153	5113
841.29	5353
841.427	5296
841.564	5341
841.701	5315
841.838	5277
841.975	5223
842.112	5292
842.249	5162
842.385	5113
842.522	5322
842.659	5128
842.796	5193
842.933	5181
843.069	5178
843.206	5109
843.343	5299
843.479	5280
843.616	5254
843.752	5025
843.889	5029
844.025	5269
844.162	5033
844.298	5231
844.435	5094
844.571	5102
844.708	5242
844.844	5345
844.98	5337
845.117	5326
845.253	5155
845.389	5090
845.525	5162
845.661	5113
845.798	5018
845.934	5162
846.07	5014
846.206	5246
846.342	5296
846.478	5151
846.614	4949
846.75	4961
846.886	4927
847.022	5113
847.158	5041
847.294	5060
847.429	5090
847.565	5052
847.701	5318
847.837	4767
847.972	4774
848.108	4976
848.244	4957
848.379	4809
848.515	4763
848.65	4683
848.786	4759
848.921	4793
849.057	4858
849.192	4923
849.328	4809
849.463	4866
849.598	4801
849.734	4763
849.869	4702
850.004	4656
850.14	4668
850.275	4615
850.41	4546
850.545	4573
850.68	4599
850.815	4630
850.95	4649
851.085	4812
851.22	4717
851.355	4675
851.49	4615
851.625	4645
851.76	4664
851.895	4558
852.03	4535
852.165	4630
852.299	4744
852.434	4782
852.569	4714
852.703	4740
852.838	4843
852.973	4930
853.107	4904
853.242	4725
853.376	4656
853.511	4535
853.645	4660
853.78	4771
853.914	4698
854.048	4679
854.183	4645
854.317	4714
854.451	4866
854.585	4637
854.72	4679
854.854	4748
854.988	4615
855.122	4615
855.256	4497
855.39	4615
855.524	4759
855.658	4736
855.792	4679
855.926	4721
856.06	4767
856.194	4862
856.327	4721
856.461	4645
856.595	4649
856.729	4603
856.862	4759
856.996	4721
857.13	4717
857.263	4755
857.397	4809
857.53	4622
857.664	4675
857.797	4752
857.931	4767
858.064	4683
858.197	4736
858.331	4687
858.464	4596
858.597	4504
858.731	4679
858.864	4645
858.997	4542
859.13	4664
859.263	4675
859.396	4725
859.529	4580
859.662	4561
859.795	4466
859.928	4645
860.061	4717
860.194	4801
860.327	4634
860.46	4592
860.592	4683
860.725	4748
860.858	4702
860.99	4607
861.123	4538
861.256	4535
861.388	4618
861.521	5280
861.653	4447
861.786	4436
861.918	4459
862.05	4584
862.183	4558
862.315	4622
862.447	4702
862.58	4535
862.712	4383
862.844	4375
862.976	4497
863.108	4459
863.24	4778
863.372	4303
863.504	4413
863.636	4432
863.768	4485
863.9	4466
864.032	4352
864.164	4443
864.296	4504
864.428	4558
864.559	4569
864.691	4546
864.823	4615
864.954	4527
865.086	4500
865.217	4443
865.349	4402
865.48	4493
865.612	4462
865.743	4664
865.875	4493
866.006	4447
866.137	4497
866.269	4413
866.4	4421
866.531	4405
866.662	4409
866.793	4383
866.924	4432
867.055	4500
867.186	4474
867.317	4417
867.448	4356
867.579	4402
867.71	4367
867.841	4413
867.972	4443
868.103	4478
868.233	4466
868.364	4470
868.495	4512
868.625	4664
868.756	4790
868.886	4523
869.017	4630
869.147	4824
869.278	4790
869.408	4675
869.539	4637
869.669	4721
869.799	4675
869.929	4790
870.06	4752
870.19	4965
870.32	4915
870.45	4930
870.58	5105
870.71	5098
870.84	5071
870.97	4965
871.1	4866
871.23	5178
871.36	5083
871.489	5010
871.619	5029
871.749	5102
871.879	5143
872.008	5159
872.138	5067
872.267	4984
872.397	4835
872.526	4820
872.656	4710
872.785	4778
872.915	4976
873.044	5022
873.173	4949
873.303	4957
873.432	4915
873.561	4976
873.69	4892
873.819	4862
873.948	4904
874.077	4797
874.206	4790
874.335	4755
874.464	4908
874.593	5075
874.722	4961
874.851	5155
874.979	5029
875.108	5003
875.237	4949
875.365	4892
875.494	4892
875.623	4949
875.751	4786
875.88	4870
876.008	4980
876.136	5064
876.265	5201
876.393	5372
876.521	5265
876.65	5261
876.778	5204
876.906	5086
877.034	4999
877.162	5048
877.29	4980
877.418	5037
877.546	5075
877.674	5075
877.802	4949
877.93	4995
878.058	4946
878.185	4877
878.313	4968
878.441	4953
878.568	4820
878.696	4915
878.824	4961
878.951	4999
879.079	5124
879.206	5273
879.333	5075
879.461	4946
879.588	5010
879.715	5071
879.842	5239
879.97	4987
880.097	4790
880.224	4752
880.351	4805
880.478	4835
880.605	4767
880.732	4771
880.859	5098
880.986	4892
881.112	4923
881.239	4774
881.366	4679
881.493	4634
881.619	4645
881.746	4592
881.872	4653
881.999	4622
882.125	4736
882.252	4763
882.378	4748
882.505	4976
882.631	4790
882.757	4653
882.883	4744
883.01	4736
883.136	4668
883.262	4630
883.388	4626
883.514	4824
883.64	4885
883.766	4835
883.892	4694
884.018	4717
884.143	4881
884.269	5018
884.395	4691
884.52	4634
884.646	4607
884.772	4569
884.897	4611
885.023	4668
885.148	4759
885.274	4904
885.399	4801
885.524	4778
885.65	4717
885.775	4767
885.9	4698
886.025	4881
886.15	4809
886.275	4710
886.4	4687
886.525	4736
886.65	4763
886.775	4653
886.9	4904
887.025	5006
887.149	4831
887.274	4649
887.399	4538
887.523	4637
887.648	4596
887.773	4592
887.897	4763
888.021	4793
888.146	4656
888.27	4797
888.395	4881
888.519	4847
888.643	4812
888.767	4850
888.891	4660
889.015	4592
889.139	4710
889.263	4580
889.387	4725
889.511	4881
889.635	4752
889.759	4668
889.883	4618
890.006	4698
890.13	4828
890.254	4603
890.377	4702
890.501	4580
890.624	4519
890.748	4664
890.871	4558
890.995	4398
891.118	4386
891.241	4504
891.364	4580
891.488	4660
891.611	4478
891.734	4508
891.857	4565
891.98	4554
892.103	4645
892.226	4607
892.349	4580
892.471	4432
892.594	4527
892.717	4573
892.839	4588
892.962	4599
893.085	4660
893.207	4599
893.33	4440
893.452	4550
893.575	4683
893.697	4588
893.819	4816
893.941	4820
894.064	4763
894.186	4588
894.308	4630
894.43	4752
894.552	4778
894.674	4736
894.796	4500
894.918	4641
895.04	4592
895.161	4717
895.283	4626
895.405	4569
895.526	4561
895.648	4679
895.769	4668
895.891	4717
896.012	4729
896.134	4691
896.255	4714
896.376	4603
896.498	4618
896.619	4660
896.74	4611
896.861	4630
896.982	4904
897.103	5060
897.224	4778
897.345	4786
897.466	4683
897.587	4748
897.708	4843
897.828	4763
897.949	4683
898.07	4523
898.19	4622
898.311	4850
898.431	4702
898.552	4717
898.672	4847
898.792	4877
898.913	4733
899.033	4691
899.153	4519
899.273	4443
899.393	4462
899.513	4569
899.633	4588
899.753	4569
899.873	4478
899.993	4577
900.113	4512
900.232	4603
900.352	4561
900.472	4531
900.591	4390
900.711	4489
900.83	4417
900.95	4596
901.069	4733
901.189	4584
901.308	4405
901.427	4375
901.546	4379
901.665	4470
901.784	4485
901.904	4398
902.023	4306
902.141	4192
902.26	4162
902.379	4318
902.498	4265
902.617	4238
902.735	4363
902.854	4363
902.973	4356
903.091	4215
903.21	4227
903.328	4306
903.446	4325
903.565	4291
903.683	4348
903.801	4314
903.919	4375
904.038	4356
904.156	4322
904.274	4398
904.392	4375
904.51	4398
904.627	4455
904.745	4584
904.863	4702
904.981	4443
905.098	4303
905.216	4367
905.334	4466
905.451	4500
905.569	4432
905.686	4569
905.803	4573
905.921	4409
906.038	4527
906.155	4470
906.272	4390
906.389	4443
906.506	4352
906.623	4337
906.74	4428
906.857	4291
906.974	4375
907.091	4485
907.208	4626
907.324	4592
907.441	4462
907.557	4383
907.674	4367
907.79	4287
907.907	4367
908.023	4481
908.139	4466
908.256	4421
908.372	4481
908.488	4440
908.604	4318
908.72	4341
908.836	4367
908.952	4325
909.068	4478
909.184	4588
909.3	4527
909.415	4584
909.531	4558
909.647	4344
909.762	4402
909.878	4398
909.993	4459
910.108	4379
910.224	4402
910.339	4455
910.454	4360
910.57	4367
910.685	4310
910.8	4645
910.915	4611
911.03	4474
911.145	4284
911.259	4333
911.374	4394
911.489	4291
911.604	4272
911.718	4139
911.833	4196
911.947	4036
912.062	3972
912.176	4207
912.291	4287
912.405	4261
912.519	4474
912.633	4485
912.748	4356
912.862	4310
912.976	4223
913.09	4139
913.204	4166
913.318	4280
913.431	4398
913.545	4344
913.659	4424
913.772	4352
913.886	4242
914	4257
914.113	4363
914.226	4436
914.34	4379
914.453	4242
914.566	4432
914.68	4348
914.793	4333
914.906	4139
915.019	4131
915.132	4101
915.245	4207
915.358	4204
915.47	4246
915.583	4280
915.696	4284
915.809	4424
915.921	4383
916.034	4310
916.146	4246
916.259	4234
916.371	4306
916.483	4329
916.595	4265
916.708	4337
916.82	4344
916.932	4322
917.044	4310
917.156	4363
917.268	4227
917.38	4280
917.491	4265
917.603	4394
917.715	4394
917.826	4455
917.938	4386
918.049	4249
918.161	4424
918.272	4504
918.384	4546
918.495	4440
918.606	4299
918.717	4268
918.828	4367
918.939	4375
919.05	4291
919.161	4325
919.272	4150
919.383	4234
919.494	4447
919.604	4596
919.715	4462
919.826	4379
919.936	4371
920.047	4497
920.157	4485
920.267	4702
920.378	4554
920.488	4500
920.598	4714
920.708	4885
920.818	4763
920.928	4740
921.038	4965
921.148	4923
921.258	4611
921.368	4573
921.477	4466
921.587	4421
921.697	4383
921.806	4561
921.916	4398
922.025	4272
922.134	4257
922.244	4276
922.353	4337
922.462	4196
922.571	4105
922.68	4002
922.789	3987
922.898	4029
923.007	4002
923.116	4120
923.224	4055
923.333	4082
923.442	3987
923.55	3960
923.659	4074
923.767	4116
923.876	4013
923.984	4135
924.092	4013
924.201	4101
924.309	4120
924.417	4120
924.525	4055
924.633	4101
924.741	5090
924.849	3918
924.956	4166
925.064	3972
925.172	3876
925.279	3945
925.387	4036
925.494	4074
925.602	4207
925.709	4192
925.816	4044
925.924	4116
926.031	4253
926.138	4147
926.245	4192
926.352	4082
926.459	4223
926.566	4318
926.673	4169
926.779	4124
926.886	4059
926.993	3975
927.099	3949
927.206	3945
927.312	3915
927.419	4063
927.525	4040
927.631	4109
927.737	3979
927.843	3960
927.95	3804
928.056	3915
928.162	4032
928.267	4040
928.373	4736
928.479	4185
928.585	3835
928.69	4010
928.796	4112
928.901	3964
929.007	3827
929.112	3975
929.218	3994
929.323	3979
929.428	3899
929.533	4143
929.638	3922
929.743	3953
929.848	4063
929.953	3987
930.058	3930
930.163	3819
930.267	3861
930.372	3994
930.477	3831
930.581	4078
930.685	3956
930.79	3873
930.894	3907
930.998	3838
931.103	4029
931.207	3671
931.311	3686
931.415	3679
931.519	3530
931.623	3538
