Data from test_V78500241_34.txt Node
Date: Fri Mar 25 16:49:14 CST 2022
User: usil
Spectrometer: V785-0024
Trigger mode: 0
Integration Time (sec): 4.000000E-1
Scans to average: 1
Nonlinearity correction enabled: false
Boxcar width: 0
Storing dark spectrum: false
XAxis mode: Wavelengths
Number of Pixels in Spectrum: 1024
>>>>>Begin Spectral Data<<<<<
801.071	8073
801.214	8126
801.356	8046
801.499	7852
801.641	7917
801.783	7902
801.926	8031
802.068	7997
802.211	8065
802.353	8046
802.496	7951
802.638	8081
802.78	7959
802.923	8016
803.065	7906
803.208	7913
803.35	7997
803.492	8180
803.635	8126
803.777	8016
803.919	8195
804.061	8476
804.204	8119
804.346	8142
804.488	7993
804.63	8111
804.773	8062
804.915	8084
805.057	8301
805.199	8225
805.341	8229
805.483	8294
805.626	8324
805.768	8145
805.91	8252
806.052	8256
806.194	8100
806.336	8320
806.478	8149
806.62	8134
806.762	8130
806.904	8218
807.046	8492
807.188	8434
807.33	8294
807.472	8343
807.614	8206
807.756	8142
807.898	8012
808.04	7925
808.182	7978
808.324	7925
808.465	7928
808.607	8096
808.749	8062
808.891	8218
809.033	8286
809.174	8199
809.316	8039
809.458	8069
809.6	7970
809.741	7993
809.883	8062
810.025	8084
810.166	8107
810.308	8115
810.45	8092
810.591	7883
810.733	7780
810.875	7712
811.016	7582
811.158	7563
811.299	7632
811.441	7826
811.582	7761
811.724	7597
811.865	7609
812.007	7613
812.148	7689
812.29	7636
812.431	7811
812.573	7928
812.714	8100
812.855	8130
812.997	8267
813.138	8286
813.279	8218
813.421	8157
813.562	8069
813.703	7921
813.845	7852
813.986	7563
814.127	7312
814.268	7255
814.41	7171
814.551	7198
814.692	7293
814.833	7145
814.974	7145
815.115	7179
815.256	6954
815.397	6935
815.539	6916
815.68	6779
815.821	6810
815.962	6901
816.103	6886
816.244	6776
816.385	6669
816.526	6654
816.666	6540
816.807	6395
816.948	6441
817.089	6540
817.23	6467
817.371	6441
817.512	6403
817.653	6422
817.793	6433
817.934	6456
818.075	6509
818.216	6445
818.356	6471
818.497	6327
818.638	6201
818.778	6239
818.919	6224
819.06	6163
819.2	6338
819.341	6376
819.481	6410
819.622	6612
819.762	6779
819.903	6715
820.043	6616
820.184	6623
820.324	6665
820.465	6730
820.605	6726
820.746	6681
820.886	6566
821.026	6749
821.167	6772
821.307	6863
821.447	6856
821.588	6684
821.728	6650
821.868	6517
822.008	6361
822.149	6536
822.289	6403
822.429	6194
822.569	6125
822.709	6190
822.849	6045
822.99	5999
823.13	5969
823.27	6030
823.41	5855
823.55	5840
823.69	5874
823.83	5855
823.97	5756
824.11	5653
824.25	5638
824.389	5619
824.529	5623
824.669	5623
824.809	5741
824.949	5722
825.089	5665
825.228	5657
825.368	5467
825.508	5425
825.648	5433
825.787	5524
825.927	5440
826.067	5387
826.206	5406
826.346	5452
826.485	5520
826.625	5516
826.765	5646
826.904	5585
827.044	5330
827.183	5318
827.323	5201
827.462	5353
827.601	5265
827.741	5242
827.88	5337
828.02	5227
828.159	5277
828.298	5406
828.437	5440
828.577	5398
828.716	5589
828.855	5417
828.994	5250
829.134	5239
829.273	5280
829.412	5227
829.551	5212
829.69	5280
829.829	5345
829.968	5463
830.107	5357
830.246	5372
830.385	5273
830.524	5242
830.663	5151
830.802	5041
830.941	4965
831.08	4968
831.219	5140
831.357	5041
831.496	5246
831.635	5018
831.774	4980
831.913	4927
832.051	4801
832.19	4831
832.329	4911
832.467	4778
832.606	4717
832.744	4801
832.883	4771
833.022	4812
833.16	4854
833.299	4828
833.437	4870
833.576	4885
833.714	4957
833.852	4953
833.991	4980
834.129	5067
834.267	5041
834.406	4999
834.544	5083
834.682	5014
834.821	5094
834.959	5250
835.097	5014
835.235	5254
835.373	5159
835.511	5220
835.65	5113
835.788	5109
835.926	4995
836.064	5006
836.202	4999
836.34	5204
836.478	5368
836.615	5223
836.753	5277
836.891	5307
837.029	5299
837.167	5284
837.305	5185
837.443	5231
837.58	5155
837.718	5341
837.856	5280
837.993	5231
838.131	5307
838.269	5280
838.406	5288
838.544	5216
838.681	5071
838.819	5045
838.956	4934
839.094	4961
839.231	5060
839.369	5140
839.506	5471
839.643	5330
839.781	5170
839.918	5075
840.055	5155
840.193	5208
840.33	5140
840.467	5166
840.604	5265
840.742	5539
840.879	5189
841.016	5109
841.153	5212
841.29	5493
841.427	5357
841.564	5376
841.701	5490
841.838	5379
841.975	5307
842.112	5353
842.249	5181
842.385	5174
842.522	5379
842.659	5212
842.796	5212
842.933	5235
843.069	5212
843.206	5220
843.343	5383
843.479	5357
843.616	5315
843.752	5098
843.889	5041
844.025	5265
844.162	5143
844.298	5250
844.435	5166
844.571	5151
844.708	5277
844.844	5376
844.98	5395
845.117	5341
845.253	5216
845.389	5159
845.525	5231
845.661	5212
845.798	5136
845.934	5197
846.07	5151
846.206	5307
846.342	5357
846.478	5254
846.614	5045
846.75	5075
846.886	5018
847.022	5269
847.158	5094
847.294	5155
847.429	5227
847.565	5136
847.701	5410
847.837	4942
847.972	4835
848.108	5083
848.244	5037
848.379	4885
848.515	4824
848.65	4759
848.786	4786
848.921	4866
849.057	4965
849.192	4972
849.328	4862
849.463	4896
849.598	4870
849.734	4793
849.869	4752
850.004	4725
850.14	4736
850.275	4698
850.41	4577
850.545	4611
850.68	4752
850.815	4672
850.95	4698
851.085	4919
851.22	4843
851.355	4725
851.49	4611
851.625	4710
851.76	4714
851.895	4656
852.03	4664
852.165	4706
852.299	4778
852.434	4862
852.569	4801
852.703	4850
852.838	4923
852.973	5010
853.107	5025
853.242	4805
853.376	4759
853.511	4630
853.645	4664
853.78	4923
853.914	4752
854.048	4698
854.183	4752
854.317	4793
854.451	4923
854.585	4790
854.72	4691
854.854	4805
854.988	4672
855.122	4706
855.256	4596
855.39	4710
855.524	4889
855.658	4854
855.792	4797
855.926	4797
856.06	4782
856.194	4904
856.327	4786
856.461	4740
856.595	4687
856.729	4694
856.862	4850
856.996	4782
857.13	4816
857.263	4835
857.397	4873
857.53	4752
857.664	4793
857.797	4881
857.931	4854
858.064	4733
858.197	4771
858.331	4675
858.464	4675
858.597	4592
858.731	4672
858.864	4702
858.997	4698
859.13	4721
859.263	4755
859.396	4797
859.529	4649
859.662	4637
859.795	4645
859.928	4637
860.061	4854
860.194	4831
860.327	4656
860.46	4691
860.592	4748
860.725	4736
860.858	4793
860.99	4691
861.123	4565
861.256	4588
861.388	4634
861.521	5444
861.653	4542
861.786	4542
861.918	4535
862.05	4573
862.183	4641
862.315	4637
862.447	4755
862.58	4615
862.712	4451
862.844	4402
862.976	4516
863.108	4542
863.24	4923
863.372	4348
863.504	4447
863.636	4470
863.768	4542
863.9	4516
864.032	4443
864.164	4470
864.296	4546
864.428	4599
864.559	4641
864.691	4592
864.823	4599
864.954	4554
865.086	4580
865.217	4542
865.349	4478
865.48	4527
865.612	4569
865.743	4714
865.875	4512
866.006	4512
866.137	4538
866.269	4500
866.4	4497
866.531	4493
866.662	4508
866.793	4485
866.924	4497
867.055	4584
867.186	4493
867.317	4466
867.448	4489
867.579	4432
867.71	4424
867.841	4398
867.972	4508
868.103	4542
868.233	4531
868.364	4508
868.495	4478
868.625	4740
868.756	4797
868.886	4679
869.017	4656
869.147	4839
869.278	4881
869.408	4736
869.539	4668
869.669	4805
869.799	4721
869.929	4790
870.06	4801
870.19	4995
870.32	4972
870.45	5045
870.58	5052
870.71	5166
870.84	5143
870.97	4980
871.1	4976
871.23	5265
871.36	5193
871.489	5113
871.619	5132
871.749	5162
871.879	5189
872.008	5296
872.138	5140
872.267	5071
872.397	4923
872.526	4839
872.656	4763
872.785	4900
872.915	5037
873.044	5121
873.173	4995
873.303	5014
873.432	5006
873.561	5037
873.69	4946
873.819	4938
873.948	5010
874.077	4949
874.206	4812
874.335	4850
874.464	5029
874.593	5113
874.722	5018
874.851	5143
874.979	5117
875.108	5086
875.237	5025
875.365	4957
875.494	4911
875.623	5060
875.751	4892
875.88	4972
876.008	5067
876.136	5113
876.265	5231
876.393	5417
876.521	5299
876.65	5273
876.778	5231
876.906	5102
877.034	5075
877.162	5121
877.29	5041
877.418	5140
877.546	5132
877.674	5090
877.802	5162
877.93	5083
878.058	4980
878.185	4949
878.313	5025
878.441	4991
878.568	4866
878.696	4942
878.824	5048
878.951	5041
879.079	5208
879.206	5387
879.333	5185
879.461	5048
879.588	5071
879.715	5235
879.842	5307
879.97	5075
880.097	4866
880.224	4870
880.351	4812
880.478	4976
880.605	4862
880.732	4870
880.859	5151
880.986	4946
881.112	4976
881.239	4850
881.366	4721
881.493	4634
881.619	4668
881.746	4740
881.872	4675
881.999	4672
882.125	4755
882.252	4820
882.378	4942
882.505	5003
882.631	4904
882.757	4736
882.883	4812
883.01	4748
883.136	4733
883.262	4653
883.388	4649
883.514	4919
883.64	4904
883.766	4812
883.892	4687
884.018	4797
884.143	4980
884.269	5060
884.395	4702
884.52	4653
884.646	4702
884.772	4634
884.897	4637
885.023	4721
885.148	4828
885.274	4904
885.399	4862
885.524	4771
885.65	4729
885.775	4816
885.9	4763
886.025	4896
886.15	4873
886.275	4812
886.4	4691
886.525	4740
886.65	4733
886.775	4736
886.9	4972
887.025	5075
887.149	4896
887.274	4694
887.399	4664
887.523	4668
887.648	4622
887.773	4660
887.897	4820
888.021	4850
888.146	4752
888.27	4889
888.395	4946
888.519	4812
888.643	4835
888.767	4930
888.891	4752
889.015	4679
889.139	4721
889.263	4615
889.387	4835
889.511	4930
889.635	4839
889.759	4698
889.883	4744
890.006	4816
890.13	4896
890.254	4660
890.377	4721
890.501	4645
890.624	4573
890.748	4664
890.871	4546
890.995	4523
891.118	4462
891.241	4588
891.364	4618
891.488	4721
891.611	4565
891.734	4618
891.857	4656
891.98	4656
892.103	4717
892.226	4634
892.349	4596
892.471	4478
892.594	4634
892.717	4706
892.839	4634
892.962	4653
893.085	4710
893.207	4664
893.33	4569
893.452	4584
893.575	4714
893.697	4596
893.819	4847
893.941	4904
894.064	4812
894.186	4626
894.308	4622
894.43	4714
894.552	4854
894.674	4820
894.796	4592
894.918	4672
895.04	4603
895.161	4793
895.283	4683
895.405	4630
895.526	4675
895.648	4744
895.769	4736
895.891	4778
896.012	4793
896.134	4816
896.255	4702
896.376	4660
896.498	4691
896.619	4759
896.74	4675
896.861	4679
896.982	4991
897.103	5113
897.224	4877
897.345	4797
897.466	4721
897.587	4759
897.708	4915
897.828	4816
897.949	4706
898.07	4641
898.19	4710
898.311	4934
898.431	4736
898.552	4831
898.672	4786
898.792	4828
898.913	4816
899.033	4672
899.153	4546
899.273	4478
899.393	4542
899.513	4538
899.633	4569
899.753	4561
899.873	4550
899.993	4584
900.113	4622
900.232	4599
900.352	4634
900.472	4512
900.591	4405
900.711	4512
900.83	4512
900.95	4664
901.069	4748
901.189	4603
901.308	4409
901.427	4371
901.546	4405
901.665	4489
901.784	4588
901.904	4478
902.023	4417
902.141	4280
902.26	4215
902.379	4299
902.498	4291
902.617	4265
902.735	4462
902.854	4440
902.973	4424
903.091	4280
903.21	4280
903.328	4344
903.446	4360
903.565	4246
903.683	4379
903.801	4333
903.919	4474
904.038	4436
904.156	4341
904.274	4519
904.392	4459
904.51	4451
904.627	4519
904.745	4569
904.863	4683
904.981	4489
905.098	4379
905.216	4356
905.334	4470
905.451	4474
905.569	4527
905.686	4611
905.803	4656
905.921	4455
906.038	4618
906.155	4516
906.272	4493
906.389	4447
906.506	4405
906.623	4428
906.74	4447
906.857	4375
906.974	4413
907.091	4607
907.208	4774
907.324	4672
907.441	4531
907.557	4394
907.674	4375
907.79	4386
907.907	4413
908.023	4561
908.139	4493
908.256	4443
908.372	4500
908.488	4512
908.604	4398
908.72	4417
908.836	4367
908.952	4417
909.068	4519
909.184	4596
909.3	4500
909.415	4634
909.531	4584
909.647	4379
909.762	4390
909.878	4405
909.993	4516
910.108	4470
910.224	4462
910.339	4538
910.454	4413
910.57	4375
910.685	4344
910.8	4710
910.915	4679
911.03	4523
911.145	4402
911.259	4421
911.374	4409
911.489	4325
911.604	4318
911.718	4188
911.833	4257
911.947	4147
912.062	4074
912.176	4280
912.291	4280
912.405	4287
912.519	4474
912.633	4531
912.748	4413
912.862	4379
912.976	4265
913.09	4158
913.204	4204
913.318	4295
913.431	4413
913.545	4409
913.659	4485
913.772	4398
913.886	4284
914	4322
914.113	4462
914.226	4485
914.34	4447
914.453	4310
914.566	4462
914.68	4367
914.793	4344
914.906	4207
915.019	4173
915.132	4177
915.245	4246
915.358	4310
915.47	4261
915.583	4299
915.696	4375
915.809	4428
915.921	4451
916.034	4341
916.146	4318
916.259	4291
916.371	4447
916.483	4409
916.595	4310
916.708	4413
916.82	4356
916.932	4394
917.044	4386
917.156	4386
917.268	4268
917.38	4287
917.491	4306
917.603	4363
917.715	4443
917.826	4497
917.938	4459
918.049	4314
918.161	4436
918.272	4592
918.384	4603
918.495	4485
918.606	4295
918.717	4329
918.828	4375
918.939	4402
919.05	4329
919.161	4356
919.272	4196
919.383	4230
919.494	4474
919.604	4668
919.715	4421
919.826	4447
919.936	4459
920.047	4603
920.157	4561
920.267	4809
920.378	4618
920.488	4546
920.598	4786
920.708	4923
920.818	4828
920.928	4820
921.038	4980
921.148	4968
921.258	4710
921.368	4637
921.477	4546
921.587	4527
921.697	4417
921.806	4580
921.916	4481
922.025	4341
922.134	4291
922.244	4310
922.353	4371
922.462	4261
922.571	4154
922.68	4063
922.789	3987
922.898	4116
923.007	4025
923.116	4135
923.224	4105
923.333	4135
923.442	4029
923.55	4029
923.659	4124
923.767	4135
923.876	4029
923.984	4166
924.092	4048
924.201	4116
924.309	4188
924.417	4169
924.525	4048
924.633	4124
924.741	5083
924.849	3937
924.956	4188
925.064	4017
925.172	3922
925.279	3991
925.387	4078
925.494	4109
925.602	4249
925.709	4268
925.816	4044
925.924	4200
926.031	4291
926.138	4246
926.245	4272
926.352	4150
926.459	4268
926.566	4337
926.673	4173
926.779	4158
926.886	4109
926.993	4067
927.099	3987
927.206	3983
927.312	3964
927.419	4086
927.525	4055
927.631	4131
927.737	3994
927.843	3998
927.95	3838
928.056	3994
928.162	4040
928.267	4067
928.373	4733
928.479	4185
928.585	3918
928.69	4055
928.796	4109
928.901	4010
929.007	3846
929.112	4017
929.218	4021
929.323	3987
929.428	3975
929.533	4185
929.638	3941
929.743	3975
929.848	4059
929.953	4051
930.058	3960
930.163	3846
930.267	3835
930.372	4059
930.477	3823
930.581	4120
930.685	3994
930.79	3873
930.894	3930
930.998	3892
931.103	4097
931.207	3785
931.311	3713
931.415	3682
931.519	3557
931.623	3564
