Data from test_V78500241_1531.txt Node
Date: Fri Mar 25 16:59:38 CST 2022
User: usil
Spectrometer: V785-0024
Trigger mode: 0
Integration Time (sec): 4.000000E-1
Scans to average: 1
Nonlinearity correction enabled: false
Boxcar width: 0
Storing dark spectrum: false
XAxis mode: Wavelengths
Number of Pixels in Spectrum: 1024
>>>>>Begin Spectral Data<<<<<
801.071	8016
801.214	8027
801.356	7864
801.499	7830
801.641	7753
801.783	7814
801.926	7890
802.068	7944
802.211	8001
802.353	7997
802.496	7894
802.638	7845
802.78	7909
802.923	7868
803.065	7890
803.208	7845
803.35	7978
803.492	8100
803.635	8119
803.777	8031
803.919	8039
804.061	8438
804.204	8153
804.346	8027
804.488	7951
804.63	8172
804.773	8012
804.915	8054
805.057	8256
805.199	8088
805.341	8195
805.483	8225
805.626	8123
805.768	8142
805.91	8214
806.052	8145
806.194	8103
806.336	8305
806.478	8161
806.62	8073
806.762	8126
806.904	8263
807.046	8503
807.188	8351
807.33	8271
807.472	8301
807.614	8157
807.756	8168
807.898	8012
808.04	7921
808.182	7944
808.324	7913
808.465	7906
808.607	8073
808.749	8103
808.891	8202
809.033	8202
809.174	8225
809.316	8073
809.458	8058
809.6	8065
809.741	7974
809.883	8062
810.025	8103
810.166	8050
810.308	8012
810.45	8016
810.591	7822
810.733	7723
810.875	7624
811.016	7499
811.158	7441
811.299	7556
811.441	7708
811.582	7662
811.724	7582
811.865	7525
812.007	7556
812.148	7582
812.29	7559
812.431	7765
812.573	7909
812.714	7989
812.855	8145
812.997	8172
813.138	8298
813.279	8126
813.421	8111
813.562	7947
813.703	7795
813.845	7708
813.986	7441
814.127	7259
814.268	7278
814.41	7221
814.551	7145
814.692	7236
814.833	7069
814.974	7072
815.115	7126
815.256	6985
815.397	6897
815.539	6890
815.68	6768
815.821	6730
815.962	6859
816.103	6806
816.244	6684
816.385	6593
816.526	6544
816.666	6483
816.807	6251
816.948	6429
817.089	6467
817.23	6502
817.371	6342
817.512	6395
817.653	6437
817.793	6319
817.934	6380
818.075	6483
818.216	6407
818.356	6437
818.497	6270
818.638	6129
818.778	6194
818.919	6110
819.06	6209
819.2	6300
819.341	6273
819.481	6334
819.622	6475
819.762	6703
819.903	6646
820.043	6574
820.184	6566
820.324	6612
820.465	6757
820.605	6711
820.746	6646
820.886	6509
821.026	6688
821.167	6662
821.307	6802
821.447	6753
821.588	6711
821.728	6570
821.868	6517
822.008	6311
822.149	6395
822.289	6376
822.429	6098
822.569	6076
822.709	6117
822.849	5916
822.99	5844
823.13	5882
823.27	5920
823.41	5729
823.55	5745
823.69	5790
823.83	5748
823.97	5604
824.11	5528
824.25	5471
824.389	5592
824.529	5577
824.669	5570
824.809	5649
824.949	5649
825.089	5649
825.228	5547
825.368	5395
825.508	5337
825.648	5337
825.787	5398
825.927	5341
826.067	5269
826.206	5280
826.346	5360
826.485	5349
826.625	5429
826.765	5497
826.904	5448
827.044	5208
827.183	5193
827.323	5105
827.462	5166
827.601	5155
827.741	5189
827.88	5174
828.02	5075
828.159	5174
828.298	5318
828.437	5395
828.577	5254
828.716	5455
828.855	5322
828.994	5121
829.134	5143
829.273	5140
829.412	5132
829.551	5166
829.69	5098
829.829	5258
829.968	5357
830.107	5261
830.246	5250
830.385	5132
830.524	5094
830.663	5056
830.802	4949
830.941	4904
831.08	4900
831.219	4911
831.357	4946
831.496	5204
831.635	4938
831.774	4824
831.913	4831
832.051	4698
832.19	4740
832.329	4839
832.467	4637
832.606	4577
832.744	4710
832.883	4675
833.022	4717
833.16	4774
833.299	4771
833.437	4831
833.576	4850
833.714	4793
833.852	4892
833.991	4873
834.129	4896
834.267	4892
834.406	4866
834.544	4946
834.682	4927
834.821	4919
834.959	5113
835.097	4980
835.235	5102
835.373	5064
835.511	5117
835.65	5003
835.788	5006
835.926	4870
836.064	4862
836.202	4889
836.34	5121
836.478	5231
836.615	5128
836.753	5185
836.891	5250
837.029	5227
837.167	5185
837.305	5147
837.443	5124
837.58	5075
837.718	5250
837.856	5193
837.993	5143
838.131	5155
838.269	5170
838.406	5246
838.544	5185
838.681	5006
838.819	5029
838.956	4896
839.094	4881
839.231	4991
839.369	5102
839.506	5417
839.643	5307
839.781	5018
839.918	5010
840.055	5113
840.193	5052
840.33	5079
840.467	5052
840.604	5166
840.742	5444
840.879	5052
841.016	5025
841.153	5136
841.29	5376
841.427	5379
841.564	5383
841.701	5345
841.838	5277
841.975	5231
842.112	5265
842.249	5098
842.385	5075
842.522	5303
842.659	5140
842.796	5155
842.933	5178
843.069	5124
843.206	5151
843.343	5269
843.479	5246
843.616	5277
843.752	5037
843.889	4995
844.025	5178
844.162	5010
844.298	5181
844.435	5064
844.571	4995
844.708	5197
844.844	5239
844.98	5296
845.117	5311
845.253	5159
845.389	5090
845.525	5132
845.661	5136
845.798	5022
845.934	5109
846.07	5022
846.206	5201
846.342	5246
846.478	5189
846.614	5041
846.75	4961
846.886	4873
847.022	5102
847.158	4984
847.294	5037
847.429	5105
847.565	5025
847.701	5368
847.837	4866
847.972	4801
848.108	4930
848.244	4889
848.379	4771
848.515	4733
848.65	4694
848.786	4736
848.921	4778
849.057	4908
849.192	4889
849.328	4812
849.463	4847
849.598	4786
849.734	4744
849.869	4675
850.004	4580
850.14	4626
850.275	4611
850.41	4489
850.545	4561
850.68	4596
850.815	4611
850.95	4607
851.085	4839
851.22	4736
851.355	4634
851.49	4561
851.625	4634
851.76	4630
851.895	4516
852.03	4531
852.165	4675
852.299	4679
852.434	4790
852.569	4759
852.703	4740
852.838	4809
852.973	4873
853.107	4881
853.242	4740
853.376	4649
853.511	4584
853.645	4596
853.78	4736
853.914	4679
854.048	4675
854.183	4607
854.317	4660
854.451	4812
854.585	4649
854.72	4592
854.854	4721
854.988	4626
855.122	4645
855.256	4451
855.39	4675
855.524	4782
855.658	4721
855.792	4645
855.926	4664
856.06	4767
856.194	4797
856.327	4645
856.461	4561
856.595	4592
856.729	4603
856.862	4729
856.996	4675
857.13	4656
857.263	4729
857.397	4782
857.53	4592
857.664	4717
857.797	4759
857.931	4748
858.064	4649
858.197	4740
858.331	4611
858.464	4599
858.597	4538
858.731	4550
858.864	4634
858.997	4618
859.13	4626
859.263	4653
859.396	4672
859.529	4535
859.662	4569
859.795	4523
859.928	4641
860.061	4805
860.194	4774
860.327	4599
860.46	4580
860.592	4672
860.725	4702
860.858	4668
860.99	4592
861.123	4516
861.256	4550
861.388	4634
861.521	5311
861.653	4485
861.786	4440
861.918	4459
862.05	4535
862.183	4577
862.315	4592
862.447	4626
862.58	4565
862.712	4424
862.844	4352
862.976	4443
863.108	4470
863.24	4744
863.372	4386
863.504	4466
863.636	4409
863.768	4478
863.9	4409
864.032	4405
864.164	4462
864.296	4519
864.428	4481
864.559	4569
864.691	4527
864.823	4512
864.954	4497
865.086	4546
865.217	4504
865.349	4447
865.48	4478
865.612	4504
865.743	4675
865.875	4512
866.006	4428
866.137	4478
866.269	4470
866.4	4466
866.531	4421
866.662	4428
866.793	4413
866.924	4447
867.055	4474
867.186	4500
867.317	4466
867.448	4470
867.579	4424
867.71	4440
867.841	4421
867.972	4466
868.103	4519
868.233	4485
868.364	4489
868.495	4519
868.625	4691
868.756	4881
868.886	4664
869.017	4637
869.147	4809
869.278	4824
869.408	4702
869.539	4691
869.669	4801
869.799	4702
869.929	4774
870.06	4782
870.19	4953
870.32	4946
870.45	4938
870.58	5018
870.71	5109
870.84	5117
870.97	4987
871.1	4946
871.23	5162
871.36	5170
871.489	5033
871.619	5075
871.749	5105
871.879	5193
872.008	5193
872.138	5079
872.267	5029
872.397	4896
872.526	4820
872.656	4755
872.785	4858
872.915	4961
873.044	5064
873.173	4980
873.303	4980
873.432	5018
873.561	4957
873.69	4930
873.819	4908
873.948	4946
874.077	4839
874.206	4801
874.335	4790
874.464	4942
874.593	5075
874.722	4949
874.851	5102
874.979	5098
875.108	5064
875.237	4972
875.365	4919
875.494	4930
875.623	4908
875.751	4831
875.88	4892
876.008	4991
876.136	5090
876.265	5197
876.393	5391
876.521	5254
876.65	5265
876.778	5204
876.906	5090
877.034	5060
877.162	5064
877.29	5025
877.418	5067
877.546	5060
877.674	5056
877.802	5067
877.93	5018
878.058	4938
878.185	4889
878.313	4957
878.441	4892
878.568	4847
878.696	4870
878.824	4965
878.951	4991
879.079	5162
879.206	5315
879.333	5098
879.461	4999
879.588	4995
879.715	5128
879.842	5239
879.97	5010
880.097	4786
880.224	4793
880.351	4850
880.478	4862
880.605	4801
880.732	4816
880.859	5086
880.986	4930
881.112	4927
881.239	4828
881.366	4683
881.493	4668
881.619	4561
881.746	4687
881.872	4656
881.999	4710
882.125	4736
882.252	4809
882.378	4839
882.505	4965
882.631	4816
882.757	4694
882.883	4759
883.01	4744
883.136	4694
883.262	4637
883.388	4649
883.514	4828
883.64	4835
883.766	4797
883.892	4710
884.018	4782
884.143	4908
884.269	5037
884.395	4698
884.52	4710
884.646	4683
884.772	4634
884.897	4637
885.023	4687
885.148	4801
885.274	4900
885.399	4847
885.524	4721
885.65	4698
885.775	4778
885.9	4759
886.025	4870
886.15	4797
886.275	4733
886.4	4717
886.525	4717
886.65	4706
886.775	4744
886.9	4961
887.025	5121
887.149	4824
887.274	4672
887.399	4622
887.523	4626
887.648	4573
887.773	4653
887.897	4744
888.021	4839
888.146	4717
888.27	4843
888.395	4942
888.519	4835
888.643	4812
888.767	4896
888.891	4694
889.015	4664
889.139	4706
889.263	4603
889.387	4763
889.511	4908
889.635	4778
889.759	4656
889.883	4691
890.006	4752
890.13	4831
890.254	4641
890.377	4702
890.501	4558
890.624	4561
890.748	4736
890.871	4577
890.995	4459
891.118	4356
891.241	4516
891.364	4538
891.488	4660
891.611	4516
891.734	4523
891.857	4622
891.98	4550
892.103	4660
892.226	4603
892.349	4493
892.471	4421
892.594	4584
892.717	4618
892.839	4580
892.962	4588
893.085	4710
893.207	4588
893.33	4466
893.452	4580
893.575	4691
893.697	4622
893.819	4839
893.941	4850
894.064	4831
894.186	4637
894.308	4573
894.43	4740
894.552	4816
894.674	4797
894.796	4588
894.918	4630
895.04	4603
895.161	4706
895.283	4683
895.405	4592
895.526	4615
895.648	4683
895.769	4733
895.891	4763
896.012	4729
896.134	4717
896.255	4736
896.376	4622
896.498	4599
896.619	4706
896.74	4592
896.861	4672
896.982	4942
897.103	5098
897.224	4835
897.345	4763
897.466	4698
897.587	4771
897.708	4930
897.828	4809
897.949	4706
898.07	4596
898.19	4668
898.311	4839
898.431	4748
898.552	4736
898.672	4885
898.792	4854
898.913	4767
899.033	4672
899.153	4577
899.273	4413
899.393	4561
899.513	4538
899.633	4546
899.753	4523
899.873	4561
899.993	4592
900.113	4542
900.232	4622
900.352	4527
900.472	4512
900.591	4413
900.711	4512
900.83	4500
900.95	4668
901.069	4687
901.189	4561
901.308	4428
901.427	4363
901.546	4360
901.665	4504
901.784	4565
901.904	4447
902.023	4379
902.141	4219
902.26	4188
902.379	4341
902.498	4306
902.617	4268
902.735	4432
902.854	4451
902.973	4360
903.091	4265
903.21	4238
903.328	4303
903.446	4268
903.565	4284
903.683	4409
903.801	4314
903.919	4413
904.038	4500
904.156	4325
904.274	4447
904.392	4413
904.51	4375
904.627	4478
904.745	4615
904.863	4653
904.981	4432
905.098	4303
905.216	4386
905.334	4428
905.451	4443
905.569	4443
905.686	4569
905.803	4615
905.921	4394
906.038	4561
906.155	4497
906.272	4363
906.389	4459
906.506	4413
906.623	4432
906.74	4409
906.857	4337
906.974	4424
907.091	4615
907.208	4721
907.324	4656
907.441	4489
907.557	4360
907.674	4371
907.79	4333
907.907	4390
908.023	4519
908.139	4497
908.256	4474
908.372	4478
908.488	4451
908.604	4314
908.72	4386
908.836	4443
908.952	4325
909.068	4417
909.184	4584
909.3	4512
909.415	4607
909.531	4596
909.647	4394
909.762	4363
909.878	4325
909.993	4440
910.108	4402
910.224	4443
910.339	4519
910.454	4474
910.57	4371
910.685	4303
910.8	4672
910.915	4592
911.03	4466
911.145	4318
911.259	4356
911.374	4375
911.489	4318
911.604	4333
911.718	4230
911.833	4207
911.947	4078
912.062	4040
912.176	4223
912.291	4249
912.405	4261
912.519	4451
912.633	4523
912.748	4379
912.862	4322
912.976	4173
913.09	4105
913.204	4230
913.318	4268
913.431	4409
913.545	4413
913.659	4474
913.772	4344
913.886	4295
914	4272
914.113	4344
914.226	4462
914.34	4394
914.453	4242
914.566	4440
914.68	4272
914.793	4295
914.906	4177
915.019	4128
915.132	4116
915.245	4211
915.358	4230
915.47	4246
915.583	4227
915.696	4333
915.809	4394
915.921	4405
916.034	4257
916.146	4249
916.259	4268
916.371	4409
916.483	4413
916.595	4318
916.708	4341
916.82	4352
916.932	4367
917.044	4329
917.156	4310
917.268	4253
917.38	4249
917.491	4257
917.603	4341
917.715	4432
917.826	4443
917.938	4375
918.049	4280
918.161	4424
918.272	4565
918.384	4512
918.495	4508
918.606	4299
918.717	4242
918.828	4348
918.939	4386
919.05	4253
919.161	4329
919.272	4150
919.383	4223
919.494	4455
919.604	4637
919.715	4459
919.826	4329
919.936	4383
920.047	4485
920.157	4485
920.267	4710
920.378	4542
920.488	4508
920.598	4778
920.708	4919
920.818	4759
920.928	4767
921.038	4965
921.148	4850
921.258	4618
921.368	4584
921.477	4512
921.587	4474
921.697	4405
921.806	4523
921.916	4402
922.025	4318
922.134	4276
922.244	4272
922.353	4306
922.462	4188
922.571	4139
922.68	4048
922.789	3972
922.898	4044
923.007	4006
923.116	4097
923.224	4090
923.333	4116
923.442	4002
923.55	3945
923.659	4029
923.767	4112
923.876	4032
923.984	4071
924.092	3956
924.201	4109
924.309	4112
924.417	4101
924.525	4067
924.633	4097
924.741	4915
924.849	3918
924.956	4112
925.064	3972
925.172	3873
925.279	3953
925.387	4040
925.494	4036
925.602	4227
925.709	4185
925.816	4036
925.924	4162
926.031	4230
926.138	4169
926.245	4188
926.352	4135
926.459	4284
926.566	4295
926.673	4192
926.779	4086
926.886	4059
926.993	3998
927.099	3983
927.206	3941
927.312	3926
927.419	4055
927.525	4029
927.631	4063
927.737	3972
927.843	3930
927.95	3816
928.056	3941
928.162	3994
928.267	4063
928.373	4596
928.479	4158
928.585	3888
928.69	4067
928.796	4090
928.901	4002
929.007	3846
929.112	4010
929.218	3991
929.323	3953
929.428	3987
929.533	4109
929.638	3915
929.743	3975
929.848	4063
929.953	4013
930.058	3934
930.163	3819
930.267	3854
930.372	4010
930.477	3812
930.581	4124
930.685	3998
930.79	3831
930.894	3918
930.998	3869
931.103	4090
931.207	3751
931.311	3740
931.415	3732
931.519	3542
931.623	3610
