Data from test_V78500241_549.txt Node
Date: Fri Mar 25 16:52:49 CST 2022
User: usil
Spectrometer: V785-0024
Trigger mode: 0
Integration Time (sec): 4.000000E-1
Scans to average: 1
Nonlinearity correction enabled: false
Boxcar width: 0
Storing dark spectrum: false
XAxis mode: Wavelengths
Number of Pixels in Spectrum: 1024
>>>>>Begin Spectral Data<<<<<
801.071	8008
801.214	8005
801.356	7864
801.499	7887
801.641	7795
801.783	7913
801.926	8039
802.068	7963
802.211	7989
802.353	8012
802.496	7940
802.638	8031
802.78	7986
802.923	7879
803.065	7849
803.208	7864
803.35	7963
803.492	8065
803.635	8138
803.777	8035
803.919	8180
804.061	8446
804.204	8138
804.346	8081
804.488	7902
804.63	8077
804.773	8046
804.915	8119
805.057	8267
805.199	8164
805.341	8221
805.483	8275
805.626	8199
805.768	8111
805.91	8161
806.052	8218
806.194	8115
806.336	8286
806.478	8142
806.62	8050
806.762	8202
806.904	8275
807.046	8434
807.188	8374
807.33	8259
807.472	8305
807.614	8199
807.756	8126
807.898	7951
808.04	7887
808.182	7932
808.324	7913
808.465	7898
808.607	8123
808.749	8161
808.891	8286
809.033	8267
809.174	8161
809.316	8058
809.458	8054
809.6	8035
809.741	8043
809.883	7993
810.025	8145
810.166	8092
810.308	7974
810.45	8005
810.591	7917
810.733	7788
810.875	7685
811.016	7537
811.158	7521
811.299	7616
811.441	7738
811.582	7677
811.724	7567
811.865	7514
812.007	7666
812.148	7643
812.29	7693
812.431	7803
812.573	7849
812.714	8081
812.855	8130
812.997	8199
813.138	8351
813.279	8248
813.421	8168
813.562	8035
813.703	7921
813.845	7837
813.986	7533
814.127	7388
814.268	7362
814.41	7213
814.551	7095
814.692	7217
814.833	7072
814.974	7088
815.115	7114
815.256	6993
815.397	6981
815.539	7015
815.68	6856
815.821	6779
815.962	6882
816.103	6894
816.244	6738
816.385	6601
816.526	6669
816.666	6566
816.807	6327
816.948	6471
817.089	6490
817.23	6506
817.371	6399
817.512	6410
817.653	6361
817.793	6399
817.934	6433
818.075	6467
818.216	6369
818.356	6418
818.497	6258
818.638	6163
818.778	6091
818.919	6136
819.06	6182
819.2	6315
819.341	6319
819.481	6350
819.622	6483
819.762	6738
819.903	6677
820.043	6631
820.184	6547
820.324	6616
820.465	6711
820.605	6593
820.746	6604
820.886	6525
821.026	6642
821.167	6669
821.307	6776
821.447	6730
821.588	6646
821.728	6574
821.868	6506
822.008	6365
822.149	6410
822.289	6372
822.429	6117
822.569	6083
822.709	6171
822.849	5923
822.99	5942
823.13	5916
823.27	5912
823.41	5832
823.55	5779
823.69	5722
823.83	5764
823.97	5707
824.11	5505
824.25	5566
824.389	5509
824.529	5581
824.669	5539
824.809	5695
824.949	5638
825.089	5642
825.228	5596
825.368	5376
825.508	5326
825.648	5387
825.787	5391
825.927	5376
826.067	5242
826.206	5353
826.346	5395
826.485	5387
826.625	5436
826.765	5505
826.904	5455
827.044	5246
827.183	5201
827.323	5113
827.462	5265
827.601	5197
827.741	5216
827.88	5220
828.02	5102
828.159	5242
828.298	5280
828.437	5341
828.577	5349
828.716	5493
828.855	5311
828.994	5140
829.134	5159
829.273	5227
829.412	5170
829.551	5147
829.69	5128
829.829	5181
829.968	5383
830.107	5265
830.246	5326
830.385	5155
830.524	5178
830.663	5064
830.802	4987
830.941	4919
831.08	4885
831.219	4965
831.357	4976
831.496	5132
831.635	4972
831.774	4881
831.913	4858
832.051	4767
832.19	4721
832.329	4866
832.467	4630
832.606	4672
832.744	4687
832.883	4778
833.022	4748
833.16	4809
833.299	4805
833.437	4843
833.576	4816
833.714	4896
833.852	4858
833.991	4889
834.129	4995
834.267	4957
834.406	4923
834.544	5010
834.682	4987
834.821	5006
834.959	5162
835.097	4999
835.235	5143
835.373	5075
835.511	5086
835.65	5071
835.788	5010
835.926	4881
836.064	4850
836.202	4892
836.34	5159
836.478	5227
836.615	5208
836.753	5174
836.891	5315
837.029	5246
837.167	5181
837.305	5147
837.443	5140
837.58	5071
837.718	5201
837.856	5140
837.993	5102
838.131	5193
838.269	5193
838.406	5193
838.544	5174
838.681	5060
838.819	5022
838.956	4908
839.094	4942
839.231	5010
839.369	5060
839.506	5417
839.643	5277
839.781	5064
839.918	4995
840.055	5083
840.193	5136
840.33	5105
840.467	5113
840.604	5185
840.742	5478
840.879	5109
841.016	5113
841.153	5170
841.29	5345
841.427	5315
841.564	5368
841.701	5353
841.838	5254
841.975	5242
842.112	5288
842.249	5189
842.385	5102
842.522	5364
842.659	5159
842.796	5151
842.933	5216
843.069	5113
843.206	5166
843.343	5250
843.479	5296
843.616	5326
843.752	5048
843.889	5022
844.025	5277
844.162	4999
844.298	5201
844.435	5086
844.571	5090
844.708	5254
844.844	5349
844.98	5334
845.117	5277
845.253	5067
845.389	5098
845.525	5159
845.661	5178
845.798	5086
845.934	5155
846.07	5029
846.206	5197
846.342	5265
846.478	5189
846.614	5048
846.75	4999
846.886	4923
847.022	5143
847.158	5045
847.294	5052
847.429	5113
847.565	5048
847.701	5376
847.837	4847
847.972	4824
848.108	4999
848.244	4908
848.379	4793
848.515	4698
848.65	4721
848.786	4759
848.921	4809
849.057	4877
849.192	4942
849.328	4820
849.463	4847
849.598	4790
849.734	4759
849.869	4683
850.004	4592
850.14	4664
850.275	4630
850.41	4554
850.545	4596
850.68	4588
850.815	4649
850.95	4668
851.085	4850
851.22	4767
851.355	4675
851.49	4592
851.625	4679
851.76	4649
851.895	4584
852.03	4531
852.165	4649
852.299	4714
852.434	4759
852.569	4740
852.703	4740
852.838	4870
852.973	4976
853.107	4911
853.242	4710
853.376	4694
853.511	4588
853.645	4596
853.78	4771
853.914	4748
854.048	4675
854.183	4649
854.317	4721
854.451	4900
854.585	4675
854.72	4618
854.854	4786
854.988	4569
855.122	4649
855.256	4493
855.39	4645
855.524	4797
855.658	4733
855.792	4675
855.926	4717
856.06	4801
856.194	4786
856.327	4698
856.461	4607
856.595	4611
856.729	4599
856.862	4771
856.996	4683
857.13	4687
857.263	4805
857.397	4801
857.53	4664
857.664	4710
857.797	4752
857.931	4782
858.064	4706
858.197	4778
858.331	4664
858.464	4634
858.597	4573
858.731	4649
858.864	4630
858.997	4565
859.13	4656
859.263	4664
859.396	4694
859.529	4577
859.662	4603
859.795	4550
859.928	4634
860.061	4744
860.194	4774
860.327	4607
860.46	4554
860.592	4694
860.725	4691
860.858	4702
860.99	4573
861.123	4535
861.256	4523
861.388	4580
861.521	5425
861.653	4504
861.786	4421
861.918	4474
862.05	4527
862.183	4527
862.315	4558
862.447	4626
862.58	4573
862.712	4394
862.844	4299
862.976	4478
863.108	4462
863.24	4904
863.372	4306
863.504	4386
863.636	4424
863.768	4527
863.9	4443
864.032	4348
864.164	4386
864.296	4470
864.428	4573
864.559	4588
864.691	4561
864.823	4493
864.954	4462
865.086	4481
865.217	4500
865.349	4440
865.48	4455
865.612	4481
865.743	4630
865.875	4455
866.006	4394
866.137	4443
866.269	4470
866.4	4405
866.531	4424
866.662	4409
866.793	4386
866.924	4405
867.055	4459
867.186	4481
867.317	4417
867.448	4402
867.579	4402
867.71	4386
867.841	4390
867.972	4466
868.103	4413
868.233	4417
868.364	4421
868.495	4485
868.625	4672
868.756	4782
868.886	4596
869.017	4630
869.147	4721
869.278	4767
869.408	4687
869.539	4637
869.669	4698
869.799	4660
869.929	4778
870.06	4759
870.19	4889
870.32	4892
870.45	4923
870.58	4999
870.71	5109
870.84	5094
870.97	4900
871.1	4927
871.23	5151
871.36	5105
871.489	5022
871.619	5052
871.749	5075
871.879	5143
872.008	5189
872.138	5064
872.267	5006
872.397	4816
872.526	4828
872.656	4733
872.785	4816
872.915	4923
873.044	4991
873.173	4961
873.303	4972
873.432	4976
873.561	4938
873.69	4858
873.819	4885
873.948	4862
874.077	4820
874.206	4740
874.335	4809
874.464	4953
874.593	5052
874.722	4927
874.851	5136
874.979	5048
875.108	5022
875.237	4946
875.365	4831
875.494	4858
875.623	4976
875.751	4793
875.88	4839
876.008	4980
876.136	4980
876.265	5239
876.393	5353
876.521	5231
876.65	5174
876.778	5105
876.906	5060
877.034	5006
877.162	5056
877.29	4976
877.418	5067
877.546	5048
877.674	5041
877.802	5052
877.93	4980
878.058	4942
878.185	4919
878.313	4953
878.441	4972
878.568	4774
878.696	4889
878.824	4911
878.951	4976
879.079	5109
879.206	5250
879.333	5121
879.461	4984
879.588	4965
879.715	5197
879.842	5231
879.97	5025
880.097	4752
880.224	4729
880.351	4778
880.478	4873
880.605	4736
880.732	4877
880.859	5086
880.986	4900
881.112	4904
881.239	4771
881.366	4645
881.493	4580
881.619	4546
881.746	4626
881.872	4683
881.999	4656
882.125	4691
882.252	4782
882.378	4824
882.505	4915
882.631	4820
882.757	4656
882.883	4714
883.01	4683
883.136	4679
883.262	4577
883.388	4611
883.514	4831
883.64	4870
883.766	4782
883.892	4694
884.018	4729
884.143	4904
884.269	4987
884.395	4653
884.52	4630
884.646	4645
884.772	4588
884.897	4523
885.023	4683
885.148	4786
885.274	4839
885.399	4816
885.524	4656
885.65	4706
885.775	4733
885.9	4717
886.025	4824
886.15	4809
886.275	4744
886.4	4679
886.525	4702
886.65	4691
886.775	4645
886.9	4889
887.025	5056
887.149	4873
887.274	4641
887.399	4599
887.523	4611
887.648	4607
887.773	4535
887.897	4759
888.021	4786
888.146	4725
888.27	4828
888.395	4889
888.519	4805
888.643	4790
888.767	4824
888.891	4645
889.015	4626
889.139	4683
889.263	4588
889.387	4782
889.511	4847
889.635	4866
889.759	4668
889.883	4660
890.006	4744
890.13	4858
890.254	4641
890.377	4679
890.501	4561
890.624	4527
890.748	4615
890.871	4516
890.995	4459
891.118	4383
891.241	4489
891.364	4538
891.488	4615
891.611	4504
891.734	4519
891.857	4592
891.98	4592
892.103	4679
892.226	4592
892.349	4588
892.471	4424
892.594	4580
892.717	4607
892.839	4615
892.962	4607
893.085	4618
893.207	4622
893.33	4451
893.452	4523
893.575	4649
893.697	4611
893.819	4793
893.941	4805
894.064	4740
894.186	4550
894.308	4558
894.43	4744
894.552	4820
894.674	4752
894.796	4485
894.918	4634
895.04	4565
895.161	4675
895.283	4645
895.405	4580
895.526	4611
895.648	4656
895.769	4733
895.891	4702
896.012	4683
896.134	4752
896.255	4626
896.376	4664
896.498	4607
896.619	4729
896.74	4630
896.861	4618
896.982	4957
897.103	5075
897.224	4828
897.345	4744
897.466	4679
897.587	4748
897.708	4892
897.828	4771
897.949	4622
898.07	4546
898.19	4599
898.311	4793
898.431	4634
898.552	4771
898.672	4790
898.792	4774
898.913	4755
899.033	4622
899.153	4459
899.273	4417
899.393	4535
899.513	4481
899.633	4523
899.753	4500
899.873	4504
899.993	4573
900.113	4577
900.232	4561
900.352	4516
900.472	4459
900.591	4352
900.711	4443
900.83	4478
900.95	4554
901.069	4717
901.189	4527
901.308	4341
901.427	4360
901.546	4375
901.665	4443
901.784	4519
901.904	4375
902.023	4303
902.141	4173
902.26	4204
902.379	4234
902.498	4314
902.617	4268
902.735	4356
902.854	4421
902.973	4367
903.091	4211
903.21	4265
903.328	4280
903.446	4265
903.565	4223
903.683	4341
903.801	4284
903.919	4436
904.038	4424
904.156	4348
904.274	4405
904.392	4405
904.51	4402
904.627	4493
904.745	4584
904.863	4599
904.981	4413
905.098	4299
905.216	4337
905.334	4413
905.451	4413
905.569	4455
905.686	4519
905.803	4565
905.921	4363
906.038	4577
906.155	4443
906.272	4379
906.389	4478
906.506	4322
906.623	4398
906.74	4379
906.857	4291
906.974	4367
907.091	4550
907.208	4630
907.324	4573
907.441	4508
907.557	4306
907.674	4341
907.79	4333
907.907	4405
908.023	4455
908.139	4462
908.256	4474
908.372	4443
908.488	4493
908.604	4383
908.72	4291
908.836	4356
908.952	4375
909.068	4447
909.184	4554
909.3	4500
909.415	4569
909.531	4565
909.647	4329
909.762	4386
909.878	4356
909.993	4417
910.108	4424
910.224	4436
910.339	4432
910.454	4348
910.57	4348
910.685	4303
910.8	4649
910.915	4615
911.03	4470
911.145	4341
911.259	4329
911.374	4375
911.489	4280
911.604	4318
911.718	4154
911.833	4227
911.947	4055
912.062	4051
912.176	4219
912.291	4234
912.405	4246
912.519	4497
912.633	4478
912.748	4371
912.862	4333
912.976	4219
913.09	4082
913.204	4211
913.318	4257
913.431	4344
913.545	4383
913.659	4421
913.772	4333
913.886	4223
914	4230
914.113	4390
914.226	4455
914.34	4394
914.453	4291
914.566	4428
914.68	4318
914.793	4310
914.906	4143
915.019	4131
915.132	4086
915.245	4200
915.358	4207
915.47	4238
915.583	4287
915.696	4341
915.809	4402
915.921	4375
916.034	4261
916.146	4268
916.259	4299
916.371	4352
916.483	4383
916.595	4272
916.708	4325
916.82	4318
916.932	4341
917.044	4333
917.156	4375
917.268	4215
917.38	4280
917.491	4287
917.603	4379
917.715	4440
917.826	4462
917.938	4360
918.049	4268
918.161	4432
918.272	4535
918.384	4523
918.495	4523
918.606	4329
918.717	4253
918.828	4325
918.939	4360
919.05	4246
919.161	4341
919.272	4169
919.383	4246
919.494	4413
919.604	4607
919.715	4386
919.826	4390
919.936	4409
920.047	4546
920.157	4512
920.267	4710
920.378	4558
920.488	4504
920.598	4691
920.708	4919
920.818	4691
920.928	4748
921.038	4953
921.148	4927
921.258	4592
921.368	4527
921.477	4493
921.587	4459
921.697	4402
921.806	4561
921.916	4500
922.025	4268
922.134	4265
922.244	4188
922.353	4348
922.462	4158
922.571	4150
922.68	4040
922.789	3975
922.898	4051
923.007	4017
923.116	4097
923.224	4055
923.333	4090
923.442	3983
923.55	3991
923.659	3968
923.767	4135
923.876	3987
923.984	4139
924.092	3991
924.201	4109
924.309	4082
924.417	4154
924.525	4078
924.633	4177
924.741	5033
924.849	3888
924.956	4177
925.064	3930
925.172	3922
925.279	3964
925.387	4086
925.494	4090
925.602	4166
925.709	4166
925.816	4048
925.924	4158
926.031	4211
926.138	4143
926.245	4227
926.352	4124
926.459	4280
926.566	4337
926.673	4162
926.779	4071
926.886	4097
926.993	3998
927.099	3964
927.206	3911
927.312	3930
927.419	4048
927.525	4036
927.631	4097
927.737	3964
927.843	3949
927.95	3846
928.056	3941
928.162	3964
928.267	4067
928.373	4660
928.479	4139
928.585	3892
928.69	4036
928.796	4074
928.901	3994
929.007	3854
929.112	4048
929.218	4006
929.323	3956
929.428	3945
929.533	4147
929.638	3918
929.743	3972
929.848	4082
929.953	4013
930.058	3941
930.163	3751
930.267	3831
930.372	3972
930.477	3819
930.581	4105
930.685	3930
930.79	3831
930.894	3869
930.998	3876
931.103	4044
931.207	3720
931.311	3682
931.415	3633
931.519	3523
931.623	3564
