Data from test_V78500241_1437.txt Node
Date: Fri Mar 25 16:58:59 CST 2022
User: usil
Spectrometer: V785-0024
Trigger mode: 0
Integration Time (sec): 4.000000E-1
Scans to average: 1
Nonlinearity correction enabled: false
Boxcar width: 0
Storing dark spectrum: false
XAxis mode: Wavelengths
Number of Pixels in Spectrum: 1024
>>>>>Begin Spectral Data<<<<<
801.071	8039
801.214	8058
801.356	7871
801.499	7894
801.641	7788
801.783	7807
801.926	7978
802.068	7959
802.211	7986
802.353	7963
802.496	7879
802.638	7894
802.78	7921
802.923	7932
803.065	7921
803.208	7845
803.35	7982
803.492	8103
803.635	8176
803.777	8081
803.919	8183
804.061	8495
804.204	8107
804.346	8088
804.488	7997
804.63	8142
804.773	8058
804.915	8111
805.057	8298
805.199	8221
805.341	8191
805.483	8313
805.626	8240
805.768	8107
805.91	8180
806.052	8259
806.194	8123
806.336	8282
806.478	8069
806.62	8008
806.762	8115
806.904	8199
807.046	8442
807.188	8305
807.33	8317
807.472	8320
807.614	8134
807.756	8134
807.898	7967
808.04	7963
808.182	7902
808.324	7913
808.465	7940
808.607	8176
808.749	8130
808.891	8187
809.033	8286
809.174	8134
809.316	8092
809.458	8050
809.6	8027
809.741	8024
809.883	8043
810.025	8062
810.166	8100
810.308	8016
810.45	8001
810.591	7947
810.733	7750
810.875	7620
811.016	7495
811.158	7502
811.299	7639
811.441	7792
811.582	7651
811.724	7624
811.865	7590
812.007	7632
812.148	7563
812.29	7647
812.431	7753
812.573	7852
812.714	7993
812.855	8138
812.997	8191
813.138	8358
813.279	8248
813.421	8111
813.562	8005
813.703	7894
813.845	7811
813.986	7419
814.127	7289
814.268	7263
814.41	7198
814.551	7175
814.692	7244
814.833	7107
814.974	7114
815.115	7088
815.256	7008
815.397	6970
815.539	6909
815.68	6844
815.821	6802
815.962	6840
816.103	6840
816.244	6707
816.385	6582
816.526	6658
816.666	6410
816.807	6342
816.948	6483
817.089	6483
817.23	6448
817.371	6376
817.512	6391
817.653	6395
817.793	6365
817.934	6460
818.075	6517
818.216	6410
818.356	6410
818.497	6289
818.638	6110
818.778	6178
818.919	6102
819.06	6152
819.2	6365
819.341	6315
819.481	6369
819.622	6528
819.762	6684
819.903	6677
820.043	6585
820.184	6525
820.324	6608
820.465	6753
820.605	6772
820.746	6597
820.886	6521
821.026	6654
821.167	6681
821.307	6829
821.447	6795
821.588	6688
821.728	6620
821.868	6498
822.008	6334
822.149	6331
822.289	6372
822.429	6182
822.569	6125
822.709	6140
822.849	5893
822.99	5904
823.13	5923
823.27	5863
823.41	5726
823.55	5863
823.69	5790
823.83	5828
823.97	5608
824.11	5528
824.25	5486
824.389	5577
824.529	5562
824.669	5501
824.809	5699
824.949	5668
825.089	5608
825.228	5585
825.368	5379
825.508	5299
825.648	5421
825.787	5387
825.927	5364
826.067	5345
826.206	5315
826.346	5387
826.485	5364
826.625	5379
826.765	5573
826.904	5425
827.044	5223
827.183	5227
827.323	5121
827.462	5250
827.601	5136
827.741	5166
827.88	5170
828.02	5136
828.159	5250
828.298	5303
828.437	5372
828.577	5280
828.716	5467
828.855	5307
828.994	5140
829.134	5181
829.273	5223
829.412	5155
829.551	5105
829.69	5178
829.829	5288
829.968	5429
830.107	5254
830.246	5292
830.385	5197
830.524	5132
830.663	5090
830.802	4976
830.941	4881
831.08	4866
831.219	4934
831.357	4957
831.496	5166
831.635	4892
831.774	4870
831.913	4831
832.051	4675
832.19	4721
832.329	4877
832.467	4675
832.606	4645
832.744	4714
832.883	4717
833.022	4725
833.16	4782
833.299	4820
833.437	4824
833.576	4854
833.714	4847
833.852	4805
833.991	4915
834.129	4942
834.267	4991
834.406	4915
834.544	4968
834.682	4968
834.821	4930
834.959	5132
835.097	5006
835.235	5121
835.373	5086
835.511	5105
835.65	5041
835.788	5006
835.926	4930
836.064	4892
836.202	4892
836.34	5162
836.478	5254
836.615	5105
836.753	5223
836.891	5280
837.029	5189
837.167	5201
837.305	5113
837.443	5178
837.58	5090
837.718	5284
837.856	5166
837.993	5178
838.131	5246
838.269	5193
838.406	5159
838.544	5201
838.681	4995
838.819	5006
838.956	4885
839.094	4873
839.231	5022
839.369	5056
839.506	5402
839.643	5223
839.781	5048
839.918	5025
840.055	5109
840.193	5124
840.33	5121
840.467	5197
840.604	5181
840.742	5429
840.879	5037
841.016	5086
841.153	5212
841.29	5395
841.427	5383
841.564	5311
841.701	5322
841.838	5284
841.975	5220
842.112	5261
842.249	5143
842.385	5124
842.522	5326
842.659	5208
842.796	5155
842.933	5181
843.069	5166
843.206	5189
843.343	5311
843.479	5235
843.616	5307
843.752	5033
843.889	4968
844.025	5235
844.162	5033
844.298	5208
844.435	5121
844.571	5037
844.708	5197
844.844	5337
844.98	5311
845.117	5250
845.253	5117
845.389	5098
845.525	5132
845.661	5155
845.798	5006
845.934	5121
846.07	5048
846.206	5197
846.342	5269
846.478	5147
846.614	4972
846.75	4991
846.886	4938
847.022	5178
847.158	5052
847.294	5014
847.429	5075
847.565	5060
847.701	5334
847.837	4873
847.972	4824
848.108	4919
848.244	4934
848.379	4797
848.515	4752
848.65	4698
848.786	4752
848.921	4759
849.057	4896
849.192	4885
849.328	4759
849.463	4831
849.598	4809
849.734	4725
849.869	4691
850.004	4672
850.14	4668
850.275	4592
850.41	4523
850.545	4573
850.68	4653
850.815	4622
850.95	4641
851.085	4889
851.22	4759
851.355	4656
851.49	4592
851.625	4656
851.76	4656
851.895	4565
852.03	4607
852.165	4672
852.299	4740
852.434	4763
852.569	4702
852.703	4793
852.838	4862
852.973	4930
853.107	4961
853.242	4664
853.376	4706
853.511	4550
853.645	4573
853.78	4862
853.914	4691
854.048	4714
854.183	4634
854.317	4675
854.451	4847
854.585	4694
854.72	4618
854.854	4721
854.988	4596
855.122	4687
855.256	4481
855.39	4672
855.524	4782
855.658	4736
855.792	4740
855.926	4763
856.06	4752
856.194	4801
856.327	4660
856.461	4630
856.595	4580
856.729	4615
856.862	4767
856.996	4702
857.13	4721
857.263	4771
857.397	4801
857.53	4622
857.664	4698
857.797	4763
857.931	4748
858.064	4649
858.197	4710
858.331	4630
858.464	4634
858.597	4523
858.731	4634
858.864	4698
858.997	4577
859.13	4668
859.263	4668
859.396	4691
859.529	4550
859.662	4577
859.795	4497
859.928	4615
860.061	4763
860.194	4740
860.327	4637
860.46	4588
860.592	4729
860.725	4725
860.858	4793
860.99	4546
861.123	4478
861.256	4523
861.388	4626
861.521	5410
861.653	4466
861.786	4409
861.918	4470
862.05	4497
862.183	4512
862.315	4596
862.447	4664
862.58	4538
862.712	4398
862.844	4272
862.976	4485
863.108	4462
863.24	4870
863.372	4306
863.504	4417
863.636	4383
863.768	4504
863.9	4432
864.032	4371
864.164	4436
864.296	4440
864.428	4565
864.559	4519
864.691	4527
864.823	4500
864.954	4493
865.086	4516
865.217	4512
865.349	4405
865.48	4432
865.612	4519
865.743	4603
865.875	4493
866.006	4428
866.137	4462
866.269	4383
866.4	4455
866.531	4379
866.662	4325
866.793	4432
866.924	4428
867.055	4466
867.186	4470
867.317	4447
867.448	4360
867.579	4428
867.71	4363
867.841	4348
867.972	4462
868.103	4405
868.233	4451
868.364	4428
868.495	4478
868.625	4679
868.756	4733
868.886	4577
869.017	4596
869.147	4771
869.278	4793
869.408	4679
869.539	4611
869.669	4736
869.799	4649
869.929	4786
870.06	4729
870.19	4946
870.32	4949
870.45	4919
870.58	5025
870.71	5083
870.84	5006
870.97	4972
871.1	4881
871.23	5124
871.36	5159
871.489	5018
871.619	5029
871.749	5094
871.879	5105
872.008	5166
872.138	4961
872.267	4965
872.397	4839
872.526	4816
872.656	4706
872.785	4835
872.915	4889
873.044	4984
873.173	4953
873.303	4972
873.432	4961
873.561	4938
873.69	4858
873.819	4809
873.948	4949
874.077	4843
874.206	4755
874.335	4809
874.464	4904
874.593	5033
874.722	4946
874.851	5075
874.979	5083
875.108	4938
875.237	4839
875.365	4850
875.494	4854
875.623	4984
875.751	4828
875.88	4862
876.008	4984
876.136	5025
876.265	5231
876.393	5269
876.521	5296
876.65	5235
876.778	5174
876.906	5071
877.034	5010
877.162	5029
877.29	4957
877.418	5045
877.546	5018
877.674	5048
877.802	5048
877.93	5037
878.058	4953
878.185	4854
878.313	4942
878.441	5025
878.568	4748
878.696	4892
878.824	4976
878.951	4968
879.079	5102
879.206	5322
879.333	5147
879.461	5006
879.588	4957
879.715	5083
879.842	5181
879.97	4980
880.097	4805
880.224	4786
880.351	4793
880.478	4816
880.605	4767
880.732	4782
880.859	5022
880.986	4862
881.112	4904
881.239	4771
881.366	4679
881.493	4622
881.619	4569
881.746	4599
881.872	4637
881.999	4645
882.125	4691
882.252	4755
882.378	4835
882.505	4904
882.631	4733
882.757	4683
882.883	4714
883.01	4717
883.136	4679
883.262	4626
883.388	4618
883.514	4839
883.64	4862
883.766	4850
883.892	4592
884.018	4736
884.143	4805
884.269	4949
884.395	4664
884.52	4630
884.646	4637
884.772	4569
884.897	4584
885.023	4599
885.148	4805
885.274	4866
885.399	4816
885.524	4752
885.65	4645
885.775	4744
885.9	4679
886.025	4790
886.15	4774
886.275	4744
886.4	4653
886.525	4714
886.65	4664
886.775	4622
886.9	4885
887.025	5010
887.149	4706
887.274	4668
887.399	4611
887.523	4577
887.648	4546
887.773	4577
887.897	4717
888.021	4786
888.146	4698
888.27	4820
888.395	4889
888.519	4767
888.643	4805
888.767	4820
888.891	4637
889.015	4603
889.139	4611
889.263	4569
889.387	4706
889.511	4911
889.635	4755
889.759	4645
889.883	4618
890.006	4736
890.13	4812
890.254	4561
890.377	4694
890.501	4538
890.624	4546
890.748	4645
890.871	4554
890.995	4405
891.118	4337
891.241	4542
891.364	4558
891.488	4645
891.611	4478
891.734	4550
891.857	4599
891.98	4558
892.103	4660
892.226	4569
892.349	4558
892.471	4451
892.594	4565
892.717	4596
892.839	4519
892.962	4596
893.085	4637
893.207	4561
893.33	4421
893.452	4481
893.575	4615
893.697	4542
893.819	4714
893.941	4786
894.064	4736
894.186	4634
894.308	4561
894.43	4710
894.552	4809
894.674	4717
894.796	4538
894.918	4607
895.04	4611
895.161	4717
895.283	4664
895.405	4527
895.526	4660
895.648	4702
895.769	4687
895.891	4687
896.012	4729
896.134	4702
896.255	4675
896.376	4626
896.498	4641
896.619	4626
896.74	4561
896.861	4634
896.982	4946
897.103	5067
897.224	4850
897.345	4717
897.466	4645
897.587	4763
897.708	4839
897.828	4771
897.949	4679
898.07	4565
898.19	4683
898.311	4843
898.431	4626
898.552	4733
898.672	4820
898.792	4820
898.913	4706
899.033	4573
899.153	4519
899.273	4413
899.393	4516
899.513	4519
899.633	4500
899.753	4535
899.873	4474
899.993	4580
900.113	4485
900.232	4584
900.352	4519
900.472	4470
900.591	4447
900.711	4493
900.83	4413
900.95	4561
901.069	4691
901.189	4546
901.308	4371
901.427	4333
901.546	4413
901.665	4504
901.784	4569
901.904	4363
902.023	4352
902.141	4211
902.26	4150
902.379	4299
902.498	4238
902.617	4219
902.735	4306
902.854	4394
902.973	4314
903.091	4230
903.21	4272
903.328	4299
903.446	4219
903.565	4261
903.683	4333
903.801	4276
903.919	4447
904.038	4413
904.156	4265
904.274	4428
904.392	4405
904.51	4451
904.627	4455
904.745	4615
904.863	4649
904.981	4379
905.098	4333
905.216	4375
905.334	4424
905.451	4447
905.569	4440
905.686	4493
905.803	4561
905.921	4379
906.038	4497
906.155	4462
906.272	4375
906.389	4455
906.506	4386
906.623	4383
906.74	4356
906.857	4333
906.974	4394
907.091	4569
907.208	4645
907.324	4573
907.441	4481
907.557	4337
907.674	4367
907.79	4318
907.907	4363
908.023	4497
908.139	4470
908.256	4417
908.372	4432
908.488	4432
908.604	4360
908.72	4303
908.836	4352
908.952	4367
909.068	4421
909.184	4577
909.3	4489
909.415	4569
909.531	4550
909.647	4341
909.762	4337
909.878	4322
909.993	4459
910.108	4432
910.224	4436
910.339	4470
910.454	4462
910.57	4363
910.685	4268
910.8	4653
910.915	4584
911.03	4504
911.145	4306
911.259	4314
911.374	4371
911.489	4280
911.604	4253
911.718	4139
911.833	4230
911.947	4059
912.062	3994
912.176	4188
912.291	4280
912.405	4276
912.519	4470
912.633	4535
912.748	4375
912.862	4322
912.976	4257
913.09	4112
913.204	4200
913.318	4215
913.431	4337
913.545	4379
913.659	4421
913.772	4363
913.886	4265
914	4185
914.113	4367
914.226	4432
914.34	4375
914.453	4234
914.566	4440
914.68	4280
914.793	4348
914.906	4131
915.019	4143
915.132	4071
915.245	4162
915.358	4200
915.47	4181
915.583	4284
915.696	4276
915.809	4489
915.921	4367
916.034	4265
916.146	4242
916.259	4234
916.371	4367
916.483	4371
916.595	4249
916.708	4341
916.82	4299
916.932	4287
917.044	4356
917.156	4284
917.268	4207
917.38	4306
917.491	4246
917.603	4306
917.715	4459
917.826	4489
917.938	4329
918.049	4284
918.161	4409
918.272	4554
918.384	4466
918.495	4428
918.606	4322
918.717	4219
918.828	4325
918.939	4352
919.05	4215
919.161	4314
919.272	4131
919.383	4177
919.494	4432
919.604	4577
919.715	4424
919.826	4371
919.936	4402
920.047	4519
920.157	4424
920.267	4672
920.378	4599
920.488	4462
920.598	4679
920.708	4831
920.818	4752
920.928	4790
921.038	4927
921.148	4961
921.258	4622
921.368	4584
921.477	4531
921.587	4474
921.697	4341
921.806	4508
921.916	4424
922.025	4287
922.134	4257
922.244	4192
922.353	4314
922.462	4169
922.571	4086
922.68	4021
922.789	3964
922.898	4032
923.007	3945
923.116	4078
923.224	4051
923.333	4044
923.442	3979
923.55	3941
923.659	4013
923.767	4067
923.876	3949
923.984	4128
924.092	3972
924.201	4032
924.309	4078
924.417	4101
924.525	4063
924.633	4093
924.741	5010
924.849	3888
924.956	4082
925.064	3945
925.172	3915
925.279	3991
925.387	4029
925.494	4040
925.602	4177
925.709	4147
925.816	4025
925.924	4097
926.031	4230
926.138	4150
926.245	4185
926.352	4063
926.459	4234
926.566	4295
926.673	4093
926.779	4044
926.886	4017
926.993	3972
927.099	3964
927.206	3918
927.312	3937
927.419	4025
927.525	4051
927.631	4139
927.737	4010
927.843	3960
927.95	3831
928.056	3918
928.162	3937
928.267	4059
928.373	4558
928.479	4124
928.585	3838
928.69	4002
928.796	4051
928.901	3983
929.007	3827
929.112	3987
929.218	3911
929.323	3956
929.428	3960
929.533	4124
929.638	3892
929.743	3949
929.848	4059
929.953	3998
930.058	3918
930.163	3800
930.267	3785
930.372	3960
930.477	3812
930.581	4025
930.685	3956
930.79	3816
930.894	3934
930.998	3850
931.103	4074
931.207	3701
931.311	3698
931.415	3656
931.519	3542
931.623	3542
