Data from test_V78500241_2099.txt Node
Date: Fri Mar 25 17:03:35 CST 2022
User: usil
Spectrometer: V785-0024
Trigger mode: 0
Integration Time (sec): 4.000000E-1
Scans to average: 1
Nonlinearity correction enabled: false
Boxcar width: 0
Storing dark spectrum: false
XAxis mode: Wavelengths
Number of Pixels in Spectrum: 1024
>>>>>Begin Spectral Data<<<<<
801.071	8039
801.214	7925
801.356	7887
801.499	7826
801.641	7795
801.783	7784
801.926	7951
802.068	7807
802.211	7989
802.353	7944
802.496	7887
802.638	7837
802.78	7875
802.923	7826
803.065	7864
803.208	7860
803.35	7974
803.492	8043
803.635	8145
803.777	8020
803.919	8123
804.061	8381
804.204	8199
804.346	8035
804.488	7940
804.63	8126
804.773	7989
804.915	8031
805.057	8290
805.199	8100
805.341	8218
805.483	8214
805.626	8244
805.768	8065
805.91	8191
806.052	8290
806.194	8081
806.336	8279
806.478	8092
806.62	8035
806.762	8168
806.904	8355
807.046	8476
807.188	8355
807.33	8290
807.472	8267
807.614	8107
807.756	8142
807.898	7978
808.04	7830
808.182	7913
808.324	7833
808.465	7852
808.607	7974
808.749	8138
808.891	8157
809.033	8343
809.174	8221
809.316	8073
809.458	8001
809.6	8008
809.741	8001
809.883	7989
810.025	8077
810.166	8020
810.308	8043
810.45	7997
810.591	7849
810.733	7693
810.875	7662
811.016	7426
811.158	7453
811.299	7571
811.441	7670
811.582	7670
811.724	7586
811.865	7529
812.007	7533
812.148	7544
812.29	7609
812.431	7738
812.573	7894
812.714	7959
812.855	8157
812.997	8161
813.138	8309
813.279	8123
813.421	8050
813.562	7921
813.703	7788
813.845	7655
813.986	7403
814.127	7274
814.268	7129
814.41	7209
814.551	7183
814.692	7312
814.833	7046
814.974	7095
815.115	7141
815.256	6954
815.397	6962
815.539	6913
815.68	6818
815.821	6764
815.962	6863
816.103	6772
816.244	6677
816.385	6612
816.526	6612
816.666	6433
816.807	6353
816.948	6422
817.089	6410
817.23	6414
817.371	6334
817.512	6403
817.653	6380
817.793	6342
817.934	6399
818.075	6456
818.216	6418
818.356	6407
818.497	6281
818.638	6140
818.778	6121
818.919	6110
819.06	6121
819.2	6304
819.341	6311
819.481	6319
819.622	6570
819.762	6677
819.903	6665
820.043	6570
820.184	6597
820.324	6559
820.465	6681
820.605	6604
820.746	6589
820.886	6456
821.026	6650
821.167	6772
821.307	6722
821.447	6726
821.588	6623
821.728	6521
821.868	6437
822.008	6300
822.149	6372
822.289	6327
822.429	6155
822.569	6091
822.709	6049
822.849	5885
822.99	5859
823.13	5893
823.27	5920
823.41	5760
823.55	5828
823.69	5764
823.83	5756
823.97	5665
824.11	5539
824.25	5474
824.389	5551
824.529	5581
824.669	5589
824.809	5665
824.949	5634
825.089	5627
825.228	5532
825.368	5337
825.508	5330
825.648	5372
825.787	5383
825.927	5368
826.067	5277
826.206	5318
826.346	5372
826.485	5421
826.625	5372
826.765	5581
826.904	5452
827.044	5227
827.183	5197
827.323	5071
827.462	5239
827.601	5098
827.741	5223
827.88	5216
828.02	5124
828.159	5261
828.298	5311
828.437	5337
828.577	5299
828.716	5474
828.855	5330
828.994	5147
829.134	5132
829.273	5178
829.412	5178
829.551	5105
829.69	5105
829.829	5258
829.968	5280
830.107	5273
830.246	5239
830.385	5155
830.524	5136
830.663	5064
830.802	4976
830.941	4820
831.08	4850
831.219	4999
831.357	4976
831.496	5121
831.635	4915
831.774	4786
831.913	4835
832.051	4702
832.19	4748
832.329	4824
832.467	4687
832.606	4641
832.744	4714
832.883	4736
833.022	4725
833.16	4786
833.299	4831
833.437	4839
833.576	4839
833.714	4873
833.852	4896
833.991	4850
834.129	4953
834.267	4908
834.406	4889
834.544	4968
834.682	4968
834.821	4957
834.959	5128
835.097	4984
835.235	5162
835.373	5136
835.511	5045
835.65	4972
835.788	4984
835.926	4850
836.064	4881
836.202	4877
836.34	5124
836.478	5220
836.615	5102
836.753	5231
836.891	5246
837.029	5269
837.167	5212
837.305	5162
837.443	5102
837.58	5109
837.718	5223
837.856	5227
837.993	5124
838.131	5277
838.269	5242
838.406	5231
838.544	5197
838.681	5113
838.819	5018
838.956	4923
839.094	4938
839.231	4984
839.369	5067
839.506	5440
839.643	5292
839.781	5124
839.918	5056
840.055	5121
840.193	5151
840.33	5124
840.467	5102
840.604	5201
840.742	5467
840.879	5094
841.016	5136
841.153	5162
841.29	5402
841.427	5402
841.564	5303
841.701	5349
841.838	5315
841.975	5269
842.112	5311
842.249	5155
842.385	5117
842.522	5349
842.659	5170
842.796	5151
842.933	5212
843.069	5216
843.206	5162
843.343	5322
843.479	5315
843.616	5349
843.752	5060
843.889	5045
844.025	5284
844.162	5090
844.298	5239
844.435	5132
844.571	5071
844.708	5216
844.844	5372
844.98	5368
845.117	5364
845.253	5124
845.389	5124
845.525	5155
845.661	5174
845.798	5075
845.934	5227
846.07	5045
846.206	5258
846.342	5292
846.478	5197
846.614	5071
846.75	5045
846.886	4934
847.022	5166
847.158	5064
847.294	5094
847.429	5136
847.565	5064
847.701	5395
847.837	4904
847.972	4866
848.108	5052
848.244	4995
848.379	4835
848.515	4774
848.65	4706
848.786	4778
848.921	4809
849.057	4934
849.192	4911
849.328	4797
849.463	4881
849.598	4858
849.734	4831
849.869	4710
850.004	4637
850.14	4702
850.275	4637
850.41	4569
850.545	4561
850.68	4645
850.815	4694
850.95	4637
851.085	4858
851.22	4793
851.355	4721
851.49	4637
851.625	4675
851.76	4679
851.895	4569
852.03	4561
852.165	4649
852.299	4763
852.434	4828
852.569	4793
852.703	4752
852.838	4892
852.973	4949
853.107	4965
853.242	4736
853.376	4710
853.511	4569
853.645	4641
853.78	4835
853.914	4710
854.048	4706
854.183	4672
854.317	4759
854.451	4889
854.585	4656
854.72	4653
854.854	4786
854.988	4592
855.122	4637
855.256	4558
855.39	4717
855.524	4816
855.658	4733
855.792	4778
855.926	4744
856.06	4755
856.194	4812
856.327	4725
856.461	4645
856.595	4634
856.729	4649
856.862	4790
856.996	4721
857.13	4763
857.263	4748
857.397	4847
857.53	4687
857.664	4771
857.797	4801
857.931	4767
858.064	4744
858.197	4782
858.331	4660
858.464	4603
858.597	4497
858.731	4626
858.864	4694
858.997	4592
859.13	4691
859.263	4710
859.396	4717
859.529	4584
859.662	4641
859.795	4554
859.928	4660
860.061	4786
860.194	4812
860.327	4634
860.46	4584
860.592	4778
860.725	4763
860.858	4752
860.99	4641
861.123	4516
861.256	4565
861.388	4611
861.521	5448
861.653	4519
861.786	4459
861.918	4516
862.05	4561
862.183	4603
862.315	4637
862.447	4672
862.58	4615
862.712	4413
862.844	4341
862.976	4481
863.108	4489
863.24	4831
863.372	4356
863.504	4493
863.636	4405
863.768	4538
863.9	4512
864.032	4413
864.164	4459
864.296	4489
864.428	4592
864.559	4580
864.691	4573
864.823	4538
864.954	4478
865.086	4546
865.217	4489
865.349	4417
865.48	4466
865.612	4519
865.743	4702
865.875	4489
866.006	4440
866.137	4474
866.269	4451
866.4	4466
866.531	4443
866.662	4424
866.793	4474
866.924	4443
867.055	4512
867.186	4459
867.317	4455
867.448	4379
867.579	4402
867.71	4409
867.841	4443
867.972	4512
868.103	4485
868.233	4443
868.364	4527
868.495	4523
868.625	4656
868.756	4771
868.886	4580
869.017	4679
869.147	4771
869.278	4812
869.408	4710
869.539	4656
869.669	4801
869.799	4717
869.929	4797
870.06	4782
870.19	5025
870.32	4965
870.45	4972
870.58	5029
870.71	5098
870.84	5083
870.97	5029
871.1	4911
871.23	5174
871.36	5151
871.489	5014
871.619	5094
871.749	5132
871.879	5201
872.008	5189
872.138	5151
872.267	5006
872.397	4850
872.526	4809
872.656	4736
872.785	4771
872.915	4972
873.044	5010
873.173	4995
873.303	4995
873.432	4972
873.561	4953
873.69	4858
873.819	4847
873.948	4999
874.077	4881
874.206	4816
874.335	4854
874.464	4938
874.593	5086
874.722	4972
874.851	5136
874.979	5067
875.108	5052
875.237	4980
875.365	4858
875.494	4900
875.623	5014
875.751	4885
875.88	4968
876.008	5010
876.136	5041
876.265	5189
876.393	5368
876.521	5265
876.65	5273
876.778	5162
876.906	5083
877.034	5033
877.162	5086
877.29	4995
877.418	5090
877.546	5098
877.674	5094
877.802	5060
877.93	5014
878.058	4957
878.185	4870
878.313	4984
878.441	4972
878.568	4824
878.696	4900
878.824	5048
878.951	4991
879.079	5109
879.206	5288
879.333	5197
879.461	4938
879.588	5075
879.715	5136
879.842	5265
879.97	5006
880.097	4831
880.224	4786
880.351	4847
880.478	4831
880.605	4801
880.732	4805
880.859	5083
880.986	4900
881.112	4892
881.239	4767
881.366	4675
881.493	4626
881.619	4630
881.746	4668
881.872	4615
881.999	4634
882.125	4694
882.252	4786
882.378	4816
882.505	4984
882.631	4816
882.757	4641
882.883	4755
883.01	4767
883.136	4660
883.262	4653
883.388	4596
883.514	4828
883.64	4896
883.766	4843
883.892	4687
884.018	4755
884.143	4892
884.269	5060
884.395	4706
884.52	4656
884.646	4687
884.772	4630
884.897	4561
885.023	4664
885.148	4820
885.274	4809
885.399	4778
885.524	4748
885.65	4736
885.775	4755
885.9	4683
886.025	4858
886.15	4812
886.275	4721
886.4	4714
886.525	4733
886.65	4714
886.775	4721
886.9	4942
887.025	5067
887.149	4858
887.274	4702
887.399	4603
887.523	4588
887.648	4577
887.773	4554
887.897	4797
888.021	4805
888.146	4694
888.27	4805
888.395	4915
888.519	4831
888.643	4847
888.767	4850
888.891	4687
889.015	4645
889.139	4698
889.263	4634
889.387	4774
889.511	4873
889.635	4850
889.759	4660
889.883	4683
890.006	4702
890.13	4801
890.254	4664
890.377	4706
890.501	4546
890.624	4561
890.748	4656
890.871	4485
890.995	4455
891.118	4424
891.241	4542
891.364	4565
891.488	4622
891.611	4546
891.734	4535
891.857	4615
891.98	4577
892.103	4698
892.226	4637
892.349	4603
892.471	4462
892.594	4550
892.717	4607
892.839	4558
892.962	4558
893.085	4717
893.207	4588
893.33	4470
893.452	4546
893.575	4691
893.697	4584
893.819	4850
893.941	4862
894.064	4778
894.186	4584
894.308	4577
894.43	4721
894.552	4870
894.674	4725
894.796	4569
894.918	4618
895.04	4626
895.161	4717
895.283	4698
895.405	4611
895.526	4618
895.648	4748
895.769	4710
895.891	4729
896.012	4797
896.134	4744
896.255	4660
896.376	4653
896.498	4615
896.619	4649
896.74	4630
896.861	4698
896.982	4968
897.103	5064
897.224	4854
897.345	4759
897.466	4683
897.587	4771
897.708	4904
897.828	4740
897.949	4672
898.07	4588
898.19	4641
898.311	4828
898.431	4675
898.552	4733
898.672	4824
898.792	4881
898.913	4740
899.033	4645
899.153	4519
899.273	4474
899.393	4519
899.513	4554
899.633	4550
899.753	4527
899.873	4535
899.993	4603
900.113	4542
900.232	4630
900.352	4542
900.472	4500
900.591	4379
900.711	4508
900.83	4447
900.95	4550
901.069	4683
901.189	4531
901.308	4360
901.427	4337
901.546	4383
901.665	4478
901.784	4497
901.904	4432
902.023	4356
902.141	4169
902.26	4166
902.379	4322
902.498	4268
902.617	4211
902.735	4352
902.854	4379
902.973	4379
903.091	4223
903.21	4261
903.328	4329
903.446	4280
903.565	4299
903.683	4383
903.801	4284
903.919	4402
904.038	4481
904.156	4314
904.274	4443
904.392	4405
904.51	4390
904.627	4531
904.745	4660
904.863	4698
904.981	4432
905.098	4272
905.216	4398
905.334	4417
905.451	4470
905.569	4440
905.686	4512
905.803	4611
905.921	4440
906.038	4516
906.155	4421
906.272	4405
906.389	4451
906.506	4371
906.623	4405
906.74	4375
906.857	4287
906.974	4348
907.091	4580
907.208	4702
907.324	4618
907.441	4485
907.557	4348
907.674	4360
907.79	4341
907.907	4409
908.023	4424
908.139	4436
908.256	4443
908.372	4481
908.488	4421
908.604	4390
908.72	4318
908.836	4356
908.952	4348
909.068	4398
909.184	4596
909.3	4516
909.415	4618
909.531	4584
909.647	4390
909.762	4428
909.878	4386
909.993	4402
910.108	4390
910.224	4443
910.339	4527
910.454	4417
910.57	4379
910.685	4379
910.8	4656
910.915	4592
911.03	4535
911.145	4352
911.259	4402
911.374	4352
911.489	4291
911.604	4322
911.718	4211
911.833	4268
911.947	4105
912.062	4048
912.176	4227
912.291	4284
912.405	4291
912.519	4474
912.633	4546
912.748	4443
912.862	4356
912.976	4242
913.09	4158
913.204	4211
913.318	4284
913.431	4417
913.545	4413
913.659	4493
913.772	4459
913.886	4303
914	4268
914.113	4398
914.226	4485
914.34	4447
914.453	4284
914.566	4466
914.68	4367
914.793	4363
914.906	4223
915.019	4204
915.132	4135
915.245	4230
915.358	4261
915.47	4280
915.583	4325
915.696	4341
915.809	4440
915.921	4451
916.034	4310
916.146	4299
916.259	4291
916.371	4394
916.483	4440
916.595	4303
916.708	4329
916.82	4386
916.932	4383
917.044	4363
917.156	4394
917.268	4314
917.38	4329
917.491	4306
917.603	4360
917.715	4417
917.826	4489
917.938	4367
918.049	4284
918.161	4466
918.272	4603
918.384	4592
918.495	4489
918.606	4318
918.717	4333
918.828	4383
918.939	4405
919.05	4337
919.161	4424
919.272	4192
919.383	4242
919.494	4485
919.604	4653
919.715	4481
919.826	4451
919.936	4413
920.047	4565
920.157	4531
920.267	4748
920.378	4615
920.488	4527
920.598	4721
920.708	4927
920.818	4847
920.928	4797
921.038	4953
921.148	4942
921.258	4694
921.368	4561
921.477	4554
921.587	4500
921.697	4409
921.806	4603
921.916	4485
922.025	4310
922.134	4318
922.244	4287
922.353	4402
922.462	4246
922.571	4158
922.68	4063
922.789	4063
922.898	4059
923.007	4010
923.116	4150
923.224	4112
923.333	4101
923.442	4051
923.55	3972
923.659	4010
923.767	4124
923.876	4006
923.984	4166
924.092	4017
924.201	4082
924.309	4097
924.417	4154
924.525	4112
924.633	4109
924.741	5105
924.849	3972
924.956	4169
925.064	3972
925.172	3960
925.279	3979
925.387	4090
925.494	4124
925.602	4287
925.709	4246
925.816	4048
925.924	4143
926.031	4265
926.138	4196
926.245	4234
926.352	4128
926.459	4272
926.566	4356
926.673	4173
926.779	4173
926.886	4112
926.993	3975
927.099	4032
927.206	3968
927.312	3991
927.419	4093
927.525	4051
927.631	4082
927.737	3991
927.843	3964
927.95	3911
928.056	3983
928.162	4032
928.267	4131
928.373	4649
928.479	4158
928.585	3896
928.69	4002
928.796	4109
928.901	4013
929.007	3865
929.112	3983
929.218	4010
929.323	3975
929.428	3941
929.533	4135
929.638	3960
929.743	4021
929.848	4067
929.953	4036
930.058	3945
930.163	3816
930.267	3869
930.372	3994
930.477	3857
930.581	4124
930.685	3953
930.79	3846
930.894	3918
930.998	3888
931.103	4120
931.207	3762
931.311	3724
931.415	3743
931.519	3561
931.623	3633
