Data from test_V78500241_2686.txt Node
Date: Fri Mar 25 17:07:40 CST 2022
User: usil
Spectrometer: V785-0024
Trigger mode: 0
Integration Time (sec): 4.000000E-1
Scans to average: 1
Nonlinearity correction enabled: false
Boxcar width: 0
Storing dark spectrum: false
XAxis mode: Wavelengths
Number of Pixels in Spectrum: 1024
>>>>>Begin Spectral Data<<<<<
801.071	8020
801.214	8024
801.356	7902
801.499	7887
801.641	7830
801.783	7818
801.926	7970
802.068	7947
802.211	7989
802.353	8024
802.496	7826
802.638	7845
802.78	7936
802.923	7940
803.065	7852
803.208	7845
803.35	7978
803.492	8092
803.635	8195
803.777	8043
803.919	8153
804.061	8465
804.204	8088
804.346	8077
804.488	8012
804.63	8130
804.773	8008
804.915	8088
805.057	8336
805.199	8134
805.341	8164
805.483	8248
805.626	8237
805.768	8176
805.91	8172
806.052	8172
806.194	8107
806.336	8301
806.478	8096
806.62	8084
806.762	8145
806.904	8218
807.046	8480
807.188	8317
807.33	8381
807.472	8339
807.614	8130
807.756	8111
807.898	8077
808.04	7909
808.182	7837
808.324	7845
808.465	7963
808.607	8062
808.749	8149
808.891	8263
809.033	8256
809.174	8183
809.316	8073
809.458	8115
809.6	8031
809.741	8031
809.883	8115
810.025	8111
810.166	8081
810.308	8058
810.45	7989
810.591	7944
810.733	7727
810.875	7647
811.016	7506
811.158	7521
811.299	7643
811.441	7776
811.582	7685
811.724	7597
811.865	7556
812.007	7567
812.148	7750
812.29	7586
812.431	7727
812.573	7921
812.714	8024
812.855	8115
812.997	8275
813.138	8305
813.279	8157
813.421	8138
813.562	8001
813.703	7906
813.845	7784
813.986	7506
814.127	7247
814.268	7236
814.41	7206
814.551	7209
814.692	7202
814.833	7065
814.974	7099
815.115	7095
815.256	6970
815.397	6977
815.539	6932
815.68	6848
815.821	6749
815.962	6871
816.103	6848
816.244	6677
816.385	6665
816.526	6654
816.666	6498
816.807	6292
816.948	6441
817.089	6494
817.23	6490
817.371	6391
817.512	6361
817.653	6403
817.793	6369
817.934	6445
818.075	6422
818.216	6437
818.356	6452
818.497	6235
818.638	6178
818.778	6140
818.919	6003
819.06	6171
819.2	6353
819.341	6327
819.481	6399
819.622	6475
819.762	6757
819.903	6692
820.043	6563
820.184	6612
820.324	6631
820.465	6726
820.605	6753
820.746	6612
820.886	6525
821.026	6673
821.167	6719
821.307	6745
821.447	6768
821.588	6677
821.728	6563
821.868	6422
822.008	6296
822.149	6395
822.289	6338
822.429	6148
822.569	6060
822.709	6114
822.849	5942
822.99	5935
823.13	5923
823.27	5870
823.41	5821
823.55	5828
823.69	5745
823.83	5760
823.97	5634
824.11	5524
824.25	5528
824.389	5573
824.529	5596
824.669	5509
824.809	5676
824.949	5745
825.089	5630
825.228	5577
825.368	5364
825.508	5318
825.648	5326
825.787	5330
825.927	5391
826.067	5307
826.206	5273
826.346	5376
826.485	5410
826.625	5421
826.765	5474
826.904	5532
827.044	5258
827.183	5159
827.323	5174
827.462	5204
827.601	5227
827.741	5181
827.88	5227
828.02	5166
828.159	5216
828.298	5330
828.437	5383
828.577	5322
828.716	5486
828.855	5299
828.994	5181
829.134	5121
829.273	5170
829.412	5140
829.551	5117
829.69	5201
829.829	5223
829.968	5372
830.107	5265
830.246	5280
830.385	5208
830.524	5121
830.663	5102
830.802	4942
830.941	4870
831.08	4873
831.219	4968
831.357	4965
831.496	5102
831.635	4938
831.774	4839
831.913	4824
832.051	4733
832.19	4759
832.329	4839
832.467	4721
832.606	4607
832.744	4733
832.883	4710
833.022	4645
833.16	4771
833.299	4752
833.437	4793
833.576	4805
833.714	4866
833.852	4896
833.991	4866
834.129	4984
834.267	4968
834.406	4900
834.544	4984
834.682	4949
834.821	4961
834.959	5140
835.097	5014
835.235	5128
835.373	5109
835.511	5124
835.65	5041
835.788	5006
835.926	4889
836.064	4908
836.202	4870
836.34	5151
836.478	5155
836.615	5064
836.753	5147
836.891	5261
837.029	5212
837.167	5174
837.305	5124
837.443	5121
837.58	5064
837.718	5189
837.856	5212
837.993	5140
838.131	5231
838.269	5178
838.406	5166
838.544	5174
838.681	5041
838.819	4972
838.956	4908
839.094	4877
839.231	4984
839.369	5071
839.506	5387
839.643	5250
839.781	5075
839.918	5048
840.055	5052
840.193	5075
840.33	5060
840.467	5117
840.604	5220
840.742	5414
840.879	5090
841.016	5052
841.153	5151
841.29	5368
841.427	5349
841.564	5280
841.701	5322
841.838	5284
841.975	5231
842.112	5258
842.249	5147
842.385	5064
842.522	5292
842.659	5143
842.796	5140
842.933	5204
843.069	5178
843.206	5155
843.343	5261
843.479	5246
843.616	5299
843.752	5018
843.889	4991
844.025	5223
844.162	5003
844.298	5223
844.435	5075
844.571	5045
844.708	5197
844.844	5315
844.98	5337
845.117	5261
845.253	5143
845.389	5083
845.525	5162
845.661	5170
845.798	5052
845.934	5143
846.07	5048
846.206	5181
846.342	5280
846.478	5166
846.614	5056
846.75	4984
846.886	4919
847.022	5117
847.158	5003
847.294	5048
847.429	5109
847.565	5045
847.701	5349
847.837	4850
847.972	4786
848.108	4995
848.244	4885
848.379	4782
848.515	4736
848.65	4656
848.786	4759
848.921	4714
849.057	4889
849.192	4923
849.328	4805
849.463	4850
849.598	4812
849.734	4759
849.869	4698
850.004	4634
850.14	4573
850.275	4577
850.41	4504
850.545	4577
850.68	4603
850.815	4660
850.95	4569
851.085	4824
851.22	4748
851.355	4691
851.49	4584
851.625	4622
851.76	4637
851.895	4558
852.03	4592
852.165	4630
852.299	4752
852.434	4736
852.569	4717
852.703	4752
852.838	4820
852.973	4942
853.107	4911
853.242	4660
853.376	4710
853.511	4577
853.645	4569
853.78	4809
853.914	4637
854.048	4702
854.183	4603
854.317	4702
854.451	4843
854.585	4706
854.72	4603
854.854	4782
854.988	4569
855.122	4649
855.256	4523
855.39	4649
855.524	4778
855.658	4752
855.792	4641
855.926	4714
856.06	4725
856.194	4778
856.327	4687
856.461	4603
856.595	4561
856.729	4615
856.862	4744
856.996	4664
857.13	4752
857.263	4740
857.397	4816
857.53	4637
857.664	4733
857.797	4774
857.931	4725
858.064	4702
858.197	4694
858.331	4645
858.464	4668
858.597	4538
858.731	4618
858.864	4649
858.997	4584
859.13	4653
859.263	4664
859.396	4683
859.529	4584
859.662	4580
859.795	4497
859.928	4653
860.061	4744
860.194	4771
860.327	4634
860.46	4607
860.592	4717
860.725	4687
860.858	4656
860.99	4561
861.123	4542
861.256	4523
861.388	4592
861.521	5280
861.653	4497
861.786	4436
861.918	4459
862.05	4504
862.183	4569
862.315	4580
862.447	4721
862.58	4516
862.712	4413
862.844	4356
862.976	4447
863.108	4455
863.24	4755
863.372	4360
863.504	4443
863.636	4394
863.768	4489
863.9	4455
864.032	4322
864.164	4428
864.296	4474
864.428	4573
864.559	4535
864.691	4550
864.823	4481
864.954	4531
865.086	4504
865.217	4500
865.349	4417
865.48	4436
865.612	4493
865.743	4653
865.875	4478
866.006	4379
866.137	4504
866.269	4459
866.4	4474
866.531	4394
866.662	4428
866.793	4417
866.924	4428
867.055	4466
867.186	4470
867.317	4402
867.448	4367
867.579	4371
867.71	4394
867.841	4360
867.972	4413
868.103	4421
868.233	4478
868.364	4428
868.495	4481
868.625	4721
868.756	4748
868.886	4516
869.017	4622
869.147	4771
869.278	4805
869.408	4634
869.539	4588
869.669	4740
869.799	4603
869.929	4752
870.06	4744
870.19	5018
870.32	4930
870.45	4938
870.58	5022
870.71	5109
870.84	5132
870.97	4995
871.1	4896
871.23	5185
871.36	5102
871.489	5025
871.619	5090
871.749	5052
871.879	5121
872.008	5151
872.138	5025
872.267	4949
872.397	4862
872.526	4839
872.656	4752
872.785	4820
872.915	4908
873.044	5014
873.173	4949
873.303	4946
873.432	4995
873.561	4953
873.69	4908
873.819	4835
873.948	4911
874.077	4847
874.206	4759
874.335	4809
874.464	4911
874.593	5060
874.722	4965
874.851	5071
874.979	5083
875.108	5060
875.237	4889
875.365	4889
875.494	4847
875.623	4987
875.751	4835
875.88	4843
876.008	4934
876.136	5052
876.265	5254
876.393	5368
876.521	5261
876.65	5216
876.778	5185
876.906	5060
877.034	5064
877.162	5060
877.29	4995
877.418	5018
877.546	5056
877.674	5052
877.802	5010
877.93	5022
878.058	4908
878.185	4866
878.313	4965
878.441	4949
878.568	4820
878.696	4854
878.824	5014
878.951	5045
879.079	5136
879.206	5250
879.333	5090
879.461	5014
879.588	4991
879.715	5128
879.842	5231
879.97	4991
880.097	4801
880.224	4805
880.351	4828
880.478	4820
880.605	4774
880.732	4805
880.859	5124
880.986	4850
881.112	4942
881.239	4847
881.366	4694
881.493	4653
881.619	4592
881.746	4592
881.872	4656
881.999	4641
882.125	4683
882.252	4759
882.378	4858
882.505	5003
882.631	4790
882.757	4733
882.883	4721
883.01	4759
883.136	4660
883.262	4577
883.388	4637
883.514	4831
883.64	4850
883.766	4778
883.892	4660
884.018	4710
884.143	4885
884.269	5003
884.395	4675
884.52	4664
884.646	4634
884.772	4607
884.897	4599
885.023	4656
885.148	4752
885.274	4858
885.399	4820
885.524	4725
885.65	4729
885.775	4801
885.9	4717
886.025	4847
886.15	4774
886.275	4714
886.4	4641
886.525	4668
886.65	4706
886.775	4611
886.9	4858
887.025	5045
887.149	4812
887.274	4618
887.399	4592
887.523	4603
887.648	4554
887.773	4565
887.897	4725
888.021	4752
888.146	4679
888.27	4831
888.395	4934
888.519	4797
888.643	4839
888.767	4771
888.891	4660
889.015	4607
889.139	4664
889.263	4584
889.387	4767
889.511	4877
889.635	4801
889.759	4660
889.883	4626
890.006	4725
890.13	4828
890.254	4641
890.377	4641
890.501	4516
890.624	4516
890.748	4664
890.871	4512
890.995	4443
891.118	4390
891.241	4523
891.364	4531
891.488	4577
891.611	4455
891.734	4603
891.857	4653
891.98	4561
892.103	4653
892.226	4554
892.349	4538
892.471	4417
892.594	4527
892.717	4599
892.839	4580
892.962	4596
893.085	4710
893.207	4618
893.33	4428
893.452	4500
893.575	4668
893.697	4618
893.819	4774
893.941	4809
894.064	4752
894.186	4561
894.308	4580
894.43	4729
894.552	4816
894.674	4759
894.796	4546
894.918	4580
895.04	4519
895.161	4721
895.283	4649
895.405	4561
895.526	4626
895.648	4656
895.769	4653
895.891	4698
896.012	4721
896.134	4698
896.255	4634
896.376	4626
896.498	4618
896.619	4649
896.74	4596
896.861	4611
896.982	4900
897.103	5045
897.224	4847
897.345	4744
897.466	4653
897.587	4721
897.708	4877
897.828	4755
897.949	4645
898.07	4577
898.19	4645
898.311	4892
898.431	4675
898.552	4729
898.672	4805
898.792	4839
898.913	4725
899.033	4683
899.153	4508
899.273	4443
899.393	4485
899.513	4459
899.633	4474
899.753	4512
899.873	4504
899.993	4596
900.113	4516
900.232	4584
900.352	4538
900.472	4481
900.591	4367
900.711	4485
900.83	4462
900.95	4626
901.069	4733
901.189	4577
901.308	4375
901.427	4337
901.546	4371
901.665	4440
901.784	4516
901.904	4352
902.023	4344
902.141	4192
902.26	4196
902.379	4268
902.498	4272
902.617	4242
902.735	4379
902.854	4402
902.973	4337
903.091	4192
903.21	4246
903.328	4272
903.446	4249
903.565	4238
903.683	4295
903.801	4284
903.919	4337
904.038	4405
904.156	4337
904.274	4421
904.392	4371
904.51	4379
904.627	4451
904.745	4607
904.863	4615
904.981	4455
905.098	4310
905.216	4390
905.334	4428
905.451	4428
905.569	4367
905.686	4527
905.803	4554
905.921	4383
906.038	4527
906.155	4466
906.272	4390
906.389	4466
906.506	4306
906.623	4367
906.74	4333
906.857	4344
906.974	4341
907.091	4577
907.208	4683
907.324	4607
907.441	4489
907.557	4325
907.674	4341
907.79	4268
907.907	4367
908.023	4443
908.139	4474
908.256	4440
908.372	4508
908.488	4451
908.604	4360
908.72	4341
908.836	4360
908.952	4337
909.068	4413
909.184	4546
909.3	4436
909.415	4596
909.531	4546
909.647	4325
909.762	4413
909.878	4386
909.993	4405
910.108	4341
910.224	4405
910.339	4436
910.454	4405
910.57	4383
910.685	4318
910.8	4641
910.915	4569
911.03	4478
911.145	4306
911.259	4284
911.374	4386
911.489	4383
911.604	4261
911.718	4181
911.833	4223
911.947	4120
912.062	4048
912.176	4192
912.291	4234
912.405	4249
912.519	4459
912.633	4519
912.748	4371
912.862	4272
912.976	4169
913.09	4150
913.204	4181
913.318	4257
913.431	4398
913.545	4344
913.659	4428
913.772	4367
913.886	4230
914	4249
914.113	4348
914.226	4462
914.34	4386
914.453	4257
914.566	4443
914.68	4276
914.793	4291
914.906	4116
915.019	4124
915.132	4116
915.245	4185
915.358	4177
915.47	4265
915.583	4295
915.696	4291
915.809	4383
915.921	4428
916.034	4192
916.146	4261
916.259	4188
916.371	4360
916.483	4371
916.595	4284
916.708	4314
916.82	4329
916.932	4325
917.044	4325
917.156	4306
917.268	4185
917.38	4249
917.491	4306
917.603	4360
917.715	4405
917.826	4424
917.938	4379
918.049	4268
918.161	4402
918.272	4516
918.384	4512
918.495	4417
918.606	4344
918.717	4253
918.828	4329
918.939	4367
919.05	4238
919.161	4322
919.272	4128
919.383	4204
919.494	4466
919.604	4611
919.715	4451
919.826	4303
919.936	4405
920.047	4542
920.157	4459
920.267	4729
920.378	4508
920.488	4481
920.598	4733
920.708	4862
920.818	4733
920.928	4725
921.038	4934
921.148	4927
921.258	4630
921.368	4558
921.477	4497
921.587	4440
921.697	4333
921.806	4546
921.916	4405
922.025	4272
922.134	4272
922.244	4200
922.353	4375
922.462	4166
922.571	4154
922.68	4010
922.789	3972
922.898	4036
923.007	3956
923.116	4101
923.224	4010
923.333	4090
923.442	4013
923.55	3960
923.659	4010
923.767	4162
923.876	3998
923.984	4143
924.092	3956
924.201	4059
924.309	4078
924.417	4131
924.525	4048
924.633	4143
924.741	5086
924.849	3937
924.956	4116
925.064	3941
925.172	3892
925.279	3975
925.387	4036
925.494	4017
925.602	4185
925.709	4158
925.816	4002
925.924	4078
926.031	4249
926.138	4143
926.245	4185
926.352	4082
926.459	4246
926.566	4348
926.673	4147
926.779	4074
926.886	4105
926.993	3960
927.099	3979
927.206	3907
927.312	3926
927.419	4029
927.525	4036
927.631	4074
927.737	3991
927.843	3964
927.95	3831
928.056	3956
928.162	3983
928.267	4010
928.373	4588
928.479	4109
928.585	3880
928.69	4040
928.796	4032
928.901	3975
929.007	3850
929.112	3975
929.218	3937
929.323	3930
929.428	3934
929.533	4090
929.638	3907
929.743	3964
929.848	4013
929.953	4040
930.058	3960
930.163	3774
930.267	3774
930.372	3972
930.477	3835
930.581	4093
930.685	3979
930.79	3827
930.894	3835
930.998	3842
931.103	4036
931.207	3728
931.311	3694
931.415	3633
931.519	3515
931.623	3488
