Data from test_V78500241_1027.txt Node
Date: Fri Mar 25 16:56:08 CST 2022
User: usil
Spectrometer: V785-0024
Trigger mode: 0
Integration Time (sec): 4.000000E-1
Scans to average: 1
Nonlinearity correction enabled: false
Boxcar width: 0
Storing dark spectrum: false
XAxis mode: Wavelengths
Number of Pixels in Spectrum: 1024
>>>>>Begin Spectral Data<<<<<
801.071	8027
801.214	8096
801.356	7818
801.499	7879
801.641	7792
801.783	7792
801.926	7921
802.068	7982
802.211	7887
802.353	7925
802.496	7780
802.638	7898
802.78	7902
802.923	7951
803.065	7887
803.208	7833
803.35	7940
803.492	7982
803.635	8088
803.777	7982
803.919	8142
804.061	8412
804.204	8115
804.346	7986
804.488	7913
804.63	8058
804.773	7978
804.915	8084
805.057	8199
805.199	8145
805.341	8202
805.483	8248
805.626	8172
805.768	8142
805.91	8115
806.052	8191
806.194	8054
806.336	8210
806.478	8107
806.62	8046
806.762	8058
806.904	8290
807.046	8427
807.188	8339
807.33	8267
807.472	8275
807.614	8077
807.756	8096
807.898	7997
808.04	7849
808.182	7849
808.324	7830
808.465	7871
808.607	8062
808.749	8084
808.891	8164
809.033	8290
809.174	8244
809.316	8012
809.458	8012
809.6	7963
809.741	8024
809.883	8001
810.025	8092
810.166	8084
810.308	8046
810.45	7951
810.591	7875
810.733	7719
810.875	7632
811.016	7506
811.158	7453
811.299	7533
811.441	7723
811.582	7639
811.724	7575
811.865	7472
812.007	7506
812.148	7601
812.29	7597
812.431	7700
812.573	7879
812.714	7947
812.855	8123
812.997	8210
813.138	8279
813.279	8138
813.421	8100
813.562	7967
813.703	7906
813.845	7761
813.986	7457
814.127	7247
814.268	7206
814.41	7168
814.551	7133
814.692	7129
814.833	7069
814.974	7076
815.115	7080
815.256	6932
815.397	6856
815.539	6905
815.68	6837
815.821	6757
815.962	6882
816.103	6783
816.244	6726
816.385	6593
816.526	6608
816.666	6506
816.807	6331
816.948	6407
817.089	6509
817.23	6414
817.371	6304
817.512	6372
817.653	6479
817.793	6334
817.934	6410
818.075	6407
818.216	6399
818.356	6361
818.497	6213
818.638	6079
818.778	6186
818.919	6155
819.06	6148
819.2	6315
819.341	6315
819.481	6357
819.622	6483
819.762	6662
819.903	6673
820.043	6589
820.184	6582
820.324	6521
820.465	6627
820.605	6608
820.746	6601
820.886	6456
821.026	6635
821.167	6669
821.307	6745
821.447	6715
821.588	6616
821.728	6513
821.868	6483
822.008	6319
822.149	6338
822.289	6315
822.429	6167
822.569	6068
822.709	6087
822.849	5901
822.99	5836
823.13	5878
823.27	5954
823.41	5748
823.55	5748
823.69	5703
823.83	5722
823.97	5642
824.11	5535
824.25	5535
824.389	5474
824.529	5554
824.669	5566
824.809	5562
824.949	5657
825.089	5596
825.228	5539
825.368	5395
825.508	5303
825.648	5376
825.787	5376
825.927	5391
826.067	5303
826.206	5315
826.346	5410
826.485	5421
826.625	5429
826.765	5520
826.904	5512
827.044	5303
827.183	5136
827.323	5083
827.462	5258
827.601	5174
827.741	5185
827.88	5189
828.02	5147
828.159	5273
828.298	5284
828.437	5379
828.577	5261
828.716	5486
828.855	5303
828.994	5155
829.134	5201
829.273	5189
829.412	5204
829.551	5136
829.69	5181
829.829	5212
829.968	5368
830.107	5307
830.246	5307
830.385	5166
830.524	5159
830.663	5079
830.802	5003
830.941	4923
831.08	4915
831.219	4972
831.357	4991
831.496	5170
831.635	4965
831.774	4919
831.913	4873
832.051	4733
832.19	4843
832.329	4889
832.467	4755
832.606	4656
832.744	4778
832.883	4759
833.022	4725
833.16	4816
833.299	4839
833.437	4908
833.576	4843
833.714	4900
833.852	4896
833.991	4946
834.129	4972
834.267	5022
834.406	4919
834.544	5060
834.682	4984
834.821	4965
834.959	5235
835.097	5071
835.235	5174
835.373	5128
835.511	5159
835.65	5075
835.788	5064
835.926	4946
836.064	4900
836.202	4980
836.34	5250
836.478	5280
836.615	5117
836.753	5246
836.891	5315
837.029	5296
837.167	5227
837.305	5189
837.443	5197
837.58	5124
837.718	5242
837.856	5231
837.993	5223
838.131	5223
838.269	5239
838.406	5261
838.544	5212
838.681	5045
838.819	5056
838.956	4949
839.094	4984
839.231	5003
839.369	5056
839.506	5459
839.643	5296
839.781	5098
839.918	5041
840.055	5124
840.193	5075
840.33	5124
840.467	5174
840.604	5193
840.742	5433
840.879	5105
841.016	5090
841.153	5170
841.29	5391
841.427	5379
841.564	5330
841.701	5379
841.838	5311
841.975	5197
842.112	5334
842.249	5143
842.385	5060
842.522	5406
842.659	5208
842.796	5174
842.933	5242
843.069	5178
843.206	5159
843.343	5326
843.479	5277
843.616	5349
843.752	5025
843.889	5083
844.025	5258
844.162	5041
844.298	5197
844.435	5121
844.571	5056
844.708	5250
844.844	5341
844.98	5364
845.117	5292
845.253	5201
845.389	5098
845.525	5193
845.661	5155
845.798	5105
845.934	5181
846.07	5098
846.206	5239
846.342	5261
846.478	5197
846.614	5006
846.75	4957
846.886	4949
847.022	5121
847.158	5006
847.294	5090
847.429	5086
847.565	5056
847.701	5349
847.837	4885
847.972	4824
848.108	4957
848.244	4908
848.379	4793
848.515	4733
848.65	4729
848.786	4740
848.921	4809
849.057	4927
849.192	4911
849.328	4820
849.463	4843
849.598	4839
849.734	4782
849.869	4748
850.004	4653
850.14	4675
850.275	4641
850.41	4580
850.545	4592
850.68	4634
850.815	4588
850.95	4656
851.085	4870
851.22	4744
851.355	4706
851.49	4668
851.625	4641
851.76	4656
851.895	4611
852.03	4542
852.165	4672
852.299	4721
852.434	4778
852.569	4748
852.703	4767
852.838	4839
852.973	4934
853.107	4900
853.242	4771
853.376	4702
853.511	4618
853.645	4641
853.78	4828
853.914	4744
854.048	4653
854.183	4626
854.317	4706
854.451	4873
854.585	4675
854.72	4679
854.854	4801
854.988	4584
855.122	4660
855.256	4569
855.39	4672
855.524	4835
855.658	4717
855.792	4702
855.926	4710
856.06	4786
856.194	4854
856.327	4752
856.461	4611
856.595	4626
856.729	4588
856.862	4816
856.996	4717
857.13	4740
857.263	4778
857.397	4816
857.53	4653
857.664	4782
857.797	4721
857.931	4850
858.064	4717
858.197	4778
858.331	4694
858.464	4626
858.597	4542
858.731	4675
858.864	4649
858.997	4634
859.13	4675
859.263	4672
859.396	4691
859.529	4626
859.662	4554
859.795	4592
859.928	4645
860.061	4801
860.194	4805
860.327	4630
860.46	4577
860.592	4725
860.725	4748
860.858	4733
860.99	4607
861.123	4516
861.256	4531
861.388	4702
861.521	5273
861.653	4523
861.786	4432
861.918	4447
862.05	4584
862.183	4550
862.315	4649
862.447	4694
862.58	4542
862.712	4383
862.844	4295
862.976	4519
863.108	4512
863.24	4889
863.372	4333
863.504	4417
863.636	4424
863.768	4497
863.9	4443
864.032	4379
864.164	4409
864.296	4489
864.428	4512
864.559	4588
864.691	4561
864.823	4504
864.954	4527
865.086	4497
865.217	4466
865.349	4424
865.48	4409
865.612	4546
865.743	4656
865.875	4523
866.006	4485
866.137	4508
866.269	4443
866.4	4493
866.531	4398
866.662	4417
866.793	4394
866.924	4436
867.055	4489
867.186	4455
867.317	4424
867.448	4398
867.579	4432
867.71	4363
867.841	4424
867.972	4459
868.103	4451
868.233	4478
868.364	4474
868.495	4531
868.625	4656
868.756	4748
868.886	4554
869.017	4584
869.147	4736
869.278	4755
869.408	4687
869.539	4649
869.669	4721
869.799	4656
869.929	4740
870.06	4759
870.19	4965
870.32	4938
870.45	4919
870.58	5025
870.71	5105
870.84	5048
870.97	4987
871.1	4934
871.23	5143
871.36	5136
871.489	5067
871.619	5098
871.749	5117
871.879	5159
872.008	5170
872.138	5105
872.267	4946
872.397	4877
872.526	4801
872.656	4748
872.785	4839
872.915	4961
873.044	5003
873.173	4972
873.303	4961
873.432	4957
873.561	4995
873.69	4885
873.819	4900
873.948	4934
874.077	4839
874.206	4755
874.335	4839
874.464	4900
874.593	5086
874.722	4999
874.851	5166
874.979	5075
875.108	5003
875.237	4919
875.365	4881
875.494	4885
875.623	5014
875.751	4820
875.88	4892
876.008	4972
876.136	5033
876.265	5227
876.393	5349
876.521	5280
876.65	5227
876.778	5193
876.906	5060
877.034	5083
877.162	5090
877.29	4991
877.418	5056
877.546	5025
877.674	5041
877.802	5121
877.93	5033
878.058	4972
878.185	4889
878.313	5003
878.441	4938
878.568	4816
878.696	4900
878.824	4987
878.951	4968
879.079	5178
879.206	5326
879.333	5124
879.461	4953
879.588	5014
879.715	5151
879.842	5208
879.97	5003
880.097	4816
880.224	4752
880.351	4771
880.478	4828
880.605	4812
880.732	4809
880.859	5090
880.986	4930
881.112	4908
881.239	4801
881.366	4714
881.493	4637
881.619	4615
881.746	4679
881.872	4653
881.999	4668
882.125	4694
882.252	4809
882.378	4820
882.505	4987
882.631	4793
882.757	4664
882.883	4805
883.01	4778
883.136	4664
883.262	4603
883.388	4611
883.514	4850
883.64	4908
883.766	4801
883.892	4691
884.018	4702
884.143	4938
884.269	4965
884.395	4691
884.52	4611
884.646	4649
884.772	4618
884.897	4588
885.023	4622
885.148	4778
885.274	4877
885.399	4790
885.524	4672
885.65	4759
885.775	4759
885.9	4721
886.025	4820
886.15	4797
886.275	4706
886.4	4637
886.525	4729
886.65	4691
886.775	4733
886.9	4915
887.025	5056
887.149	4824
887.274	4679
887.399	4622
887.523	4637
887.648	4611
887.773	4580
887.897	4706
888.021	4797
888.146	4733
888.27	4870
888.395	4885
888.519	4790
888.643	4850
888.767	4862
888.891	4672
889.015	4588
889.139	4626
889.263	4596
889.387	4759
889.511	4831
889.635	4812
889.759	4649
889.883	4653
890.006	4733
890.13	4866
890.254	4630
890.377	4649
890.501	4596
890.624	4508
890.748	4622
890.871	4519
890.995	4440
891.118	4344
891.241	4535
891.364	4538
891.488	4653
891.611	4523
891.734	4588
891.857	4660
891.98	4546
892.103	4683
892.226	4596
892.349	4535
892.471	4402
892.594	4561
892.717	4611
892.839	4599
892.962	4630
893.085	4637
893.207	4622
893.33	4455
893.452	4523
893.575	4714
893.697	4569
893.819	4816
893.941	4801
894.064	4790
894.186	4596
894.308	4550
894.43	4694
894.552	4831
894.674	4736
894.796	4558
894.918	4611
895.04	4554
895.161	4710
895.283	4645
895.405	4573
895.526	4649
895.648	4668
895.769	4694
895.891	4706
896.012	4778
896.134	4733
896.255	4637
896.376	4637
896.498	4603
896.619	4729
896.74	4607
896.861	4668
896.982	4908
897.103	5075
897.224	4831
897.345	4740
897.466	4691
897.587	4725
897.708	4854
897.828	4771
897.949	4649
898.07	4538
898.19	4615
898.311	4835
898.431	4653
898.552	4771
898.672	4771
898.792	4748
898.913	4668
899.033	4615
899.153	4531
899.273	4398
899.393	4512
899.513	4489
899.633	4531
899.753	4535
899.873	4516
899.993	4554
900.113	4584
900.232	4542
900.352	4569
900.472	4504
900.591	4436
900.711	4489
900.83	4459
900.95	4577
901.069	4694
901.189	4531
901.308	4337
901.427	4329
901.546	4402
901.665	4489
901.784	4489
901.904	4333
902.023	4325
902.141	4204
902.26	4181
902.379	4303
902.498	4280
902.617	4284
902.735	4371
902.854	4451
902.973	4371
903.091	4253
903.21	4265
903.328	4367
903.446	4287
903.565	4280
903.683	4413
903.801	4280
903.919	4428
904.038	4436
904.156	4383
904.274	4432
904.392	4409
904.51	4485
904.627	4512
904.745	4607
904.863	4653
904.981	4443
905.098	4379
905.216	4409
905.334	4459
905.451	4466
905.569	4489
905.686	4580
905.803	4607
905.921	4474
906.038	4580
906.155	4485
906.272	4424
906.389	4542
906.506	4367
906.623	4481
906.74	4447
906.857	4306
906.974	4390
907.091	4569
907.208	4698
907.324	4603
907.441	4493
907.557	4413
907.674	4398
907.79	4344
907.907	4409
908.023	4554
908.139	4508
908.256	4459
908.372	4546
908.488	4497
908.604	4383
908.72	4363
908.836	4417
908.952	4417
909.068	4478
909.184	4615
909.3	4542
909.415	4694
909.531	4573
909.647	4337
909.762	4386
909.878	4405
909.993	4489
910.108	4447
910.224	4451
910.339	4489
910.454	4413
910.57	4424
910.685	4360
910.8	4637
910.915	4588
911.03	4535
911.145	4360
911.259	4386
911.374	4394
911.489	4230
911.604	4337
911.718	4200
911.833	4227
911.947	4101
912.062	4036
912.176	4265
912.291	4325
912.405	4284
912.519	4493
912.633	4550
912.748	4417
912.862	4363
912.976	4265
913.09	4116
913.204	4230
913.318	4291
913.431	4443
913.545	4398
913.659	4481
913.772	4375
913.886	4246
914	4249
914.113	4383
914.226	4428
914.34	4402
914.453	4265
914.566	4440
914.68	4379
914.793	4356
914.906	4185
915.019	4162
915.132	4169
915.245	4166
915.358	4227
915.47	4261
915.583	4280
915.696	4333
915.809	4417
915.921	4504
916.034	4291
916.146	4219
916.259	4261
916.371	4432
916.483	4390
916.595	4314
916.708	4356
916.82	4402
916.932	4344
917.044	4352
917.156	4348
917.268	4257
917.38	4306
917.491	4333
917.603	4341
917.715	4424
917.826	4455
917.938	4367
918.049	4284
918.161	4417
918.272	4596
918.384	4599
918.495	4455
918.606	4329
918.717	4272
918.828	4390
918.939	4432
919.05	4337
919.161	4367
919.272	4169
919.383	4291
919.494	4481
919.604	4649
919.715	4474
919.826	4383
919.936	4428
920.047	4554
920.157	4516
920.267	4755
920.378	4569
920.488	4489
920.598	4752
920.708	4961
920.818	4778
920.928	4782
921.038	4980
921.148	4938
921.258	4645
921.368	4554
921.477	4508
921.587	4497
921.697	4413
921.806	4542
921.916	4432
922.025	4337
922.134	4303
922.244	4268
922.353	4383
922.462	4192
922.571	4139
922.68	4036
922.789	4036
922.898	4051
923.007	4021
923.116	4131
923.224	4101
923.333	4128
923.442	4036
923.55	3994
923.659	4044
923.767	4139
923.876	3994
923.984	4143
924.092	4059
924.201	4097
924.309	4093
924.417	4150
924.525	4101
924.633	4124
924.741	5079
924.849	3949
924.956	4154
925.064	3998
925.172	3934
925.279	3998
925.387	4120
925.494	4101
925.602	4238
925.709	4200
925.816	4074
925.924	4150
926.031	4215
926.138	4200
926.245	4223
926.352	4128
926.459	4295
926.566	4268
926.673	4238
926.779	4086
926.886	4086
926.993	3987
927.099	3991
927.206	4010
927.312	4010
927.419	4040
927.525	4090
927.631	4109
927.737	3983
927.843	3998
927.95	3850
928.056	3960
928.162	4021
928.267	4086
928.373	4664
928.479	4143
928.585	3922
928.69	4032
928.796	4044
928.901	3987
929.007	3892
929.112	4078
929.218	3998
929.323	3991
929.428	3960
929.533	4120
929.638	3956
929.743	4002
929.848	4055
929.953	4025
930.058	3956
930.163	3804
930.267	3842
930.372	3975
930.477	3812
930.581	4097
930.685	3945
930.79	3838
930.894	3884
930.998	3884
931.103	4059
931.207	3690
931.311	3713
931.415	3705
931.519	3511
931.623	3561
