Data from test_V78500241_1926.txt Node
Date: Fri Mar 25 17:02:23 CST 2022
User: usil
Spectrometer: V785-0024
Trigger mode: 0
Integration Time (sec): 4.000000E-1
Scans to average: 1
Nonlinearity correction enabled: false
Boxcar width: 0
Storing dark spectrum: false
XAxis mode: Wavelengths
Number of Pixels in Spectrum: 1024
>>>>>Begin Spectral Data<<<<<
801.071	8058
801.214	7955
801.356	7814
801.499	7811
801.641	7765
801.783	7795
801.926	7902
802.068	7932
802.211	7970
802.353	7936
802.496	7879
802.638	7860
802.78	7925
802.923	7906
803.065	7826
803.208	7811
803.35	7898
803.492	8096
803.635	8123
803.777	8012
803.919	8111
804.061	8412
804.204	8199
804.346	8058
804.488	8020
804.63	8054
804.773	7989
804.915	8043
805.057	8294
805.199	8187
805.341	8199
805.483	8218
805.626	8244
805.768	8069
805.91	8199
806.052	8142
806.194	8115
806.336	8317
806.478	8054
806.62	8058
806.762	8115
806.904	8290
807.046	8457
807.188	8275
807.33	8320
807.472	8275
807.614	8199
807.756	8111
807.898	7906
808.04	7940
808.182	7894
808.324	7868
808.465	7887
808.607	8024
808.749	8103
808.891	8168
809.033	8317
809.174	8172
809.316	8157
809.458	8035
809.6	8008
809.741	8005
809.883	7974
810.025	8012
810.166	8084
810.308	7986
810.45	7906
810.591	7818
810.733	7734
810.875	7666
811.016	7495
811.158	7426
811.299	7502
811.441	7677
811.582	7651
811.724	7578
811.865	7529
812.007	7677
812.148	7537
812.29	7655
812.431	7746
812.573	7928
812.714	7921
812.855	8195
812.997	8199
813.138	8256
813.279	8153
813.421	8054
813.562	7963
813.703	7830
813.845	7757
813.986	7343
814.127	7236
814.268	7213
814.41	7145
814.551	7099
814.692	7228
814.833	7126
814.974	7103
815.115	7175
815.256	6932
815.397	6932
815.539	6909
815.68	6814
815.821	6757
815.962	6905
816.103	6825
816.244	6700
816.385	6585
816.526	6612
816.666	6475
816.807	6281
816.948	6410
817.089	6517
817.23	6410
817.371	6399
817.512	6369
817.653	6410
817.793	6353
817.934	6372
818.075	6456
818.216	6372
818.356	6414
818.497	6281
818.638	6087
818.778	6159
818.919	6175
819.06	6178
819.2	6270
819.341	6311
819.481	6369
819.622	6506
819.762	6798
819.903	6741
820.043	6608
820.184	6528
820.324	6612
820.465	6696
820.605	6681
820.746	6597
820.886	6486
821.026	6665
821.167	6692
821.307	6825
821.447	6776
821.588	6639
821.728	6555
821.868	6506
822.008	6331
822.149	6338
822.289	6372
822.429	6136
822.569	6091
822.709	6152
822.849	5901
822.99	5893
823.13	5923
823.27	5939
823.41	5794
823.55	5767
823.69	5729
823.83	5813
823.97	5688
824.11	5524
824.25	5471
824.389	5589
824.529	5600
824.669	5471
824.809	5615
824.949	5657
825.089	5592
825.228	5543
825.368	5376
825.508	5372
825.648	5326
825.787	5349
825.927	5318
826.067	5277
826.206	5288
826.346	5364
826.485	5398
826.625	5410
826.765	5562
826.904	5501
827.044	5254
827.183	5151
827.323	5185
827.462	5181
827.601	5197
827.741	5204
827.88	5239
828.02	5098
828.159	5193
828.298	5284
828.437	5387
828.577	5261
828.716	5459
828.855	5265
828.994	5162
829.134	5151
829.273	5197
829.412	5159
829.551	5140
829.69	5201
829.829	5197
829.968	5353
830.107	5231
830.246	5250
830.385	5220
830.524	5117
830.663	5045
830.802	4980
830.941	4866
831.08	4904
831.219	5006
831.357	4987
831.496	5151
831.635	4927
831.774	4797
831.913	4858
832.051	4717
832.19	4744
832.329	4816
832.467	4706
832.606	4618
832.744	4729
832.883	4675
833.022	4721
833.16	4809
833.299	4759
833.437	4809
833.576	4828
833.714	4862
833.852	4854
833.991	4866
834.129	4923
834.267	4957
834.406	4904
834.544	4953
834.682	4980
834.821	4972
834.959	5155
835.097	4934
835.235	5136
835.373	5064
835.511	5124
835.65	5048
835.788	5029
835.926	4911
836.064	4881
836.202	4885
836.34	5079
836.478	5189
836.615	5094
836.753	5254
836.891	5273
837.029	5231
837.167	5189
837.305	5109
837.443	5124
837.58	5083
837.718	5269
837.856	5102
837.993	5128
838.131	5197
838.269	5216
838.406	5242
838.544	5178
838.681	5067
838.819	5045
838.956	4892
839.094	4889
839.231	4930
839.369	5048
839.506	5452
839.643	5235
839.781	5056
839.918	5064
840.055	5083
840.193	5071
840.33	5147
840.467	5132
840.604	5151
840.742	5406
840.879	5056
841.016	5079
841.153	5162
841.29	5330
841.427	5337
841.564	5391
841.701	5307
841.838	5242
841.975	5212
842.112	5235
842.249	5151
842.385	5071
842.522	5284
842.659	5220
842.796	5109
842.933	5174
843.069	5124
843.206	5124
843.343	5284
843.479	5216
843.616	5250
843.752	4984
843.889	5003
844.025	5231
844.162	5003
844.298	5204
844.435	5090
844.571	5060
844.708	5166
844.844	5334
844.98	5326
845.117	5227
845.253	5143
845.389	5079
845.525	5140
845.661	5102
845.798	4976
845.934	5117
846.07	4995
846.206	5132
846.342	5265
846.478	5140
846.614	5022
846.75	4972
846.886	4957
847.022	5094
847.158	4953
847.294	5098
847.429	5060
847.565	5075
847.701	5318
847.837	4847
847.972	4835
848.108	4961
848.244	4904
848.379	4744
848.515	4736
848.65	4675
848.786	4771
848.921	4748
849.057	4911
849.192	4839
849.328	4824
849.463	4820
849.598	4767
849.734	4736
849.869	4679
850.004	4603
850.14	4653
850.275	4611
850.41	4535
850.545	4542
850.68	4615
850.815	4607
850.95	4584
851.085	4835
851.22	4778
851.355	4641
851.49	4592
851.625	4622
851.76	4622
851.895	4550
852.03	4546
852.165	4618
852.299	4717
852.434	4725
852.569	4702
852.703	4752
852.838	4797
852.973	4946
853.107	4919
853.242	4698
853.376	4599
853.511	4527
853.645	4603
853.78	4805
853.914	4683
854.048	4626
854.183	4649
854.317	4706
854.451	4824
854.585	4691
854.72	4634
854.854	4828
854.988	4596
855.122	4577
855.256	4538
855.39	4607
855.524	4744
855.658	4744
855.792	4656
855.926	4706
856.06	4714
856.194	4755
856.327	4672
856.461	4599
856.595	4649
856.729	4668
856.862	4710
856.996	4653
857.13	4698
857.263	4763
857.397	4714
857.53	4599
857.664	4691
857.797	4740
857.931	4778
858.064	4675
858.197	4706
858.331	4664
858.464	4550
858.597	4516
858.731	4596
858.864	4584
858.997	4569
859.13	4645
859.263	4660
859.396	4706
859.529	4538
859.662	4565
859.795	4538
859.928	4580
860.061	4717
860.194	4782
860.327	4584
860.46	4573
860.592	4721
860.725	4702
860.858	4702
860.99	4588
861.123	4527
861.256	4527
861.388	4611
861.521	5269
861.653	4474
861.786	4424
861.918	4428
862.05	4489
862.183	4554
862.315	4588
862.447	4641
862.58	4531
862.712	4390
862.844	4352
862.976	4489
863.108	4390
863.24	4733
863.372	4337
863.504	4402
863.636	4398
863.768	4478
863.9	4417
864.032	4371
864.164	4379
864.296	4451
864.428	4558
864.559	4538
864.691	4527
864.823	4504
864.954	4459
865.086	4516
865.217	4455
865.349	4402
865.48	4405
865.612	4493
865.743	4580
865.875	4409
866.006	4390
866.137	4466
866.269	4409
866.4	4432
866.531	4413
866.662	4352
866.793	4424
866.924	4428
867.055	4481
867.186	4443
867.317	4413
867.448	4379
867.579	4360
867.71	4379
867.841	4386
867.972	4455
868.103	4405
868.233	4413
868.364	4398
868.495	4451
868.625	4645
868.756	4740
868.886	4580
869.017	4599
869.147	4797
869.278	4694
869.408	4645
869.539	4664
869.669	4656
869.799	4637
869.929	4763
870.06	4729
870.19	4961
870.32	4885
870.45	4961
870.58	5006
870.71	5045
870.84	5067
870.97	4946
871.1	4923
871.23	5121
871.36	5121
871.489	4987
871.619	5060
871.749	5098
871.879	5083
872.008	5159
872.138	5048
872.267	4923
872.397	4847
872.526	4847
872.656	4786
872.785	4824
872.915	4961
873.044	5025
873.173	4953
873.303	4908
873.432	4896
873.561	4972
873.69	4866
873.819	4828
873.948	4968
874.077	4843
874.206	4828
874.335	4854
874.464	4915
874.593	5022
874.722	4885
874.851	5113
874.979	5041
875.108	5022
875.237	4965
875.365	4911
875.494	4938
875.623	4999
875.751	4866
875.88	4923
876.008	4934
876.136	5014
876.265	5174
876.393	5379
876.521	5269
876.65	5166
876.778	5174
876.906	5140
877.034	5033
877.162	5086
877.29	4995
877.418	5086
877.546	5071
877.674	5029
877.802	5037
877.93	5006
878.058	4976
878.185	4900
878.313	5022
878.441	4999
878.568	4831
878.696	4934
878.824	5029
878.951	5086
879.079	5166
879.206	5288
879.333	5147
879.461	5029
879.588	5056
879.715	5128
879.842	5216
879.97	5045
880.097	4797
880.224	4816
880.351	4866
880.478	4843
880.605	4812
880.732	4812
880.859	5124
880.986	4976
881.112	4949
881.239	4793
881.366	4755
881.493	4641
881.619	4599
881.746	4691
881.872	4672
881.999	4656
882.125	4694
882.252	4786
882.378	4862
882.505	4968
882.631	4843
882.757	4710
882.883	4717
883.01	4767
883.136	4675
883.262	4637
883.388	4603
883.514	4835
883.64	4889
883.766	4835
883.892	4694
884.018	4717
884.143	4911
884.269	5022
884.395	4694
884.52	4694
884.646	4698
884.772	4637
884.897	4554
885.023	4691
885.148	4801
885.274	4923
885.399	4820
885.524	4752
885.65	4710
885.775	4828
885.9	4733
886.025	4850
886.15	4793
886.275	4721
886.4	4668
886.525	4721
886.65	4702
886.775	4729
886.9	4942
887.025	5079
887.149	4805
887.274	4660
887.399	4607
887.523	4615
887.648	4603
887.773	4596
887.897	4801
888.021	4774
888.146	4733
888.27	4850
888.395	4930
888.519	4793
888.643	4824
888.767	4877
888.891	4706
889.015	4634
889.139	4634
889.263	4649
889.387	4740
889.511	4904
889.635	4782
889.759	4694
889.883	4630
890.006	4736
890.13	4847
890.254	4656
890.377	4687
890.501	4523
890.624	4599
890.748	4641
890.871	4519
890.995	4489
891.118	4390
891.241	4508
891.364	4565
891.488	4630
891.611	4519
891.734	4554
891.857	4622
891.98	4618
892.103	4698
892.226	4615
892.349	4577
892.471	4451
892.594	4565
892.717	4558
892.839	4592
892.962	4698
893.085	4710
893.207	4637
893.33	4493
893.452	4535
893.575	4687
893.697	4622
893.819	4805
893.941	4847
894.064	4771
894.186	4596
894.308	4580
894.43	4748
894.552	4828
894.674	4797
894.796	4546
894.918	4599
895.04	4611
895.161	4694
895.283	4683
895.405	4607
895.526	4656
895.648	4733
895.769	4714
895.891	4767
896.012	4782
896.134	4778
896.255	4706
896.376	4675
896.498	4641
896.619	4733
896.74	4622
896.861	4649
896.982	4957
897.103	5174
897.224	4862
897.345	4736
897.466	4717
897.587	4721
897.708	4892
897.828	4793
897.949	4721
898.07	4607
898.19	4729
898.311	4831
898.431	4683
898.552	4763
898.672	4809
898.792	4816
898.913	4740
899.033	4660
899.153	4542
899.273	4451
899.393	4485
899.513	4531
899.633	4535
899.753	4577
899.873	4523
899.993	4622
900.113	4554
900.232	4637
900.352	4622
900.472	4512
900.591	4436
900.711	4478
900.83	4478
900.95	4592
901.069	4683
901.189	4558
901.308	4367
901.427	4310
901.546	4375
901.665	4440
901.784	4542
901.904	4421
902.023	4405
902.141	4230
902.26	4188
902.379	4329
902.498	4268
902.617	4265
902.735	4390
902.854	4379
902.973	4394
903.091	4227
903.21	4253
903.328	4322
903.446	4322
903.565	4291
903.683	4348
903.801	4314
903.919	4440
904.038	4428
904.156	4325
904.274	4413
904.392	4405
904.51	4493
904.627	4485
904.745	4588
904.863	4694
904.981	4424
905.098	4318
905.216	4386
905.334	4489
905.451	4436
905.569	4485
905.686	4596
905.803	4558
905.921	4451
906.038	4569
906.155	4474
906.272	4405
906.389	4478
906.506	4348
906.623	4371
906.74	4375
906.857	4314
906.974	4386
907.091	4622
907.208	4649
907.324	4615
907.441	4512
907.557	4421
907.674	4341
907.79	4398
907.907	4383
908.023	4516
908.139	4504
908.256	4409
908.372	4459
908.488	4481
908.604	4363
908.72	4383
908.836	4360
908.952	4398
909.068	4447
909.184	4618
909.3	4519
909.415	4607
909.531	4592
909.647	4337
909.762	4398
909.878	4398
909.993	4432
910.108	4462
910.224	4459
910.339	4519
910.454	4455
910.57	4417
910.685	4341
910.8	4668
910.915	4611
911.03	4531
911.145	4363
911.259	4299
911.374	4405
911.489	4303
911.604	4280
911.718	4200
911.833	4227
911.947	4120
912.062	4036
912.176	4265
912.291	4261
912.405	4276
912.519	4455
912.633	4500
912.748	4398
912.862	4344
912.976	4230
913.09	4181
913.204	4150
913.318	4238
913.431	4398
913.545	4405
913.659	4466
913.772	4379
913.886	4272
914	4249
914.113	4409
914.226	4462
914.34	4443
914.453	4261
914.566	4447
914.68	4341
914.793	4303
914.906	4169
915.019	4158
915.132	4120
915.245	4246
915.358	4242
915.47	4249
915.583	4344
915.696	4333
915.809	4447
915.921	4432
916.034	4295
916.146	4268
916.259	4196
916.371	4367
916.483	4402
916.595	4325
916.708	4341
916.82	4348
916.932	4341
917.044	4360
917.156	4352
917.268	4272
917.38	4306
917.491	4291
917.603	4386
917.715	4443
917.826	4440
917.938	4352
918.049	4284
918.161	4455
918.272	4542
918.384	4527
918.495	4470
918.606	4303
918.717	4238
918.828	4325
918.939	4344
919.05	4265
919.161	4402
919.272	4131
919.383	4257
919.494	4440
919.604	4653
919.715	4500
919.826	4367
919.936	4394
920.047	4508
920.157	4535
920.267	4729
920.378	4584
920.488	4573
920.598	4752
920.708	4873
920.818	4812
920.928	4801
921.038	4976
921.148	4961
921.258	4668
921.368	4561
921.477	4523
921.587	4451
921.697	4379
921.806	4558
921.916	4451
922.025	4287
922.134	4295
922.244	4230
922.353	4363
922.462	4169
922.571	4143
922.68	4013
922.789	4006
922.898	4071
923.007	4051
923.116	4147
923.224	4071
923.333	4097
923.442	3991
923.55	3956
923.659	4013
923.767	4173
923.876	4010
923.984	4135
924.092	4013
924.201	4128
924.309	4101
924.417	4131
924.525	4074
924.633	4105
924.741	5071
924.849	3987
924.956	4116
925.064	3975
925.172	3911
925.279	3937
925.387	4044
925.494	4090
925.602	4219
925.709	4192
925.816	4090
925.924	4150
926.031	4219
926.138	4192
926.245	4215
926.352	4101
926.459	4306
926.566	4272
926.673	4188
926.779	4105
926.886	4078
926.993	4017
927.099	3994
927.206	3934
927.312	3949
927.419	4040
927.525	4032
927.631	4143
927.737	3964
927.843	3949
927.95	3850
928.056	3960
928.162	3998
928.267	4036
928.373	4599
928.479	4116
928.585	3899
928.69	4021
928.796	4128
928.901	3941
929.007	3850
929.112	4006
929.218	3975
929.323	3960
929.428	3983
929.533	4112
929.638	3922
929.743	3949
929.848	4048
929.953	3987
930.058	3934
930.163	3812
930.267	3861
930.372	3994
930.477	3846
930.581	4120
930.685	3968
930.79	3800
930.894	3899
930.998	3842
931.103	4059
931.207	3720
931.311	3747
931.415	3663
931.519	3530
931.623	3584
