Data from test_V78500241_2736.txt Node
Date: Fri Mar 25 17:08:01 CST 2022
User: usil
Spectrometer: V785-0024
Trigger mode: 0
Integration Time (sec): 4.000000E-1
Scans to average: 1
Nonlinearity correction enabled: false
Boxcar width: 0
Storing dark spectrum: false
XAxis mode: Wavelengths
Number of Pixels in Spectrum: 1024
>>>>>Begin Spectral Data<<<<<
801.071	8001
801.214	8046
801.356	7845
801.499	7871
801.641	7833
801.783	7860
801.926	7997
802.068	7967
802.211	8024
802.353	8077
802.496	7879
802.638	7913
802.78	7906
802.923	7940
803.065	7913
803.208	7871
803.35	7963
803.492	8126
803.635	8214
803.777	8138
803.919	8119
804.061	8473
804.204	8187
804.346	8024
804.488	7986
804.63	8039
804.773	8035
804.915	8142
805.057	8298
805.199	8142
805.341	8279
805.483	8248
805.626	8195
805.768	8183
805.91	8206
806.052	8199
806.194	8134
806.336	8271
806.478	8157
806.62	8008
806.762	8092
806.904	8248
807.046	8442
807.188	8412
807.33	8374
807.472	8339
807.614	8161
807.756	8202
807.898	8016
808.04	7906
808.182	7902
808.324	7864
808.465	7989
808.607	8103
808.749	8183
808.891	8275
809.033	8301
809.174	8263
809.316	8092
809.458	8073
809.6	8005
809.741	8107
809.883	8046
810.025	8161
810.166	8103
810.308	8035
810.45	7997
810.591	7921
810.733	7746
810.875	7643
811.016	7499
811.158	7480
811.299	7590
811.441	7734
811.582	7674
811.724	7590
811.865	7559
812.007	7556
812.148	7575
812.29	7666
812.431	7776
812.573	7902
812.714	7909
812.855	8126
812.997	8218
813.138	8279
813.279	8191
813.421	8084
813.562	8058
813.703	7906
813.845	7780
813.986	7449
814.127	7255
814.268	7213
814.41	7202
814.551	7149
814.692	7194
814.833	7069
814.974	7076
815.115	7076
815.256	6909
815.397	6962
815.539	7004
815.68	6810
815.821	6810
815.962	6909
816.103	6825
816.244	6734
816.385	6585
816.526	6639
816.666	6589
816.807	6319
816.948	6456
817.089	6483
817.23	6506
817.371	6353
817.512	6372
817.653	6456
817.793	6414
817.934	6460
818.075	6483
818.216	6369
818.356	6357
818.497	6319
818.638	6114
818.778	6129
818.919	6125
819.06	6155
819.2	6327
819.341	6350
819.481	6399
819.622	6509
819.762	6764
819.903	6734
820.043	6650
820.184	6601
820.324	6593
820.465	6734
820.605	6692
820.746	6642
820.886	6506
821.026	6700
821.167	6673
821.307	6741
821.447	6768
821.588	6612
821.728	6570
821.868	6536
822.008	6319
822.149	6407
822.289	6353
822.429	6186
822.569	6148
822.709	6106
822.849	5901
822.99	5942
823.13	5923
823.27	5935
823.41	5817
823.55	5748
823.69	5832
823.83	5786
823.97	5688
824.11	5558
824.25	5497
824.389	5547
824.529	5573
824.669	5501
824.809	5604
824.949	5676
825.089	5589
825.228	5589
825.368	5364
825.508	5402
825.648	5349
825.787	5372
825.927	5395
826.067	5307
826.206	5322
826.346	5368
826.485	5391
826.625	5444
826.765	5562
826.904	5486
827.044	5307
827.183	5231
827.323	5124
827.462	5246
827.601	5204
827.741	5098
827.88	5201
828.02	5124
828.159	5280
828.298	5322
828.437	5379
828.577	5372
828.716	5474
828.855	5284
828.994	5121
829.134	5132
829.273	5166
829.412	5143
829.551	5086
829.69	5136
829.829	5250
829.968	5315
830.107	5235
830.246	5345
830.385	5162
830.524	5143
830.663	5090
830.802	4980
830.941	4896
831.08	4839
831.219	4972
831.357	4938
831.496	5140
831.635	4892
831.774	4881
831.913	4820
832.051	4748
832.19	4752
832.329	4824
832.467	4660
832.606	4645
832.744	4706
832.883	4710
833.022	4687
833.16	4755
833.299	4831
833.437	4812
833.576	4866
833.714	4805
833.852	4900
833.991	4927
834.129	4968
834.267	4980
834.406	4889
834.544	4984
834.682	4987
834.821	4976
834.959	5155
835.097	4987
835.235	5098
835.373	5105
835.511	5136
835.65	5014
835.788	5090
835.926	4900
836.064	4881
836.202	4908
836.34	5147
836.478	5303
836.615	5075
836.753	5223
836.891	5292
837.029	5265
837.167	5265
837.305	5181
837.443	5109
837.58	5098
837.718	5204
837.856	5151
837.993	5166
838.131	5185
838.269	5208
838.406	5155
838.544	5185
838.681	5037
838.819	5010
838.956	4900
839.094	4915
839.231	4999
839.369	5086
839.506	5478
839.643	5284
839.781	5048
839.918	4991
840.055	5086
840.193	5102
840.33	5098
840.467	5109
840.604	5128
840.742	5452
840.879	5056
841.016	5086
841.153	5105
841.29	5436
841.427	5334
841.564	5318
841.701	5353
841.838	5239
841.975	5174
842.112	5269
842.249	5124
842.385	5170
842.522	5334
842.659	5189
842.796	5105
842.933	5227
843.069	5166
843.206	5147
843.343	5318
843.479	5185
843.616	5311
843.752	5022
843.889	5006
844.025	5201
844.162	5006
844.298	5193
844.435	5105
844.571	5025
844.708	5208
844.844	5315
844.98	5322
845.117	5269
845.253	5109
845.389	5041
845.525	5143
845.661	5143
845.798	5037
845.934	5124
846.07	5071
846.206	5178
846.342	5280
846.478	5143
846.614	4999
846.75	4991
846.886	4908
847.022	5136
847.158	5064
847.294	5086
847.429	5105
847.565	5029
847.701	5341
847.837	4839
847.972	4774
848.108	4942
848.244	4919
848.379	4824
848.515	4752
848.65	4694
848.786	4710
848.921	4786
849.057	4873
849.192	4942
849.328	4797
849.463	4877
849.598	4797
849.734	4733
849.869	4744
850.004	4637
850.14	4710
850.275	4592
850.41	4558
850.545	4561
850.68	4615
850.815	4607
850.95	4637
851.085	4866
851.22	4721
851.355	4634
851.49	4618
851.625	4637
851.76	4630
851.895	4607
852.03	4527
852.165	4611
852.299	4679
852.434	4778
852.569	4683
852.703	4763
852.838	4862
852.973	4934
853.107	4923
853.242	4744
853.376	4702
853.511	4554
853.645	4687
853.78	4767
853.914	4660
854.048	4649
854.183	4611
854.317	4694
854.451	4866
854.585	4641
854.72	4577
854.854	4767
854.988	4618
855.122	4607
855.256	4535
855.39	4607
855.524	4790
855.658	4698
855.792	4725
855.926	4698
856.06	4752
856.194	4767
856.327	4702
856.461	4599
856.595	4618
856.729	4630
856.862	4725
856.996	4687
857.13	4675
857.263	4805
857.397	4786
857.53	4660
857.664	4679
857.797	4744
857.931	4767
858.064	4740
858.197	4706
858.331	4634
858.464	4626
858.597	4527
858.731	4641
858.864	4626
858.997	4618
859.13	4702
859.263	4664
859.396	4672
859.529	4664
859.662	4607
859.795	4504
859.928	4611
860.061	4801
860.194	4763
860.327	4637
860.46	4596
860.592	4748
860.725	4721
860.858	4717
860.99	4561
861.123	4527
861.256	4519
861.388	4702
861.521	5307
861.653	4493
861.786	4440
861.918	4462
862.05	4527
862.183	4474
862.315	4637
862.447	4653
862.58	4550
862.712	4383
862.844	4325
862.976	4432
863.108	4466
863.24	4782
863.372	4280
863.504	4421
863.636	4451
863.768	4443
863.9	4432
864.032	4379
864.164	4417
864.296	4489
864.428	4538
864.559	4535
864.691	4596
864.823	4531
864.954	4481
865.086	4508
865.217	4455
865.349	4417
865.48	4478
865.612	4443
865.743	4630
865.875	4474
866.006	4405
866.137	4459
866.269	4440
866.4	4447
866.531	4409
866.662	4436
866.793	4421
866.924	4432
867.055	4481
867.186	4447
867.317	4383
867.448	4348
867.579	4341
867.71	4383
867.841	4398
867.972	4443
868.103	4447
868.233	4413
868.364	4497
868.495	4455
868.625	4649
868.756	4748
868.886	4538
869.017	4615
869.147	4790
869.278	4793
869.408	4653
869.539	4615
869.669	4767
869.799	4641
869.929	4778
870.06	4759
870.19	4923
870.32	4881
870.45	4934
870.58	5014
870.71	5151
870.84	5113
870.97	4934
871.1	4904
871.23	5143
871.36	5102
871.489	5006
871.619	5102
871.749	5064
871.879	5094
872.008	5147
872.138	5086
872.267	4976
872.397	4828
872.526	4793
872.656	4748
872.785	4801
872.915	5037
873.044	4968
873.173	4934
873.303	4938
873.432	4968
873.561	4949
873.69	4900
873.819	4881
873.948	4915
874.077	4786
874.206	4759
874.335	4812
874.464	4946
874.593	5048
874.722	5018
874.851	5086
874.979	5102
875.108	5014
875.237	4847
875.365	4835
875.494	4892
875.623	4965
875.751	4793
875.88	4930
876.008	5010
876.136	5052
876.265	5204
876.393	5326
876.521	5265
876.65	5212
876.778	5109
876.906	5105
877.034	5029
877.162	5022
877.29	5010
877.418	5064
877.546	5067
877.674	5048
877.802	5037
877.93	5056
878.058	4923
878.185	4923
878.313	4908
878.441	4984
878.568	4790
878.696	4839
878.824	4946
878.951	4991
879.079	5143
879.206	5265
879.333	5083
879.461	5003
879.588	5022
879.715	5117
879.842	5227
879.97	5018
880.097	4797
880.224	4748
880.351	4828
880.478	4812
880.605	4805
880.732	4744
880.859	5075
880.986	4889
881.112	4915
881.239	4771
881.366	4710
881.493	4561
881.619	4588
881.746	4626
881.872	4649
881.999	4637
882.125	4672
882.252	4805
882.378	4816
882.505	4953
882.631	4763
882.757	4672
882.883	4714
883.01	4733
883.136	4626
883.262	4596
883.388	4637
883.514	4801
883.64	4881
883.766	4793
883.892	4664
884.018	4672
884.143	4843
884.269	5010
884.395	4717
884.52	4645
884.646	4615
884.772	4634
884.897	4569
885.023	4702
885.148	4793
885.274	4850
885.399	4831
885.524	4706
885.65	4725
885.775	4755
885.9	4763
886.025	4847
886.15	4729
886.275	4679
886.4	4637
886.525	4706
886.65	4691
886.775	4637
886.9	4915
887.025	5003
887.149	4828
887.274	4634
887.399	4596
887.523	4592
887.648	4584
887.773	4569
887.897	4801
888.021	4774
888.146	4672
888.27	4824
888.395	4911
888.519	4801
888.643	4778
888.767	4835
888.891	4725
889.015	4653
889.139	4679
889.263	4599
889.387	4793
889.511	4866
889.635	4786
889.759	4660
889.883	4641
890.006	4729
890.13	4877
890.254	4622
890.377	4679
890.501	4573
890.624	4512
890.748	4645
890.871	4478
890.995	4432
891.118	4402
891.241	4500
891.364	4535
891.488	4653
891.611	4538
891.734	4516
891.857	4641
891.98	4607
892.103	4622
892.226	4580
892.349	4535
892.471	4421
892.594	4523
892.717	4637
892.839	4580
892.962	4531
893.085	4630
893.207	4615
893.33	4462
893.452	4554
893.575	4672
893.697	4584
893.819	4782
893.941	4889
894.064	4805
894.186	4626
894.308	4550
894.43	4740
894.552	4858
894.674	4744
894.796	4516
894.918	4558
895.04	4561
895.161	4706
895.283	4653
895.405	4577
895.526	4660
895.648	4679
895.769	4717
895.891	4736
896.012	4721
896.134	4717
896.255	4691
896.376	4656
896.498	4672
896.619	4649
896.74	4618
896.861	4664
896.982	4934
897.103	5029
897.224	4805
897.345	4755
897.466	4706
897.587	4759
897.708	4877
897.828	4763
897.949	4637
898.07	4561
898.19	4637
898.311	4854
898.431	4721
898.552	4717
898.672	4820
898.792	4767
898.913	4717
899.033	4641
899.153	4527
899.273	4447
899.393	4485
899.513	4554
899.633	4584
899.753	4592
899.873	4519
899.993	4596
900.113	4546
900.232	4588
900.352	4542
900.472	4470
900.591	4417
900.711	4535
900.83	4417
900.95	4596
901.069	4717
901.189	4592
901.308	4367
901.427	4333
901.546	4356
901.665	4447
901.784	4481
901.904	4394
902.023	4272
902.141	4227
902.26	4169
902.379	4341
902.498	4196
902.617	4219
902.735	4405
902.854	4363
902.973	4421
903.091	4177
903.21	4242
903.328	4238
903.446	4276
903.565	4253
903.683	4386
903.801	4268
903.919	4375
904.038	4451
904.156	4322
904.274	4409
904.392	4424
904.51	4447
904.627	4474
904.745	4577
904.863	4603
904.981	4405
905.098	4322
905.216	4341
905.334	4455
905.451	4481
905.569	4440
905.686	4558
905.803	4538
905.921	4443
906.038	4596
906.155	4485
906.272	4405
906.389	4413
906.506	4363
906.623	4352
906.74	4383
906.857	4299
906.974	4379
907.091	4577
907.208	4641
907.324	4565
907.441	4489
907.557	4306
907.674	4352
907.79	4337
907.907	4337
908.023	4447
908.139	4497
908.256	4440
908.372	4481
908.488	4466
908.604	4306
908.72	4352
908.836	4371
908.952	4375
909.068	4402
909.184	4599
909.3	4519
909.415	4618
909.531	4558
909.647	4371
909.762	4394
909.878	4363
909.993	4443
910.108	4386
910.224	4383
910.339	4489
910.454	4462
910.57	4352
910.685	4299
910.8	4637
910.915	4630
911.03	4497
911.145	4341
911.259	4379
911.374	4390
911.489	4325
911.604	4295
911.718	4192
911.833	4215
911.947	4093
912.062	4055
912.176	4257
912.291	4253
912.405	4211
912.519	4485
912.633	4531
912.748	4375
912.862	4329
912.976	4192
913.09	4101
913.204	4177
913.318	4268
913.431	4394
913.545	4356
913.659	4459
913.772	4390
913.886	4234
914	4238
914.113	4356
914.226	4421
914.34	4413
914.453	4204
914.566	4424
914.68	4303
914.793	4333
914.906	4169
915.019	4135
915.132	4059
915.245	4177
915.358	4211
915.47	4253
915.583	4299
915.696	4284
915.809	4424
915.921	4440
916.034	4257
916.146	4261
916.259	4219
916.371	4386
916.483	4371
916.595	4261
916.708	4310
916.82	4284
916.932	4352
917.044	4310
917.156	4352
917.268	4230
917.38	4303
917.491	4284
917.603	4329
917.715	4413
917.826	4485
917.938	4310
918.049	4242
918.161	4421
918.272	4500
918.384	4542
918.495	4474
918.606	4341
918.717	4249
918.828	4333
918.939	4333
919.05	4284
919.161	4363
919.272	4120
919.383	4196
919.494	4459
919.604	4645
919.715	4443
919.826	4344
919.936	4405
920.047	4558
920.157	4508
920.267	4683
920.378	4497
920.488	4512
920.598	4740
920.708	4835
920.818	4778
920.928	4752
921.038	4972
921.148	4927
921.258	4596
921.368	4584
921.477	4489
921.587	4432
921.697	4344
921.806	4550
921.916	4356
922.025	4295
922.134	4284
922.244	4234
922.353	4310
922.462	4185
922.571	4101
922.68	4044
922.789	3979
922.898	4036
923.007	3979
923.116	4105
923.224	4063
923.333	4143
923.442	3991
923.55	3975
923.659	4021
923.767	4078
923.876	4036
923.984	4101
924.092	3979
924.201	4086
924.309	4131
924.417	4143
924.525	4051
924.633	4090
924.741	5029
924.849	3953
924.956	4131
925.064	3934
925.172	3907
925.279	3998
925.387	4059
925.494	3979
925.602	4173
925.709	4169
925.816	4040
925.924	4086
926.031	4268
926.138	4181
926.245	4211
926.352	4086
926.459	4276
926.566	4329
926.673	4109
926.779	4051
926.886	4101
926.993	3922
927.099	3991
927.206	3979
927.312	3960
927.419	4078
927.525	4013
927.631	4112
927.737	3941
927.843	3903
927.95	3831
928.056	3922
928.162	3960
928.267	4063
928.373	4679
928.479	4135
928.585	3854
928.69	4029
928.796	4112
928.901	3922
929.007	3869
929.112	3991
929.218	4002
929.323	3903
929.428	3918
929.533	4116
929.638	3918
929.743	3960
929.848	4051
929.953	4021
930.058	4002
930.163	3827
930.267	3823
930.372	3953
930.477	3804
930.581	4063
930.685	3975
930.79	3819
930.894	3827
930.998	3842
931.103	4063
931.207	3682
931.311	3755
931.415	3671
931.519	3500
931.623	3549
