Data from test_V78500241_1053.txt Node
Date: Fri Mar 25 16:56:19 CST 2022
User: usil
Spectrometer: V785-0024
Trigger mode: 0
Integration Time (sec): 4.000000E-1
Scans to average: 1
Nonlinearity correction enabled: false
Boxcar width: 0
Storing dark spectrum: false
XAxis mode: Wavelengths
Number of Pixels in Spectrum: 1024
>>>>>Begin Spectral Data<<<<<
801.071	8016
801.214	8069
801.356	7921
801.499	7826
801.641	7780
801.783	7784
801.926	7947
802.068	7894
802.211	7871
802.353	7925
802.496	7852
802.638	7845
802.78	7890
802.923	7890
803.065	7879
803.208	7849
803.35	7932
803.492	8096
803.635	8126
803.777	7993
803.919	8130
804.061	8370
804.204	8134
804.346	8012
804.488	7917
804.63	8069
804.773	8016
804.915	8107
805.057	8259
805.199	8210
805.341	8237
805.483	8248
805.626	8183
805.768	8103
805.91	8199
806.052	8153
806.194	8054
806.336	8240
806.478	8115
806.62	8050
806.762	8115
806.904	8183
807.046	8446
807.188	8294
807.33	8263
807.472	8343
807.614	8119
807.756	8081
807.898	8005
808.04	7890
808.182	7852
808.324	7936
808.465	7913
808.607	8077
808.749	8107
808.891	8134
809.033	8279
809.174	8183
809.316	8058
809.458	7997
809.6	7970
809.741	7997
809.883	8031
810.025	8031
810.166	8096
810.308	8016
810.45	7955
810.591	7852
810.733	7674
810.875	7670
811.016	7464
811.158	7430
811.299	7594
811.441	7715
811.582	7700
811.724	7601
811.865	7525
812.007	7540
812.148	7620
812.29	7616
812.431	7772
812.573	7841
812.714	7951
812.855	8130
812.997	8202
813.138	8301
813.279	8142
813.421	8050
813.562	7989
813.703	7826
813.845	7753
813.986	7415
814.127	7282
814.268	7232
814.41	7225
814.551	7110
814.692	7198
814.833	7061
814.974	7053
815.115	7099
815.256	6909
815.397	6943
815.539	6958
815.68	6875
815.821	6757
815.962	6905
816.103	6791
816.244	6726
816.385	6570
816.526	6597
816.666	6437
816.807	6300
816.948	6422
817.089	6509
817.23	6342
817.371	6395
817.512	6346
817.653	6403
817.793	6342
817.934	6426
818.075	6380
818.216	6395
818.356	6395
818.497	6190
818.638	6030
818.778	6182
818.919	6155
819.06	6129
819.2	6346
819.341	6350
819.481	6372
819.622	6483
819.762	6711
819.903	6745
820.043	6589
820.184	6639
820.324	6623
820.465	6662
820.605	6627
820.746	6627
820.886	6517
821.026	6597
821.167	6707
821.307	6715
821.447	6757
821.588	6719
821.728	6563
821.868	6479
822.008	6334
822.149	6399
822.289	6296
822.429	6144
822.569	6079
822.709	6106
822.849	5923
822.99	5885
823.13	5901
823.27	5889
823.41	5783
823.55	5760
823.69	5703
823.83	5771
823.97	5638
824.11	5509
824.25	5512
824.389	5543
824.529	5551
824.669	5497
824.809	5615
824.949	5634
825.089	5581
825.228	5562
825.368	5337
825.508	5357
825.648	5353
825.787	5353
825.927	5383
826.067	5269
826.206	5299
826.346	5345
826.485	5398
826.625	5406
826.765	5566
826.904	5417
827.044	5280
827.183	5197
827.323	5162
827.462	5246
827.601	5170
827.741	5162
827.88	5189
828.02	5109
828.159	5197
828.298	5261
828.437	5383
828.577	5311
828.716	5425
828.855	5318
828.994	5121
829.134	5079
829.273	5174
829.412	5136
829.551	5143
829.69	5155
829.829	5204
829.968	5318
830.107	5216
830.246	5277
830.385	5140
830.524	5189
830.663	5060
830.802	4965
830.941	4790
831.08	4900
831.219	4987
831.357	4957
831.496	5117
831.635	4949
831.774	4847
831.913	4847
832.051	4729
832.19	4725
832.329	4812
832.467	4675
832.606	4653
832.744	4660
832.883	4736
833.022	4740
833.16	4759
833.299	4774
833.437	4793
833.576	4801
833.714	4835
833.852	4809
833.991	4866
834.129	4927
834.267	4949
834.406	4908
834.544	5003
834.682	4934
834.821	4976
834.959	5124
835.097	4953
835.235	5109
835.373	5083
835.511	5075
835.65	5079
835.788	4987
835.926	4923
836.064	4885
836.202	4847
836.34	5121
836.478	5204
836.615	5075
836.753	5178
836.891	5258
837.029	5220
837.167	5170
837.305	5132
837.443	5197
837.58	5052
837.718	5231
837.856	5162
837.993	5117
838.131	5178
838.269	5227
838.406	5181
838.544	5178
838.681	5010
838.819	4995
838.956	4839
839.094	4938
839.231	4934
839.369	5045
839.506	5410
839.643	5242
839.781	5025
839.918	5010
840.055	5079
840.193	5090
840.33	5079
840.467	5128
840.604	5140
840.742	5436
840.879	5060
841.016	5064
841.153	5117
841.29	5417
841.427	5273
841.564	5318
841.701	5357
841.838	5269
841.975	5239
842.112	5212
842.249	5124
842.385	5105
842.522	5318
842.659	5170
842.796	5140
842.933	5242
843.069	5113
843.206	5132
843.343	5277
843.479	5220
843.616	5242
843.752	5052
843.889	4972
844.025	5197
844.162	5025
844.298	5208
844.435	5045
844.571	5067
844.708	5208
844.844	5326
844.98	5307
845.117	5239
845.253	5185
845.389	5071
845.525	5159
845.661	5155
845.798	5003
845.934	5105
846.07	5033
846.206	5223
846.342	5258
846.478	5231
846.614	5018
846.75	4961
846.886	4942
847.022	5178
847.158	4995
847.294	5056
847.429	5067
847.565	5067
847.701	5299
847.837	4831
847.972	4805
848.108	4946
848.244	4927
848.379	4752
848.515	4698
848.65	4687
848.786	4740
848.921	4797
849.057	4858
849.192	4847
849.328	4820
849.463	4828
849.598	4763
849.734	4744
849.869	4710
850.004	4561
850.14	4645
850.275	4596
850.41	4493
850.545	4561
850.68	4599
850.815	4641
850.95	4592
851.085	4820
851.22	4748
851.355	4607
851.49	4554
851.625	4630
851.76	4634
851.895	4527
852.03	4550
852.165	4637
852.299	4744
852.434	4759
852.569	4729
852.703	4714
852.838	4889
852.973	4896
853.107	4915
853.242	4702
853.376	4675
853.511	4531
853.645	4615
853.78	4790
853.914	4683
854.048	4645
854.183	4649
854.317	4691
854.451	4858
854.585	4641
854.72	4615
854.854	4714
854.988	4569
855.122	4687
855.256	4554
855.39	4672
855.524	4805
855.658	4694
855.792	4717
855.926	4694
856.06	4729
856.194	4812
856.327	4679
856.461	4622
856.595	4641
856.729	4622
856.862	4725
856.996	4660
857.13	4687
857.263	4797
857.397	4755
857.53	4637
857.664	4733
857.797	4736
857.931	4793
858.064	4634
858.197	4729
858.331	4611
858.464	4641
858.597	4497
858.731	4607
858.864	4596
858.997	4565
859.13	4649
859.263	4637
859.396	4672
859.529	4584
859.662	4599
859.795	4527
859.928	4584
860.061	4759
860.194	4752
860.327	4634
860.46	4504
860.592	4653
860.725	4691
860.858	4763
860.99	4538
861.123	4497
861.256	4519
861.388	4550
861.521	5303
861.653	4497
861.786	4462
861.918	4402
862.05	4470
862.183	4535
862.315	4622
862.447	4637
862.58	4516
862.712	4409
862.844	4272
862.976	4478
863.108	4508
863.24	4847
863.372	4341
863.504	4409
863.636	4440
863.768	4424
863.9	4447
864.032	4360
864.164	4390
864.296	4424
864.428	4565
864.559	4588
864.691	4493
864.823	4500
864.954	4485
865.086	4519
865.217	4451
865.349	4440
865.48	4386
865.612	4481
865.743	4649
865.875	4462
866.006	4436
866.137	4421
866.269	4455
866.4	4428
866.531	4398
866.662	4443
866.793	4417
866.924	4428
867.055	4447
867.186	4459
867.317	4386
867.448	4352
867.579	4363
867.71	4348
867.841	4348
867.972	4424
868.103	4436
868.233	4405
868.364	4394
868.495	4436
868.625	4649
868.756	4721
868.886	4531
869.017	4577
869.147	4721
869.278	4786
869.408	4630
869.539	4611
869.669	4694
869.799	4637
869.929	4721
870.06	4683
870.19	4957
870.32	4889
870.45	4911
870.58	4972
870.71	5109
870.84	5094
870.97	4930
871.1	4930
871.23	5105
871.36	5124
871.489	5025
871.619	5025
871.749	5071
871.879	5113
872.008	5105
872.138	5041
872.267	4934
872.397	4847
872.526	4748
872.656	4740
872.785	4786
872.915	4911
873.044	5022
873.173	4877
873.303	4961
873.432	4942
873.561	4946
873.69	4889
873.819	4782
873.948	4915
874.077	4790
874.206	4687
874.335	4778
874.464	4923
874.593	5022
874.722	4953
874.851	5105
874.979	5025
875.108	5018
875.237	4949
875.365	4831
875.494	4870
875.623	4934
875.751	4809
875.88	4877
876.008	4980
876.136	5006
876.265	5170
876.393	5315
876.521	5265
876.65	5212
876.778	5170
876.906	5090
877.034	4965
877.162	5075
877.29	4987
877.418	5010
877.546	5079
877.674	4999
877.802	5025
877.93	5060
878.058	4942
878.185	4858
878.313	4900
878.441	4927
878.568	4809
878.696	4854
878.824	4919
878.951	5006
879.079	5090
879.206	5296
879.333	5083
879.461	4953
879.588	4949
879.715	5166
879.842	5216
879.97	4968
880.097	4809
880.224	4721
880.351	4809
880.478	4824
880.605	4752
880.732	4748
880.859	5060
880.986	4812
881.112	4930
881.239	4698
881.366	4664
881.493	4588
881.619	4546
881.746	4630
881.872	4607
881.999	4618
882.125	4698
882.252	4755
882.378	4812
882.505	4965
882.631	4782
882.757	4641
882.883	4698
883.01	4733
883.136	4702
883.262	4618
883.388	4611
883.514	4820
883.64	4824
883.766	4786
883.892	4630
884.018	4691
884.143	4896
884.269	5037
884.395	4668
884.52	4615
884.646	4615
884.772	4569
884.897	4531
885.023	4637
885.148	4778
885.274	4847
885.399	4767
885.524	4740
885.65	4664
885.775	4702
885.9	4675
886.025	4881
886.15	4790
886.275	4725
886.4	4599
886.525	4714
886.65	4694
886.775	4664
886.9	4900
887.025	5064
887.149	4778
887.274	4634
887.399	4569
887.523	4565
887.648	4588
887.773	4535
887.897	4725
888.021	4763
888.146	4683
888.27	4816
888.395	4919
888.519	4824
888.643	4801
888.767	4774
888.891	4649
889.015	4546
889.139	4603
889.263	4615
889.387	4752
889.511	4843
889.635	4774
889.759	4626
889.883	4615
890.006	4752
890.13	4782
890.254	4649
890.377	4660
890.501	4519
890.624	4519
890.748	4634
890.871	4554
890.995	4409
891.118	4386
891.241	4508
891.364	4497
891.488	4672
891.611	4508
891.734	4512
891.857	4611
891.98	4569
892.103	4637
892.226	4584
892.349	4512
892.471	4432
892.594	4512
892.717	4615
892.839	4561
892.962	4603
893.085	4634
893.207	4584
893.33	4478
893.452	4523
893.575	4664
893.697	4554
893.819	4774
893.941	4850
894.064	4755
894.186	4565
894.308	4535
894.43	4710
894.552	4790
894.674	4763
894.796	4538
894.918	4538
895.04	4542
895.161	4706
895.283	4626
895.405	4641
895.526	4645
895.648	4683
895.769	4691
895.891	4744
896.012	4717
896.134	4683
896.255	4660
896.376	4637
896.498	4626
896.619	4653
896.74	4653
896.861	4626
896.982	4896
897.103	5094
897.224	4809
897.345	4748
897.466	4656
897.587	4725
897.708	4820
897.828	4774
897.949	4641
898.07	4519
898.19	4641
898.311	4824
898.431	4645
898.552	4755
898.672	4805
898.792	4744
898.913	4778
899.033	4607
899.153	4478
899.273	4424
899.393	4512
899.513	4504
899.633	4497
899.753	4542
899.873	4497
899.993	4546
900.113	4565
900.232	4584
900.352	4550
900.472	4474
900.591	4375
900.711	4459
900.83	4436
900.95	4607
901.069	4660
901.189	4550
901.308	4360
901.427	4295
901.546	4344
901.665	4478
901.784	4447
901.904	4413
902.023	4261
902.141	4166
902.26	4169
902.379	4322
902.498	4230
902.617	4219
902.735	4341
902.854	4383
902.973	4371
903.091	4204
903.21	4215
903.328	4337
903.446	4268
903.565	4261
903.683	4371
903.801	4253
903.919	4383
904.038	4478
904.156	4276
904.274	4455
904.392	4379
904.51	4405
904.627	4508
904.745	4558
904.863	4615
904.981	4428
905.098	4333
905.216	4344
905.334	4447
905.451	4451
905.569	4428
905.686	4603
905.803	4592
905.921	4371
906.038	4565
906.155	4470
906.272	4413
906.389	4451
906.506	4363
906.623	4352
906.74	4325
906.857	4306
906.974	4394
907.091	4599
907.208	4634
907.324	4550
907.441	4485
907.557	4329
907.674	4329
907.79	4318
907.907	4352
908.023	4508
908.139	4500
908.256	4443
908.372	4466
908.488	4481
908.604	4284
908.72	4314
908.836	4337
908.952	4333
909.068	4413
909.184	4535
909.3	4459
909.415	4588
909.531	4523
909.647	4329
909.762	4310
909.878	4310
909.993	4424
910.108	4341
910.224	4379
910.339	4413
910.454	4379
910.57	4333
910.685	4291
910.8	4641
910.915	4577
911.03	4470
911.145	4360
911.259	4287
911.374	4379
911.489	4287
911.604	4261
911.718	4150
911.833	4196
911.947	4036
912.062	4017
912.176	4196
912.291	4246
912.405	4177
912.519	4489
912.633	4538
912.748	4360
912.862	4295
912.976	4188
913.09	4101
913.204	4154
913.318	4246
913.431	4341
913.545	4348
913.659	4459
913.772	4371
913.886	4253
914	4196
914.113	4325
914.226	4409
914.34	4386
914.453	4257
914.566	4432
914.68	4310
914.793	4329
914.906	4116
915.019	4135
915.132	4124
915.245	4181
915.358	4223
915.47	4246
915.583	4265
915.696	4280
915.809	4379
915.921	4417
916.034	4280
916.146	4265
916.259	4219
916.371	4386
916.483	4306
916.595	4238
916.708	4314
916.82	4344
916.932	4329
917.044	4360
917.156	4310
917.268	4211
917.38	4325
917.491	4234
917.603	4337
917.715	4451
917.826	4432
917.938	4322
918.049	4223
918.161	4428
918.272	4508
918.384	4519
918.495	4443
918.606	4306
918.717	4223
918.828	4325
918.939	4390
919.05	4284
919.161	4306
919.272	4124
919.383	4204
919.494	4462
919.604	4618
919.715	4459
919.826	4379
919.936	4394
920.047	4527
920.157	4489
920.267	4729
920.378	4546
920.488	4531
920.598	4710
920.708	4881
920.818	4752
920.928	4755
921.038	4942
921.148	4870
921.258	4588
921.368	4603
921.477	4497
921.587	4417
921.697	4363
921.806	4523
921.916	4459
922.025	4253
922.134	4268
922.244	4223
922.353	4337
922.462	4204
922.571	4109
922.68	3953
922.789	3994
922.898	3998
923.007	4002
923.116	4059
923.224	4013
923.333	4063
923.442	3964
923.55	3956
923.659	4067
923.767	4101
923.876	4002
923.984	4093
924.092	3994
924.201	4067
924.309	4051
924.417	4109
924.525	4097
924.633	4071
924.741	5037
924.849	3903
924.956	4093
925.064	3945
925.172	3903
925.279	3960
925.387	4051
925.494	4059
925.602	4219
925.709	4200
925.816	4029
925.924	4116
926.031	4215
926.138	4135
926.245	4177
926.352	4105
926.459	4295
926.566	4280
926.673	4150
926.779	4078
926.886	4051
926.993	3983
927.099	3926
927.206	3956
927.312	3918
927.419	4067
927.525	4055
927.631	4093
927.737	3987
927.843	3956
927.95	3865
928.056	3922
928.162	4010
928.267	4025
928.373	4702
928.479	4120
928.585	3907
928.69	4010
928.796	4055
928.901	3953
929.007	3823
929.112	4021
929.218	3972
929.323	3960
929.428	3949
929.533	4090
929.638	3926
929.743	3926
929.848	4010
929.953	4021
930.058	3941
930.163	3766
930.267	3823
930.372	3975
930.477	3835
930.581	4048
930.685	3930
930.79	3850
930.894	3915
930.998	3838
931.103	4040
931.207	3709
931.311	3682
931.415	3663
931.519	3492
931.623	3561
