Data from test_V78500241_1901.txt Node
Date: Fri Mar 25 17:02:13 CST 2022
User: usil
Spectrometer: V785-0024
Trigger mode: 0
Integration Time (sec): 4.000000E-1
Scans to average: 1
Nonlinearity correction enabled: false
Boxcar width: 0
Storing dark spectrum: false
XAxis mode: Wavelengths
Number of Pixels in Spectrum: 1024
>>>>>Begin Spectral Data<<<<<
801.071	7970
801.214	7963
801.356	7852
801.499	7875
801.641	7792
801.783	7807
801.926	7928
802.068	7925
802.211	7951
802.353	8020
802.496	7944
802.638	7860
802.78	7902
802.923	7928
803.065	7860
803.208	7795
803.35	7974
803.492	8096
803.635	8111
803.777	8027
803.919	8096
804.061	8412
804.204	8180
804.346	8077
804.488	7909
804.63	8115
804.773	7989
804.915	8069
805.057	8271
805.199	8187
805.341	8142
805.483	8263
805.626	8237
805.768	8096
805.91	8221
806.052	8202
806.194	8088
806.336	8256
806.478	8027
806.62	8081
806.762	8107
806.904	8267
807.046	8541
807.188	8324
807.33	8381
807.472	8305
807.614	8145
807.756	8191
807.898	8031
808.04	7864
808.182	7913
808.324	7860
808.465	7864
808.607	8058
808.749	8111
808.891	8187
809.033	8221
809.174	8240
809.316	8012
809.458	8084
809.6	8027
809.741	8016
809.883	8020
810.025	8092
810.166	8115
810.308	8005
810.45	7982
810.591	7909
810.733	7719
810.875	7609
811.016	7476
811.158	7472
811.299	7575
811.441	7681
811.582	7734
811.724	7586
811.865	7495
812.007	7620
812.148	7636
812.29	7681
812.431	7780
812.573	7868
812.714	8020
812.855	8138
812.997	8210
813.138	8271
813.279	8180
813.421	8115
813.562	7974
813.703	7792
813.845	7696
813.986	7415
814.127	7247
814.268	7179
814.41	7225
814.551	7118
814.692	7225
814.833	7152
814.974	7042
815.115	7088
815.256	6905
815.397	6897
815.539	6913
815.68	6798
815.821	6738
815.962	6798
816.103	6810
816.244	6722
816.385	6662
816.526	6582
816.666	6513
816.807	6323
816.948	6395
817.089	6471
817.23	6452
817.371	6422
817.512	6399
817.653	6414
817.793	6372
817.934	6399
818.075	6483
818.216	6391
818.356	6437
818.497	6304
818.638	6079
818.778	6125
818.919	6171
819.06	6144
819.2	6327
819.341	6254
819.481	6346
819.622	6521
819.762	6681
819.903	6719
820.043	6623
820.184	6597
820.324	6494
820.465	6673
820.605	6665
820.746	6646
820.886	6544
821.026	6601
821.167	6635
821.307	6745
821.447	6749
821.588	6665
821.728	6555
821.868	6464
822.008	6334
822.149	6369
822.289	6315
822.429	6136
822.569	6095
822.709	6155
822.849	5920
822.99	5870
823.13	5878
823.27	5889
823.41	5847
823.55	5786
823.69	5775
823.83	5790
823.97	5680
824.11	5551
824.25	5501
824.389	5573
824.529	5570
824.669	5520
824.809	5638
824.949	5649
825.089	5642
825.228	5528
825.368	5387
825.508	5357
825.648	5341
825.787	5353
825.927	5395
826.067	5292
826.206	5265
826.346	5395
826.485	5406
826.625	5395
826.765	5562
826.904	5471
827.044	5193
827.183	5201
827.323	5140
827.462	5208
827.601	5166
827.741	5185
827.88	5181
828.02	5109
828.159	5258
828.298	5284
828.437	5349
828.577	5242
828.716	5493
828.855	5326
828.994	5151
829.134	5140
829.273	5242
829.412	5132
829.551	5079
829.69	5162
829.829	5261
829.968	5360
830.107	5242
830.246	5280
830.385	5208
830.524	5147
830.663	5060
830.802	4968
830.941	4831
831.08	4835
831.219	4991
831.357	4965
831.496	5117
831.635	4919
831.774	4870
831.913	4820
832.051	4755
832.19	4714
832.329	4828
832.467	4702
832.606	4626
832.744	4721
832.883	4721
833.022	4717
833.16	4729
833.299	4793
833.437	4831
833.576	4778
833.714	4866
833.852	4870
833.991	4885
834.129	4984
834.267	4934
834.406	4915
834.544	4976
834.682	4980
834.821	4972
834.959	5155
835.097	4987
835.235	5128
835.373	5083
835.511	5098
835.65	5060
835.788	5003
835.926	4896
836.064	4824
836.202	4885
836.34	5147
836.478	5235
836.615	5117
836.753	5170
836.891	5250
837.029	5258
837.167	5174
837.305	5124
837.443	5155
837.58	5029
837.718	5261
837.856	5189
837.993	5170
838.131	5231
838.269	5178
838.406	5193
838.544	5178
838.681	5025
838.819	4980
838.956	4862
839.094	4965
839.231	4980
839.369	5048
839.506	5482
839.643	5223
839.781	5052
839.918	5003
840.055	5090
840.193	5022
840.33	5117
840.467	5083
840.604	5102
840.742	5429
840.879	5071
841.016	5159
841.153	5128
841.29	5337
841.427	5318
841.564	5280
841.701	5353
841.838	5216
841.975	5208
842.112	5239
842.249	5124
842.385	5060
842.522	5330
842.659	5121
842.796	5143
842.933	5162
843.069	5124
843.206	5155
843.343	5265
843.479	5201
843.616	5322
843.752	5075
843.889	4965
844.025	5201
844.162	4972
844.298	5227
844.435	4999
844.571	5052
844.708	5185
844.844	5277
844.98	5288
845.117	5322
845.253	5143
845.389	5064
845.525	5140
845.661	5109
845.798	5010
845.934	5136
846.07	4999
846.206	5197
846.342	5277
846.478	5181
846.614	4987
846.75	4934
846.886	4942
847.022	5128
847.158	4976
847.294	5060
847.429	5079
847.565	5045
847.701	5299
847.837	4843
847.972	4816
848.108	4987
848.244	4904
848.379	4759
848.515	4725
848.65	4668
848.786	4694
848.921	4725
849.057	4850
849.192	4915
849.328	4790
849.463	4911
849.598	4763
849.734	4778
849.869	4660
850.004	4630
850.14	4691
850.275	4592
850.41	4478
850.545	4527
850.68	4634
850.815	4611
850.95	4615
851.085	4831
851.22	4721
851.355	4634
851.49	4634
851.625	4596
851.76	4622
851.895	4561
852.03	4531
852.165	4675
852.299	4714
852.434	4782
852.569	4759
852.703	4767
852.838	4877
852.973	4881
853.107	4923
853.242	4752
853.376	4660
853.511	4527
853.645	4573
853.78	4805
853.914	4698
854.048	4683
854.183	4630
854.317	4698
854.451	4828
854.585	4698
854.72	4637
854.854	4759
854.988	4588
855.122	4645
855.256	4535
855.39	4664
855.524	4759
855.658	4698
855.792	4656
855.926	4694
856.06	4752
856.194	4805
856.327	4630
856.461	4577
856.595	4634
856.729	4630
856.862	4774
856.996	4706
857.13	4717
857.263	4778
857.397	4805
857.53	4653
857.664	4733
857.797	4744
857.931	4748
858.064	4683
858.197	4782
858.331	4656
858.464	4630
858.597	4531
858.731	4630
858.864	4649
858.997	4573
859.13	4664
859.263	4634
859.396	4714
859.529	4569
859.662	4561
859.795	4523
859.928	4626
860.061	4748
860.194	4790
860.327	4615
860.46	4558
860.592	4660
860.725	4721
860.858	4672
860.99	4615
861.123	4516
861.256	4554
861.388	4584
861.521	5265
861.653	4485
861.786	4402
861.918	4447
862.05	4538
862.183	4565
862.315	4618
862.447	4653
862.58	4603
862.712	4383
862.844	4333
862.976	4481
863.108	4432
863.24	4748
863.372	4341
863.504	4436
863.636	4405
863.768	4424
863.9	4432
864.032	4337
864.164	4386
864.296	4421
864.428	4538
864.559	4550
864.691	4558
864.823	4500
864.954	4447
865.086	4538
865.217	4432
865.349	4413
865.48	4424
865.612	4481
865.743	4615
865.875	4447
866.006	4417
866.137	4447
866.269	4421
866.4	4436
866.531	4398
866.662	4398
866.793	4360
866.924	4348
867.055	4462
867.186	4489
867.317	4417
867.448	4398
867.579	4352
867.71	4371
867.841	4325
867.972	4409
868.103	4478
868.233	4466
868.364	4424
868.495	4569
868.625	4679
868.756	4733
868.886	4569
869.017	4584
869.147	4736
869.278	4733
869.408	4622
869.539	4618
869.669	4687
869.799	4637
869.929	4721
870.06	4778
870.19	4923
870.32	4896
870.45	4927
870.58	5025
870.71	5083
870.84	5117
870.97	4976
871.1	4889
871.23	5117
871.36	5113
871.489	5033
871.619	5102
871.749	5124
871.879	5117
872.008	5155
872.138	5010
872.267	4991
872.397	4805
872.526	4786
872.656	4752
872.785	4793
872.915	4919
873.044	5022
873.173	4938
873.303	4930
873.432	4965
873.561	4953
873.69	4934
873.819	4854
873.948	4850
874.077	4820
874.206	4744
874.335	4790
874.464	4889
874.593	5060
874.722	4915
874.851	5041
874.979	5045
875.108	5060
875.237	4919
875.365	4885
875.494	4911
875.623	4957
875.751	4824
875.88	4843
876.008	4938
876.136	5048
876.265	5220
876.393	5345
876.521	5265
876.65	5212
876.778	5178
876.906	5048
877.034	5022
877.162	5064
877.29	4946
877.418	5045
877.546	5029
877.674	5056
877.802	5014
877.93	4980
878.058	4953
878.185	4885
878.313	4927
878.441	4915
878.568	4778
878.696	4877
878.824	4904
878.951	4987
879.079	5094
879.206	5349
879.333	5121
879.461	4957
879.588	4999
879.715	5132
879.842	5242
879.97	4984
880.097	4801
880.224	4733
880.351	4778
880.478	4831
880.605	4774
880.732	4763
880.859	5090
880.986	4870
881.112	4896
881.239	4797
881.366	4649
881.493	4596
881.619	4588
881.746	4611
881.872	4641
881.999	4706
882.125	4683
882.252	4748
882.378	4816
882.505	4949
882.631	4786
882.757	4626
882.883	4694
883.01	4687
883.136	4664
883.262	4588
883.388	4615
883.514	4778
883.64	4873
883.766	4755
883.892	4653
884.018	4748
884.143	4858
884.269	5052
884.395	4721
884.52	4637
884.646	4664
884.772	4558
884.897	4592
885.023	4664
885.148	4733
885.274	4873
885.399	4824
885.524	4736
885.65	4714
885.775	4759
885.9	4687
886.025	4862
886.15	4847
886.275	4698
886.4	4641
886.525	4740
886.65	4641
886.775	4668
886.9	4866
887.025	5037
887.149	4767
887.274	4603
887.399	4577
887.523	4588
887.648	4565
887.773	4641
887.897	4748
888.021	4736
888.146	4664
888.27	4759
888.395	4908
888.519	4835
888.643	4786
888.767	4873
888.891	4740
889.015	4622
889.139	4645
889.263	4542
889.387	4755
889.511	4854
889.635	4809
889.759	4596
889.883	4683
890.006	4694
890.13	4831
890.254	4626
890.377	4714
890.501	4550
890.624	4516
890.748	4596
890.871	4504
890.995	4371
891.118	4379
891.241	4516
891.364	4550
891.488	4618
891.611	4508
891.734	4531
891.857	4573
891.98	4531
892.103	4656
892.226	4645
892.349	4546
892.471	4447
892.594	4512
892.717	4599
892.839	4561
892.962	4626
893.085	4698
893.207	4546
893.33	4447
893.452	4504
893.575	4649
893.697	4554
893.819	4816
893.941	4839
894.064	4710
894.186	4558
894.308	4561
894.43	4683
894.552	4828
894.674	4725
894.796	4561
894.918	4615
895.04	4531
895.161	4714
895.283	4653
895.405	4611
895.526	4653
895.648	4733
895.769	4675
895.891	4729
896.012	4698
896.134	4675
896.255	4618
896.376	4683
896.498	4573
896.619	4660
896.74	4641
896.861	4592
896.982	4919
897.103	5067
897.224	4835
897.345	4744
897.466	4660
897.587	4714
897.708	4831
897.828	4778
897.949	4641
898.07	4596
898.19	4656
898.311	4805
898.431	4653
898.552	4748
898.672	4774
898.792	4786
898.913	4733
899.033	4672
899.153	4493
899.273	4409
899.393	4485
899.513	4542
899.633	4542
899.753	4512
899.873	4527
899.993	4622
900.113	4596
900.232	4561
900.352	4523
900.472	4489
900.591	4352
900.711	4478
900.83	4432
900.95	4630
901.069	4649
901.189	4565
901.308	4363
901.427	4295
901.546	4383
901.665	4508
901.784	4500
901.904	4424
902.023	4306
902.141	4173
902.26	4188
902.379	4291
902.498	4200
902.617	4223
902.735	4383
902.854	4405
902.973	4360
903.091	4196
903.21	4246
903.328	4295
903.446	4287
903.565	4207
903.683	4341
903.801	4314
903.919	4398
904.038	4432
904.156	4344
904.274	4405
904.392	4367
904.51	4409
904.627	4500
904.745	4573
904.863	4611
904.981	4424
905.098	4287
905.216	4375
905.334	4390
905.451	4497
905.569	4440
905.686	4550
905.803	4607
905.921	4367
906.038	4588
906.155	4497
906.272	4386
906.389	4447
906.506	4356
906.623	4352
906.74	4379
906.857	4299
906.974	4375
907.091	4558
907.208	4691
907.324	4546
907.441	4531
907.557	4299
907.674	4325
907.79	4348
907.907	4375
908.023	4512
908.139	4478
908.256	4413
908.372	4428
908.488	4413
908.604	4352
908.72	4314
908.836	4344
908.952	4356
909.068	4485
909.184	4573
909.3	4478
909.415	4615
909.531	4493
909.647	4322
909.762	4383
909.878	4325
909.993	4402
910.108	4390
910.224	4402
910.339	4466
910.454	4367
910.57	4386
910.685	4337
910.8	4622
910.915	4596
911.03	4516
911.145	4257
911.259	4303
911.374	4379
911.489	4299
911.604	4246
911.718	4128
911.833	4219
911.947	4105
912.062	4010
912.176	4188
912.291	4261
912.405	4196
912.519	4455
912.633	4451
912.748	4394
912.862	4318
912.976	4227
913.09	4120
913.204	4188
913.318	4299
913.431	4344
913.545	4344
913.659	4428
913.772	4333
913.886	4200
914	4166
914.113	4352
914.226	4417
914.34	4405
914.453	4246
914.566	4440
914.68	4287
914.793	4344
914.906	4162
915.019	4097
915.132	4048
915.245	4150
915.358	4276
915.47	4257
915.583	4253
915.696	4314
915.809	4413
915.921	4394
916.034	4238
916.146	4230
916.259	4246
916.371	4383
916.483	4379
916.595	4230
916.708	4344
916.82	4337
916.932	4287
917.044	4322
917.156	4303
917.268	4230
917.38	4333
917.491	4295
917.603	4291
917.715	4424
917.826	4451
917.938	4341
918.049	4230
918.161	4413
918.272	4535
918.384	4546
918.495	4421
918.606	4287
918.717	4219
918.828	4379
918.939	4337
919.05	4284
919.161	4337
919.272	4109
919.383	4219
919.494	4402
919.604	4618
919.715	4417
919.826	4329
919.936	4413
920.047	4474
920.157	4466
920.267	4733
920.378	4554
920.488	4489
920.598	4672
920.708	4843
920.818	4759
920.928	4763
921.038	4949
921.148	4904
921.258	4641
921.368	4542
921.477	4493
921.587	4436
921.697	4341
921.806	4508
921.916	4421
922.025	4265
922.134	4268
922.244	4234
922.353	4325
922.462	4188
922.571	4124
922.68	4002
922.789	3979
922.898	4074
923.007	3953
923.116	4139
923.224	4029
923.333	4055
923.442	3987
923.55	3991
923.659	4044
923.767	4109
923.876	4017
923.984	4093
924.092	3983
924.201	4051
924.309	4105
924.417	4131
924.525	4051
924.633	4101
924.741	5052
924.849	3903
924.956	4105
925.064	4002
925.172	3892
925.279	3953
925.387	4078
925.494	4032
925.602	4166
925.709	4219
925.816	3998
925.924	4139
926.031	4196
926.138	4166
926.245	4150
926.352	4082
926.459	4246
926.566	4360
926.673	4150
926.779	4067
926.886	4063
926.993	3956
927.099	3949
927.206	3972
927.312	3922
927.419	4071
927.525	4006
927.631	4025
927.737	3953
927.843	3934
927.95	3808
928.056	3960
928.162	3991
928.267	4010
928.373	4599
928.479	4086
928.585	3903
928.69	3987
928.796	4055
928.901	3968
929.007	3854
929.112	4013
929.218	4010
929.323	3945
929.428	3945
929.533	4093
929.638	3880
929.743	3964
929.848	4055
929.953	4032
930.058	3915
930.163	3736
930.267	3804
930.372	3987
930.477	3781
930.581	4067
930.685	3975
930.79	3835
930.894	3907
930.998	3850
931.103	4021
931.207	3705
931.311	3720
931.415	3682
931.519	3496
931.623	3526
