Data from test_V78500241_955.txt Node
Date: Fri Mar 25 16:55:38 CST 2022
User: usil
Spectrometer: V785-0024
Trigger mode: 0
Integration Time (sec): 4.000000E-1
Scans to average: 1
Nonlinearity correction enabled: false
Boxcar width: 0
Storing dark spectrum: false
XAxis mode: Wavelengths
Number of Pixels in Spectrum: 1024
>>>>>Begin Spectral Data<<<<<
801.071	8077
801.214	8062
801.356	7928
801.499	7860
801.641	7772
801.783	7833
801.926	8035
802.068	7868
802.211	7879
802.353	7925
802.496	7902
802.638	7875
802.78	7925
802.923	7944
803.065	7826
803.208	7909
803.35	7989
803.492	8092
803.635	8119
803.777	7970
803.919	8172
804.061	8442
804.204	8088
804.346	8062
804.488	7928
804.63	8100
804.773	7986
804.915	8077
805.057	8202
805.199	8240
805.341	8206
805.483	8263
805.626	8096
805.768	8035
805.91	8119
806.052	8248
806.194	8107
806.336	8271
806.478	8065
806.62	8088
806.762	8172
806.904	8271
807.046	8450
807.188	8351
807.33	8259
807.472	8294
807.614	8202
807.756	8142
807.898	8005
808.04	7902
808.182	7909
808.324	7807
808.465	7909
808.607	8046
808.749	8092
808.891	8161
809.033	8282
809.174	8187
809.316	8100
809.458	8016
809.6	7902
809.741	8039
809.883	8039
810.025	8096
810.166	7997
810.308	7978
810.45	7997
810.591	7887
810.733	7788
810.875	7590
811.016	7487
811.158	7472
811.299	7575
811.441	7681
811.582	7616
811.724	7563
811.865	7502
812.007	7571
812.148	7578
812.29	7594
812.431	7727
812.573	7845
812.714	7921
812.855	8046
812.997	8142
813.138	8256
813.279	8187
813.421	8035
813.562	8046
813.703	7917
813.845	7788
813.986	7480
814.127	7225
814.268	7194
814.41	7217
814.551	7061
814.692	7171
814.833	6973
814.974	7038
815.115	7110
815.256	6947
815.397	6875
815.539	6913
815.68	6829
815.821	6757
815.962	6806
816.103	6791
816.244	6673
816.385	6635
816.526	6604
816.666	6445
816.807	6254
816.948	6403
817.089	6441
817.23	6429
817.371	6311
817.512	6422
817.653	6384
817.793	6407
817.934	6369
818.075	6403
818.216	6407
818.356	6414
818.497	6228
818.638	6167
818.778	6201
818.919	6114
819.06	6121
819.2	6346
819.341	6311
819.481	6327
819.622	6509
819.762	6719
819.903	6757
820.043	6631
820.184	6593
820.324	6536
820.465	6639
820.605	6635
820.746	6669
820.886	6467
821.026	6688
821.167	6681
821.307	6768
821.447	6764
821.588	6665
821.728	6551
821.868	6547
822.008	6315
822.149	6315
822.289	6388
822.429	6182
822.569	6125
822.709	6152
822.849	5954
822.99	5939
823.13	5927
823.27	5942
823.41	5836
823.55	5779
823.69	5779
823.83	5767
823.97	5661
824.11	5577
824.25	5524
824.389	5600
824.529	5566
824.669	5573
824.809	5668
824.949	5657
825.089	5638
825.228	5547
825.368	5421
825.508	5379
825.648	5353
825.787	5406
825.927	5357
826.067	5368
826.206	5311
826.346	5417
826.485	5436
826.625	5444
826.765	5608
826.904	5535
827.044	5307
827.183	5231
827.323	5102
827.462	5250
827.601	5185
827.741	5277
827.88	5227
828.02	5136
828.159	5220
828.298	5368
828.437	5379
828.577	5341
828.716	5497
828.855	5345
828.994	5151
829.134	5159
829.273	5246
829.412	5136
829.551	5181
829.69	5170
829.829	5288
829.968	5379
830.107	5254
830.246	5357
830.385	5227
830.524	5216
830.663	5064
830.802	5025
830.941	4957
831.08	4919
831.219	5022
831.357	5014
831.496	5178
831.635	4949
831.774	4877
831.913	4862
832.051	4733
832.19	4767
832.329	4889
832.467	4721
832.606	4653
832.744	4771
832.883	4748
833.022	4729
833.16	4816
833.299	4793
833.437	4850
833.576	4858
833.714	4889
833.852	4870
833.991	4923
834.129	5006
834.267	4984
834.406	4949
834.544	5045
834.682	5025
834.821	5022
834.959	5223
835.097	4984
835.235	5185
835.373	5162
835.511	5132
835.65	5079
835.788	5045
835.926	4961
836.064	4900
836.202	4915
836.34	5132
836.478	5204
836.615	5140
836.753	5208
836.891	5315
837.029	5292
837.167	5280
837.305	5220
837.443	5155
837.58	5052
837.718	5265
837.856	5212
837.993	5147
838.131	5307
838.269	5212
838.406	5242
838.544	5201
838.681	5048
838.819	5041
838.956	4908
839.094	4965
839.231	5029
839.369	5162
839.506	5417
839.643	5277
839.781	5052
839.918	5083
840.055	5109
840.193	5094
840.33	5094
840.467	5147
840.604	5166
840.742	5444
840.879	5098
841.016	5132
841.153	5159
841.29	5387
841.427	5360
841.564	5318
841.701	5406
841.838	5231
841.975	5254
842.112	5303
842.249	5113
842.385	5117
842.522	5357
842.659	5174
842.796	5178
842.933	5246
843.069	5170
843.206	5181
843.343	5307
843.479	5250
843.616	5311
843.752	5052
843.889	5052
844.025	5235
844.162	5071
844.298	5246
844.435	5064
844.571	5048
844.708	5231
844.844	5296
844.98	5395
845.117	5261
845.253	5174
845.389	5102
845.525	5159
845.661	5178
845.798	5121
845.934	5143
846.07	5064
846.206	5197
846.342	5273
846.478	5201
846.614	5045
846.75	4991
846.886	4957
847.022	5143
847.158	5086
847.294	5014
847.429	5124
847.565	5102
847.701	5254
847.837	4881
847.972	4831
848.108	4957
848.244	4961
848.379	4793
848.515	4763
848.65	4763
848.786	4790
848.921	4816
849.057	4881
849.192	4904
849.328	4866
849.463	4831
849.598	4843
849.734	4771
849.869	4668
850.004	4649
850.14	4710
850.275	4611
850.41	4542
850.545	4599
850.68	4649
850.815	4603
850.95	4656
851.085	4843
851.22	4771
851.355	4714
851.49	4630
851.625	4626
851.76	4622
851.895	4580
852.03	4474
852.165	4672
852.299	4691
852.434	4816
852.569	4717
852.703	4786
852.838	4873
852.973	4984
853.107	4942
853.242	4744
853.376	4694
853.511	4592
853.645	4660
853.78	4850
853.914	4710
854.048	4687
854.183	4706
854.317	4687
854.451	4824
854.585	4717
854.72	4637
854.854	4797
854.988	4645
855.122	4706
855.256	4523
855.39	4679
855.524	4816
855.658	4771
855.792	4675
855.926	4714
856.06	4725
856.194	4786
856.327	4714
856.461	4656
856.595	4653
856.729	4630
856.862	4748
856.996	4706
857.13	4748
857.263	4763
857.397	4809
857.53	4637
857.664	4717
857.797	4771
857.931	4786
858.064	4740
858.197	4740
858.331	4637
858.464	4645
858.597	4573
858.731	4630
858.864	4672
858.997	4596
859.13	4698
859.263	4672
859.396	4698
859.529	4573
859.662	4523
859.795	4561
859.928	4637
860.061	4736
860.194	4793
860.327	4607
860.46	4592
860.592	4752
860.725	4755
860.858	4736
860.99	4573
861.123	4546
861.256	4538
861.388	4649
861.521	5231
861.653	4546
861.786	4474
861.918	4474
862.05	4519
862.183	4561
862.315	4626
862.447	4668
862.58	4569
862.712	4428
862.844	4383
862.976	4497
863.108	4508
863.24	4889
863.372	4337
863.504	4470
863.636	4394
863.768	4535
863.9	4466
864.032	4367
864.164	4386
864.296	4474
864.428	4554
864.559	4527
864.691	4535
864.823	4489
864.954	4516
865.086	4523
865.217	4417
865.349	4398
865.48	4443
865.612	4504
865.743	4637
865.875	4474
866.006	4447
866.137	4489
866.269	4459
866.4	4455
866.531	4485
866.662	4447
866.793	4367
866.924	4455
867.055	4485
867.186	4474
867.317	4390
867.448	4405
867.579	4360
867.71	4402
867.841	4409
867.972	4497
868.103	4447
868.233	4436
868.364	4519
868.495	4485
868.625	4679
868.756	4790
868.886	4611
869.017	4641
869.147	4790
869.278	4793
869.408	4683
869.539	4641
869.669	4660
869.799	4653
869.929	4771
870.06	4725
870.19	4968
870.32	4915
870.45	4949
870.58	4972
870.71	5124
870.84	5098
870.97	4934
871.1	4889
871.23	5151
871.36	5151
871.489	5014
871.619	5117
871.749	5037
871.879	5079
872.008	5193
872.138	5048
872.267	4980
872.397	4873
872.526	4729
872.656	4744
872.785	4786
872.915	4965
873.044	5029
873.173	4908
873.303	4915
873.432	4934
873.561	4972
873.69	4938
873.819	4831
873.948	4911
874.077	4801
874.206	4782
874.335	4831
874.464	4873
874.593	5132
874.722	4976
874.851	5086
874.979	5029
875.108	5064
875.237	4961
875.365	4873
875.494	4930
875.623	4976
875.751	4797
875.88	4858
876.008	5033
876.136	5029
876.265	5174
876.393	5360
876.521	5254
876.65	5227
876.778	5162
876.906	5105
877.034	5052
877.162	5041
877.29	5006
877.418	5010
877.546	5018
877.674	5048
877.802	5045
877.93	5045
878.058	4946
878.185	4850
878.313	4927
878.441	4953
878.568	4801
878.696	4904
878.824	4965
878.951	5022
879.079	5140
879.206	5265
879.333	5056
879.461	4972
879.588	4972
879.715	5166
879.842	5242
879.97	5010
880.097	4771
880.224	4725
880.351	4782
880.478	4850
880.605	4820
880.732	4782
880.859	5052
880.986	4900
881.112	4953
881.239	4752
881.366	4733
881.493	4626
881.619	4580
881.746	4637
881.872	4630
881.999	4653
882.125	4634
882.252	4816
882.378	4790
882.505	4938
882.631	4820
882.757	4653
882.883	4736
883.01	4729
883.136	4668
883.262	4615
883.388	4645
883.514	4820
883.64	4862
883.766	4786
883.892	4672
884.018	4778
884.143	4923
884.269	5003
884.395	4668
884.52	4664
884.646	4649
884.772	4653
884.897	4569
885.023	4649
885.148	4820
885.274	4816
885.399	4805
885.524	4721
885.65	4744
885.775	4694
885.9	4759
886.025	4892
886.15	4771
886.275	4714
886.4	4672
886.525	4740
886.65	4672
886.775	4679
886.9	4904
887.025	5071
887.149	4862
887.274	4668
887.399	4569
887.523	4588
887.648	4569
887.773	4584
887.897	4816
888.021	4824
888.146	4691
888.27	4873
888.395	4919
888.519	4820
888.643	4797
888.767	4850
888.891	4710
889.015	4596
889.139	4668
889.263	4607
889.387	4774
889.511	4892
889.635	4752
889.759	4656
889.883	4626
890.006	4774
890.13	4866
890.254	4565
890.377	4687
890.501	4558
890.624	4497
890.748	4607
890.871	4550
890.995	4459
891.118	4405
891.241	4527
891.364	4535
891.488	4634
891.611	4535
891.734	4565
891.857	4607
891.98	4565
892.103	4656
892.226	4588
892.349	4542
892.471	4394
892.594	4561
892.717	4603
892.839	4592
892.962	4569
893.085	4634
893.207	4653
893.33	4481
893.452	4538
893.575	4615
893.697	4569
893.819	4812
893.941	4866
894.064	4774
894.186	4519
894.308	4577
894.43	4740
894.552	4797
894.674	4755
894.796	4580
894.918	4596
895.04	4596
895.161	4687
895.283	4653
895.405	4653
895.526	4538
895.648	4672
895.769	4668
895.891	4668
896.012	4714
896.134	4736
896.255	4641
896.376	4664
896.498	4596
896.619	4698
896.74	4618
896.861	4573
896.982	4930
897.103	5083
897.224	4820
897.345	4790
897.466	4653
897.587	4755
897.708	4824
897.828	4778
897.949	4672
898.07	4531
898.19	4668
898.311	4824
898.431	4668
898.552	4763
898.672	4866
898.792	4816
898.913	4721
899.033	4611
899.153	4512
899.273	4447
899.393	4459
899.513	4519
899.633	4538
899.753	4531
899.873	4474
899.993	4580
900.113	4531
900.232	4531
900.352	4573
900.472	4500
900.591	4436
900.711	4489
900.83	4428
900.95	4558
901.069	4672
901.189	4527
901.308	4379
901.427	4280
901.546	4409
901.665	4504
901.784	4500
901.904	4379
902.023	4360
902.141	4166
902.26	4128
902.379	4310
902.498	4215
902.617	4219
902.735	4390
902.854	4371
902.973	4386
903.091	4230
903.21	4150
903.328	4249
903.446	4257
903.565	4227
903.683	4386
903.801	4280
903.919	4432
904.038	4447
904.156	4352
904.274	4462
904.392	4379
904.51	4428
904.627	4462
904.745	4573
904.863	4630
904.981	4394
905.098	4314
905.216	4371
905.334	4428
905.451	4421
905.569	4459
905.686	4580
905.803	4565
905.921	4386
906.038	4561
906.155	4474
906.272	4432
906.389	4451
906.506	4318
906.623	4375
906.74	4409
906.857	4246
906.974	4329
907.091	4569
907.208	4675
907.324	4565
907.441	4516
907.557	4344
907.674	4344
907.79	4284
907.907	4352
908.023	4443
908.139	4447
908.256	4417
908.372	4470
908.488	4428
908.604	4310
908.72	4268
908.836	4394
908.952	4402
909.068	4455
909.184	4531
909.3	4466
909.415	4588
909.531	4558
909.647	4360
909.762	4356
909.878	4367
909.993	4417
910.108	4394
910.224	4375
910.339	4459
910.454	4386
910.57	4386
910.685	4322
910.8	4622
910.915	4622
911.03	4489
911.145	4337
911.259	4329
911.374	4394
911.489	4272
911.604	4261
911.718	4124
911.833	4166
911.947	4105
912.062	4040
912.176	4227
912.291	4249
912.405	4284
912.519	4443
912.633	4493
912.748	4428
912.862	4303
912.976	4200
913.09	4112
913.204	4177
913.318	4215
913.431	4318
913.545	4341
913.659	4421
913.772	4383
913.886	4219
914	4185
914.113	4379
914.226	4394
914.34	4348
914.453	4299
914.566	4466
914.68	4287
914.793	4299
914.906	4124
915.019	4074
915.132	4101
915.245	4158
915.358	4230
915.47	4230
915.583	4242
915.696	4333
915.809	4402
915.921	4398
916.034	4242
916.146	4276
916.259	4173
916.371	4367
916.483	4348
916.595	4295
916.708	4303
916.82	4329
916.932	4291
917.044	4306
917.156	4284
917.268	4207
917.38	4287
917.491	4280
917.603	4337
917.715	4424
917.826	4421
917.938	4344
918.049	4219
918.161	4386
918.272	4569
918.384	4577
918.495	4455
918.606	4333
918.717	4230
918.828	4284
918.939	4329
919.05	4276
919.161	4337
919.272	4128
919.383	4162
919.494	4386
919.604	4603
919.715	4409
919.826	4352
919.936	4417
920.047	4516
920.157	4497
920.267	4691
920.378	4531
920.488	4516
920.598	4721
920.708	4915
920.818	4729
920.928	4748
921.038	4984
921.148	4934
921.258	4630
921.368	4558
921.477	4459
921.587	4470
921.697	4390
921.806	4542
921.916	4462
922.025	4253
922.134	4306
922.244	4215
922.353	4284
922.462	4139
922.571	4147
922.68	4006
922.789	3956
922.898	3991
923.007	3979
923.116	4120
923.224	4063
923.333	4082
923.442	3991
923.55	3975
923.659	4036
923.767	4071
923.876	3956
923.984	4105
924.092	3937
924.201	4051
924.309	4109
924.417	4116
924.525	4040
924.633	4116
924.741	5060
924.849	3911
924.956	4105
925.064	3915
925.172	3896
925.279	3960
925.387	4010
925.494	4021
925.602	4219
925.709	4196
925.816	4048
925.924	4109
926.031	4246
926.138	4128
926.245	4188
926.352	4074
926.459	4223
926.566	4325
926.673	4177
926.779	4078
926.886	4082
926.993	3968
927.099	3972
927.206	3934
927.312	3926
927.419	4059
927.525	4036
927.631	4082
927.737	3960
927.843	3934
927.95	3842
928.056	3934
928.162	3983
928.267	4040
928.373	4653
928.479	4135
928.585	3865
928.69	4025
928.796	4036
928.901	3960
929.007	3827
929.112	4025
929.218	3991
929.323	3907
929.428	3922
929.533	4086
929.638	3873
929.743	3960
929.848	4032
929.953	3998
930.058	3930
930.163	3781
930.267	3827
930.372	3972
930.477	3778
930.581	4063
930.685	3949
930.79	3816
930.894	3873
930.998	3835
931.103	4040
931.207	3713
931.311	3701
931.415	3644
931.519	3507
931.623	3542
