Data from test_V78500241_1942.txt Node
Date: Fri Mar 25 17:02:30 CST 2022
User: usil
Spectrometer: V785-0024
Trigger mode: 0
Integration Time (sec): 4.000000E-1
Scans to average: 1
Nonlinearity correction enabled: false
Boxcar width: 0
Storing dark spectrum: false
XAxis mode: Wavelengths
Number of Pixels in Spectrum: 1024
>>>>>Begin Spectral Data<<<<<
801.071	7959
801.214	7917
801.356	7856
801.499	7837
801.641	7750
801.783	7776
801.926	7902
802.068	7909
802.211	7906
802.353	7955
802.496	7837
802.638	7849
802.78	7826
802.923	7887
803.065	7795
803.208	7799
803.35	7936
803.492	8069
803.635	8134
803.777	7959
803.919	8077
804.061	8385
804.204	8180
804.346	8008
804.488	7974
804.63	8077
804.773	8062
804.915	8100
805.057	8263
805.199	8168
805.341	8111
805.483	8244
805.626	8229
805.768	8107
805.91	8183
806.052	8218
806.194	8024
806.336	8355
806.478	8111
806.62	8111
806.762	8176
806.904	8301
807.046	8473
807.188	8351
807.33	8298
807.472	8351
807.614	8149
807.756	8103
807.898	7993
808.04	7871
808.182	7860
808.324	7887
808.465	7928
808.607	8065
808.749	8077
808.891	8244
809.033	8336
809.174	8195
809.316	8138
809.458	8111
809.6	7974
809.741	8050
809.883	8065
810.025	8035
810.166	7986
810.308	8073
810.45	7993
810.591	7795
810.733	7693
810.875	7677
811.016	7575
811.158	7480
811.299	7544
811.441	7696
811.582	7731
811.724	7502
811.865	7487
812.007	7632
812.148	7613
812.29	7643
812.431	7727
812.573	7765
812.714	7963
812.855	8065
812.997	8206
813.138	8282
813.279	8157
813.421	8008
813.562	8001
813.703	7750
813.845	7772
813.986	7449
814.127	7259
814.268	7266
814.41	7221
814.551	7213
814.692	7232
814.833	7072
814.974	7137
815.115	7080
815.256	6996
815.397	6951
815.539	6890
815.68	6802
815.821	6772
815.962	6890
816.103	6829
816.244	6681
816.385	6597
816.526	6608
816.666	6452
816.807	6315
816.948	6471
817.089	6494
817.23	6407
817.371	6380
817.512	6372
817.653	6418
817.793	6327
817.934	6384
818.075	6403
818.216	6376
818.356	6441
818.497	6235
818.638	6110
818.778	6171
818.919	6136
819.06	6121
819.2	6311
819.341	6300
819.481	6350
819.622	6498
819.762	6696
819.903	6620
820.043	6597
820.184	6593
820.324	6559
820.465	6650
820.605	6646
820.746	6616
820.886	6483
821.026	6658
821.167	6688
821.307	6757
821.447	6829
821.588	6650
821.728	6631
821.868	6490
822.008	6319
822.149	6327
822.289	6327
822.429	6133
822.569	6060
822.709	6125
822.849	5931
822.99	5908
823.13	5920
823.27	5870
823.41	5794
823.55	5779
823.69	5695
823.83	5764
823.97	5691
824.11	5486
824.25	5497
824.389	5551
824.529	5532
824.669	5512
824.809	5657
824.949	5661
825.089	5589
825.228	5547
825.368	5349
825.508	5307
825.648	5398
825.787	5429
825.927	5353
826.067	5334
826.206	5341
826.346	5353
826.485	5383
826.625	5429
826.765	5566
826.904	5474
827.044	5170
827.183	5201
827.323	5079
827.462	5204
827.601	5128
827.741	5178
827.88	5235
828.02	5105
828.159	5212
828.298	5364
828.437	5337
828.577	5212
828.716	5436
828.855	5330
828.994	5098
829.134	5140
829.273	5216
829.412	5147
829.551	5102
829.69	5166
829.829	5204
829.968	5368
830.107	5303
830.246	5303
830.385	5124
830.524	5098
830.663	5018
830.802	4957
830.941	4866
831.08	4847
831.219	4957
831.357	4980
831.496	5166
831.635	4908
831.774	4835
831.913	4889
832.051	4771
832.19	4736
832.329	4782
832.467	4694
832.606	4622
832.744	4710
832.883	4687
833.022	4702
833.16	4755
833.299	4828
833.437	4767
833.576	4759
833.714	4847
833.852	4835
833.991	4862
834.129	5003
834.267	4915
834.406	4930
834.544	4972
834.682	4953
834.821	4972
834.959	5143
835.097	4968
835.235	5155
835.373	5079
835.511	5102
835.65	5041
835.788	4942
835.926	4915
836.064	4839
836.202	4892
836.34	5159
836.478	5212
836.615	5113
836.753	5193
836.891	5261
837.029	5261
837.167	5208
837.305	5166
837.443	5155
837.58	5052
837.718	5265
837.856	5181
837.993	5151
838.131	5220
838.269	5185
838.406	5254
838.544	5231
838.681	5045
838.819	4965
838.956	4904
839.094	4873
839.231	4915
839.369	5067
839.506	5383
839.643	5246
839.781	5060
839.918	4961
840.055	5083
840.193	5113
840.33	5045
840.467	5109
840.604	5109
840.742	5440
840.879	5117
841.016	5090
841.153	5132
841.29	5349
841.427	5280
841.564	5269
841.701	5318
841.838	5280
841.975	5166
842.112	5280
842.249	5143
842.385	5105
842.522	5288
842.659	5136
842.796	5124
842.933	5231
843.069	5151
843.206	5113
843.343	5246
843.479	5235
843.616	5220
843.752	5014
843.889	5010
844.025	5239
844.162	5003
844.298	5220
844.435	5094
844.571	5060
844.708	5140
844.844	5250
844.98	5311
845.117	5284
845.253	5136
845.389	5083
845.525	5121
845.661	5075
845.798	5067
845.934	5136
846.07	5064
846.206	5166
846.342	5254
846.478	5121
846.614	4942
846.75	4972
846.886	4900
847.022	5143
847.158	4999
847.294	5113
847.429	5090
847.565	5006
847.701	5273
847.837	4854
847.972	4786
848.108	4980
848.244	4915
848.379	4786
848.515	4710
848.65	4656
848.786	4740
848.921	4793
849.057	4858
849.192	4854
849.328	4786
849.463	4828
849.598	4809
849.734	4755
849.869	4698
850.004	4607
850.14	4656
850.275	4622
850.41	4478
850.545	4542
850.68	4660
850.815	4615
850.95	4603
851.085	4854
851.22	4733
851.355	4706
851.49	4588
851.625	4622
851.76	4634
851.895	4538
852.03	4508
852.165	4664
852.299	4694
852.434	4763
852.569	4721
852.703	4786
852.838	4870
852.973	4923
853.107	4873
853.242	4767
853.376	4679
853.511	4546
853.645	4588
853.78	4759
853.914	4698
854.048	4660
854.183	4664
854.317	4702
854.451	4828
854.585	4672
854.72	4615
854.854	4759
854.988	4607
855.122	4599
855.256	4481
855.39	4630
855.524	4740
855.658	4653
855.792	4668
855.926	4714
856.06	4736
856.194	4717
856.327	4710
856.461	4653
856.595	4584
856.729	4641
856.862	4736
856.996	4683
857.13	4759
857.263	4729
857.397	4816
857.53	4694
857.664	4691
857.797	4774
857.931	4786
858.064	4698
858.197	4729
858.331	4577
858.464	4599
858.597	4573
858.731	4615
858.864	4542
858.997	4622
859.13	4672
859.263	4637
859.396	4694
859.529	4592
859.662	4535
859.795	4436
859.928	4607
860.061	4717
860.194	4771
860.327	4622
860.46	4550
860.592	4691
860.725	4668
860.858	4710
860.99	4550
861.123	4489
861.256	4489
861.388	4588
861.521	5258
861.653	4459
861.786	4447
861.918	4466
862.05	4508
862.183	4573
862.315	4558
862.447	4641
862.58	4550
862.712	4402
862.844	4329
862.976	4474
863.108	4436
863.24	4774
863.372	4337
863.504	4443
863.636	4409
863.768	4478
863.9	4466
864.032	4371
864.164	4405
864.296	4493
864.428	4569
864.559	4577
864.691	4580
864.823	4531
864.954	4478
865.086	4508
865.217	4489
865.349	4413
865.48	4421
865.612	4523
865.743	4679
865.875	4508
866.006	4405
866.137	4413
866.269	4436
866.4	4474
866.531	4443
866.662	4375
866.793	4474
866.924	4451
867.055	4504
867.186	4489
867.317	4474
867.448	4394
867.579	4428
867.71	4447
867.841	4428
867.972	4474
868.103	4417
868.233	4478
868.364	4493
868.495	4531
868.625	4721
868.756	4820
868.886	4599
869.017	4626
869.147	4831
869.278	4839
869.408	4675
869.539	4687
869.669	4725
869.799	4721
869.929	4805
870.06	4790
870.19	4953
870.32	4984
870.45	4968
870.58	5045
870.71	5067
870.84	5109
870.97	4957
871.1	4923
871.23	5170
871.36	5166
871.489	5060
871.619	5140
871.749	5132
871.879	5143
872.008	5197
872.138	5086
872.267	4999
872.397	4854
872.526	4862
872.656	4740
872.785	4812
872.915	4911
873.044	5067
873.173	5025
873.303	4980
873.432	4953
873.561	4987
873.69	4961
873.819	4915
873.948	4953
874.077	4843
874.206	4782
874.335	4812
874.464	4968
874.593	5117
874.722	5033
874.851	5151
874.979	5083
875.108	5060
875.237	4946
875.365	4927
875.494	4896
875.623	5006
875.751	4843
875.88	4934
876.008	5029
876.136	5071
876.265	5223
876.393	5417
876.521	5254
876.65	5288
876.778	5204
876.906	5067
877.034	5083
877.162	5090
877.29	5022
877.418	5143
877.546	5067
877.674	5094
877.802	5018
877.93	5056
878.058	4965
878.185	4923
878.313	5018
878.441	4999
878.568	4843
878.696	4919
878.824	4957
878.951	5003
879.079	5174
879.206	5364
879.333	5147
879.461	4995
879.588	4987
879.715	5143
879.842	5242
879.97	5018
880.097	4847
880.224	4759
880.351	4877
880.478	4877
880.605	4820
880.732	4835
880.859	5094
880.986	4919
881.112	4896
881.239	4782
881.366	4691
881.493	4599
881.619	4637
881.746	4664
881.872	4675
881.999	4679
882.125	4698
882.252	4824
882.378	4885
882.505	4961
882.631	4797
882.757	4683
882.883	4782
883.01	4706
883.136	4664
883.262	4656
883.388	4626
883.514	4790
883.64	4938
883.766	4812
883.892	4649
884.018	4755
884.143	4911
884.269	5010
884.395	4641
884.52	4622
884.646	4714
884.772	4603
884.897	4573
885.023	4664
885.148	4828
885.274	4911
885.399	4843
885.524	4748
885.65	4733
885.775	4752
885.9	4759
886.025	4904
886.15	4824
886.275	4740
886.4	4714
886.525	4729
886.65	4706
886.775	4710
886.9	4923
887.025	5079
887.149	4850
887.274	4694
887.399	4573
887.523	4641
887.648	4637
887.773	4611
887.897	4778
888.021	4831
888.146	4717
888.27	4854
888.395	4896
888.519	4793
888.643	4854
888.767	4870
888.891	4683
889.015	4645
889.139	4683
889.263	4668
889.387	4786
889.511	4904
889.635	4831
889.759	4664
889.883	4694
890.006	4755
890.13	4866
890.254	4679
890.377	4752
890.501	4554
890.624	4519
890.748	4664
890.871	4481
890.995	4474
891.118	4440
891.241	4531
891.364	4558
891.488	4660
891.611	4493
891.734	4592
891.857	4527
891.98	4584
892.103	4641
892.226	4588
892.349	4584
892.471	4440
892.594	4558
892.717	4637
892.839	4584
892.962	4641
893.085	4675
893.207	4622
893.33	4485
893.452	4558
893.575	4679
893.697	4634
893.819	4824
893.941	4843
894.064	4809
894.186	4637
894.308	4626
894.43	4771
894.552	4831
894.674	4736
894.796	4611
894.918	4599
895.04	4645
895.161	4729
895.283	4679
895.405	4561
895.526	4656
895.648	4683
895.769	4694
895.891	4721
896.012	4797
896.134	4736
896.255	4649
896.376	4641
896.498	4679
896.619	4706
896.74	4596
896.861	4691
896.982	4953
897.103	5105
897.224	4847
897.345	4778
897.466	4725
897.587	4706
897.708	4850
897.828	4805
897.949	4710
898.07	4626
898.19	4664
898.311	4831
898.431	4725
898.552	4774
898.672	4850
898.792	4820
898.913	4774
899.033	4687
899.153	4554
899.273	4440
899.393	4516
899.513	4561
899.633	4580
899.753	4603
899.873	4531
899.993	4596
900.113	4538
900.232	4596
900.352	4573
900.472	4512
900.591	4432
900.711	4546
900.83	4489
900.95	4599
901.069	4729
901.189	4588
901.308	4405
901.427	4322
901.546	4405
901.665	4451
901.784	4538
901.904	4440
902.023	4394
902.141	4196
902.26	4234
902.379	4318
902.498	4268
902.617	4268
902.735	4409
902.854	4424
902.973	4352
903.091	4261
903.21	4276
903.328	4303
903.446	4272
903.565	4261
903.683	4341
903.801	4276
903.919	4398
904.038	4432
904.156	4348
904.274	4466
904.392	4443
904.51	4451
904.627	4512
904.745	4618
904.863	4668
904.981	4402
905.098	4303
905.216	4398
905.334	4462
905.451	4462
905.569	4474
905.686	4561
905.803	4584
905.921	4428
906.038	4603
906.155	4527
906.272	4428
906.389	4519
906.506	4348
906.623	4360
906.74	4405
906.857	4310
906.974	4344
907.091	4596
907.208	4691
907.324	4592
907.441	4516
907.557	4356
907.674	4360
907.79	4379
907.907	4436
908.023	4523
908.139	4459
908.256	4424
908.372	4462
908.488	4470
908.604	4409
908.72	4337
908.836	4341
908.952	4367
909.068	4481
909.184	4527
909.3	4481
909.415	4611
909.531	4588
909.647	4367
909.762	4398
909.878	4356
909.993	4447
910.108	4394
910.224	4466
910.339	4546
910.454	4402
910.57	4421
910.685	4344
910.8	4672
910.915	4626
911.03	4481
911.145	4341
911.259	4409
911.374	4363
911.489	4306
911.604	4287
911.718	4242
911.833	4223
911.947	4067
912.062	4078
912.176	4200
912.291	4257
912.405	4219
912.519	4462
912.633	4577
912.748	4394
912.862	4375
912.976	4200
913.09	4112
913.204	4158
913.318	4280
913.431	4383
913.545	4360
913.659	4459
913.772	4344
913.886	4284
914	4230
914.113	4352
914.226	4440
914.34	4421
914.453	4238
914.566	4447
914.68	4352
914.793	4341
914.906	4173
915.019	4093
915.132	4116
915.245	4173
915.358	4227
915.47	4253
915.583	4310
915.696	4344
915.809	4432
915.921	4436
916.034	4310
916.146	4268
916.259	4223
916.371	4360
916.483	4405
916.595	4272
916.708	4318
916.82	4322
916.932	4325
917.044	4314
917.156	4333
917.268	4249
917.38	4249
917.491	4276
917.603	4371
917.715	4371
917.826	4470
917.938	4348
918.049	4280
918.161	4447
918.272	4519
918.384	4565
918.495	4443
918.606	4318
918.717	4268
918.828	4367
918.939	4367
919.05	4276
919.161	4325
919.272	4112
919.383	4223
919.494	4508
919.604	4675
919.715	4451
919.826	4356
919.936	4417
920.047	4531
920.157	4512
920.267	4702
920.378	4538
920.488	4485
920.598	4725
920.708	4877
920.818	4744
920.928	4782
921.038	4938
921.148	4870
921.258	4592
921.368	4634
921.477	4481
921.587	4474
921.697	4383
921.806	4584
921.916	4470
922.025	4287
922.134	4246
922.244	4227
922.353	4329
922.462	4158
922.571	4162
922.68	4021
922.789	4013
922.898	4036
923.007	4002
923.116	4143
923.224	4071
923.333	4086
923.442	4017
923.55	4021
923.659	4032
923.767	4135
923.876	3953
923.984	4078
924.092	3987
924.201	4120
924.309	4124
924.417	4116
924.525	4044
924.633	4169
924.741	5079
924.849	3956
924.956	4109
925.064	3956
925.172	3896
925.279	3953
925.387	4067
925.494	4006
925.602	4215
925.709	4162
925.816	4109
925.924	4101
926.031	4196
926.138	4192
926.245	4192
926.352	4082
926.459	4238
926.566	4318
926.673	4150
926.779	4093
926.886	4120
926.993	4044
927.099	3994
927.206	3956
927.312	3956
927.419	4013
927.525	4051
927.631	4082
927.737	4036
927.843	3968
927.95	3842
928.056	3953
928.162	3956
928.267	4074
928.373	4588
928.479	4097
928.585	3892
928.69	4017
928.796	4040
928.901	3991
929.007	3835
929.112	4055
929.218	4017
929.323	3964
929.428	3899
929.533	4067
929.638	3918
929.743	3941
929.848	4109
929.953	3979
930.058	3922
930.163	3755
930.267	3850
930.372	3979
930.477	3823
930.581	4116
930.685	3941
930.79	3831
930.894	3873
930.998	3880
931.103	4105
931.207	3740
931.311	3675
931.415	3679
931.519	3557
931.623	3549
