Data from test_V78500241_2101.txt Node
Date: Fri Mar 25 17:03:36 CST 2022
User: usil
Spectrometer: V785-0024
Trigger mode: 0
Integration Time (sec): 4.000000E-1
Scans to average: 1
Nonlinearity correction enabled: false
Boxcar width: 0
Storing dark spectrum: false
XAxis mode: Wavelengths
Number of Pixels in Spectrum: 1024
>>>>>Begin Spectral Data<<<<<
801.071	7963
801.214	7909
801.356	7871
801.499	7833
801.641	7780
801.783	7845
801.926	7913
802.068	7871
802.211	7951
802.353	7986
802.496	7826
802.638	7879
802.78	7792
802.923	7921
803.065	7849
803.208	7849
803.35	8001
803.492	8111
803.635	8107
803.777	8073
803.919	8130
804.061	8461
804.204	8168
804.346	8069
804.488	7947
804.63	8031
804.773	8077
804.915	8065
805.057	8282
805.199	8081
805.341	8180
805.483	8244
805.626	8271
805.768	8126
805.91	8229
806.052	8138
806.194	8073
806.336	8301
806.478	8115
806.62	8084
806.762	8096
806.904	8210
807.046	8503
807.188	8320
807.33	8237
807.472	8336
807.614	8126
807.756	8119
807.898	8008
808.04	7849
808.182	7936
808.324	7871
808.465	7883
808.607	8035
808.749	8069
808.891	8202
809.033	8332
809.174	8149
809.316	8031
809.458	7993
809.6	8069
809.741	8043
809.883	8084
810.025	8092
810.166	8031
810.308	8043
810.45	7982
810.591	7780
810.733	7738
810.875	7651
811.016	7559
811.158	7438
811.299	7590
811.441	7647
811.582	7700
811.724	7502
811.865	7529
812.007	7556
812.148	7506
812.29	7616
812.431	7765
812.573	7833
812.714	7997
812.855	8115
812.997	8229
813.138	8244
813.279	8115
813.421	8046
813.562	7970
813.703	7860
813.845	7715
813.986	7430
814.127	7209
814.268	7209
814.41	7202
814.551	7133
814.692	7213
814.833	7076
814.974	7031
815.115	7145
815.256	6993
815.397	6844
815.539	6928
815.68	6814
815.821	6795
815.962	6848
816.103	6730
816.244	6711
816.385	6623
816.526	6593
816.666	6471
816.807	6334
816.948	6441
817.089	6494
817.23	6460
817.371	6342
817.512	6361
817.653	6395
817.793	6315
817.934	6422
818.075	6467
818.216	6403
818.356	6399
818.497	6266
818.638	6129
818.778	6129
818.919	6102
819.06	6216
819.2	6338
819.341	6334
819.481	6414
819.622	6494
819.762	6703
819.903	6654
820.043	6616
820.184	6563
820.324	6574
820.465	6654
820.605	6620
820.746	6696
820.886	6471
821.026	6654
821.167	6688
821.307	6825
821.447	6764
821.588	6642
821.728	6547
821.868	6521
822.008	6319
822.149	6388
822.289	6327
822.429	6133
822.569	6117
822.709	6148
822.849	5935
822.99	5931
823.13	5897
823.27	5901
823.41	5764
823.55	5752
823.69	5767
823.83	5729
823.97	5676
824.11	5543
824.25	5474
824.389	5512
824.529	5600
824.669	5482
824.809	5562
824.949	5668
825.089	5600
825.228	5581
825.368	5357
825.508	5341
825.648	5368
825.787	5379
825.927	5379
826.067	5284
826.206	5334
826.346	5372
826.485	5357
826.625	5372
826.765	5532
826.904	5448
827.044	5261
827.183	5155
827.323	5105
827.462	5258
827.601	5166
827.741	5231
827.88	5242
828.02	5121
828.159	5269
828.298	5318
828.437	5307
828.577	5296
828.716	5493
828.855	5296
828.994	5170
829.134	5140
829.273	5185
829.412	5147
829.551	5109
829.69	5166
829.829	5235
829.968	5429
830.107	5242
830.246	5220
830.385	5151
830.524	5079
830.663	5079
830.802	4972
830.941	4870
831.08	4870
831.219	4942
831.357	4995
831.496	5185
831.635	4946
831.774	4854
831.913	4847
832.051	4736
832.19	4740
832.329	4858
832.467	4706
832.606	4664
832.744	4740
832.883	4721
833.022	4710
833.16	4771
833.299	4816
833.437	4816
833.576	4828
833.714	4866
833.852	4892
833.991	4824
834.129	4930
834.267	4896
834.406	4934
834.544	4984
834.682	5010
834.821	4919
834.959	5212
835.097	4949
835.235	5162
835.373	5064
835.511	5079
835.65	5029
835.788	4984
835.926	4911
836.064	4862
836.202	4919
836.34	5162
836.478	5265
836.615	5090
836.753	5212
836.891	5269
837.029	5231
837.167	5174
837.305	5201
837.443	5132
837.58	5109
837.718	5284
837.856	5193
837.993	5128
838.131	5201
838.269	5189
838.406	5212
838.544	5189
838.681	5025
838.819	5006
838.956	4866
839.094	4930
839.231	4972
839.369	5075
839.506	5395
839.643	5261
839.781	5071
839.918	4984
840.055	5128
840.193	5079
840.33	5075
840.467	5124
840.604	5155
840.742	5436
840.879	5143
841.016	5102
841.153	5124
841.29	5337
841.427	5322
841.564	5288
841.701	5345
841.838	5296
841.975	5250
842.112	5246
842.249	5113
842.385	5124
842.522	5353
842.659	5128
842.796	5117
842.933	5204
843.069	5121
843.206	5155
843.343	5303
843.479	5261
843.616	5273
843.752	4965
843.889	4995
844.025	5242
844.162	5022
844.298	5147
844.435	5067
844.571	5041
844.708	5201
844.844	5284
844.98	5296
845.117	5250
845.253	5155
845.389	4995
845.525	5197
845.661	5170
845.798	4953
845.934	5098
846.07	4999
846.206	5166
846.342	5269
846.478	5181
846.614	5014
846.75	5022
846.886	4919
847.022	5140
847.158	4995
847.294	5006
847.429	5121
847.565	5102
847.701	5330
847.837	4847
847.972	4767
848.108	4957
848.244	4946
848.379	4755
848.515	4725
848.65	4725
848.786	4744
848.921	4793
849.057	4850
849.192	4934
849.328	4793
849.463	4820
849.598	4820
849.734	4710
849.869	4702
850.004	4630
850.14	4649
850.275	4622
850.41	4546
850.545	4565
850.68	4565
850.815	4584
850.95	4630
851.085	4854
851.22	4717
851.355	4683
851.49	4653
851.625	4634
851.76	4607
851.895	4550
852.03	4542
852.165	4668
852.299	4725
852.434	4763
852.569	4717
852.703	4721
852.838	4900
852.973	4968
853.107	4881
853.242	4717
853.376	4634
853.511	4535
853.645	4580
853.78	4771
853.914	4687
854.048	4660
854.183	4672
854.317	4683
854.451	4812
854.585	4687
854.72	4687
854.854	4729
854.988	4588
855.122	4580
855.256	4550
855.39	4672
855.524	4744
855.658	4694
855.792	4645
855.926	4748
856.06	4752
856.194	4748
856.327	4664
856.461	4607
856.595	4596
856.729	4611
856.862	4679
856.996	4759
857.13	4675
857.263	4744
857.397	4812
857.53	4653
857.664	4683
857.797	4755
857.931	4820
858.064	4653
858.197	4729
858.331	4656
858.464	4615
858.597	4546
858.731	4645
858.864	4577
858.997	4599
859.13	4603
859.263	4634
859.396	4675
859.529	4584
859.662	4588
859.795	4542
859.928	4622
860.061	4759
860.194	4721
860.327	4558
860.46	4554
860.592	4691
860.725	4679
860.858	4710
860.99	4603
861.123	4527
861.256	4519
861.388	4596
861.521	5429
861.653	4489
861.786	4466
861.918	4451
862.05	4527
862.183	4565
862.315	4577
862.447	4641
862.58	4500
862.712	4409
862.844	4318
862.976	4466
863.108	4428
863.24	4774
863.372	4356
863.504	4428
863.636	4462
863.768	4447
863.9	4383
864.032	4329
864.164	4413
864.296	4462
864.428	4527
864.559	4561
864.691	4497
864.823	4508
864.954	4527
865.086	4447
865.217	4451
865.349	4443
865.48	4455
865.612	4493
865.743	4626
865.875	4459
866.006	4432
866.137	4478
866.269	4478
866.4	4383
866.531	4413
866.662	4360
866.793	4394
866.924	4386
867.055	4519
867.186	4443
867.317	4383
867.448	4356
867.579	4356
867.71	4344
867.841	4329
867.972	4455
868.103	4447
868.233	4466
868.364	4455
868.495	4481
868.625	4664
868.756	4721
868.886	4485
869.017	4653
869.147	4790
869.278	4752
869.408	4675
869.539	4618
869.669	4679
869.799	4675
869.929	4714
870.06	4729
870.19	4942
870.32	4854
870.45	4927
870.58	5006
870.71	5083
870.84	5048
870.97	4942
871.1	4904
871.23	5117
871.36	5083
871.489	5029
871.619	5041
871.749	5090
871.879	5128
872.008	5212
872.138	5029
872.267	4938
872.397	4839
872.526	4831
872.656	4755
872.785	4767
872.915	4949
873.044	5025
873.173	4946
873.303	5014
873.432	4930
873.561	4968
873.69	4843
873.819	4839
873.948	4877
874.077	4793
874.206	4736
874.335	4774
874.464	4949
874.593	5025
874.722	5003
874.851	5075
874.979	5086
875.108	5029
875.237	4938
875.365	4854
875.494	4892
875.623	5010
875.751	4805
875.88	4881
876.008	4938
876.136	5060
876.265	5227
876.393	5292
876.521	5174
876.65	5185
876.778	5147
876.906	5098
877.034	4995
877.162	5029
877.29	4976
877.418	5067
877.546	4995
877.674	4995
877.802	4976
877.93	5060
878.058	4908
878.185	4847
878.313	4896
878.441	4911
878.568	4820
878.696	4839
878.824	4919
878.951	4976
879.079	5098
879.206	5273
879.333	5056
879.461	4946
879.588	4957
879.715	5155
879.842	5227
879.97	5010
880.097	4774
880.224	4759
880.351	4805
880.478	4774
880.605	4797
880.732	4774
880.859	5033
880.986	4854
881.112	4927
881.239	4774
881.366	4694
881.493	4630
881.619	4573
881.746	4634
881.872	4683
881.999	4622
882.125	4668
882.252	4828
882.378	4820
882.505	4957
882.631	4839
882.757	4687
882.883	4729
883.01	4755
883.136	4660
883.262	4615
883.388	4618
883.514	4835
883.64	4850
883.766	4801
883.892	4702
884.018	4771
884.143	4885
884.269	5048
884.395	4736
884.52	4630
884.646	4679
884.772	4634
884.897	4573
885.023	4721
885.148	4793
885.274	4896
885.399	4843
885.524	4706
885.65	4767
885.775	4805
885.9	4771
886.025	4858
886.15	4790
886.275	4706
886.4	4702
886.525	4755
886.65	4717
886.775	4740
886.9	4911
887.025	5083
887.149	4801
887.274	4725
887.399	4596
887.523	4634
887.648	4565
887.773	4618
887.897	4843
888.021	4805
888.146	4721
888.27	4866
888.395	4976
888.519	4847
888.643	4881
888.767	4885
888.891	4752
889.015	4687
889.139	4702
889.263	4641
889.387	4828
889.511	4927
889.635	4850
889.759	4710
889.883	4664
890.006	4752
890.13	4843
890.254	4660
890.377	4736
890.501	4546
890.624	4573
890.748	4664
890.871	4523
890.995	4493
891.118	4417
891.241	4527
891.364	4550
891.488	4725
891.611	4550
891.734	4569
891.857	4664
891.98	4615
892.103	4641
892.226	4675
892.349	4546
892.471	4428
892.594	4558
892.717	4637
892.839	4569
892.962	4615
893.085	4672
893.207	4626
893.33	4470
893.452	4558
893.575	4683
893.697	4554
893.819	4847
893.941	4881
894.064	4778
894.186	4588
894.308	4596
894.43	4763
894.552	4911
894.674	4767
894.796	4615
894.918	4637
895.04	4645
895.161	4759
895.283	4649
895.405	4630
895.526	4694
895.648	4710
895.769	4691
895.891	4733
896.012	4778
896.134	4744
896.255	4679
896.376	4714
896.498	4649
896.619	4706
896.74	4649
896.861	4653
896.982	4953
897.103	5094
897.224	4858
897.345	4786
897.466	4687
897.587	4809
897.708	4854
897.828	4831
897.949	4736
898.07	4588
898.19	4641
898.311	4866
898.431	4710
898.552	4740
898.672	4843
898.792	4809
898.913	4767
899.033	4653
899.153	4493
899.273	4470
899.393	4470
899.513	4558
899.633	4550
899.753	4531
899.873	4531
899.993	4603
900.113	4561
900.232	4580
900.352	4588
900.472	4516
900.591	4417
900.711	4523
900.83	4440
900.95	4645
901.069	4702
901.189	4630
901.308	4348
901.427	4303
901.546	4405
901.665	4504
901.784	4569
901.904	4413
902.023	4337
902.141	4234
902.26	4249
902.379	4344
902.498	4242
902.617	4249
902.735	4409
902.854	4417
902.973	4371
903.091	4219
903.21	4246
903.328	4344
903.446	4299
903.565	4295
903.683	4402
903.801	4306
903.919	4497
904.038	4451
904.156	4360
904.274	4428
904.392	4459
904.51	4489
904.627	4542
904.745	4584
904.863	4626
904.981	4390
905.098	4333
905.216	4390
905.334	4443
905.451	4451
905.569	4489
905.686	4596
905.803	4584
905.921	4466
906.038	4516
906.155	4481
906.272	4390
906.389	4512
906.506	4432
906.623	4371
906.74	4478
906.857	4360
906.974	4424
907.091	4618
907.208	4717
907.324	4611
907.441	4504
907.557	4383
907.674	4394
907.79	4318
907.907	4383
908.023	4527
908.139	4527
908.256	4462
908.372	4516
908.488	4466
908.604	4405
908.72	4367
908.836	4398
908.952	4417
909.068	4428
909.184	4649
909.3	4554
909.415	4645
909.531	4577
909.647	4402
909.762	4421
909.878	4398
909.993	4413
910.108	4428
910.224	4428
910.339	4493
910.454	4478
910.57	4360
910.685	4367
910.8	4656
910.915	4588
911.03	4497
911.145	4352
911.259	4379
911.374	4424
911.489	4287
911.604	4284
911.718	4204
911.833	4261
911.947	4120
912.062	4071
912.176	4246
912.291	4284
912.405	4306
912.519	4500
912.633	4554
912.748	4455
912.862	4344
912.976	4246
913.09	4086
913.204	4215
913.318	4287
913.431	4363
913.545	4386
913.659	4447
913.772	4322
913.886	4265
914	4230
914.113	4379
914.226	4493
914.34	4379
914.453	4287
914.566	4443
914.68	4383
914.793	4352
914.906	4207
915.019	4154
915.132	4116
915.245	4207
915.358	4242
915.47	4272
915.583	4322
915.696	4310
915.809	4443
915.921	4440
916.034	4257
916.146	4272
916.259	4230
916.371	4478
916.483	4398
916.595	4276
916.708	4352
916.82	4291
916.932	4383
917.044	4379
917.156	4356
917.268	4276
917.38	4310
917.491	4299
917.603	4344
917.715	4436
917.826	4440
917.938	4363
918.049	4249
918.161	4417
918.272	4573
918.384	4588
918.495	4466
918.606	4341
918.717	4249
918.828	4371
918.939	4383
919.05	4291
919.161	4341
919.272	4131
919.383	4257
919.494	4508
919.604	4599
919.715	4440
919.826	4356
919.936	4402
920.047	4519
920.157	4485
920.267	4744
920.378	4588
920.488	4577
920.598	4744
920.708	4911
920.818	4717
920.928	4755
921.038	4987
921.148	4957
921.258	4672
921.368	4577
921.477	4596
921.587	4481
921.697	4409
921.806	4516
921.916	4466
922.025	4295
922.134	4284
922.244	4238
922.353	4329
922.462	4196
922.571	4101
922.68	4010
922.789	4010
922.898	4086
923.007	3987
923.116	4162
923.224	4090
923.333	4067
923.442	4021
923.55	3956
923.659	4021
923.767	4139
923.876	3991
923.984	4150
924.092	4021
924.201	4086
924.309	4105
924.417	4124
924.525	4040
924.633	4143
924.741	5060
924.849	3934
924.956	4169
925.064	4006
925.172	3937
925.279	3979
925.387	4078
925.494	4071
925.602	4253
925.709	4238
925.816	4036
925.924	4162
926.031	4291
926.138	4192
926.245	4230
926.352	4162
926.459	4280
926.566	4348
926.673	4177
926.779	4086
926.886	4093
926.993	3979
927.099	3968
927.206	3968
927.312	3926
927.419	4128
927.525	4040
927.631	4093
927.737	3991
927.843	4021
927.95	3869
928.056	3994
928.162	3979
928.267	4059
928.373	4645
928.479	4116
928.585	3903
928.69	3987
928.796	4150
928.901	3949
929.007	3876
929.112	4025
929.218	4036
929.323	3998
929.428	3926
929.533	4139
929.638	3926
929.743	3979
929.848	4055
929.953	3987
930.058	3918
930.163	3804
930.267	3861
930.372	4013
930.477	3770
930.581	4124
930.685	3945
930.79	3857
930.894	3873
930.998	3892
931.103	4040
931.207	3717
931.311	3724
931.415	3667
931.519	3534
931.623	3572
