Data from test_V78500241_759.txt Node
Date: Fri Mar 25 16:54:16 CST 2022
User: usil
Spectrometer: V785-0024
Trigger mode: 0
Integration Time (sec): 4.000000E-1
Scans to average: 1
Nonlinearity correction enabled: false
Boxcar width: 0
Storing dark spectrum: false
XAxis mode: Wavelengths
Number of Pixels in Spectrum: 1024
>>>>>Begin Spectral Data<<<<<
801.071	8008
801.214	8046
801.356	7860
801.499	7826
801.641	7784
801.783	7822
801.926	7928
802.068	7940
802.211	7989
802.353	7997
802.496	7917
802.638	7868
802.78	7925
802.923	7909
803.065	7856
803.208	7871
803.35	7955
803.492	8103
803.635	8176
803.777	8077
803.919	8069
804.061	8396
804.204	8103
804.346	8031
804.488	8008
804.63	8100
804.773	7978
804.915	8111
805.057	8294
805.199	8126
805.341	8187
805.483	8244
805.626	8195
805.768	8119
805.91	8206
806.052	8187
806.194	8084
806.336	8225
806.478	8073
806.62	8081
806.762	8103
806.904	8259
807.046	8503
807.188	8370
807.33	8294
807.472	8324
807.614	8119
807.756	8115
807.898	7986
808.04	7879
808.182	7887
808.324	7868
808.465	7932
808.607	8031
808.749	8065
808.891	8145
809.033	8298
809.174	8199
809.316	7997
809.458	8027
809.6	7947
809.741	7993
809.883	8050
810.025	8043
810.166	8119
810.308	8100
810.45	8069
810.591	7940
810.733	7727
810.875	7704
811.016	7483
811.158	7495
811.299	7540
811.441	7685
811.582	7708
811.724	7518
811.865	7537
812.007	7559
812.148	7540
812.29	7643
812.431	7674
812.573	7864
812.714	7955
812.855	8031
812.997	8172
813.138	8271
813.279	8161
813.421	8111
813.562	8020
813.703	7902
813.845	7784
813.986	7472
814.127	7354
814.268	7251
814.41	7168
814.551	7206
814.692	7141
814.833	7008
814.974	7114
815.115	7065
815.256	6954
815.397	6928
815.539	6951
815.68	6833
815.821	6753
815.962	6821
816.103	6779
816.244	6753
816.385	6623
816.526	6585
816.666	6479
816.807	6311
816.948	6353
817.089	6407
817.23	6429
817.371	6391
817.512	6403
817.653	6319
817.793	6304
817.934	6395
818.075	6464
818.216	6353
818.356	6372
818.497	6209
818.638	6117
818.778	6178
818.919	6159
819.06	6152
819.2	6243
819.341	6296
819.481	6323
819.622	6494
819.762	6719
819.903	6715
820.043	6604
820.184	6555
820.324	6532
820.465	6631
820.605	6673
820.746	6639
820.886	6471
821.026	6635
821.167	6681
821.307	6787
821.447	6764
821.588	6650
821.728	6532
821.868	6483
822.008	6281
822.149	6346
822.289	6311
822.429	6083
822.569	6060
822.709	6057
822.849	5847
822.99	5901
823.13	5931
823.27	5794
823.41	5775
823.55	5786
823.69	5760
823.83	5786
823.97	5703
824.11	5551
824.25	5520
824.389	5551
824.529	5558
824.669	5478
824.809	5608
824.949	5646
825.089	5596
825.228	5551
825.368	5395
825.508	5322
825.648	5337
825.787	5372
825.927	5368
826.067	5265
826.206	5311
826.346	5410
826.485	5353
826.625	5421
826.765	5592
826.904	5459
827.044	5277
827.183	5155
827.323	5143
827.462	5227
827.601	5140
827.741	5147
827.88	5208
828.02	5064
828.159	5239
828.298	5265
828.437	5334
828.577	5216
828.716	5448
828.855	5337
828.994	5098
829.134	5174
829.273	5185
829.412	5143
829.551	5079
829.69	5197
829.829	5239
829.968	5288
830.107	5254
830.246	5254
830.385	5162
830.524	5181
830.663	5037
830.802	4965
830.941	4854
831.08	4889
831.219	5006
831.357	4961
831.496	5151
831.635	4923
831.774	4862
831.913	4828
832.051	4759
832.19	4656
832.329	4843
832.467	4653
832.606	4592
832.744	4687
832.883	4660
833.022	4691
833.16	4778
833.299	4797
833.437	4835
833.576	4809
833.714	4816
833.852	4854
833.991	4900
834.129	4908
834.267	4957
834.406	4892
834.544	4976
834.682	4968
834.821	4972
834.959	5113
835.097	5033
835.235	5166
835.373	5071
835.511	5109
835.65	4995
835.788	5022
835.926	4938
836.064	4850
836.202	4911
836.34	5132
836.478	5185
836.615	5109
836.753	5201
836.891	5273
837.029	5254
837.167	5159
837.305	5105
837.443	5159
837.58	5086
837.718	5235
837.856	5216
837.993	5102
838.131	5212
838.269	5162
838.406	5201
838.544	5197
838.681	5033
838.819	4968
838.956	4866
839.094	4892
839.231	4972
839.369	5079
839.506	5429
839.643	5269
839.781	5071
839.918	4972
840.055	5094
840.193	5086
840.33	5124
840.467	5083
840.604	5166
840.742	5391
840.879	5117
841.016	5071
841.153	5105
841.29	5307
841.427	5353
841.564	5315
841.701	5349
841.838	5265
841.975	5227
842.112	5315
842.249	5147
842.385	5109
842.522	5315
842.659	5132
842.796	5136
842.933	5193
843.069	5227
843.206	5147
843.343	5292
843.479	5235
843.616	5250
843.752	4961
843.889	4984
844.025	5197
844.162	4984
844.298	5132
844.435	5086
844.571	5037
844.708	5189
844.844	5318
844.98	5322
845.117	5269
845.253	5162
845.389	5090
845.525	5124
845.661	5075
845.798	5025
845.934	5094
846.07	5048
846.206	5166
846.342	5284
846.478	5174
846.614	4965
846.75	4972
846.886	4896
847.022	5094
847.158	5029
847.294	5075
847.429	5064
847.565	5071
847.701	5265
847.837	4889
847.972	4801
848.108	4961
848.244	4972
848.379	4767
848.515	4721
848.65	4702
848.786	4733
848.921	4736
849.057	4866
849.192	4839
849.328	4752
849.463	4828
849.598	4801
849.734	4774
849.869	4691
850.004	4656
850.14	4668
850.275	4611
850.41	4497
850.545	4542
850.68	4569
850.815	4630
850.95	4653
851.085	4843
851.22	4748
851.355	4653
851.49	4641
851.625	4630
851.76	4637
851.895	4577
852.03	4542
852.165	4641
852.299	4733
852.434	4782
852.569	4717
852.703	4744
852.838	4778
852.973	4896
853.107	4908
853.242	4698
853.376	4622
853.511	4577
853.645	4596
853.78	4778
853.914	4683
854.048	4630
854.183	4668
854.317	4679
854.451	4809
854.585	4679
854.72	4630
854.854	4767
854.988	4580
855.122	4618
855.256	4497
855.39	4641
855.524	4778
855.658	4702
855.792	4710
855.926	4721
856.06	4736
856.194	4763
856.327	4710
856.461	4615
856.595	4603
856.729	4618
856.862	4733
856.996	4679
857.13	4729
857.263	4755
857.397	4767
857.53	4615
857.664	4687
857.797	4744
857.931	4793
858.064	4679
858.197	4736
858.331	4634
858.464	4573
858.597	4493
858.731	4584
858.864	4596
858.997	4558
859.13	4626
859.263	4691
859.396	4694
859.529	4588
859.662	4573
859.795	4550
859.928	4554
860.061	4759
860.194	4744
860.327	4618
860.46	4489
860.592	4706
860.725	4656
860.858	4744
860.99	4538
861.123	4478
861.256	4508
861.388	4558
861.521	5322
861.653	4493
861.786	4443
861.918	4466
862.05	4504
862.183	4565
862.315	4573
862.447	4675
862.58	4550
862.712	4379
862.844	4322
862.976	4451
863.108	4421
863.24	4885
863.372	4352
863.504	4394
863.636	4383
863.768	4462
863.9	4440
864.032	4386
864.164	4371
864.296	4447
864.428	4561
864.559	4573
864.691	4455
864.823	4516
864.954	4527
865.086	4466
865.217	4493
865.349	4405
865.48	4405
865.612	4470
865.743	4565
865.875	4428
866.006	4417
866.137	4398
866.269	4409
866.4	4424
866.531	4386
866.662	4394
866.793	4371
866.924	4383
867.055	4485
867.186	4462
867.317	4394
867.448	4325
867.579	4379
867.71	4390
867.841	4363
867.972	4462
868.103	4485
868.233	4402
868.364	4421
868.495	4474
868.625	4668
868.756	4736
868.886	4596
869.017	4664
869.147	4744
869.278	4759
869.408	4660
869.539	4599
869.669	4706
869.799	4645
869.929	4759
870.06	4740
870.19	4938
870.32	4927
870.45	4911
870.58	4957
870.71	5083
870.84	5136
870.97	4889
871.1	4900
871.23	5140
871.36	5067
871.489	5064
871.619	5064
871.749	5064
871.879	5132
872.008	5181
872.138	5014
872.267	4923
872.397	4816
872.526	4721
872.656	4752
872.785	4809
872.915	4942
873.044	5045
873.173	4858
873.303	4930
873.432	4923
873.561	4953
873.69	4858
873.819	4854
873.948	4866
874.077	4782
874.206	4702
874.335	4793
874.464	4870
874.593	4999
874.722	4942
874.851	5094
874.979	5025
875.108	5018
875.237	4942
875.365	4847
875.494	4896
875.623	4961
875.751	4782
875.88	4908
876.008	5033
876.136	4995
876.265	5212
876.393	5357
876.521	5284
876.65	5239
876.778	5197
876.906	5045
877.034	4999
877.162	5003
877.29	4934
877.418	5056
877.546	5067
877.674	4995
877.802	5033
877.93	5018
878.058	4904
878.185	4843
878.313	4957
878.441	4976
878.568	4820
878.696	4839
878.824	4919
878.951	5003
879.079	5124
879.206	5311
879.333	5083
879.461	4968
879.588	4995
879.715	5136
879.842	5197
879.97	5014
880.097	4809
880.224	4721
880.351	4755
880.478	4828
880.605	4767
880.732	4782
880.859	5079
880.986	4862
881.112	4881
881.239	4736
881.366	4653
881.493	4584
881.619	4588
881.746	4634
881.872	4637
881.999	4668
882.125	4668
882.252	4812
882.378	4801
882.505	4949
882.631	4778
882.757	4702
882.883	4679
883.01	4733
883.136	4672
883.262	4611
883.388	4622
883.514	4782
883.64	4839
883.766	4759
883.892	4645
884.018	4691
884.143	4870
884.269	4946
884.395	4672
884.52	4599
884.646	4611
884.772	4584
884.897	4519
885.023	4679
885.148	4797
885.274	4820
885.399	4759
885.524	4706
885.65	4668
885.775	4721
885.9	4668
886.025	4824
886.15	4725
886.275	4694
886.4	4615
886.525	4721
886.65	4679
886.775	4675
886.9	4934
887.025	5033
887.149	4801
887.274	4645
887.399	4664
887.523	4577
887.648	4561
887.773	4565
887.897	4771
888.021	4812
888.146	4683
888.27	4873
888.395	4923
888.519	4793
888.643	4847
888.767	4828
888.891	4721
889.015	4561
889.139	4675
889.263	4618
889.387	4771
889.511	4900
889.635	4889
889.759	4672
889.883	4710
890.006	4797
890.13	4839
890.254	4637
890.377	4679
890.501	4592
890.624	4531
890.748	4653
890.871	4565
890.995	4519
891.118	4485
891.241	4554
891.364	4550
891.488	4660
891.611	4489
891.734	4565
891.857	4672
891.98	4618
892.103	4672
892.226	4584
892.349	4561
892.471	4504
892.594	4531
892.717	4592
892.839	4569
892.962	4596
893.085	4672
893.207	4702
893.33	4481
893.452	4577
893.575	4714
893.697	4649
893.819	4862
893.941	4873
894.064	4828
894.186	4618
894.308	4637
894.43	4790
894.552	4850
894.674	4828
894.796	4580
894.918	4645
895.04	4626
895.161	4748
895.283	4683
895.405	4599
895.526	4668
895.648	4687
895.769	4694
895.891	4759
896.012	4805
896.134	4759
896.255	4744
896.376	4607
896.498	4687
896.619	4721
896.74	4618
896.861	4721
896.982	4961
897.103	5155
897.224	4862
897.345	4828
897.466	4748
897.587	4767
897.708	4873
897.828	4809
897.949	4687
898.07	4588
898.19	4672
898.311	4889
898.431	4740
898.552	4771
898.672	4877
898.792	4843
898.913	4763
899.033	4649
899.153	4538
899.273	4478
899.393	4523
899.513	4569
899.633	4558
899.753	4577
899.873	4550
899.993	4603
900.113	4584
900.232	4577
900.352	4569
900.472	4519
900.591	4451
900.711	4546
900.83	4466
900.95	4641
901.069	4714
901.189	4596
901.308	4402
901.427	4341
901.546	4386
901.665	4519
901.784	4531
901.904	4405
902.023	4367
902.141	4249
902.26	4207
902.379	4402
902.498	4295
902.617	4261
902.735	4405
902.854	4428
902.973	4371
903.091	4257
903.21	4211
903.328	4356
903.446	4314
903.565	4276
903.683	4379
903.801	4299
903.919	4440
904.038	4462
904.156	4375
904.274	4474
904.392	4474
904.51	4466
904.627	4481
904.745	4569
904.863	4622
904.981	4447
905.098	4341
905.216	4390
905.334	4466
905.451	4470
905.569	4466
905.686	4622
905.803	4634
905.921	4451
906.038	4569
906.155	4500
906.272	4398
906.389	4500
906.506	4356
906.623	4447
906.74	4417
906.857	4333
906.974	4409
907.091	4580
907.208	4736
907.324	4653
907.441	4512
907.557	4360
907.674	4367
907.79	4371
907.907	4466
908.023	4500
908.139	4500
908.256	4443
908.372	4523
908.488	4493
908.604	4398
908.72	4318
908.836	4405
908.952	4432
909.068	4512
909.184	4607
909.3	4519
909.415	4618
909.531	4588
909.647	4367
909.762	4428
909.878	4341
909.993	4451
910.108	4421
910.224	4421
910.339	4512
910.454	4451
910.57	4417
910.685	4306
910.8	4641
910.915	4641
911.03	4531
911.145	4337
911.259	4356
911.374	4337
911.489	4363
911.604	4344
911.718	4257
911.833	4207
911.947	4101
912.062	4036
912.176	4246
912.291	4299
912.405	4276
912.519	4455
912.633	4519
912.748	4394
912.862	4344
912.976	4238
913.09	4158
913.204	4200
913.318	4287
913.431	4329
913.545	4371
913.659	4500
913.772	4379
913.886	4227
914	4257
914.113	4466
914.226	4424
914.34	4371
914.453	4261
914.566	4413
914.68	4325
914.793	4325
914.906	4181
915.019	4177
915.132	4093
915.245	4249
915.358	4242
915.47	4253
915.583	4306
915.696	4325
915.809	4432
915.921	4443
916.034	4276
916.146	4295
916.259	4230
916.371	4413
916.483	4436
916.595	4261
916.708	4348
916.82	4314
916.932	4363
917.044	4367
917.156	4352
917.268	4242
917.38	4341
917.491	4291
917.603	4356
917.715	4421
917.826	4474
917.938	4390
918.049	4272
918.161	4443
918.272	4569
918.384	4550
918.495	4489
918.606	4246
918.717	4268
918.828	4348
918.939	4379
919.05	4265
919.161	4306
919.272	4200
919.383	4257
919.494	4455
919.604	4630
919.715	4436
919.826	4421
919.936	4466
920.047	4538
920.157	4459
920.267	4710
920.378	4569
920.488	4481
920.598	4725
920.708	4949
920.818	4759
920.928	4778
921.038	4965
921.148	4953
921.258	4630
921.368	4588
921.477	4485
921.587	4478
921.697	4371
921.806	4527
921.916	4459
922.025	4329
922.134	4325
922.244	4238
922.353	4398
922.462	4162
922.571	4143
922.68	4021
922.789	3979
922.898	4078
923.007	3991
923.116	4143
923.224	4090
923.333	4128
923.442	4013
923.55	4036
923.659	4055
923.767	4112
923.876	4040
923.984	4139
924.092	3987
924.201	4097
924.309	4101
924.417	4158
924.525	4101
924.633	4128
924.741	4911
924.849	3937
924.956	4124
925.064	3960
925.172	3899
925.279	3964
925.387	4097
925.494	4074
925.602	4238
925.709	4211
925.816	4029
925.924	4105
926.031	4261
926.138	4162
926.245	4200
926.352	4112
926.459	4249
926.566	4284
926.673	4188
926.779	4124
926.886	4120
926.993	4002
927.099	3991
927.206	3956
927.312	3926
927.419	4071
927.525	4006
927.631	4086
927.737	3964
927.843	3991
927.95	3907
928.056	3998
928.162	4002
928.267	4048
928.373	4683
928.479	4120
928.585	3911
928.69	4051
928.796	4112
928.901	4017
929.007	3838
929.112	4017
929.218	3991
929.323	3960
929.428	3975
929.533	4131
929.638	3903
929.743	3998
929.848	4059
929.953	4002
930.058	3949
930.163	3831
930.267	3854
930.372	3975
930.477	3865
930.581	4131
930.685	3899
930.79	3835
930.894	3945
930.998	3865
931.103	4063
931.207	3759
931.311	3766
931.415	3671
931.519	3557
931.623	3591
