Data from test_V78500241_2759.txt Node
Date: Fri Mar 25 17:08:11 CST 2022
User: usil
Spectrometer: V785-0024
Trigger mode: 0
Integration Time (sec): 4.000000E-1
Scans to average: 1
Nonlinearity correction enabled: false
Boxcar width: 0
Storing dark spectrum: false
XAxis mode: Wavelengths
Number of Pixels in Spectrum: 1024
>>>>>Begin Spectral Data<<<<<
801.071	8016
801.214	8001
801.356	7856
801.499	7883
801.641	7852
801.783	7909
801.926	8016
802.068	8050
802.211	7989
802.353	8016
802.496	7959
802.638	7959
802.78	7963
802.923	7921
803.065	7879
803.208	7879
803.35	7982
803.492	8157
803.635	8317
803.777	8069
803.919	8202
804.061	8434
804.204	8206
804.346	8157
804.488	8088
804.63	8134
804.773	8142
804.915	8157
805.057	8324
805.199	8180
805.341	8145
805.483	8336
805.626	8229
805.768	8206
805.91	8271
806.052	8240
806.194	8199
806.336	8336
806.478	8103
806.62	8107
806.762	8199
806.904	8256
807.046	8442
807.188	8336
807.33	8305
807.472	8355
807.614	8176
807.756	8164
807.898	8081
808.04	7898
808.182	7894
808.324	7963
808.465	7974
808.607	8065
808.749	8191
808.891	8279
809.033	8347
809.174	8301
809.316	8126
809.458	8115
809.6	7982
809.741	8031
809.883	8069
810.025	8195
810.166	8142
810.308	8107
810.45	8065
810.591	7883
810.733	7761
810.875	7677
811.016	7575
811.158	7609
811.299	7586
811.441	7753
811.582	7727
811.724	7658
811.865	7586
812.007	7628
812.148	7613
812.29	7628
812.431	7723
812.573	7856
812.714	8050
812.855	8206
812.997	8267
813.138	8313
813.279	8214
813.421	8088
813.562	8050
813.703	7890
813.845	7761
813.986	7487
814.127	7236
814.268	7282
814.41	7297
814.551	7179
814.692	7160
814.833	7114
814.974	7114
815.115	7152
815.256	6996
815.397	6897
815.539	6951
815.68	6818
815.821	6795
815.962	6916
816.103	6833
816.244	6749
816.385	6654
816.526	6642
816.666	6498
816.807	6292
816.948	6532
817.089	6509
817.23	6429
817.371	6426
817.512	6384
817.653	6467
817.793	6369
817.934	6452
818.075	6452
818.216	6479
818.356	6418
818.497	6323
818.638	6117
818.778	6171
818.919	6114
819.06	6205
819.2	6319
819.341	6369
819.481	6410
819.622	6547
819.762	6753
819.903	6711
820.043	6684
820.184	6582
820.324	6612
820.465	6684
820.605	6711
820.746	6642
820.886	6551
821.026	6715
821.167	6776
821.307	6810
821.447	6829
821.588	6673
821.728	6555
821.868	6502
822.008	6388
822.149	6399
822.289	6380
822.429	6194
822.569	6148
822.709	6091
822.849	5950
822.99	5927
823.13	5939
823.27	5961
823.41	5851
823.55	5836
823.69	5809
823.83	5832
823.97	5691
824.11	5562
824.25	5528
824.389	5547
824.529	5638
824.669	5570
824.809	5695
824.949	5718
825.089	5691
825.228	5608
825.368	5406
825.508	5387
825.648	5353
825.787	5379
825.927	5440
826.067	5372
826.206	5311
826.346	5410
826.485	5448
826.625	5429
826.765	5516
826.904	5490
827.044	5254
827.183	5265
827.323	5178
827.462	5299
827.601	5185
827.741	5170
827.88	5273
828.02	5136
828.159	5254
828.298	5330
828.437	5357
828.577	5284
828.716	5516
828.855	5360
828.994	5143
829.134	5185
829.273	5242
829.412	5166
829.551	5147
829.69	5159
829.829	5250
829.968	5372
830.107	5265
830.246	5258
830.385	5212
830.524	5140
830.663	5132
830.802	4968
830.941	4911
831.08	4850
831.219	5025
831.357	5041
831.496	5147
831.635	4972
831.774	4896
831.913	4892
832.051	4778
832.19	4816
832.329	4847
832.467	4683
832.606	4641
832.744	4740
832.883	4752
833.022	4733
833.16	4801
833.299	4854
833.437	4778
833.576	4854
833.714	4854
833.852	4850
833.991	4923
834.129	4938
834.267	4930
834.406	4984
834.544	4957
834.682	5006
834.821	5052
834.959	5204
835.097	4995
835.235	5124
835.373	5067
835.511	5132
835.65	4987
835.788	5079
835.926	4919
836.064	4968
836.202	4930
836.34	5151
836.478	5181
836.615	5140
836.753	5201
836.891	5296
837.029	5261
837.167	5143
837.305	5174
837.443	5193
837.58	5098
837.718	5311
837.856	5204
837.993	5151
838.131	5242
838.269	5231
838.406	5208
838.544	5162
838.681	5083
838.819	5014
838.956	4908
839.094	4919
839.231	4976
839.369	5105
839.506	5417
839.643	5235
839.781	5083
839.918	5006
840.055	5113
840.193	5113
840.33	5060
840.467	5105
840.604	5193
840.742	5417
840.879	5079
841.016	5124
841.153	5181
841.29	5429
841.427	5303
841.564	5280
841.701	5376
841.838	5303
841.975	5311
842.112	5280
842.249	5178
842.385	5155
842.522	5341
842.659	5162
842.796	5151
842.933	5273
843.069	5162
843.206	5166
843.343	5307
843.479	5197
843.616	5322
843.752	5071
843.889	5014
844.025	5231
844.162	4965
844.298	5208
844.435	5128
844.571	5056
844.708	5197
844.844	5322
844.98	5368
845.117	5318
845.253	5132
845.389	5086
845.525	5197
845.661	5143
845.798	5048
845.934	5094
846.07	5086
846.206	5166
846.342	5296
846.478	5189
846.614	5010
846.75	4953
846.886	4961
847.022	5159
847.158	5006
847.294	5117
847.429	5128
847.565	5029
847.701	5357
847.837	4862
847.972	4793
848.108	4953
848.244	4934
848.379	4767
848.515	4740
848.65	4702
848.786	4790
848.921	4790
849.057	4877
849.192	4938
849.328	4816
849.463	4850
849.598	4831
849.734	4755
849.869	4694
850.004	4622
850.14	4710
850.275	4622
850.41	4531
850.545	4558
850.68	4698
850.815	4622
850.95	4630
851.085	4854
851.22	4748
851.355	4710
851.49	4660
851.625	4622
851.76	4641
851.895	4554
852.03	4577
852.165	4641
852.299	4736
852.434	4816
852.569	4752
852.703	4797
852.838	4862
852.973	4934
853.107	4900
853.242	4733
853.376	4687
853.511	4538
853.645	4584
853.78	4816
853.914	4672
854.048	4691
854.183	4645
854.317	4660
854.451	4839
854.585	4653
854.72	4656
854.854	4767
854.988	4596
855.122	4656
855.256	4497
855.39	4679
855.524	4805
855.658	4752
855.792	4744
855.926	4702
856.06	4782
856.194	4816
856.327	4721
856.461	4615
856.595	4615
856.729	4694
856.862	4755
856.996	4706
857.13	4694
857.263	4717
857.397	4824
857.53	4611
857.664	4740
857.797	4767
857.931	4801
858.064	4683
858.197	4782
858.331	4645
858.464	4622
858.597	4558
858.731	4668
858.864	4649
858.997	4618
859.13	4675
859.263	4656
859.396	4721
859.529	4550
859.662	4535
859.795	4508
859.928	4645
860.061	4778
860.194	4774
860.327	4622
860.46	4558
860.592	4691
860.725	4771
860.858	4733
860.99	4611
861.123	4493
861.256	4535
861.388	4645
861.521	5269
861.653	4447
861.786	4462
861.918	4459
862.05	4485
862.183	4550
862.315	4580
862.447	4694
862.58	4516
862.712	4436
862.844	4348
862.976	4497
863.108	4459
863.24	4793
863.372	4318
863.504	4443
863.636	4394
863.768	4497
863.9	4421
864.032	4402
864.164	4440
864.296	4421
864.428	4504
864.559	4611
864.691	4535
864.823	4523
864.954	4523
865.086	4546
865.217	4485
865.349	4383
865.48	4493
865.612	4504
865.743	4618
865.875	4462
866.006	4478
866.137	4466
866.269	4474
866.4	4421
866.531	4432
866.662	4451
866.793	4455
866.924	4451
867.055	4504
867.186	4462
867.317	4421
867.448	4405
867.579	4356
867.71	4402
867.841	4375
867.972	4436
868.103	4485
868.233	4508
868.364	4440
868.495	4500
868.625	4653
868.756	4759
868.886	4538
869.017	4577
869.147	4816
869.278	4771
869.408	4698
869.539	4675
869.669	4721
869.799	4668
869.929	4801
870.06	4729
870.19	4991
870.32	4915
870.45	4965
870.58	4946
870.71	5098
870.84	5079
870.97	4946
871.1	4908
871.23	5162
871.36	5185
871.489	5006
871.619	5102
871.749	5067
871.879	5151
872.008	5170
872.138	5067
872.267	5010
872.397	4839
872.526	4847
872.656	4733
872.785	4877
872.915	4927
873.044	5006
873.173	4930
873.303	4938
873.432	4949
873.561	4976
873.69	4850
873.819	4873
873.948	4942
874.077	4854
874.206	4790
874.335	4820
874.464	4938
874.593	5048
874.722	5022
874.851	5121
874.979	5003
875.108	5041
875.237	4938
875.365	4847
875.494	4900
875.623	5033
875.751	4816
875.88	4911
876.008	4999
876.136	5029
876.265	5197
876.393	5315
876.521	5277
876.65	5235
876.778	5162
876.906	5037
877.034	5052
877.162	5086
877.29	4961
877.418	5090
877.546	4991
877.674	5048
877.802	5033
877.93	5052
878.058	4930
878.185	4889
878.313	4923
878.441	4972
878.568	4812
878.696	4881
878.824	4984
878.951	5060
879.079	5121
879.206	5299
879.333	5117
879.461	4999
879.588	5006
879.715	5147
879.842	5181
879.97	4968
880.097	4801
880.224	4733
880.351	4778
880.478	4858
880.605	4862
880.732	4820
880.859	5098
880.986	4885
881.112	4911
881.239	4782
881.366	4660
881.493	4630
881.619	4577
881.746	4656
881.872	4714
881.999	4694
882.125	4744
882.252	4759
882.378	4759
882.505	4961
882.631	4801
882.757	4649
882.883	4725
883.01	4714
883.136	4675
883.262	4656
883.388	4603
883.514	4824
883.64	4908
883.766	4820
883.892	4683
884.018	4717
884.143	4839
884.269	5060
884.395	4679
884.52	4687
884.646	4660
884.772	4573
884.897	4542
885.023	4687
885.148	4793
885.274	4908
885.399	4809
885.524	4687
885.65	4717
885.775	4733
885.9	4729
886.025	4850
886.15	4767
886.275	4687
886.4	4679
886.525	4717
886.65	4672
886.775	4649
886.9	4946
887.025	5037
887.149	4820
887.274	4656
887.399	4596
887.523	4641
887.648	4573
887.773	4577
887.897	4744
888.021	4763
888.146	4683
888.27	4820
888.395	4927
888.519	4820
888.643	4790
888.767	4805
888.891	4653
889.015	4584
889.139	4679
889.263	4596
889.387	4744
889.511	4816
889.635	4793
889.759	4596
889.883	4599
890.006	4759
890.13	4881
890.254	4615
890.377	4675
890.501	4542
890.624	4580
890.748	4668
890.871	4523
890.995	4466
891.118	4375
891.241	4474
891.364	4573
891.488	4596
891.611	4512
891.734	4569
891.857	4630
891.98	4565
892.103	4679
892.226	4573
892.349	4569
892.471	4455
892.594	4493
892.717	4603
892.839	4588
892.962	4580
893.085	4653
893.207	4611
893.33	4500
893.452	4519
893.575	4698
893.697	4565
893.819	4782
893.941	4816
894.064	4774
894.186	4561
894.308	4558
894.43	4740
894.552	4782
894.674	4710
894.796	4546
894.918	4603
895.04	4542
895.161	4729
895.283	4683
895.405	4558
895.526	4630
895.648	4660
895.769	4702
895.891	4683
896.012	4748
896.134	4744
896.255	4679
896.376	4550
896.498	4592
896.619	4630
896.74	4607
896.861	4649
896.982	4938
897.103	5083
897.224	4839
897.345	4771
897.466	4656
897.587	4744
897.708	4831
897.828	4771
897.949	4668
898.07	4550
898.19	4653
898.311	4870
898.431	4687
898.552	4710
898.672	4809
898.792	4767
898.913	4740
899.033	4630
899.153	4508
899.273	4398
899.393	4459
899.513	4504
899.633	4531
899.753	4546
899.873	4512
899.993	4592
900.113	4500
900.232	4626
900.352	4538
900.472	4474
900.591	4447
900.711	4466
900.83	4451
900.95	4592
901.069	4706
901.189	4569
901.308	4367
901.427	4287
901.546	4398
901.665	4497
901.784	4489
901.904	4398
902.023	4344
902.141	4173
902.26	4200
902.379	4295
902.498	4219
902.617	4261
902.735	4402
902.854	4428
902.973	4344
903.091	4238
903.21	4234
903.328	4325
903.446	4261
903.565	4246
903.683	4352
903.801	4306
903.919	4371
904.038	4455
904.156	4333
904.274	4447
904.392	4402
904.51	4459
904.627	4497
904.745	4603
904.863	4653
904.981	4424
905.098	4341
905.216	4390
905.334	4443
905.451	4436
905.569	4493
905.686	4527
905.803	4554
905.921	4436
906.038	4554
906.155	4546
906.272	4405
906.389	4447
906.506	4337
906.623	4360
906.74	4405
906.857	4329
906.974	4318
907.091	4588
907.208	4717
907.324	4565
907.441	4527
907.557	4383
907.674	4310
907.79	4325
907.907	4421
908.023	4462
908.139	4462
908.256	4413
908.372	4462
908.488	4428
908.604	4318
908.72	4341
908.836	4356
908.952	4356
909.068	4447
909.184	4573
909.3	4497
909.415	4554
909.531	4535
909.647	4352
909.762	4337
909.878	4325
909.993	4443
910.108	4436
910.224	4413
910.339	4519
910.454	4348
910.57	4360
910.685	4287
910.8	4599
910.915	4622
911.03	4485
911.145	4333
911.259	4333
911.374	4367
911.489	4295
911.604	4325
911.718	4131
911.833	4188
911.947	4097
912.062	4051
912.176	4185
912.291	4207
912.405	4299
912.519	4523
912.633	4459
912.748	4367
912.862	4314
912.976	4181
913.09	4124
913.204	4219
913.318	4306
913.431	4363
913.545	4363
913.659	4398
913.772	4367
913.886	4242
914	4211
914.113	4352
914.226	4436
914.34	4356
914.453	4238
914.566	4447
914.68	4303
914.793	4337
914.906	4196
915.019	4166
915.132	4097
915.245	4207
915.358	4219
915.47	4227
915.583	4253
915.696	4341
915.809	4421
915.921	4379
916.034	4261
916.146	4177
916.259	4276
916.371	4367
916.483	4383
916.595	4280
916.708	4322
916.82	4325
916.932	4268
917.044	4306
917.156	4299
917.268	4227
917.38	4257
917.491	4268
917.603	4318
917.715	4394
917.826	4443
917.938	4379
918.049	4223
918.161	4417
918.272	4550
918.384	4569
918.495	4462
918.606	4257
918.717	4230
918.828	4333
918.939	4363
919.05	4249
919.161	4333
919.272	4112
919.383	4238
919.494	4421
919.604	4588
919.715	4451
919.826	4325
919.936	4417
920.047	4500
920.157	4478
920.267	4710
920.378	4577
920.488	4497
920.598	4698
920.708	4866
920.818	4786
920.928	4752
921.038	4930
921.148	4923
921.258	4637
921.368	4516
921.477	4455
921.587	4474
921.697	4383
921.806	4527
921.916	4447
922.025	4272
922.134	4276
922.244	4246
922.353	4329
922.462	4177
922.571	4093
922.68	4025
922.789	3956
922.898	4032
923.007	3964
923.116	4101
923.224	4059
923.333	4112
923.442	3964
923.55	3941
923.659	4017
923.767	4032
923.876	3968
923.984	4109
924.092	3987
924.201	4048
924.309	4112
924.417	4078
924.525	4036
924.633	4112
924.741	5064
924.849	3903
924.956	4128
925.064	4010
925.172	3918
925.279	3930
925.387	4086
925.494	4040
925.602	4215
925.709	4227
925.816	3994
925.924	4097
926.031	4192
926.138	4162
926.245	4223
926.352	4063
926.459	4318
926.566	4272
926.673	4162
926.779	4029
926.886	4097
926.993	3960
927.099	3945
927.206	3960
927.312	3949
927.419	4071
927.525	3987
927.631	4044
927.737	3972
927.843	3983
927.95	3827
928.056	3907
928.162	3960
928.267	4036
928.373	4672
928.479	4150
928.585	3907
928.69	4040
928.796	4105
928.901	4006
929.007	3876
929.112	4013
929.218	3991
929.323	3930
929.428	3991
929.533	4105
929.638	3888
929.743	3960
929.848	4025
929.953	3937
930.058	3953
930.163	3717
930.267	3819
930.372	3983
930.477	3835
930.581	4078
930.685	3941
930.79	3861
930.894	3884
930.998	3835
931.103	4040
931.207	3728
931.311	3690
931.415	3701
931.519	3519
931.623	3534
