Data from test_V78500241_1523.txt Node
Date: Fri Mar 25 16:59:35 CST 2022
User: usil
Spectrometer: V785-0024
Trigger mode: 0
Integration Time (sec): 4.000000E-1
Scans to average: 1
Nonlinearity correction enabled: false
Boxcar width: 0
Storing dark spectrum: false
XAxis mode: Wavelengths
Number of Pixels in Spectrum: 1024
>>>>>Begin Spectral Data<<<<<
801.071	7997
801.214	8077
801.356	7890
801.499	7898
801.641	7830
801.783	7818
801.926	7963
802.068	7932
802.211	8012
802.353	7989
802.496	7871
802.638	7925
802.78	7879
802.923	7928
803.065	7928
803.208	7864
803.35	8020
803.492	8115
803.635	8145
803.777	8115
803.919	8199
804.061	8461
804.204	8149
804.346	8077
804.488	8020
804.63	8115
804.773	8073
804.915	8126
805.057	8275
805.199	8210
805.341	8191
805.483	8195
805.626	8195
805.768	8145
805.91	8199
806.052	8145
806.194	8119
806.336	8256
806.478	8157
806.62	8039
806.762	8142
806.904	8271
807.046	8492
807.188	8366
807.33	8282
807.472	8362
807.614	8134
807.756	8172
807.898	8012
808.04	7944
808.182	7959
808.324	7845
808.465	7944
808.607	8096
808.749	8130
808.891	8206
809.033	8294
809.174	8164
809.316	8065
809.458	8008
809.6	7993
809.741	8001
809.883	8058
810.025	8172
810.166	8088
810.308	8020
810.45	8081
810.591	7936
810.733	7727
810.875	7689
811.016	7540
811.158	7552
811.299	7605
811.441	7769
811.582	7662
811.724	7670
811.865	7537
812.007	7582
812.148	7624
812.29	7681
812.431	7757
812.573	7883
812.714	8024
812.855	8123
812.997	8187
813.138	8313
813.279	8248
813.421	8084
813.562	7982
813.703	7913
813.845	7742
813.986	7407
814.127	7308
814.268	7225
814.41	7202
814.551	7126
814.692	7259
814.833	7065
814.974	7091
815.115	7103
815.256	6958
815.397	6954
815.539	6970
815.68	6806
815.821	6810
815.962	6928
816.103	6867
816.244	6734
816.385	6639
816.526	6593
816.666	6502
816.807	6327
816.948	6422
817.089	6486
817.23	6448
817.371	6346
817.512	6403
817.653	6395
817.793	6422
817.934	6391
818.075	6506
818.216	6433
818.356	6361
818.497	6289
818.638	6152
818.778	6178
818.919	6182
819.06	6213
819.2	6266
819.341	6369
819.481	6403
819.622	6506
819.762	6753
819.903	6696
820.043	6585
820.184	6597
820.324	6555
820.465	6726
820.605	6627
820.746	6665
820.886	6498
821.026	6620
821.167	6654
821.307	6818
821.447	6787
821.588	6650
821.728	6593
821.868	6528
822.008	6311
822.149	6369
822.289	6365
822.429	6171
822.569	6095
822.709	6136
822.849	5942
822.99	5904
823.13	5946
823.27	5931
823.41	5760
823.55	5798
823.69	5775
823.83	5756
823.97	5668
824.11	5532
824.25	5554
824.389	5577
824.529	5577
824.669	5497
824.809	5596
824.949	5695
825.089	5589
825.228	5577
825.368	5368
825.508	5364
825.648	5395
825.787	5402
825.927	5379
826.067	5299
826.206	5288
826.346	5364
826.485	5414
826.625	5391
826.765	5558
826.904	5482
827.044	5299
827.183	5227
827.323	5113
827.462	5231
827.601	5170
827.741	5147
827.88	5242
828.02	5174
828.159	5239
828.298	5284
828.437	5330
828.577	5311
828.716	5486
828.855	5315
828.994	5155
829.134	5155
829.273	5132
829.412	5124
829.551	5151
829.69	5178
829.829	5201
829.968	5391
830.107	5239
830.246	5277
830.385	5185
830.524	5166
830.663	5010
830.802	4987
830.941	4942
831.08	4938
831.219	4965
831.357	4980
831.496	5105
831.635	4965
831.774	4831
831.913	4877
832.051	4729
832.19	4759
832.329	4870
832.467	4672
832.606	4626
832.744	4687
832.883	4740
833.022	4729
833.16	4752
833.299	4809
833.437	4831
833.576	4850
833.714	4908
833.852	4877
833.991	4942
834.129	4953
834.267	4965
834.406	4904
834.544	4999
834.682	4946
834.821	4938
834.959	5132
835.097	5014
835.235	5090
835.373	5067
835.511	5143
835.65	4980
835.788	5037
835.926	4984
836.064	4896
836.202	4904
836.34	5162
836.478	5246
836.615	5143
836.753	5166
836.891	5311
837.029	5235
837.167	5231
837.305	5162
837.443	5174
837.58	5010
837.718	5261
837.856	5174
837.993	5140
838.131	5216
838.269	5223
838.406	5212
838.544	5105
838.681	5041
838.819	5022
838.956	4862
839.094	4930
839.231	4953
839.369	5075
839.506	5440
839.643	5299
839.781	4999
839.918	4984
840.055	5140
840.193	5090
840.33	5121
840.467	5117
840.604	5197
840.742	5448
840.879	5086
841.016	5098
841.153	5212
841.29	5341
841.427	5292
841.564	5330
841.701	5334
841.838	5227
841.975	5208
842.112	5318
842.249	5136
842.385	5170
842.522	5330
842.659	5178
842.796	5143
842.933	5189
843.069	5113
843.206	5178
843.343	5280
843.479	5181
843.616	5258
843.752	5025
843.889	5033
844.025	5258
844.162	5010
844.298	5235
844.435	5075
844.571	5010
844.708	5201
844.844	5341
844.98	5337
845.117	5284
845.253	5098
845.389	5086
845.525	5185
845.661	5143
845.798	5048
845.934	5166
846.07	5033
846.206	5132
846.342	5292
846.478	5220
846.614	5003
846.75	4999
846.886	4999
847.022	5098
847.158	5037
847.294	5086
847.429	5117
847.565	4991
847.701	5280
847.837	4850
847.972	4767
848.108	4961
848.244	4915
848.379	4733
848.515	4733
848.65	4714
848.786	4744
848.921	4767
849.057	4870
849.192	4820
849.328	4805
849.463	4793
849.598	4755
849.734	4729
849.869	4683
850.004	4618
850.14	4649
850.275	4577
850.41	4504
850.545	4527
850.68	4573
850.815	4596
850.95	4607
851.085	4805
851.22	4733
851.355	4683
851.49	4611
851.625	4607
851.76	4672
851.895	4558
852.03	4611
852.165	4672
852.299	4710
852.434	4824
852.569	4767
852.703	4812
852.838	4843
852.973	4927
853.107	4930
853.242	4748
853.376	4660
853.511	4596
853.645	4588
853.78	4812
853.914	4683
854.048	4687
854.183	4645
854.317	4626
854.451	4873
854.585	4714
854.72	4622
854.854	4790
854.988	4611
855.122	4622
855.256	4565
855.39	4672
855.524	4744
855.658	4702
855.792	4710
855.926	4714
856.06	4797
856.194	4790
856.327	4679
856.461	4626
856.595	4622
856.729	4634
856.862	4778
856.996	4653
857.13	4721
857.263	4755
857.397	4778
857.53	4706
857.664	4691
857.797	4717
857.931	4782
858.064	4698
858.197	4744
858.331	4645
858.464	4611
858.597	4512
858.731	4645
858.864	4660
858.997	4626
859.13	4660
859.263	4679
859.396	4702
859.529	4554
859.662	4573
859.795	4531
859.928	4603
860.061	4694
860.194	4714
860.327	4649
860.46	4542
860.592	4736
860.725	4694
860.858	4675
860.99	4565
861.123	4516
861.256	4535
861.388	4573
861.521	5345
861.653	4470
861.786	4443
861.918	4466
862.05	4535
862.183	4565
862.315	4637
862.447	4679
862.58	4531
862.712	4375
862.844	4356
862.976	4481
863.108	4447
863.24	4721
863.372	4322
863.504	4398
863.636	4424
863.768	4516
863.9	4413
864.032	4314
864.164	4383
864.296	4417
864.428	4508
864.559	4546
864.691	4546
864.823	4535
864.954	4478
865.086	4542
865.217	4432
865.349	4409
865.48	4459
865.612	4512
865.743	4618
865.875	4451
866.006	4394
866.137	4455
866.269	4474
866.4	4421
866.531	4421
866.662	4367
866.793	4413
866.924	4455
867.055	4459
867.186	4436
867.317	4379
867.448	4356
867.579	4375
867.71	4337
867.841	4356
867.972	4459
868.103	4504
868.233	4459
868.364	4478
868.495	4462
868.625	4618
868.756	4809
868.886	4478
869.017	4592
869.147	4809
869.278	4740
869.408	4653
869.539	4630
869.669	4679
869.799	4603
869.929	4790
870.06	4759
870.19	4946
870.32	4892
870.45	4942
870.58	5064
870.71	5060
870.84	5147
870.97	4953
871.1	4919
871.23	5147
871.36	5094
871.489	5010
871.619	5094
871.749	5071
871.879	5117
872.008	5197
872.138	5045
872.267	4965
872.397	4824
872.526	4816
872.656	4679
872.785	4782
872.915	4934
873.044	5048
873.173	4881
873.303	4980
873.432	5014
873.561	4923
873.69	4858
873.819	4812
873.948	4900
874.077	4816
874.206	4767
874.335	4805
874.464	4919
874.593	5067
874.722	4984
874.851	5128
874.979	5083
875.108	5045
875.237	4908
875.365	4889
875.494	4881
875.623	4984
875.751	4858
875.88	4835
876.008	4965
876.136	4987
876.265	5189
876.393	5322
876.521	5246
876.65	5197
876.778	5155
876.906	5090
877.034	5022
877.162	5029
877.29	4991
877.418	5056
877.546	5025
877.674	5033
877.802	5037
877.93	5037
878.058	4915
878.185	4835
878.313	4923
878.441	4915
878.568	4774
878.696	4839
878.824	4900
878.951	5041
879.079	5083
879.206	5322
879.333	5094
879.461	4942
879.588	5010
879.715	5102
879.842	5235
879.97	4965
880.097	4820
880.224	4733
880.351	4809
880.478	4812
880.605	4771
880.732	4778
880.859	5098
880.986	4892
881.112	4889
881.239	4744
881.366	4637
881.493	4607
881.619	4580
881.746	4656
881.872	4622
881.999	4683
882.125	4694
882.252	4805
882.378	4767
882.505	4938
882.631	4824
882.757	4634
882.883	4736
883.01	4702
883.136	4653
883.262	4603
883.388	4584
883.514	4771
883.64	4858
883.766	4755
883.892	4710
884.018	4729
884.143	4942
884.269	5037
884.395	4691
884.52	4588
884.646	4649
884.772	4558
884.897	4535
885.023	4664
885.148	4793
885.274	4831
885.399	4839
885.524	4698
885.65	4702
885.775	4763
885.9	4675
886.025	4812
886.15	4767
886.275	4717
886.4	4706
886.525	4710
886.65	4691
886.775	4694
886.9	4900
887.025	4968
887.149	4797
887.274	4607
887.399	4550
887.523	4596
887.648	4542
887.773	4592
887.897	4771
888.021	4744
888.146	4641
888.27	4778
888.395	4927
888.519	4767
888.643	4858
888.767	4839
888.891	4618
889.015	4611
889.139	4626
889.263	4607
889.387	4744
889.511	4877
889.635	4801
889.759	4611
889.883	4645
890.006	4759
890.13	4850
890.254	4611
890.377	4653
890.501	4538
890.624	4500
890.748	4626
890.871	4554
890.995	4443
891.118	4386
891.241	4546
891.364	4523
891.488	4607
891.611	4478
891.734	4516
891.857	4531
891.98	4554
892.103	4660
892.226	4592
892.349	4459
892.471	4405
892.594	4531
892.717	4622
892.839	4531
892.962	4603
893.085	4664
893.207	4569
893.33	4470
893.452	4497
893.575	4675
893.697	4565
893.819	4828
893.941	4771
894.064	4778
894.186	4546
894.308	4580
894.43	4717
894.552	4793
894.674	4702
894.796	4531
894.918	4561
895.04	4542
895.161	4653
895.283	4584
895.405	4538
895.526	4626
895.648	4649
895.769	4733
895.891	4729
896.012	4698
896.134	4729
896.255	4607
896.376	4653
896.498	4637
896.619	4660
896.74	4626
896.861	4668
896.982	4995
897.103	5048
897.224	4824
897.345	4744
897.466	4630
897.587	4755
897.708	4881
897.828	4752
897.949	4618
898.07	4527
898.19	4618
898.311	4843
898.431	4660
898.552	4767
898.672	4839
898.792	4752
898.913	4740
899.033	4615
899.153	4466
899.273	4428
899.393	4519
899.513	4489
899.633	4485
899.753	4516
899.873	4512
899.993	4611
900.113	4558
900.232	4588
900.352	4493
900.472	4470
900.591	4379
900.711	4489
900.83	4394
900.95	4584
901.069	4698
901.189	4523
901.308	4329
901.427	4337
901.546	4394
901.665	4443
901.784	4481
901.904	4379
902.023	4295
902.141	4207
902.26	4185
902.379	4314
902.498	4227
902.617	4196
902.735	4367
902.854	4371
902.973	4386
903.091	4200
903.21	4268
903.328	4314
903.446	4276
903.565	4230
903.683	4375
903.801	4246
903.919	4375
904.038	4409
904.156	4322
904.274	4432
904.392	4360
904.51	4462
904.627	4428
904.745	4546
904.863	4607
904.981	4348
905.098	4291
905.216	4341
905.334	4432
905.451	4440
905.569	4443
905.686	4523
905.803	4592
905.921	4413
906.038	4542
906.155	4493
906.272	4394
906.389	4478
906.506	4299
906.623	4356
906.74	4405
906.857	4356
906.974	4360
907.091	4542
907.208	4645
907.324	4584
907.441	4493
907.557	4341
907.674	4325
907.79	4306
907.907	4402
908.023	4474
908.139	4466
908.256	4417
908.372	4428
908.488	4443
908.604	4341
908.72	4329
908.836	4344
908.952	4386
909.068	4413
909.184	4550
909.3	4470
909.415	4592
909.531	4588
909.647	4356
909.762	4333
909.878	4344
909.993	4428
910.108	4413
910.224	4417
910.339	4493
910.454	4379
910.57	4371
910.685	4287
910.8	4641
910.915	4588
911.03	4455
911.145	4306
911.259	4356
911.374	4356
911.489	4310
911.604	4261
911.718	4196
911.833	4181
911.947	4071
912.062	4029
912.176	4177
912.291	4215
912.405	4257
912.519	4447
912.633	4500
912.748	4379
912.862	4280
912.976	4196
913.09	4082
913.204	4196
913.318	4253
913.431	4344
913.545	4363
913.659	4436
913.772	4360
913.886	4284
914	4204
914.113	4356
914.226	4440
914.34	4322
914.453	4219
914.566	4413
914.68	4341
914.793	4341
914.906	4097
915.019	4116
915.132	4071
915.245	4192
915.358	4246
915.47	4192
915.583	4265
915.696	4284
915.809	4398
915.921	4405
916.034	4234
916.146	4249
916.259	4223
916.371	4352
916.483	4390
916.595	4280
916.708	4341
916.82	4337
916.932	4291
917.044	4310
917.156	4303
917.268	4207
917.38	4253
917.491	4276
917.603	4303
917.715	4394
917.826	4451
917.938	4344
918.049	4257
918.161	4367
918.272	4535
918.384	4523
918.495	4481
918.606	4280
918.717	4234
918.828	4341
918.939	4363
919.05	4261
919.161	4314
919.272	4150
919.383	4257
919.494	4440
919.604	4622
919.715	4443
919.826	4341
919.936	4402
920.047	4481
920.157	4459
920.267	4641
920.378	4565
920.488	4546
920.598	4725
920.708	4854
920.818	4755
920.928	4714
921.038	4984
921.148	4904
921.258	4618
921.368	4561
921.477	4497
921.587	4443
921.697	4371
921.806	4516
921.916	4390
922.025	4295
922.134	4246
922.244	4268
922.353	4303
922.462	4150
922.571	4071
922.68	3975
922.789	4006
922.898	4032
923.007	3972
923.116	4051
923.224	4071
923.333	4036
923.442	4021
923.55	3926
923.659	4025
923.767	4093
923.876	4040
923.984	4109
924.092	3987
924.201	4105
924.309	4067
924.417	4101
924.525	4071
924.633	4124
924.741	4862
924.849	3903
924.956	4109
925.064	3983
925.172	3899
925.279	3983
925.387	4048
925.494	4029
925.602	4192
925.709	4166
925.816	4010
925.924	4082
926.031	4238
926.138	4097
926.245	4192
926.352	4086
926.459	4249
926.566	4287
926.673	4120
926.779	4071
926.886	4048
926.993	3953
927.099	3953
927.206	3911
927.312	3930
927.419	4029
927.525	4032
927.631	4063
927.737	3956
927.843	3911
927.95	3827
928.056	3964
928.162	3953
928.267	4044
928.373	4538
928.479	4101
928.585	3880
928.69	4055
928.796	4055
928.901	3975
929.007	3854
929.112	4013
929.218	3979
929.323	3949
929.428	4010
929.533	4090
929.638	3926
929.743	4002
929.848	4040
929.953	4032
930.058	3915
930.163	3797
930.267	3819
930.372	3953
930.477	3797
930.581	4074
930.685	3941
930.79	3797
930.894	3903
930.998	3793
931.103	4044
931.207	3698
931.311	3675
931.415	3633
931.519	3519
931.623	3534
