Data from test_V78500241_685.txt Node
Date: Fri Mar 25 16:53:45 CST 2022
User: usil
Spectrometer: V785-0024
Trigger mode: 0
Integration Time (sec): 4.000000E-1
Scans to average: 1
Nonlinearity correction enabled: false
Boxcar width: 0
Storing dark spectrum: false
XAxis mode: Wavelengths
Number of Pixels in Spectrum: 1024
>>>>>Begin Spectral Data<<<<<
801.071	8073
801.214	7993
801.356	7864
801.499	7852
801.641	7723
801.783	7837
801.926	7959
802.068	7959
802.211	7940
802.353	7936
802.496	7909
802.638	7864
802.78	7902
802.923	7860
803.065	7822
803.208	7822
803.35	7894
803.492	8027
803.635	8176
803.777	8027
803.919	8065
804.061	8381
804.204	8138
804.346	7993
804.488	7989
804.63	8031
804.773	8016
804.915	8065
805.057	8309
805.199	8145
805.341	8218
805.483	8263
805.626	8244
805.768	8149
805.91	8172
806.052	8168
806.194	8073
806.336	8294
806.478	8043
806.62	8031
806.762	8092
806.904	8286
807.046	8446
807.188	8362
807.33	8294
807.472	8328
807.614	8126
807.756	8149
807.898	7959
808.04	7909
808.182	7932
808.324	7906
808.465	7940
808.607	8081
808.749	8123
808.891	8206
809.033	8279
809.174	8195
809.316	7993
809.458	8119
809.6	7936
809.741	8031
809.883	7997
810.025	8081
810.166	8103
810.308	8016
810.45	8005
810.591	7871
810.733	7674
810.875	7746
811.016	7552
811.158	7548
811.299	7548
811.441	7662
811.582	7674
811.724	7544
811.865	7491
812.007	7578
812.148	7605
812.29	7540
812.431	7715
812.573	7879
812.714	7940
812.855	8035
812.997	8221
813.138	8275
813.279	8161
813.421	8119
813.562	7967
813.703	7913
813.845	7761
813.986	7480
814.127	7282
814.268	7278
814.41	7206
814.551	7149
814.692	7118
814.833	7053
814.974	7065
815.115	7095
815.256	7034
815.397	6913
815.539	6985
815.68	6829
815.821	6810
815.962	6875
816.103	6776
816.244	6719
816.385	6681
816.526	6604
816.666	6475
816.807	6289
816.948	6418
817.089	6475
817.23	6407
817.371	6327
817.512	6391
817.653	6380
817.793	6350
817.934	6445
818.075	6403
818.216	6456
818.356	6342
818.497	6232
818.638	6102
818.778	6148
818.919	6171
819.06	6182
819.2	6304
819.341	6315
819.481	6384
819.622	6509
819.762	6673
819.903	6673
820.043	6593
820.184	6559
820.324	6525
820.465	6665
820.605	6662
820.746	6635
820.886	6490
821.026	6642
821.167	6703
821.307	6787
821.447	6700
821.588	6604
821.728	6559
821.868	6467
822.008	6300
822.149	6334
822.289	6380
822.429	6216
822.569	6053
822.709	6098
822.849	5920
822.99	5855
823.13	5942
823.27	5901
823.41	5790
823.55	5783
823.69	5722
823.83	5794
823.97	5680
824.11	5551
824.25	5482
824.389	5589
824.529	5551
824.669	5497
824.809	5619
824.949	5665
825.089	5615
825.228	5581
825.368	5417
825.508	5326
825.648	5334
825.787	5357
825.927	5372
826.067	5307
826.206	5280
826.346	5345
826.485	5368
826.625	5372
826.765	5554
826.904	5497
827.044	5220
827.183	5166
827.323	5151
827.462	5250
827.601	5147
827.741	5147
827.88	5242
828.02	5102
828.159	5220
828.298	5269
828.437	5376
828.577	5223
828.716	5440
828.855	5318
828.994	5124
829.134	5098
829.273	5181
829.412	5162
829.551	5109
829.69	5128
829.829	5231
829.968	5315
830.107	5273
830.246	5216
830.385	5166
830.524	5086
830.663	5033
830.802	4987
830.941	4873
831.08	4816
831.219	4968
831.357	4972
831.496	5181
831.635	4915
831.774	4820
831.913	4885
832.051	4752
832.19	4736
832.329	4850
832.467	4679
832.606	4649
832.744	4717
832.883	4736
833.022	4714
833.16	4790
833.299	4812
833.437	4797
833.576	4778
833.714	4847
833.852	4892
833.991	4900
834.129	4961
834.267	4923
834.406	4877
834.544	4953
834.682	4949
834.821	4942
834.959	5151
835.097	5025
835.235	5159
835.373	5105
835.511	5083
835.65	5060
835.788	5018
835.926	4896
836.064	4870
836.202	4858
836.34	5208
836.478	5197
836.615	5117
836.753	5181
836.891	5261
837.029	5231
837.167	5140
837.305	5147
837.443	5178
837.58	5010
837.718	5197
837.856	5140
837.993	5090
838.131	5223
838.269	5159
838.406	5208
838.544	5189
838.681	5018
838.819	4999
838.956	4873
839.094	4854
839.231	4961
839.369	5098
839.506	5383
839.643	5223
839.781	5037
839.918	4987
840.055	5052
840.193	5079
840.33	5102
840.467	5090
840.604	5189
840.742	5414
840.879	5056
841.016	5029
841.153	5140
841.29	5315
841.427	5315
841.564	5315
841.701	5364
841.838	5315
841.975	5231
842.112	5235
842.249	5151
842.385	5056
842.522	5296
842.659	5181
842.796	5124
842.933	5181
843.069	5185
843.206	5155
843.343	5284
843.479	5269
843.616	5250
843.752	5048
843.889	4995
844.025	5204
844.162	5022
844.298	5223
844.435	5090
844.571	5052
844.708	5220
844.844	5288
844.98	5315
845.117	5288
845.253	5147
845.389	5064
845.525	5140
845.661	5162
845.798	5056
845.934	5132
846.07	4995
846.206	5166
846.342	5284
846.478	5197
846.614	4999
846.75	4953
846.886	4904
847.022	5201
847.158	4953
847.294	5067
847.429	5071
847.565	5048
847.701	5311
847.837	4877
847.972	4801
848.108	4953
848.244	4877
848.379	4812
848.515	4721
848.65	4698
848.786	4721
848.921	4744
849.057	4873
849.192	4889
849.328	4812
849.463	4835
849.598	4778
849.734	4740
849.869	4694
850.004	4603
850.14	4687
850.275	4580
850.41	4500
850.545	4542
850.68	4584
850.815	4607
850.95	4603
851.085	4839
851.22	4755
851.355	4679
851.49	4573
851.625	4618
851.76	4660
851.895	4546
852.03	4478
852.165	4653
852.299	4664
852.434	4763
852.569	4710
852.703	4782
852.838	4847
852.973	4915
853.107	4930
853.242	4725
853.376	4679
853.511	4546
853.645	4577
853.78	4847
853.914	4679
854.048	4660
854.183	4672
854.317	4698
854.451	4866
854.585	4630
854.72	4622
854.854	4702
854.988	4584
855.122	4592
855.256	4493
855.39	4637
855.524	4786
855.658	4714
855.792	4660
855.926	4694
856.06	4733
856.194	4771
856.327	4679
856.461	4588
856.595	4577
856.729	4607
856.862	4778
856.996	4702
857.13	4744
857.263	4687
857.397	4816
857.53	4645
857.664	4679
857.797	4767
857.931	4714
858.064	4645
858.197	4778
858.331	4637
858.464	4565
858.597	4493
858.731	4577
858.864	4607
858.997	4577
859.13	4634
859.263	4656
859.396	4660
859.529	4580
859.662	4516
859.795	4500
859.928	4607
860.061	4721
860.194	4694
860.327	4588
860.46	4550
860.592	4653
860.725	4714
860.858	4698
860.99	4542
861.123	4497
861.256	4481
861.388	4596
861.521	5368
861.653	4500
861.786	4405
861.918	4440
862.05	4504
862.183	4558
862.315	4599
862.447	4626
862.58	4535
862.712	4409
862.844	4287
862.976	4481
863.108	4451
863.24	4896
863.372	4371
863.504	4413
863.636	4432
863.768	4497
863.9	4459
864.032	4402
864.164	4436
864.296	4542
864.428	4573
864.559	4550
864.691	4561
864.823	4512
864.954	4531
865.086	4531
865.217	4462
865.349	4466
865.48	4489
865.612	4508
865.743	4653
865.875	4485
866.006	4474
866.137	4398
866.269	4466
866.4	4443
866.531	4440
866.662	4386
866.793	4462
866.924	4466
867.055	4512
867.186	4489
867.317	4459
867.448	4413
867.579	4413
867.71	4432
867.841	4417
867.972	4466
868.103	4504
868.233	4493
868.364	4462
868.495	4523
868.625	4656
868.756	4801
868.886	4569
869.017	4588
869.147	4843
869.278	4782
869.408	4687
869.539	4596
869.669	4755
869.799	4710
869.929	4790
870.06	4759
870.19	5003
870.32	4900
870.45	4957
870.58	5033
870.71	5109
870.84	5098
870.97	4949
871.1	4946
871.23	5201
871.36	5136
871.489	5045
871.619	5079
871.749	5067
871.879	5197
872.008	5231
872.138	5079
872.267	4991
872.397	4881
872.526	4877
872.656	4797
872.785	4866
872.915	5025
873.044	5060
873.173	4984
873.303	4980
873.432	4968
873.561	4999
873.69	4946
873.819	4877
873.948	4930
874.077	4847
874.206	4755
874.335	4839
874.464	4968
874.593	5105
874.722	4957
874.851	5136
874.979	5113
875.108	5067
875.237	4946
875.365	4911
875.494	4908
875.623	4976
875.751	4828
875.88	4949
876.008	5006
876.136	5048
876.265	5178
876.393	5326
876.521	5273
876.65	5261
876.778	5201
876.906	5071
877.034	5025
877.162	5060
877.29	4999
877.418	5109
877.546	5109
877.674	5098
877.802	5067
877.93	5045
878.058	4961
878.185	4923
878.313	5086
878.441	4987
878.568	4820
878.696	4930
878.824	4976
878.951	5041
879.079	5181
879.206	5357
879.333	5090
879.461	5033
879.588	5041
879.715	5159
879.842	5250
879.97	5052
880.097	4877
880.224	4774
880.351	4786
880.478	4870
880.605	4797
880.732	4793
880.859	5121
880.986	4866
881.112	4946
881.239	4816
881.366	4714
881.493	4641
881.619	4637
881.746	4679
881.872	4687
881.999	4675
882.125	4702
882.252	4801
882.378	4831
882.505	4972
882.631	4793
882.757	4691
882.883	4748
883.01	4710
883.136	4755
883.262	4641
883.388	4630
883.514	4873
883.64	4919
883.766	4809
883.892	4714
884.018	4706
884.143	4949
884.269	5022
884.395	4710
884.52	4645
884.646	4679
884.772	4603
884.897	4569
885.023	4656
885.148	4809
885.274	4885
885.399	4809
885.524	4801
885.65	4691
885.775	4748
885.9	4683
886.025	4881
886.15	4839
886.275	4717
886.4	4721
886.525	4805
886.65	4710
886.775	4702
886.9	4919
887.025	5109
887.149	4850
887.274	4694
887.399	4607
887.523	4615
887.648	4592
887.773	4626
887.897	4812
888.021	4809
888.146	4656
888.27	4828
888.395	4908
888.519	4866
888.643	4831
888.767	4809
888.891	4740
889.015	4656
889.139	4653
889.263	4637
889.387	4755
889.511	4892
889.635	4828
889.759	4683
889.883	4664
890.006	4793
890.13	4896
890.254	4641
890.377	4744
890.501	4569
890.624	4584
890.748	4645
890.871	4512
890.995	4462
891.118	4375
891.241	4584
891.364	4596
891.488	4615
891.611	4478
891.734	4656
891.857	4626
891.98	4588
892.103	4653
892.226	4622
892.349	4546
892.471	4474
892.594	4592
892.717	4641
892.839	4596
892.962	4611
893.085	4698
893.207	4622
893.33	4489
893.452	4546
893.575	4664
893.697	4637
893.819	4820
893.941	4908
894.064	4812
894.186	4584
894.308	4607
894.43	4771
894.552	4824
894.674	4778
894.796	4550
894.918	4634
895.04	4592
895.161	4698
895.283	4660
895.405	4615
895.526	4660
895.648	4683
895.769	4698
895.891	4740
896.012	4755
896.134	4767
896.255	4710
896.376	4675
896.498	4660
896.619	4668
896.74	4618
896.861	4660
896.982	4953
897.103	5098
897.224	4892
897.345	4767
897.466	4736
897.587	4763
897.708	4877
897.828	4793
897.949	4683
898.07	4588
898.19	4660
898.311	4850
898.431	4675
898.552	4702
898.672	4877
898.792	4812
898.913	4786
899.033	4649
899.153	4527
899.273	4481
899.393	4523
899.513	4523
899.633	4565
899.753	4577
899.873	4527
899.993	4569
900.113	4558
900.232	4630
900.352	4573
900.472	4527
900.591	4413
900.711	4546
900.83	4497
900.95	4626
901.069	4679
901.189	4558
901.308	4363
901.427	4363
901.546	4432
901.665	4519
901.784	4573
901.904	4428
902.023	4337
902.141	4249
902.26	4188
902.379	4329
902.498	4280
902.617	4234
902.735	4402
902.854	4409
902.973	4405
903.091	4234
903.21	4234
903.328	4272
903.446	4261
903.565	4242
903.683	4379
903.801	4329
903.919	4440
904.038	4432
904.156	4318
904.274	4474
904.392	4398
904.51	4409
904.627	4512
904.745	4618
904.863	4637
904.981	4390
905.098	4306
905.216	4394
905.334	4470
905.451	4447
905.569	4485
905.686	4558
905.803	4580
905.921	4462
906.038	4546
906.155	4493
906.272	4443
906.389	4478
906.506	4367
906.623	4417
906.74	4428
906.857	4344
906.974	4402
907.091	4599
907.208	4721
907.324	4565
907.441	4516
907.557	4344
907.674	4333
907.79	4352
907.907	4413
908.023	4470
908.139	4561
908.256	4424
908.372	4485
908.488	4569
908.604	4386
908.72	4360
908.836	4348
908.952	4428
909.068	4451
909.184	4615
909.3	4516
909.415	4565
909.531	4565
909.647	4344
909.762	4402
909.878	4390
909.993	4485
910.108	4417
910.224	4466
910.339	4485
910.454	4440
910.57	4375
910.685	4325
910.8	4653
910.915	4668
911.03	4569
911.145	4360
911.259	4383
911.374	4413
911.489	4318
911.604	4325
911.718	4169
911.833	4200
911.947	4093
912.062	4093
912.176	4253
912.291	4265
912.405	4291
912.519	4519
912.633	4478
912.748	4386
912.862	4314
912.976	4276
913.09	4112
913.204	4227
913.318	4265
913.431	4367
913.545	4363
913.659	4447
913.772	4390
913.886	4242
914	4268
914.113	4383
914.226	4481
914.34	4371
914.453	4257
914.566	4436
914.68	4322
914.793	4371
914.906	4169
915.019	4143
915.132	4097
915.245	4246
915.358	4242
915.47	4257
915.583	4295
915.696	4291
915.809	4432
915.921	4440
916.034	4261
916.146	4280
916.259	4284
916.371	4360
916.483	4417
916.595	4299
916.708	4318
916.82	4344
916.932	4329
917.044	4375
917.156	4329
917.268	4238
917.38	4329
917.491	4280
917.603	4383
917.715	4440
917.826	4443
917.938	4413
918.049	4257
918.161	4405
918.272	4596
918.384	4554
918.495	4470
918.606	4329
918.717	4261
918.828	4333
918.939	4383
919.05	4295
919.161	4314
919.272	4154
919.383	4276
919.494	4459
919.604	4691
919.715	4481
919.826	4314
919.936	4409
920.047	4512
920.157	4542
920.267	4786
920.378	4519
920.488	4481
920.598	4710
920.708	4889
920.818	4771
920.928	4755
921.038	4972
921.148	4923
921.258	4656
921.368	4580
921.477	4558
921.587	4485
921.697	4417
921.806	4535
921.916	4440
922.025	4272
922.134	4272
922.244	4207
922.353	4341
922.462	4219
922.571	4139
922.68	4021
922.789	3968
922.898	4071
923.007	3994
923.116	4105
923.224	4090
923.333	4082
923.442	4010
923.55	3987
923.659	4051
923.767	4101
923.876	4010
923.984	4135
924.092	3991
924.201	4082
924.309	4097
924.417	4139
924.525	4128
924.633	4082
924.741	5113
924.849	3888
924.956	4135
925.064	3949
925.172	3922
925.279	4013
925.387	4036
925.494	4082
925.602	4246
925.709	4211
925.816	4055
925.924	4116
926.031	4238
926.138	4154
926.245	4192
926.352	4124
926.459	4230
926.566	4344
926.673	4150
926.779	4063
926.886	4109
926.993	3987
927.099	3956
927.206	3960
927.312	3949
927.419	4063
927.525	4010
927.631	4116
927.737	4013
927.843	3998
927.95	3876
928.056	3953
928.162	4067
928.267	4040
928.373	4668
928.479	4150
928.585	3876
928.69	4036
928.796	4101
928.901	3960
929.007	3861
929.112	3991
929.218	3975
929.323	3960
929.428	3945
929.533	4124
929.638	3937
929.743	3994
929.848	4071
929.953	4006
930.058	3960
930.163	3816
930.267	3876
930.372	3994
930.477	3819
930.581	4105
930.685	3960
930.79	3873
930.894	3918
930.998	3873
931.103	4036
931.207	3778
931.311	3740
931.415	3663
931.519	3561
931.623	3576
