Data from test_V78500241_550.txt Node
Date: Fri Mar 25 16:52:49 CST 2022
User: usil
Spectrometer: V785-0024
Trigger mode: 0
Integration Time (sec): 4.000000E-1
Scans to average: 1
Nonlinearity correction enabled: false
Boxcar width: 0
Storing dark spectrum: false
XAxis mode: Wavelengths
Number of Pixels in Spectrum: 1024
>>>>>Begin Spectral Data<<<<<
801.071	8046
801.214	7974
801.356	7875
801.499	7803
801.641	7784
801.783	7868
801.926	8069
802.068	7963
802.211	8031
802.353	8001
802.496	7887
802.638	7944
802.78	7928
802.923	7833
803.065	7845
803.208	7868
803.35	7989
803.492	8096
803.635	8149
803.777	7921
803.919	8081
804.061	8389
804.204	8069
804.346	8065
804.488	7845
804.63	8100
804.773	7959
804.915	8077
805.057	8244
805.199	8210
805.341	8168
805.483	8206
805.626	8187
805.768	8069
805.91	8183
806.052	8176
806.194	8077
806.336	8286
806.478	8077
806.62	8081
806.762	8084
806.904	8237
807.046	8465
807.188	8298
807.33	8275
807.472	8301
807.614	8164
807.756	8138
807.898	8005
808.04	7841
808.182	7879
808.324	7875
808.465	7913
808.607	7978
808.749	8092
808.891	8237
809.033	8301
809.174	8202
809.316	8012
809.458	8054
809.6	7986
809.741	8035
809.883	7967
810.025	8058
810.166	8062
810.308	8008
810.45	7989
810.591	7909
810.733	7723
810.875	7613
811.016	7616
811.158	7445
811.299	7529
811.441	7757
811.582	7681
811.724	7594
811.865	7590
812.007	7575
812.148	7594
812.29	7647
812.431	7757
812.573	7864
812.714	7917
812.855	8103
812.997	8244
813.138	8370
813.279	8271
813.421	8221
813.562	8020
813.703	7856
813.845	7807
813.986	7502
814.127	7293
814.268	7339
814.41	7194
814.551	7164
814.692	7190
814.833	7057
814.974	7080
815.115	7080
815.256	7004
815.397	6928
815.539	6935
815.68	6757
815.821	6818
815.962	6905
816.103	6867
816.244	6745
816.385	6608
816.526	6627
816.666	6456
816.807	6300
816.948	6437
817.089	6494
817.23	6441
817.371	6388
817.512	6414
817.653	6407
817.793	6388
817.934	6445
818.075	6376
818.216	6384
818.356	6357
818.497	6273
818.638	6110
818.778	6125
818.919	6106
819.06	6140
819.2	6311
819.341	6346
819.481	6380
819.622	6490
819.762	6741
819.903	6631
820.043	6521
820.184	6528
820.324	6582
820.465	6658
820.605	6665
820.746	6608
820.886	6433
821.026	6627
821.167	6684
821.307	6783
821.447	6741
821.588	6578
821.728	6467
821.868	6448
822.008	6311
822.149	6391
822.289	6372
822.429	6148
822.569	6068
822.709	6072
822.849	5878
822.99	5889
823.13	5889
823.27	5878
823.41	5802
823.55	5745
823.69	5703
823.83	5790
823.97	5657
824.11	5547
824.25	5467
824.389	5562
824.529	5562
824.669	5490
824.809	5634
824.949	5653
825.089	5596
825.228	5551
825.368	5402
825.508	5345
825.648	5330
825.787	5379
825.927	5349
826.067	5315
826.206	5227
826.346	5345
826.485	5337
826.625	5414
826.765	5562
826.904	5421
827.044	5250
827.183	5170
827.323	5083
827.462	5265
827.601	5143
827.741	5212
827.88	5197
828.02	5102
828.159	5193
828.298	5337
828.437	5322
828.577	5299
828.716	5482
828.855	5322
828.994	5155
829.134	5204
829.273	5197
829.412	5162
829.551	5113
829.69	5181
829.829	5197
829.968	5398
830.107	5254
830.246	5239
830.385	5189
830.524	5124
830.663	5037
830.802	4896
830.941	4896
831.08	4831
831.219	4980
831.357	4972
831.496	5121
831.635	4927
831.774	4805
831.913	4835
832.051	4725
832.19	4725
832.329	4805
832.467	4717
832.606	4592
832.744	4683
832.883	4702
833.022	4729
833.16	4698
833.299	4801
833.437	4885
833.576	4820
833.714	4854
833.852	4889
833.991	4847
834.129	4957
834.267	4934
834.406	4923
834.544	4915
834.682	4957
834.821	4930
834.959	5105
835.097	4972
835.235	5155
835.373	5071
835.511	5105
835.65	4972
835.788	5033
835.926	4885
836.064	4866
836.202	4843
836.34	5121
836.478	5201
836.615	5124
836.753	5151
836.891	5311
837.029	5166
837.167	5227
837.305	5132
837.443	5075
837.58	5025
837.718	5269
837.856	5162
837.993	5102
838.131	5170
838.269	5227
838.406	5197
838.544	5174
838.681	5067
838.819	4984
838.956	4854
839.094	4915
839.231	4927
839.369	5067
839.506	5376
839.643	5239
839.781	5064
839.918	4999
840.055	5113
840.193	5124
840.33	5109
840.467	5155
840.604	5185
840.742	5387
840.879	5056
841.016	5102
841.153	5181
841.29	5379
841.427	5353
841.564	5353
841.701	5326
841.838	5261
841.975	5250
842.112	5273
842.249	5159
842.385	5155
842.522	5341
842.659	5197
842.796	5109
842.933	5250
843.069	5155
843.206	5117
843.343	5303
843.479	5239
843.616	5280
843.752	5083
843.889	4995
844.025	5261
844.162	5064
844.298	5261
844.435	5109
844.571	5109
844.708	5250
844.844	5337
844.98	5341
845.117	5261
845.253	5162
845.389	5109
845.525	5201
845.661	5227
845.798	5098
845.934	5151
846.07	5064
846.206	5185
846.342	5307
846.478	5204
846.614	5094
846.75	5022
846.886	4965
847.022	5185
847.158	5018
847.294	5075
847.429	5151
847.565	5086
847.701	5349
847.837	4877
847.972	4889
848.108	4965
848.244	4976
848.379	4828
848.515	4812
848.65	4759
848.786	4820
848.921	4828
849.057	4850
849.192	4904
849.328	4831
849.463	4900
849.598	4862
849.734	4809
849.869	4725
850.004	4653
850.14	4698
850.275	4588
850.41	4615
850.545	4607
850.68	4611
850.815	4683
850.95	4687
851.085	4854
851.22	4744
851.355	4687
851.49	4626
851.625	4637
851.76	4668
851.895	4592
852.03	4565
852.165	4672
852.299	4729
852.434	4782
852.569	4820
852.703	4835
852.838	4896
852.973	4908
853.107	4968
853.242	4771
853.376	4729
853.511	4630
853.645	4645
853.78	4862
853.914	4752
854.048	4683
854.183	4721
854.317	4736
854.451	4919
854.585	4706
854.72	4668
854.854	4812
854.988	4599
855.122	4675
855.256	4561
855.39	4687
855.524	4820
855.658	4733
855.792	4714
855.926	4752
856.06	4778
856.194	4824
856.327	4706
856.461	4641
856.595	4683
856.729	4679
856.862	4816
856.996	4725
857.13	4778
857.263	4786
857.397	4816
857.53	4687
857.664	4733
857.797	4752
857.931	4828
858.064	4759
858.197	4805
858.331	4668
858.464	4626
858.597	4573
858.731	4637
858.864	4683
858.997	4656
859.13	4694
859.263	4679
859.396	4759
859.529	4641
859.662	4588
859.795	4596
859.928	4653
860.061	4774
860.194	4812
860.327	4649
860.46	4634
860.592	4752
860.725	4797
860.858	4763
860.99	4611
861.123	4611
861.256	4550
861.388	4649
861.521	5452
861.653	4485
861.786	4462
861.918	4542
862.05	4569
862.183	4531
862.315	4649
862.447	4714
862.58	4561
862.712	4443
862.844	4363
862.976	4508
863.108	4459
863.24	4927
863.372	4390
863.504	4424
863.636	4466
863.768	4500
863.9	4470
864.032	4375
864.164	4436
864.296	4516
864.428	4577
864.559	4588
864.691	4546
864.823	4542
864.954	4489
865.086	4535
865.217	4508
865.349	4432
865.48	4466
865.612	4527
865.743	4679
865.875	4508
866.006	4462
866.137	4440
866.269	4478
866.4	4440
866.531	4436
866.662	4424
866.793	4405
866.924	4478
867.055	4500
867.186	4459
867.317	4481
867.448	4409
867.579	4409
867.71	4371
867.841	4402
867.972	4470
868.103	4470
868.233	4474
868.364	4474
868.495	4489
868.625	4660
868.756	4801
868.886	4603
869.017	4698
869.147	4774
869.278	4812
869.408	4687
869.539	4691
869.669	4805
869.799	4679
869.929	4755
870.06	4725
870.19	5006
870.32	4968
870.45	4949
870.58	5014
870.71	5109
870.84	5128
870.97	4961
871.1	4946
871.23	5151
871.36	5140
871.489	5083
871.619	5090
871.749	5094
871.879	5117
872.008	5197
872.138	5083
872.267	4984
872.397	4873
872.526	4870
872.656	4778
872.785	4870
872.915	4987
873.044	5060
873.173	4942
873.303	4987
873.432	4949
873.561	4984
873.69	4923
873.819	4889
873.948	4946
874.077	4809
874.206	4786
874.335	4843
874.464	4980
874.593	5105
874.722	4999
874.851	5052
874.979	5121
875.108	5048
875.237	4938
875.365	4900
875.494	4896
875.623	4991
875.751	4908
875.88	4919
876.008	4987
876.136	5033
876.265	5231
876.393	5379
876.521	5231
876.65	5216
876.778	5174
876.906	5098
877.034	5018
877.162	5090
877.29	4999
877.418	5037
877.546	5033
877.674	5033
877.802	5003
877.93	5029
878.058	4930
878.185	4953
878.313	4972
878.441	5003
878.568	4854
878.696	4953
878.824	4995
878.951	4980
879.079	5132
879.206	5357
879.333	5109
879.461	5003
879.588	5022
879.715	5151
879.842	5273
879.97	4976
880.097	4816
880.224	4820
880.351	4831
880.478	4870
880.605	4843
880.732	4824
880.859	5113
880.986	4915
881.112	4972
881.239	4797
881.366	4698
881.493	4596
881.619	4550
881.746	4664
881.872	4634
881.999	4664
882.125	4710
882.252	4850
882.378	4858
882.505	4999
882.631	4862
882.757	4725
882.883	4725
883.01	4778
883.136	4702
883.262	4664
883.388	4656
883.514	4816
883.64	4850
883.766	4831
883.892	4660
884.018	4744
884.143	4900
884.269	5052
884.395	4691
884.52	4645
884.646	4660
884.772	4596
884.897	4588
885.023	4687
885.148	4763
885.274	4892
885.399	4820
885.524	4714
885.65	4675
885.775	4809
885.9	4702
886.025	4885
886.15	4843
886.275	4797
886.4	4694
886.525	4809
886.65	4698
886.775	4755
886.9	4877
887.025	5067
887.149	4797
887.274	4668
887.399	4580
887.523	4603
887.648	4641
887.773	4626
887.897	4790
888.021	4812
888.146	4698
888.27	4858
888.395	4892
888.519	4850
888.643	4877
888.767	4854
888.891	4725
889.015	4622
889.139	4702
889.263	4626
889.387	4744
889.511	4911
889.635	4816
889.759	4664
889.883	4626
890.006	4793
890.13	4831
890.254	4607
890.377	4714
890.501	4573
890.624	4546
890.748	4653
890.871	4516
890.995	4451
891.118	4432
891.241	4607
891.364	4577
891.488	4645
891.611	4500
891.734	4580
891.857	4630
891.98	4535
892.103	4649
892.226	4611
892.349	4561
892.471	4447
892.594	4588
892.717	4611
892.839	4607
892.962	4588
893.085	4683
893.207	4653
893.33	4508
893.452	4546
893.575	4672
893.697	4634
893.819	4843
893.941	4877
894.064	4824
894.186	4599
894.308	4603
894.43	4793
894.552	4828
894.674	4752
894.796	4588
894.918	4626
895.04	4569
895.161	4717
895.283	4664
895.405	4561
895.526	4672
895.648	4664
895.769	4710
895.891	4706
896.012	4752
896.134	4733
896.255	4641
896.376	4634
896.498	4649
896.619	4653
896.74	4653
896.861	4630
896.982	4927
897.103	5071
897.224	4847
897.345	4771
897.466	4694
897.587	4725
897.708	4889
897.828	4824
897.949	4668
898.07	4588
898.19	4645
898.311	4850
898.431	4653
898.552	4778
898.672	4831
898.792	4790
898.913	4774
899.033	4645
899.153	4519
899.273	4405
899.393	4523
899.513	4508
899.633	4500
899.753	4592
899.873	4497
899.993	4580
900.113	4535
900.232	4596
900.352	4580
900.472	4527
900.591	4421
900.711	4527
900.83	4443
900.95	4675
901.069	4748
901.189	4542
901.308	4329
901.427	4314
901.546	4367
901.665	4470
901.784	4497
901.904	4413
902.023	4394
902.141	4192
902.26	4173
902.379	4390
902.498	4249
902.617	4261
902.735	4409
902.854	4440
902.973	4333
903.091	4200
903.21	4261
903.328	4341
903.446	4295
903.565	4280
903.683	4375
903.801	4253
903.919	4394
904.038	4474
904.156	4386
904.274	4421
904.392	4447
904.51	4478
904.627	4561
904.745	4603
904.863	4634
904.981	4409
905.098	4299
905.216	4394
905.334	4440
905.451	4451
905.569	4466
905.686	4580
905.803	4626
905.921	4413
906.038	4569
906.155	4516
906.272	4398
906.389	4447
906.506	4344
906.623	4398
906.74	4428
906.857	4367
906.974	4440
907.091	4580
907.208	4653
907.324	4611
907.441	4489
907.557	4341
907.674	4390
907.79	4329
907.907	4325
908.023	4493
908.139	4508
908.256	4405
908.372	4512
908.488	4436
908.604	4375
908.72	4344
908.836	4390
908.952	4398
909.068	4409
909.184	4622
909.3	4489
909.415	4607
909.531	4516
909.647	4390
909.762	4348
909.878	4360
909.993	4485
910.108	4398
910.224	4386
910.339	4523
910.454	4409
910.57	4325
910.685	4352
910.8	4660
910.915	4584
911.03	4466
911.145	4318
911.259	4337
911.374	4432
911.489	4329
911.604	4329
911.718	4162
911.833	4188
911.947	4093
912.062	4071
912.176	4230
912.291	4276
912.405	4257
912.519	4489
912.633	4523
912.748	4398
912.862	4325
912.976	4185
913.09	4150
913.204	4192
913.318	4257
913.431	4363
913.545	4360
913.659	4443
913.772	4390
913.886	4272
914	4211
914.113	4363
914.226	4455
914.34	4424
914.453	4249
914.566	4500
914.68	4341
914.793	4375
914.906	4177
915.019	4158
915.132	4124
915.245	4242
915.358	4215
915.47	4291
915.583	4310
915.696	4348
915.809	4493
915.921	4474
916.034	4299
916.146	4295
916.259	4310
916.371	4390
916.483	4379
916.595	4314
916.708	4333
916.82	4299
916.932	4398
917.044	4383
917.156	4356
917.268	4291
917.38	4348
917.491	4344
917.603	4390
917.715	4459
917.826	4489
917.938	4417
918.049	4337
918.161	4462
918.272	4569
918.384	4580
918.495	4497
918.606	4348
918.717	4249
918.828	4371
918.939	4386
919.05	4287
919.161	4348
919.272	4166
919.383	4261
919.494	4527
919.604	4599
919.715	4485
919.826	4428
919.936	4432
920.047	4588
920.157	4519
920.267	4759
920.378	4668
920.488	4588
920.598	4771
920.708	4927
920.818	4801
920.928	4843
921.038	4991
921.148	4984
921.258	4691
921.368	4626
921.477	4546
921.587	4466
921.697	4432
921.806	4535
921.916	4443
922.025	4337
922.134	4314
922.244	4227
922.353	4352
922.462	4211
922.571	4219
922.68	4040
922.789	4010
922.898	4086
923.007	4059
923.116	4154
923.224	4112
923.333	4078
923.442	4040
923.55	4021
923.659	4071
923.767	4185
923.876	4067
923.984	4204
924.092	4063
924.201	4101
924.309	4124
924.417	4139
924.525	4063
924.633	4154
924.741	5037
924.849	3949
924.956	4181
925.064	4029
925.172	3941
925.279	3987
925.387	4116
925.494	4097
925.602	4207
925.709	4169
925.816	4078
925.924	4173
926.031	4249
926.138	4211
926.245	4227
926.352	4143
926.459	4303
926.566	4344
926.673	4192
926.779	4143
926.886	4124
926.993	4040
927.099	4040
927.206	3979
927.312	3937
927.419	4112
927.525	4097
927.631	4128
927.737	4025
927.843	3972
927.95	3865
928.056	3945
928.162	4032
928.267	4082
928.373	4687
928.479	4154
928.585	3922
928.69	4029
928.796	4116
928.901	4029
929.007	3888
929.112	4032
929.218	3987
929.323	3998
929.428	3945
929.533	4120
929.638	3972
929.743	3972
929.848	4074
929.953	4032
930.058	3968
930.163	3861
930.267	3903
930.372	4036
930.477	3838
930.581	4101
930.685	3949
930.79	3857
930.894	3937
930.998	3876
931.103	4086
931.207	3759
931.311	3774
931.415	3701
931.519	3511
931.623	3576
