Data from test_V78500241_2104.txt Node
Date: Fri Mar 25 17:03:37 CST 2022
User: usil
Spectrometer: V785-0024
Trigger mode: 0
Integration Time (sec): 4.000000E-1
Scans to average: 1
Nonlinearity correction enabled: false
Boxcar width: 0
Storing dark spectrum: false
XAxis mode: Wavelengths
Number of Pixels in Spectrum: 1024
>>>>>Begin Spectral Data<<<<<
801.071	7947
801.214	7986
801.356	7845
801.499	7776
801.641	7734
801.783	7822
801.926	8020
802.068	7955
802.211	7928
802.353	7944
802.496	7887
802.638	7811
802.78	7894
802.923	7944
803.065	7826
803.208	7871
803.35	7936
803.492	8062
803.635	8164
803.777	8005
803.919	8077
804.061	8415
804.204	8210
804.346	8062
804.488	8039
804.63	8103
804.773	7974
804.915	8035
805.057	8244
805.199	8172
805.341	8221
805.483	8221
805.626	8240
805.768	8149
805.91	8134
806.052	8195
806.194	8123
806.336	8252
806.478	8069
806.62	8012
806.762	8153
806.904	8275
807.046	8412
807.188	8298
807.33	8259
807.472	8313
807.614	8126
807.756	8111
807.898	8001
808.04	7871
808.182	7841
808.324	7807
808.465	7894
808.607	8046
808.749	8081
808.891	8210
809.033	8259
809.174	8183
809.316	8065
809.458	8069
809.6	8062
809.741	8001
809.883	8001
810.025	8111
810.166	8035
810.308	8016
810.45	7997
810.591	7860
810.733	7681
810.875	7628
811.016	7525
811.158	7411
811.299	7552
811.441	7734
811.582	7662
811.724	7563
811.865	7525
812.007	7620
812.148	7544
812.29	7609
812.431	7757
812.573	7928
812.714	7970
812.855	8084
812.997	8259
813.138	8290
813.279	8149
813.421	8092
813.562	7967
813.703	7852
813.845	7742
813.986	7441
814.127	7236
814.268	7228
814.41	7179
814.551	7126
814.692	7187
814.833	7133
814.974	7122
815.115	7095
815.256	6985
815.397	6901
815.539	6970
815.68	6791
815.821	6768
815.962	6901
816.103	6779
816.244	6654
816.385	6578
816.526	6578
816.666	6517
816.807	6300
816.948	6407
817.089	6494
817.23	6384
817.371	6429
817.512	6292
817.653	6350
817.793	6292
817.934	6372
818.075	6490
818.216	6410
818.356	6452
818.497	6213
818.638	6194
818.778	6175
818.919	6140
819.06	6148
819.2	6281
819.341	6262
819.481	6353
819.622	6475
819.762	6745
819.903	6741
820.043	6585
820.184	6612
820.324	6547
820.465	6684
820.605	6639
820.746	6658
820.886	6494
821.026	6597
821.167	6753
821.307	6806
821.447	6791
821.588	6715
821.728	6601
821.868	6494
822.008	6327
822.149	6319
822.289	6376
822.429	6079
822.569	6095
822.709	6133
822.849	5828
822.99	5996
823.13	5870
823.27	5897
823.41	5783
823.55	5752
823.69	5722
823.83	5775
823.97	5676
824.11	5528
824.25	5501
824.389	5566
824.529	5627
824.669	5467
824.809	5592
824.949	5649
825.089	5562
825.228	5520
825.368	5429
825.508	5357
825.648	5288
825.787	5391
825.927	5376
826.067	5349
826.206	5299
826.346	5368
826.485	5433
826.625	5433
826.765	5581
826.904	5467
827.044	5284
827.183	5208
827.323	5197
827.462	5280
827.601	5140
827.741	5185
827.88	5223
828.02	5075
828.159	5273
828.298	5376
828.437	5368
828.577	5307
828.716	5497
828.855	5330
828.994	5204
829.134	5162
829.273	5212
829.412	5216
829.551	5151
829.69	5212
829.829	5303
829.968	5433
830.107	5315
830.246	5288
830.385	5193
830.524	5151
830.663	5159
830.802	5033
830.941	4911
831.08	4934
831.219	4999
831.357	5003
831.496	5185
831.635	4938
831.774	4908
831.913	4908
832.051	4744
832.19	4805
832.329	4904
832.467	4725
832.606	4649
832.744	4767
832.883	4755
833.022	4771
833.16	4847
833.299	4858
833.437	4862
833.576	4870
833.714	4946
833.852	4900
833.991	4885
834.129	4987
834.267	4961
834.406	4923
834.544	5075
834.682	5022
834.821	5037
834.959	5185
835.097	5018
835.235	5212
835.373	5132
835.511	5124
835.65	5052
835.788	5029
835.926	4949
836.064	4942
836.202	4934
836.34	5231
836.478	5227
836.615	5132
836.753	5212
836.891	5368
837.029	5322
837.167	5231
837.305	5261
837.443	5166
837.58	5090
837.718	5280
837.856	5246
837.993	5189
838.131	5269
838.269	5193
838.406	5208
838.544	5216
838.681	5086
838.819	5064
838.956	4927
839.094	4885
839.231	4987
839.369	5071
839.506	5406
839.643	5292
839.781	5098
839.918	5052
840.055	5128
840.193	5143
840.33	5140
840.467	5254
840.604	5201
840.742	5512
840.879	5178
841.016	5075
841.153	5162
841.29	5414
841.427	5349
841.564	5337
841.701	5402
841.838	5322
841.975	5212
842.112	5292
842.249	5155
842.385	5151
842.522	5349
842.659	5227
842.796	5147
842.933	5220
843.069	5212
843.206	5204
843.343	5334
843.479	5246
843.616	5261
843.752	5045
843.889	5086
844.025	5292
844.162	5052
844.298	5254
844.435	5079
844.571	5083
844.708	5261
844.844	5330
844.98	5395
845.117	5303
845.253	5166
845.389	5083
845.525	5216
845.661	5170
845.798	5090
845.934	5140
846.07	5132
846.206	5208
846.342	5307
846.478	5220
846.614	5022
846.75	4953
846.886	4995
847.022	5162
847.158	5033
847.294	5098
847.429	5166
847.565	5079
847.701	5337
847.837	4892
847.972	4820
848.108	5041
848.244	4987
848.379	4820
848.515	4736
848.65	4736
848.786	4782
848.921	4858
849.057	4923
849.192	4987
849.328	4847
849.463	4858
849.598	4847
849.734	4812
849.869	4698
850.004	4660
850.14	4660
850.275	4637
850.41	4569
850.545	4596
850.68	4626
850.815	4672
850.95	4615
851.085	4839
851.22	4744
851.355	4725
851.49	4653
851.625	4710
851.76	4656
851.895	4618
852.03	4592
852.165	4702
852.299	4752
852.434	4805
852.569	4736
852.703	4820
852.838	4877
852.973	4949
853.107	4942
853.242	4733
853.376	4683
853.511	4630
853.645	4660
853.78	4843
853.914	4714
854.048	4683
854.183	4733
854.317	4740
854.451	4843
854.585	4717
854.72	4656
854.854	4793
854.988	4645
855.122	4721
855.256	4573
855.39	4698
855.524	4778
855.658	4771
855.792	4687
855.926	4740
856.06	4790
856.194	4843
856.327	4672
856.461	4660
856.595	4626
856.729	4626
856.862	4755
856.996	4691
857.13	4778
857.263	4771
857.397	4786
857.53	4637
857.664	4748
857.797	4793
857.931	4778
858.064	4740
858.197	4774
858.331	4668
858.464	4649
858.597	4558
858.731	4649
858.864	4626
858.997	4630
859.13	4698
859.263	4698
859.396	4706
859.529	4607
859.662	4546
859.795	4535
859.928	4675
860.061	4710
860.194	4801
860.327	4656
860.46	4592
860.592	4710
860.725	4714
860.858	4759
860.99	4565
861.123	4546
861.256	4527
861.388	4645
861.521	5448
861.653	4493
861.786	4512
861.918	4447
862.05	4550
862.183	4565
862.315	4637
862.447	4653
862.58	4565
862.712	4440
862.844	4386
862.976	4504
863.108	4466
863.24	4786
863.372	4360
863.504	4474
863.636	4447
863.768	4504
863.9	4459
864.032	4337
864.164	4466
864.296	4535
864.428	4489
864.559	4580
864.691	4569
864.823	4588
864.954	4580
865.086	4546
865.217	4443
865.349	4428
865.48	4485
865.612	4531
865.743	4664
865.875	4512
866.006	4466
866.137	4428
866.269	4481
866.4	4466
866.531	4443
866.662	4405
866.793	4447
866.924	4402
867.055	4531
867.186	4455
867.317	4424
867.448	4428
867.579	4337
867.71	4405
867.841	4390
867.972	4462
868.103	4519
868.233	4459
868.364	4447
868.495	4489
868.625	4656
868.756	4752
868.886	4584
869.017	4645
869.147	4790
869.278	4790
869.408	4691
869.539	4725
869.669	4733
869.799	4675
869.929	4793
870.06	4797
870.19	4965
870.32	4915
870.45	4927
870.58	5079
870.71	5121
870.84	5124
870.97	4987
871.1	4949
871.23	5136
871.36	5166
871.489	5037
871.619	5090
871.749	5109
871.879	5124
872.008	5185
872.138	5064
872.267	4987
872.397	4892
872.526	4805
872.656	4733
872.785	4847
872.915	4949
873.044	5071
873.173	4972
873.303	4957
873.432	4991
873.561	4999
873.69	4850
873.819	4927
873.948	4911
874.077	4877
874.206	4694
874.335	4820
874.464	4911
874.593	5064
874.722	4968
874.851	5079
874.979	5052
875.108	5083
875.237	4919
875.365	4892
875.494	4911
875.623	5052
875.751	4839
875.88	4904
876.008	5045
876.136	5060
876.265	5197
876.393	5357
876.521	5216
876.65	5258
876.778	5170
876.906	5067
877.034	5098
877.162	5098
877.29	5010
877.418	5022
877.546	5071
877.674	5060
877.802	5029
877.93	5041
878.058	4976
878.185	4843
878.313	5006
878.441	4953
878.568	4816
878.696	4862
878.824	4984
878.951	5006
879.079	5178
879.206	5277
879.333	5132
879.461	4984
879.588	5025
879.715	5140
879.842	5223
879.97	5037
880.097	4790
880.224	4797
880.351	4831
880.478	4831
880.605	4820
880.732	4774
880.859	5132
880.986	4923
881.112	4930
881.239	4812
881.366	4691
881.493	4596
881.619	4645
881.746	4641
881.872	4702
881.999	4694
882.125	4668
882.252	4790
882.378	4831
882.505	4873
882.631	4835
882.757	4691
882.883	4736
883.01	4755
883.136	4664
883.262	4626
883.388	4622
883.514	4809
883.64	4881
883.766	4820
883.892	4706
884.018	4759
884.143	4889
884.269	5010
884.395	4656
884.52	4675
884.646	4660
884.772	4607
884.897	4554
885.023	4683
885.148	4812
885.274	4885
885.399	4820
885.524	4733
885.65	4740
885.775	4782
885.9	4721
886.025	4866
886.15	4820
886.275	4740
886.4	4660
886.525	4752
886.65	4744
886.775	4698
886.9	4904
887.025	5014
887.149	4824
887.274	4668
887.399	4615
887.523	4675
887.648	4622
887.773	4668
887.897	4809
888.021	4801
888.146	4702
888.27	4843
888.395	4892
888.519	4824
888.643	4797
888.767	4816
888.891	4683
889.015	4611
889.139	4679
889.263	4577
889.387	4782
889.511	4862
889.635	4771
889.759	4641
889.883	4653
890.006	4729
890.13	4843
890.254	4649
890.377	4603
890.501	4508
890.624	4504
890.748	4668
890.871	4497
890.995	4436
891.118	4436
891.241	4542
891.364	4580
891.488	4656
891.611	4474
891.734	4546
891.857	4622
891.98	4603
892.103	4641
892.226	4653
892.349	4554
892.471	4432
892.594	4531
892.717	4584
892.839	4558
892.962	4645
893.085	4588
893.207	4622
893.33	4447
893.452	4497
893.575	4675
893.697	4599
893.819	4778
893.941	4850
894.064	4774
894.186	4577
894.308	4618
894.43	4717
894.552	4824
894.674	4744
894.796	4580
894.918	4630
895.04	4599
895.161	4675
895.283	4691
895.405	4592
895.526	4656
895.648	4664
895.769	4717
895.891	4736
896.012	4710
896.134	4755
896.255	4702
896.376	4649
896.498	4645
896.619	4717
896.74	4660
896.861	4641
896.982	4942
897.103	5086
897.224	4862
897.345	4755
897.466	4664
897.587	4748
897.708	4850
897.828	4771
897.949	4679
898.07	4577
898.19	4664
898.311	4858
898.431	4702
898.552	4706
898.672	4828
898.792	4801
898.913	4774
899.033	4611
899.153	4497
899.273	4443
899.393	4516
899.513	4527
899.633	4542
899.753	4588
899.873	4447
899.993	4580
900.113	4497
900.232	4580
900.352	4516
900.472	4443
900.591	4424
900.711	4527
900.83	4402
900.95	4656
901.069	4653
901.189	4523
901.308	4360
901.427	4299
901.546	4360
901.665	4497
901.784	4504
901.904	4405
902.023	4265
902.141	4249
902.26	4219
902.379	4310
902.498	4253
902.617	4211
902.735	4413
902.854	4424
902.973	4379
903.091	4230
903.21	4227
903.328	4291
903.446	4249
903.565	4246
903.683	4337
903.801	4280
903.919	4424
904.038	4424
904.156	4306
904.274	4466
904.392	4428
904.51	4424
904.627	4538
904.745	4546
904.863	4607
904.981	4413
905.098	4306
905.216	4329
905.334	4474
905.451	4447
905.569	4417
905.686	4584
905.803	4573
905.921	4428
906.038	4542
906.155	4493
906.272	4417
906.389	4443
906.506	4348
906.623	4417
906.74	4398
906.857	4310
906.974	4386
907.091	4542
907.208	4729
907.324	4592
907.441	4497
907.557	4375
907.674	4363
907.79	4352
907.907	4348
908.023	4428
908.139	4481
908.256	4443
908.372	4466
908.488	4413
908.604	4356
908.72	4329
908.836	4352
908.952	4363
909.068	4443
909.184	4573
909.3	4550
909.415	4580
909.531	4565
909.647	4348
909.762	4356
909.878	4348
909.993	4424
910.108	4390
910.224	4360
910.339	4459
910.454	4436
910.57	4333
910.685	4322
910.8	4622
910.915	4577
911.03	4504
911.145	4329
911.259	4325
911.374	4379
911.489	4348
911.604	4318
911.718	4173
911.833	4242
911.947	4093
912.062	4044
912.176	4219
912.291	4284
912.405	4276
912.519	4489
912.633	4489
912.748	4371
912.862	4291
912.976	4238
913.09	4120
913.204	4154
913.318	4261
913.431	4386
913.545	4352
913.659	4443
913.772	4337
913.886	4204
914	4261
914.113	4322
914.226	4405
914.34	4417
914.453	4257
914.566	4428
914.68	4329
914.793	4303
914.906	4147
915.019	4116
915.132	4059
915.245	4154
915.358	4227
915.47	4253
915.583	4234
915.696	4303
915.809	4436
915.921	4394
916.034	4272
916.146	4291
916.259	4219
916.371	4356
916.483	4383
916.595	4200
916.708	4303
916.82	4367
916.932	4299
917.044	4306
917.156	4303
917.268	4234
917.38	4265
917.491	4272
917.603	4329
917.715	4451
917.826	4466
917.938	4325
918.049	4242
918.161	4409
918.272	4512
918.384	4538
918.495	4470
918.606	4265
918.717	4257
918.828	4356
918.939	4337
919.05	4257
919.161	4333
919.272	4097
919.383	4204
919.494	4466
919.604	4592
919.715	4455
919.826	4375
919.936	4451
920.047	4478
920.157	4470
920.267	4771
920.378	4523
920.488	4489
920.598	4698
920.708	4877
920.818	4740
920.928	4752
921.038	4980
921.148	4965
921.258	4694
921.368	4554
921.477	4481
921.587	4478
921.697	4367
921.806	4558
921.916	4386
922.025	4295
922.134	4246
922.244	4219
922.353	4303
922.462	4158
922.571	4112
922.68	4040
922.789	3972
922.898	4044
923.007	4013
923.116	4097
923.224	4071
923.333	4082
923.442	3991
923.55	4013
923.659	4044
923.767	4082
923.876	3998
923.984	4147
924.092	4006
924.201	4048
924.309	4071
924.417	4150
924.525	4036
924.633	4147
924.741	5041
924.849	3907
924.956	4131
925.064	3937
925.172	3892
925.279	4036
925.387	4059
925.494	4032
925.602	4230
925.709	4147
925.816	4025
925.924	4120
926.031	4196
926.138	4135
926.245	4223
926.352	4071
926.459	4227
926.566	4333
926.673	4181
926.779	4078
926.886	4116
926.993	3998
927.099	3953
927.206	3930
927.312	3911
927.419	4071
927.525	4006
927.631	4082
927.737	3937
927.843	3949
927.95	3842
928.056	3956
928.162	3968
928.267	4036
928.373	4584
928.479	4105
928.585	3903
928.69	3983
928.796	4067
928.901	3960
929.007	3835
929.112	4029
929.218	3994
929.323	3930
929.428	3922
929.533	4109
929.638	3869
929.743	3979
929.848	4048
929.953	3975
930.058	3880
930.163	3766
930.267	3804
930.372	3960
930.477	3842
930.581	4090
930.685	3964
930.79	3823
930.894	3892
930.998	3846
931.103	4071
931.207	3789
931.311	3709
931.415	3641
931.519	3507
931.623	3568
