Data from test_V78500241_1277.txt Node
Date: Fri Mar 25 16:57:52 CST 2022
User: usil
Spectrometer: V785-0024
Trigger mode: 0
Integration Time (sec): 4.000000E-1
Scans to average: 1
Nonlinearity correction enabled: false
Boxcar width: 0
Storing dark spectrum: false
XAxis mode: Wavelengths
Number of Pixels in Spectrum: 1024
>>>>>Begin Spectral Data<<<<<
801.071	8027
801.214	8077
801.356	7875
801.499	7807
801.641	7826
801.783	7792
801.926	7951
802.068	7909
802.211	8016
802.353	7944
802.496	7845
802.638	7811
802.78	7940
802.923	7955
803.065	7871
803.208	7879
803.35	7921
803.492	8092
803.635	8145
803.777	8069
803.919	8218
804.061	8434
804.204	8142
804.346	8111
804.488	7986
804.63	8191
804.773	8020
804.915	8077
805.057	8294
805.199	8115
805.341	8210
805.483	8320
805.626	8225
805.768	8149
805.91	8225
806.052	8240
806.194	8145
806.336	8233
806.478	8145
806.62	8069
806.762	8142
806.904	8355
807.046	8446
807.188	8400
807.33	8317
807.472	8336
807.614	8172
807.756	8107
807.898	7982
808.04	7909
808.182	7917
808.324	7909
808.465	7852
808.607	8126
808.749	8100
808.891	8218
809.033	8320
809.174	8237
809.316	8043
809.458	8012
809.6	8016
809.741	8035
809.883	8115
810.025	8103
810.166	8100
810.308	8081
810.45	8027
810.591	7925
810.733	7708
810.875	7742
811.016	7510
811.158	7559
811.299	7624
811.441	7723
811.582	7647
811.724	7586
811.865	7571
812.007	7658
812.148	7601
812.29	7590
812.431	7776
812.573	7875
812.714	7921
812.855	8130
812.997	8142
813.138	8336
813.279	8202
813.421	8130
813.562	7959
813.703	7849
813.845	7788
813.986	7422
814.127	7217
814.268	7240
814.41	7213
814.551	7164
814.692	7221
814.833	7061
814.974	7152
815.115	7122
815.256	6947
815.397	6989
815.539	6951
815.68	6833
815.821	6814
815.962	6859
816.103	6837
816.244	6757
816.385	6662
816.526	6639
816.666	6486
816.807	6311
816.948	6502
817.089	6460
817.23	6414
817.371	6365
817.512	6452
817.653	6410
817.793	6350
817.934	6471
818.075	6464
818.216	6456
818.356	6353
818.497	6205
818.638	6155
818.778	6186
818.919	6121
819.06	6186
819.2	6346
819.341	6334
819.481	6346
819.622	6521
819.762	6688
819.903	6738
820.043	6593
820.184	6506
820.324	6532
820.465	6665
820.605	6665
820.746	6642
820.886	6528
821.026	6608
821.167	6696
821.307	6818
821.447	6814
821.588	6707
821.728	6585
821.868	6464
822.008	6327
822.149	6315
822.289	6281
822.429	6136
822.569	6121
822.709	6163
822.849	5893
822.99	5901
823.13	5961
823.27	5901
823.41	5794
823.55	5786
823.69	5756
823.83	5771
823.97	5649
824.11	5543
824.25	5497
824.389	5623
824.529	5554
824.669	5482
824.809	5653
824.949	5630
825.089	5600
825.228	5554
825.368	5368
825.508	5357
825.648	5337
825.787	5364
825.927	5368
826.067	5315
826.206	5280
826.346	5357
826.485	5353
826.625	5360
826.765	5551
826.904	5505
827.044	5296
827.183	5201
827.323	5147
827.462	5216
827.601	5181
827.741	5193
827.88	5250
828.02	5067
828.159	5239
828.298	5250
828.437	5326
828.577	5250
828.716	5539
828.855	5307
828.994	5212
829.134	5162
829.273	5208
829.412	5121
829.551	5147
829.69	5220
829.829	5254
829.968	5376
830.107	5273
830.246	5330
830.385	5204
830.524	5136
830.663	5010
830.802	4957
830.941	4919
831.08	4850
831.219	5018
831.357	4908
831.496	5132
831.635	4911
831.774	4896
831.913	4839
832.051	4714
832.19	4714
832.329	4850
832.467	4714
832.606	4634
832.744	4691
832.883	4736
833.022	4710
833.16	4793
833.299	4805
833.437	4824
833.576	4847
833.714	4816
833.852	4866
833.991	4835
834.129	5010
834.267	4911
834.406	4904
834.544	4946
834.682	4938
834.821	4976
834.959	5124
835.097	5037
835.235	5166
835.373	5102
835.511	5098
835.65	5022
835.788	5041
835.926	4908
836.064	4835
836.202	4942
836.34	5098
836.478	5189
836.615	5113
836.753	5231
836.891	5277
837.029	5231
837.167	5181
837.305	5201
837.443	5140
837.58	5102
837.718	5201
837.856	5155
837.993	5140
838.131	5185
838.269	5246
838.406	5155
838.544	5151
838.681	4984
838.819	4987
838.956	4889
839.094	4949
839.231	4991
839.369	5052
839.506	5417
839.643	5269
839.781	5041
839.918	4999
840.055	5109
840.193	5113
840.33	5121
840.467	5113
840.604	5113
840.742	5406
840.879	5079
841.016	5071
841.153	5117
841.29	5357
841.427	5273
841.564	5311
841.701	5360
841.838	5258
841.975	5220
842.112	5220
842.249	5151
842.385	5067
842.522	5345
842.659	5193
842.796	5147
842.933	5220
843.069	5140
843.206	5166
843.343	5296
843.479	5201
843.616	5315
843.752	5022
843.889	5022
844.025	5201
844.162	5014
844.298	5223
844.435	5025
844.571	4995
844.708	5254
844.844	5318
844.98	5311
845.117	5315
845.253	5121
845.389	5079
845.525	5193
845.661	5185
845.798	4953
845.934	5162
846.07	5045
846.206	5155
846.342	5315
846.478	5220
846.614	5018
846.75	4938
846.886	4961
847.022	5143
847.158	5048
847.294	5079
847.429	5075
847.565	5064
847.701	5292
847.837	4870
847.972	4786
848.108	5003
848.244	4919
848.379	4793
848.515	4710
848.65	4725
848.786	4752
848.921	4771
849.057	4877
849.192	4877
849.328	4812
849.463	4828
849.598	4797
849.734	4767
849.869	4672
850.004	4615
850.14	4649
850.275	4607
850.41	4519
850.545	4584
850.68	4599
850.815	4558
850.95	4618
851.085	4793
851.22	4748
851.355	4664
851.49	4626
851.625	4622
851.76	4691
851.895	4558
852.03	4535
852.165	4679
852.299	4706
852.434	4767
852.569	4721
852.703	4771
852.838	4790
852.973	4915
853.107	4835
853.242	4725
853.376	4637
853.511	4546
853.645	4596
853.78	4824
853.914	4649
854.048	4664
854.183	4668
854.317	4675
854.451	4801
854.585	4714
854.72	4698
854.854	4725
854.988	4573
855.122	4607
855.256	4523
855.39	4641
855.524	4809
855.658	4752
855.792	4683
855.926	4733
856.06	4782
856.194	4824
856.327	4668
856.461	4622
856.595	4622
856.729	4607
856.862	4786
856.996	4656
857.13	4679
857.263	4736
857.397	4797
857.53	4672
857.664	4691
857.797	4721
857.931	4778
858.064	4702
858.197	4725
858.331	4645
858.464	4615
858.597	4493
858.731	4664
858.864	4630
858.997	4577
859.13	4649
859.263	4630
859.396	4706
859.529	4523
859.662	4561
859.795	4497
859.928	4622
860.061	4763
860.194	4706
860.327	4558
860.46	4565
860.592	4721
860.725	4706
860.858	4710
860.99	4554
861.123	4489
861.256	4466
861.388	4618
861.521	5197
861.653	4436
861.786	4485
861.918	4443
862.05	4500
862.183	4519
862.315	4561
862.447	4645
862.58	4542
862.712	4352
862.844	4341
862.976	4455
863.108	4478
863.24	4881
863.372	4356
863.504	4413
863.636	4398
863.768	4470
863.9	4436
864.032	4341
864.164	4379
864.296	4459
864.428	4519
864.559	4538
864.691	4504
864.823	4500
864.954	4550
865.086	4527
865.217	4432
865.349	4409
865.48	4443
865.612	4436
865.743	4626
865.875	4466
866.006	4398
866.137	4470
866.269	4443
866.4	4459
866.531	4394
866.662	4413
866.793	4386
866.924	4402
867.055	4497
867.186	4443
867.317	4417
867.448	4348
867.579	4363
867.71	4402
867.841	4394
867.972	4459
868.103	4459
868.233	4390
868.364	4516
868.495	4500
868.625	4584
868.756	4748
868.886	4550
869.017	4554
869.147	4748
869.278	4748
869.408	4641
869.539	4622
869.669	4672
869.799	4664
869.929	4752
870.06	4733
870.19	4942
870.32	4877
870.45	4934
870.58	5060
870.71	5098
870.84	5140
870.97	4919
871.1	4919
871.23	5208
871.36	5094
871.489	5079
871.619	5064
871.749	5067
871.879	5102
872.008	5151
872.138	5022
872.267	4946
872.397	4847
872.526	4790
872.656	4683
872.785	4805
872.915	4904
873.044	5033
873.173	4911
873.303	4942
873.432	4911
873.561	4980
873.69	4877
873.819	4870
873.948	4908
874.077	4824
874.206	4748
874.335	4782
874.464	4976
874.593	5018
874.722	4980
874.851	5090
874.979	5060
875.108	5045
875.237	4919
875.365	4873
875.494	4892
875.623	4919
875.751	4820
875.88	4858
876.008	4938
876.136	5067
876.265	5193
876.393	5299
876.521	5242
876.65	5193
876.778	5117
876.906	5075
877.034	5037
877.162	5010
877.29	4957
877.418	5033
877.546	5045
877.674	5056
877.802	5010
877.93	4976
878.058	4908
878.185	4873
878.313	4999
878.441	4968
878.568	4790
878.696	4854
878.824	4900
878.951	4961
879.079	5132
879.206	5292
879.333	5113
879.461	4965
879.588	4961
879.715	5045
879.842	5216
879.97	4980
880.097	4809
880.224	4714
880.351	4824
880.478	4850
880.605	4774
880.732	4763
880.859	5064
880.986	4892
881.112	4870
881.239	4786
881.366	4691
881.493	4607
881.619	4607
881.746	4626
881.872	4622
881.999	4683
882.125	4660
882.252	4809
882.378	4805
882.505	4999
882.631	4763
882.757	4626
882.883	4710
883.01	4733
883.136	4641
883.262	4596
883.388	4622
883.514	4816
883.64	4812
883.766	4786
883.892	4679
884.018	4706
884.143	4892
884.269	4999
884.395	4622
884.52	4561
884.646	4626
884.772	4584
884.897	4588
885.023	4615
885.148	4805
885.274	4824
885.399	4831
885.524	4729
885.65	4664
885.775	4771
885.9	4698
886.025	4854
886.15	4778
886.275	4786
886.4	4645
886.525	4687
886.65	4641
886.775	4675
886.9	4900
887.025	5033
887.149	4809
887.274	4622
887.399	4580
887.523	4607
887.648	4538
887.773	4558
887.897	4797
888.021	4771
888.146	4679
888.27	4778
888.395	4900
888.519	4793
888.643	4755
888.767	4850
888.891	4702
889.015	4569
889.139	4626
889.263	4573
889.387	4763
889.511	4881
889.635	4790
889.759	4637
889.883	4599
890.006	4721
890.13	4816
890.254	4618
890.377	4637
890.501	4523
890.624	4519
890.748	4618
890.871	4531
890.995	4451
891.118	4402
891.241	4519
891.364	4580
891.488	4618
891.611	4478
891.734	4519
891.857	4580
891.98	4561
892.103	4599
892.226	4584
892.349	4466
892.471	4390
892.594	4542
892.717	4573
892.839	4538
892.962	4573
893.085	4721
893.207	4641
893.33	4455
893.452	4573
893.575	4637
893.697	4512
893.819	4828
893.941	4862
894.064	4782
894.186	4607
894.308	4573
894.43	4675
894.552	4771
894.674	4736
894.796	4561
894.918	4584
895.04	4618
895.161	4664
895.283	4675
895.405	4580
895.526	4622
895.648	4649
895.769	4672
895.891	4694
896.012	4725
896.134	4710
896.255	4630
896.376	4641
896.498	4615
896.619	4622
896.74	4573
896.861	4622
896.982	4900
897.103	5060
897.224	4801
897.345	4721
897.466	4626
897.587	4668
897.708	4854
897.828	4759
897.949	4637
898.07	4565
898.19	4611
898.311	4847
898.431	4687
898.552	4679
898.672	4755
898.792	4736
898.913	4763
899.033	4626
899.153	4451
899.273	4413
899.393	4455
899.513	4538
899.633	4481
899.753	4565
899.873	4512
899.993	4554
900.113	4554
900.232	4607
900.352	4542
900.472	4459
900.591	4436
900.711	4493
900.83	4421
900.95	4615
901.069	4683
901.189	4546
901.308	4375
901.427	4322
901.546	4398
901.665	4466
901.784	4493
901.904	4356
902.023	4337
902.141	4169
902.26	4177
902.379	4322
902.498	4238
902.617	4249
902.735	4386
902.854	4421
902.973	4344
903.091	4196
903.21	4211
903.328	4234
903.446	4242
903.565	4246
903.683	4329
903.801	4265
903.919	4360
904.038	4455
904.156	4325
904.274	4470
904.392	4367
904.51	4440
904.627	4455
904.745	4561
904.863	4630
904.981	4413
905.098	4341
905.216	4333
905.334	4455
905.451	4443
905.569	4443
905.686	4512
905.803	4546
905.921	4432
906.038	4561
906.155	4470
906.272	4363
906.389	4421
906.506	4299
906.623	4337
906.74	4405
906.857	4299
906.974	4398
907.091	4546
907.208	4679
907.324	4596
907.441	4489
907.557	4344
907.674	4352
907.79	4284
907.907	4344
908.023	4474
908.139	4481
908.256	4413
908.372	4451
908.488	4398
908.604	4356
908.72	4276
908.836	4428
908.952	4386
909.068	4451
909.184	4584
909.3	4436
909.415	4592
909.531	4523
909.647	4337
909.762	4375
909.878	4363
909.993	4367
910.108	4379
910.224	4398
910.339	4478
910.454	4421
910.57	4360
910.685	4325
910.8	4645
910.915	4611
911.03	4485
911.145	4318
911.259	4333
911.374	4424
911.489	4287
911.604	4268
911.718	4150
911.833	4227
911.947	4082
912.062	4013
912.176	4154
912.291	4234
912.405	4223
912.519	4462
912.633	4459
912.748	4344
912.862	4299
912.976	4162
913.09	4097
913.204	4162
913.318	4230
913.431	4337
913.545	4367
913.659	4462
913.772	4367
913.886	4268
914	4219
914.113	4409
914.226	4424
914.34	4394
914.453	4227
914.566	4455
914.68	4306
914.793	4287
914.906	4169
915.019	4116
915.132	4086
915.245	4207
915.358	4200
915.47	4223
915.583	4215
915.696	4310
915.809	4459
915.921	4398
916.034	4223
916.146	4242
916.259	4204
916.371	4402
916.483	4386
916.595	4246
916.708	4265
916.82	4287
916.932	4295
917.044	4268
917.156	4284
917.268	4211
917.38	4287
917.491	4253
917.603	4363
917.715	4424
917.826	4394
917.938	4314
918.049	4234
918.161	4394
918.272	4512
918.384	4523
918.495	4497
918.606	4249
918.717	4223
918.828	4310
918.939	4325
919.05	4272
919.161	4287
919.272	4135
919.383	4238
919.494	4409
919.604	4596
919.715	4394
919.826	4348
919.936	4379
920.047	4538
920.157	4459
920.267	4672
920.378	4546
920.488	4523
920.598	4744
920.708	4858
920.818	4717
920.928	4755
921.038	4889
921.148	4938
921.258	4618
921.368	4550
921.477	4516
921.587	4428
921.697	4348
921.806	4546
921.916	4405
922.025	4287
922.134	4276
922.244	4227
922.353	4322
922.462	4188
922.571	4143
922.68	3975
922.789	3960
922.898	4013
923.007	4002
923.116	4105
923.224	4078
923.333	4071
923.442	3972
923.55	3983
923.659	4006
923.767	4055
923.876	4002
923.984	4078
924.092	3968
924.201	4055
924.309	4109
924.417	4109
924.525	3972
924.633	4074
924.741	5045
924.849	3960
924.956	4105
925.064	3941
925.172	3899
925.279	3979
925.387	4055
925.494	4048
925.602	4219
925.709	4120
925.816	4093
925.924	4131
926.031	4219
926.138	4128
926.245	4177
926.352	4109
926.459	4249
926.566	4287
926.673	4131
926.779	4109
926.886	4097
926.993	3987
927.099	3975
927.206	3937
927.312	3949
927.419	4082
927.525	4036
927.631	4044
927.737	3941
927.843	3975
927.95	3846
928.056	3922
928.162	3979
928.267	4036
928.373	4660
928.479	4128
928.585	3869
928.69	4010
928.796	4017
928.901	3930
929.007	3846
929.112	4013
929.218	3953
929.323	3945
929.428	3956
929.533	4074
929.638	3903
929.743	3888
929.848	4040
929.953	3964
930.058	3979
930.163	3762
930.267	3838
930.372	3964
930.477	3797
930.581	4082
930.685	3953
930.79	3812
930.894	3930
930.998	3785
931.103	4021
931.207	3698
931.311	3648
931.415	3614
931.519	3492
931.623	3591
