Data from test_V78500241_2534.txt Node
Date: Fri Mar 25 17:06:37 CST 2022
User: usil
Spectrometer: V785-0024
Trigger mode: 0
Integration Time (sec): 4.000000E-1
Scans to average: 1
Nonlinearity correction enabled: false
Boxcar width: 0
Storing dark spectrum: false
XAxis mode: Wavelengths
Number of Pixels in Spectrum: 1024
>>>>>Begin Spectral Data<<<<<
801.071	7955
801.214	8016
801.356	7864
801.499	7833
801.641	7769
801.783	7803
801.926	7951
802.068	7902
802.211	8050
802.353	7913
802.496	7921
802.638	7803
802.78	7936
802.923	7947
803.065	7833
803.208	7776
803.35	7932
803.492	8054
803.635	8180
803.777	8092
803.919	8115
804.061	8492
804.204	8202
804.346	8073
804.488	7959
804.63	8043
804.773	7997
804.915	8164
805.057	8275
805.199	8183
805.341	8263
805.483	8336
805.626	8229
805.768	8168
805.91	8199
806.052	8244
806.194	8103
806.336	8290
806.478	8081
806.62	8027
806.762	8100
806.904	8259
807.046	8469
807.188	8381
807.33	8256
807.472	8385
807.614	8126
807.756	8134
807.898	8005
808.04	7932
808.182	7826
808.324	7906
808.465	7906
808.607	8088
808.749	8073
808.891	8259
809.033	8275
809.174	8180
809.316	8084
809.458	8088
809.6	8050
809.741	7955
809.883	8073
810.025	8153
810.166	8065
810.308	7963
810.45	7959
810.591	7955
810.733	7712
810.875	7651
811.016	7518
811.158	7400
811.299	7578
811.441	7757
811.582	7731
811.724	7628
811.865	7502
812.007	7567
812.148	7632
812.29	7586
812.431	7666
812.573	7871
812.714	7936
812.855	8138
812.997	8240
813.138	8301
813.279	8176
813.421	8126
813.562	7944
813.703	7822
813.845	7712
813.986	7506
814.127	7228
814.268	7247
814.41	7213
814.551	7152
814.692	7228
814.833	7061
814.974	7164
815.115	7137
815.256	6973
815.397	6954
815.539	6916
815.68	6875
815.821	6806
815.962	6935
816.103	6772
816.244	6745
816.385	6623
816.526	6570
816.666	6494
816.807	6350
816.948	6506
817.089	6479
817.23	6426
817.371	6391
817.512	6361
817.653	6346
817.793	6376
817.934	6372
818.075	6483
818.216	6429
818.356	6467
818.497	6285
818.638	6140
818.778	6079
818.919	6110
819.06	6171
819.2	6350
819.341	6338
819.481	6311
819.622	6525
819.762	6719
819.903	6684
820.043	6646
820.184	6585
820.324	6650
820.465	6658
820.605	6741
820.746	6696
820.886	6521
821.026	6642
821.167	6707
821.307	6852
821.447	6810
821.588	6612
821.728	6604
821.868	6521
822.008	6376
822.149	6350
822.289	6357
822.429	6247
822.569	6117
822.709	6129
822.849	5885
822.99	5969
823.13	5912
823.27	5946
823.41	5786
823.55	5813
823.69	5802
823.83	5767
823.97	5684
824.11	5585
824.25	5463
824.389	5566
824.529	5551
824.669	5539
824.809	5642
824.949	5649
825.089	5627
825.228	5558
825.368	5448
825.508	5379
825.648	5318
825.787	5410
825.927	5398
826.067	5258
826.206	5273
826.346	5387
826.485	5429
826.625	5410
826.765	5524
826.904	5433
827.044	5250
827.183	5220
827.323	5204
827.462	5227
827.601	5208
827.741	5174
827.88	5239
828.02	5113
828.159	5197
828.298	5280
828.437	5372
828.577	5273
828.716	5467
828.855	5326
828.994	5140
829.134	5121
829.273	5185
829.412	5155
829.551	5128
829.69	5136
829.829	5269
829.968	5372
830.107	5231
830.246	5246
830.385	5151
830.524	5121
830.663	5102
830.802	4976
830.941	4904
831.08	4862
831.219	4976
831.357	4972
831.496	5136
831.635	4908
831.774	4854
831.913	4866
832.051	4702
832.19	4812
832.329	4793
832.467	4710
832.606	4618
832.744	4683
832.883	4721
833.022	4736
833.16	4793
833.299	4828
833.437	4858
833.576	4873
833.714	4816
833.852	4885
833.991	4889
834.129	4968
834.267	4934
834.406	4862
834.544	4949
834.682	4972
834.821	4984
834.959	5140
835.097	4942
835.235	5178
835.373	5018
835.511	5121
835.65	4995
835.788	5014
835.926	4915
836.064	4881
836.202	4889
836.34	5162
836.478	5174
836.615	5086
836.753	5239
836.891	5337
837.029	5239
837.167	5197
837.305	5178
837.443	5151
837.58	5052
837.718	5254
837.856	5189
837.993	5128
838.131	5315
838.269	5185
838.406	5216
838.544	5189
838.681	5041
838.819	4976
838.956	4900
839.094	4870
839.231	4938
839.369	5075
839.506	5440
839.643	5284
839.781	5025
839.918	4976
840.055	5151
840.193	5098
840.33	5083
840.467	5124
840.604	5220
840.742	5421
840.879	5098
841.016	5094
841.153	5166
841.29	5402
841.427	5303
841.564	5280
841.701	5376
841.838	5254
841.975	5212
842.112	5296
842.249	5178
842.385	5105
842.522	5284
842.659	5162
842.796	5140
842.933	5197
843.069	5132
843.206	5132
843.343	5315
843.479	5216
843.616	5269
843.752	5010
843.889	5025
844.025	5239
844.162	5018
844.298	5178
844.435	5094
844.571	4995
844.708	5220
844.844	5311
844.98	5318
845.117	5322
845.253	5079
845.389	5117
845.525	5181
845.661	5071
845.798	5052
845.934	5140
846.07	5022
846.206	5147
846.342	5261
846.478	5212
846.614	5018
846.75	4949
846.886	4915
847.022	5128
847.158	5014
847.294	5071
847.429	5067
847.565	5037
847.701	5280
847.837	4847
847.972	4805
848.108	4976
848.244	4968
848.379	4763
848.515	4729
848.65	4698
848.786	4733
848.921	4702
849.057	4843
849.192	4934
849.328	4767
849.463	4824
849.598	4733
849.734	4774
849.869	4687
850.004	4649
850.14	4672
850.275	4592
850.41	4538
850.545	4546
850.68	4596
850.815	4603
850.95	4637
851.085	4850
851.22	4744
851.355	4679
851.49	4611
851.625	4637
851.76	4683
851.895	4546
852.03	4504
852.165	4653
852.299	4710
852.434	4759
852.569	4763
852.703	4759
852.838	4816
852.973	4911
853.107	4885
853.242	4729
853.376	4668
853.511	4569
853.645	4580
853.78	4831
853.914	4721
854.048	4641
854.183	4641
854.317	4714
854.451	4847
854.585	4698
854.72	4615
854.854	4710
854.988	4569
855.122	4672
855.256	4538
855.39	4706
855.524	4759
855.658	4714
855.792	4683
855.926	4729
856.06	4744
856.194	4793
856.327	4702
856.461	4588
856.595	4573
856.729	4672
856.862	4729
856.996	4687
857.13	4717
857.263	4717
857.397	4828
857.53	4694
857.664	4721
857.797	4740
857.931	4812
858.064	4641
858.197	4706
858.331	4691
858.464	4599
858.597	4573
858.731	4637
858.864	4596
858.997	4596
859.13	4634
859.263	4668
859.396	4710
859.529	4561
859.662	4535
859.795	4558
859.928	4588
860.061	4752
860.194	4748
860.327	4599
860.46	4550
860.592	4714
860.725	4691
860.858	4721
860.99	4558
861.123	4523
861.256	4523
861.388	4584
861.521	5178
861.653	4500
861.786	4424
861.918	4459
862.05	4485
862.183	4481
862.315	4569
862.447	4607
862.58	4577
862.712	4424
862.844	4322
862.976	4466
863.108	4474
863.24	4778
863.372	4325
863.504	4413
863.636	4352
863.768	4459
863.9	4455
864.032	4379
864.164	4432
864.296	4504
864.428	4554
864.559	4523
864.691	4519
864.823	4519
864.954	4516
865.086	4527
865.217	4436
865.349	4459
865.48	4455
865.612	4497
865.743	4626
865.875	4489
866.006	4440
866.137	4481
866.269	4432
866.4	4398
866.531	4394
866.662	4409
866.793	4390
866.924	4451
867.055	4485
867.186	4402
867.317	4379
867.448	4390
867.579	4394
867.71	4322
867.841	4383
867.972	4436
868.103	4451
868.233	4436
868.364	4466
868.495	4447
868.625	4618
868.756	4755
868.886	4603
869.017	4596
869.147	4725
869.278	4782
869.408	4637
869.539	4580
869.669	4740
869.799	4645
869.929	4763
870.06	4755
870.19	4953
870.32	4873
870.45	4938
870.58	5052
870.71	5098
870.84	5083
870.97	4900
871.1	4900
871.23	5102
871.36	5102
871.489	5056
871.619	5079
871.749	5037
871.879	5083
872.008	5174
872.138	5075
872.267	4938
872.397	4892
872.526	4771
872.656	4729
872.785	4755
872.915	4946
873.044	5025
873.173	4923
873.303	4927
873.432	4961
873.561	4938
873.69	4911
873.819	4790
873.948	4881
874.077	4850
874.206	4744
874.335	4797
874.464	4923
874.593	5045
874.722	4968
874.851	5090
874.979	5052
875.108	4999
875.237	4892
875.365	4847
875.494	4881
875.623	4968
875.751	4809
875.88	4858
876.008	4949
876.136	5018
876.265	5204
876.393	5341
876.521	5269
876.65	5197
876.778	5159
876.906	5041
877.034	5083
877.162	5071
877.29	4976
877.418	5037
877.546	5033
877.674	5037
877.802	5014
877.93	4991
878.058	4930
878.185	4923
878.313	4972
878.441	4934
878.568	4786
878.696	4877
878.824	4961
878.951	4987
879.079	5159
879.206	5299
879.333	5155
879.461	5014
879.588	5003
879.715	5124
879.842	5239
879.97	5033
880.097	4782
880.224	4763
880.351	4809
880.478	4904
880.605	4843
880.732	4850
880.859	5105
880.986	4930
881.112	4949
881.239	4790
881.366	4702
881.493	4660
881.619	4603
881.746	4634
881.872	4702
881.999	4660
882.125	4755
882.252	4820
882.378	4820
882.505	5025
882.631	4835
882.757	4748
882.883	4744
883.01	4820
883.136	4668
883.262	4645
883.388	4664
883.514	4877
883.64	4927
883.766	4812
883.892	4725
884.018	4782
884.143	4968
884.269	5037
884.395	4714
884.52	4630
884.646	4637
884.772	4687
884.897	4618
885.023	4706
885.148	4824
885.274	4896
885.399	4854
885.524	4759
885.65	4782
885.775	4839
885.9	4763
886.025	4889
886.15	4812
886.275	4729
886.4	4717
886.525	4782
886.65	4714
886.775	4717
886.9	4953
887.025	5071
887.149	4881
887.274	4744
887.399	4626
887.523	4641
887.648	4630
887.773	4599
887.897	4801
888.021	4824
888.146	4698
888.27	4824
888.395	4968
888.519	4816
888.643	4850
888.767	4850
888.891	4694
889.015	4641
889.139	4714
889.263	4653
889.387	4801
889.511	4911
889.635	4828
889.759	4691
889.883	4683
890.006	4778
890.13	4862
890.254	4668
890.377	4710
890.501	4577
890.624	4588
890.748	4675
890.871	4558
890.995	4447
891.118	4390
891.241	4550
891.364	4596
891.488	4645
891.611	4577
891.734	4596
891.857	4611
891.98	4672
892.103	4687
892.226	4626
892.349	4550
892.471	4462
892.594	4573
892.717	4630
892.839	4561
892.962	4649
893.085	4656
893.207	4622
893.33	4462
893.452	4577
893.575	4702
893.697	4592
893.819	4805
893.941	4828
894.064	4831
894.186	4584
894.308	4607
894.43	4790
894.552	4835
894.674	4752
894.796	4573
894.918	4626
895.04	4634
895.161	4706
895.283	4672
895.405	4649
895.526	4698
895.648	4782
895.769	4710
895.891	4740
896.012	4755
896.134	4714
896.255	4714
896.376	4672
896.498	4634
896.619	4702
896.74	4626
896.861	4637
896.982	4957
897.103	5083
897.224	4858
897.345	4752
897.466	4706
897.587	4793
897.708	4854
897.828	4801
897.949	4645
898.07	4584
898.19	4672
898.311	4854
898.431	4740
898.552	4752
898.672	4908
898.792	4816
898.913	4809
899.033	4634
899.153	4508
899.273	4466
899.393	4538
899.513	4546
899.633	4599
899.753	4569
899.873	4550
899.993	4645
900.113	4535
900.232	4615
900.352	4630
900.472	4516
900.591	4447
900.711	4504
900.83	4481
900.95	4634
901.069	4698
901.189	4603
901.308	4402
901.427	4394
901.546	4424
901.665	4527
901.784	4535
901.904	4459
902.023	4379
902.141	4265
902.26	4158
902.379	4348
902.498	4284
902.617	4242
902.735	4421
902.854	4390
902.973	4402
903.091	4211
903.21	4246
903.328	4295
903.446	4246
903.565	4337
903.683	4371
903.801	4341
903.919	4443
904.038	4474
904.156	4367
904.274	4470
904.392	4436
904.51	4504
904.627	4512
904.745	4645
904.863	4630
904.981	4436
905.098	4325
905.216	4413
905.334	4485
905.451	4459
905.569	4481
905.686	4584
905.803	4584
905.921	4428
906.038	4580
906.155	4485
906.272	4421
906.389	4481
906.506	4440
906.623	4402
906.74	4405
906.857	4360
906.974	4394
907.091	4569
907.208	4694
907.324	4649
907.441	4519
907.557	4352
907.674	4363
907.79	4337
907.907	4390
908.023	4523
908.139	4493
908.256	4447
908.372	4466
908.488	4466
908.604	4443
908.72	4413
908.836	4405
908.952	4447
909.068	4455
909.184	4561
909.3	4489
909.415	4603
909.531	4527
909.647	4371
909.762	4447
909.878	4390
909.993	4451
910.108	4428
910.224	4424
910.339	4516
910.454	4443
910.57	4383
910.685	4329
910.8	4660
910.915	4592
911.03	4485
911.145	4341
911.259	4310
911.374	4390
911.489	4337
911.604	4303
911.718	4185
911.833	4246
911.947	4044
912.062	4055
912.176	4249
912.291	4287
912.405	4242
912.519	4455
912.633	4538
912.748	4356
912.862	4299
912.976	4207
913.09	4116
913.204	4219
913.318	4268
913.431	4383
913.545	4379
913.659	4443
913.772	4390
913.886	4253
914	4177
914.113	4443
914.226	4481
914.34	4421
914.453	4249
914.566	4485
914.68	4318
914.793	4360
914.906	4185
915.019	4101
915.132	4105
915.245	4219
915.358	4181
915.47	4242
915.583	4333
915.696	4341
915.809	4417
915.921	4409
916.034	4284
916.146	4246
916.259	4246
916.371	4421
916.483	4409
916.595	4303
916.708	4337
916.82	4398
916.932	4341
917.044	4344
917.156	4329
917.268	4249
917.38	4265
917.491	4314
917.603	4337
917.715	4455
917.826	4470
917.938	4352
918.049	4246
918.161	4421
918.272	4558
918.384	4546
918.495	4527
918.606	4337
918.717	4272
918.828	4356
918.939	4417
919.05	4303
919.161	4310
919.272	4131
919.383	4257
919.494	4485
919.604	4637
919.715	4436
919.826	4383
919.936	4432
920.047	4535
920.157	4493
920.267	4744
920.378	4558
920.488	4508
920.598	4710
920.708	4900
920.818	4778
920.928	4816
921.038	5003
921.148	4923
921.258	4672
921.368	4592
921.477	4542
921.587	4531
921.697	4379
921.806	4584
921.916	4481
922.025	4306
922.134	4356
922.244	4227
922.353	4424
922.462	4211
922.571	4150
922.68	4074
922.789	3972
922.898	4013
923.007	4029
923.116	4120
923.224	4112
923.333	4131
923.442	3983
923.55	4021
923.659	4044
923.767	4158
923.876	4040
923.984	4158
924.092	4006
924.201	4021
924.309	4109
924.417	4116
924.525	4086
924.633	4093
924.741	5071
924.849	3911
924.956	4097
925.064	3998
925.172	3956
925.279	3960
925.387	4059
925.494	4040
925.602	4280
925.709	4192
925.816	4059
925.924	4116
926.031	4253
926.138	4242
926.245	4215
926.352	4135
926.459	4276
926.566	4352
926.673	4188
926.779	4101
926.886	4090
926.993	4013
927.099	3964
927.206	3937
927.312	3968
927.419	4032
927.525	4040
927.631	4124
927.737	3998
927.843	3953
927.95	3873
928.056	3991
928.162	3987
928.267	4086
928.373	4599
928.479	4143
928.585	3892
928.69	4017
928.796	4105
928.901	4013
929.007	3838
929.112	4040
929.218	4006
929.323	3960
929.428	4032
929.533	4109
929.638	3903
929.743	3991
929.848	4097
929.953	3991
930.058	3983
930.163	3785
930.267	3842
930.372	3979
930.477	3835
930.581	4093
930.685	3934
930.79	3846
930.894	3884
930.998	3880
931.103	4025
931.207	3679
931.311	3709
931.415	3705
931.519	3545
931.623	3553
