Data from test_V78500241_1912.txt Node
Date: Fri Mar 25 17:02:17 CST 2022
User: usil
Spectrometer: V785-0024
Trigger mode: 0
Integration Time (sec): 4.000000E-1
Scans to average: 1
Nonlinearity correction enabled: false
Boxcar width: 0
Storing dark spectrum: false
XAxis mode: Wavelengths
Number of Pixels in Spectrum: 1024
>>>>>Begin Spectral Data<<<<<
801.071	7993
801.214	7989
801.356	7856
801.499	7864
801.641	7731
801.783	7792
801.926	8001
802.068	7936
802.211	7928
802.353	8039
802.496	7887
802.638	7818
802.78	7803
802.923	7833
803.065	7879
803.208	7890
803.35	7997
803.492	8138
803.635	8111
803.777	7997
803.919	8111
804.061	8457
804.204	8221
804.346	8016
804.488	8012
804.63	8012
804.773	8024
804.915	8115
805.057	8256
805.199	8214
805.341	8138
805.483	8252
805.626	8218
805.768	8176
805.91	8263
806.052	8206
806.194	8054
806.336	8374
806.478	8073
806.62	8096
806.762	8153
806.904	8290
807.046	8492
807.188	8389
807.33	8320
807.472	8301
807.614	8145
807.756	8149
807.898	8084
808.04	7875
808.182	7864
808.324	7902
808.465	7970
808.607	8039
808.749	8103
808.891	8237
809.033	8301
809.174	8218
809.316	8031
809.458	8103
809.6	7978
809.741	8069
809.883	8035
810.025	8084
810.166	8130
810.308	8081
810.45	7951
810.591	7841
810.733	7674
810.875	7662
811.016	7529
811.158	7476
811.299	7578
811.441	7704
811.582	7689
811.724	7616
811.865	7529
812.007	7533
812.148	7556
812.29	7525
812.431	7818
812.573	7860
812.714	7928
812.855	8134
812.997	8233
813.138	8252
813.279	8225
813.421	8065
813.562	7967
813.703	7780
813.845	7704
813.986	7403
814.127	7232
814.268	7164
814.41	7206
814.551	7183
814.692	7202
814.833	7110
814.974	7118
815.115	7080
815.256	7023
815.397	6905
815.539	6932
815.68	6798
815.821	6730
815.962	6867
816.103	6829
816.244	6749
816.385	6578
816.526	6563
816.666	6452
816.807	6361
816.948	6399
817.089	6445
817.23	6414
817.371	6327
817.512	6410
817.653	6380
817.793	6342
817.934	6410
818.075	6399
818.216	6403
818.356	6467
818.497	6232
818.638	6171
818.778	6114
818.919	6133
819.06	6125
819.2	6308
819.341	6338
819.481	6384
819.622	6513
819.762	6741
819.903	6673
820.043	6608
820.184	6536
820.324	6574
820.465	6684
820.605	6627
820.746	6662
820.886	6456
821.026	6604
821.167	6650
821.307	6772
821.447	6749
821.588	6741
821.728	6585
821.868	6483
822.008	6331
822.149	6410
822.289	6361
822.429	6186
822.569	6095
822.709	6175
822.849	5927
822.99	5912
823.13	5912
823.27	5882
823.41	5805
823.55	5764
823.69	5809
823.83	5771
823.97	5672
824.11	5512
824.25	5493
824.389	5543
824.529	5604
824.669	5493
824.809	5634
824.949	5623
825.089	5623
825.228	5520
825.368	5360
825.508	5345
825.648	5315
825.787	5406
825.927	5349
826.067	5296
826.206	5299
826.346	5307
826.485	5372
826.625	5421
826.765	5516
826.904	5436
827.044	5269
827.183	5220
827.323	5159
827.462	5227
827.601	5151
827.741	5162
827.88	5208
828.02	5128
828.159	5231
828.298	5242
828.437	5379
828.577	5269
828.716	5471
828.855	5326
828.994	5162
829.134	5105
829.273	5193
829.412	5170
829.551	5102
829.69	5094
829.829	5242
829.968	5379
830.107	5299
830.246	5288
830.385	5132
830.524	5159
830.663	5067
830.802	5018
830.941	4900
831.08	4915
831.219	4957
831.357	4949
831.496	5162
831.635	4919
831.774	4797
831.913	4835
832.051	4694
832.19	4736
832.329	4824
832.467	4679
832.606	4653
832.744	4725
832.883	4729
833.022	4717
833.16	4797
833.299	4839
833.437	4839
833.576	4793
833.714	4847
833.852	4858
833.991	4873
834.129	4957
834.267	4965
834.406	4908
834.544	4965
834.682	4965
834.821	4957
834.959	5166
835.097	4953
835.235	5265
835.373	5033
835.511	5079
835.65	4984
835.788	4980
835.926	4877
836.064	4839
836.202	4877
836.34	5159
836.478	5212
836.615	5136
836.753	5178
836.891	5322
837.029	5250
837.167	5220
837.305	5181
837.443	5128
837.58	5075
837.718	5223
837.856	5178
837.993	5124
838.131	5201
838.269	5235
838.406	5189
838.544	5151
838.681	5048
838.819	4991
838.956	4889
839.094	4900
839.231	4976
839.369	5064
839.506	5406
839.643	5254
839.781	5067
839.918	4980
840.055	5045
840.193	5098
840.33	5048
840.467	5098
840.604	5204
840.742	5379
840.879	5071
841.016	5048
841.153	5105
841.29	5383
841.427	5273
841.564	5299
841.701	5334
841.838	5315
841.975	5204
842.112	5250
842.249	5128
842.385	5094
842.522	5311
842.659	5166
842.796	5113
842.933	5166
843.069	5094
843.206	5113
843.343	5250
843.479	5258
843.616	5197
843.752	4957
843.889	5029
844.025	5159
844.162	4965
844.298	5170
844.435	5048
844.571	5048
844.708	5189
844.844	5261
844.98	5349
845.117	5307
845.253	5143
845.389	5124
845.525	5143
845.661	5117
845.798	4987
845.934	5117
846.07	5037
846.206	5159
846.342	5265
846.478	5181
846.614	4987
846.75	4942
846.886	4923
847.022	5105
847.158	5014
847.294	5037
847.429	5083
847.565	5052
847.701	5337
847.837	4850
847.972	4763
848.108	4961
848.244	4923
848.379	4736
848.515	4729
848.65	4721
848.786	4763
848.921	4763
849.057	4847
849.192	4881
849.328	4790
849.463	4847
849.598	4752
849.734	4778
849.869	4668
850.004	4596
850.14	4702
850.275	4622
850.41	4523
850.545	4592
850.68	4622
850.815	4611
850.95	4653
851.085	4824
851.22	4786
851.355	4675
851.49	4588
851.625	4592
851.76	4634
851.895	4554
852.03	4527
852.165	4634
852.299	4694
852.434	4763
852.569	4736
852.703	4771
852.838	4847
852.973	4930
853.107	4850
853.242	4771
853.376	4656
853.511	4531
853.645	4645
853.78	4752
853.914	4687
854.048	4641
854.183	4634
854.317	4702
854.451	4831
854.585	4683
854.72	4660
854.854	4763
854.988	4603
855.122	4641
855.256	4535
855.39	4653
855.524	4755
855.658	4687
855.792	4717
855.926	4717
856.06	4786
856.194	4759
856.327	4653
856.461	4603
856.595	4611
856.729	4626
856.862	4767
856.996	4675
857.13	4729
857.263	4721
857.397	4809
857.53	4649
857.664	4733
857.797	4752
857.931	4714
858.064	4694
858.197	4717
858.331	4634
858.464	4565
858.597	4550
858.731	4603
858.864	4592
858.997	4565
859.13	4664
859.263	4702
859.396	4683
859.529	4615
859.662	4584
859.795	4527
859.928	4580
860.061	4744
860.194	4755
860.327	4588
860.46	4561
860.592	4694
860.725	4691
860.858	4698
860.99	4588
861.123	4527
861.256	4573
861.388	4607
861.521	5223
861.653	4478
861.786	4421
861.918	4455
862.05	4455
862.183	4538
862.315	4634
862.447	4653
862.58	4542
862.712	4379
862.844	4322
862.976	4493
863.108	4489
863.24	4729
863.372	4291
863.504	4398
863.636	4417
863.768	4493
863.9	4398
864.032	4329
864.164	4413
864.296	4485
864.428	4500
864.559	4558
864.691	4497
864.823	4489
864.954	4474
865.086	4485
865.217	4424
865.349	4383
865.48	4428
865.612	4478
865.743	4603
865.875	4436
866.006	4402
866.137	4455
866.269	4455
866.4	4421
866.531	4459
866.662	4386
866.793	4447
866.924	4375
867.055	4424
867.186	4398
867.317	4413
867.448	4367
867.579	4421
867.71	4383
867.841	4371
867.972	4466
868.103	4550
868.233	4436
868.364	4421
868.495	4459
868.625	4664
868.756	4725
868.886	4535
869.017	4618
869.147	4763
869.278	4748
869.408	4660
869.539	4603
869.669	4710
869.799	4611
869.929	4797
870.06	4748
870.19	4938
870.32	4908
870.45	4877
870.58	5014
870.71	5128
870.84	5075
870.97	4949
871.1	4881
871.23	5151
871.36	5136
871.489	4991
871.619	5067
871.749	5117
871.879	5098
872.008	5124
872.138	5045
872.267	4949
872.397	4816
872.526	4839
872.656	4725
872.785	4828
872.915	4934
873.044	5018
873.173	4957
873.303	4991
873.432	4923
873.561	5003
873.69	4866
873.819	4854
873.948	4911
874.077	4850
874.206	4801
874.335	4793
874.464	4904
874.593	5083
874.722	4946
874.851	5083
874.979	5037
875.108	4987
875.237	4911
875.365	4896
875.494	4774
875.623	4965
875.751	4858
875.88	4816
876.008	4976
876.136	5022
876.265	5208
876.393	5292
876.521	5242
876.65	5261
876.778	5143
876.906	5079
877.034	4961
877.162	5060
877.29	5014
877.418	5071
877.546	5037
877.674	4999
877.802	4995
877.93	5018
878.058	4927
878.185	4900
878.313	4976
878.441	4949
878.568	4748
878.696	4870
878.824	4934
878.951	5010
879.079	5124
879.206	5292
879.333	5056
879.461	4972
879.588	5003
879.715	5109
879.842	5216
879.97	4984
880.097	4774
880.224	4733
880.351	4797
880.478	4809
880.605	4797
880.732	4752
880.859	5079
880.986	4900
881.112	4934
881.239	4752
881.366	4675
881.493	4584
881.619	4580
881.746	4599
881.872	4615
881.999	4634
882.125	4687
882.252	4729
882.378	4786
882.505	4965
882.631	4797
882.757	4630
882.883	4725
883.01	4744
883.136	4668
883.262	4611
883.388	4622
883.514	4786
883.64	4873
883.766	4759
883.892	4683
884.018	4668
884.143	4854
884.269	4976
884.395	4698
884.52	4603
884.646	4691
884.772	4569
884.897	4592
885.023	4645
885.148	4790
885.274	4858
885.399	4786
885.524	4706
885.65	4664
885.775	4702
885.9	4694
886.025	4850
886.15	4790
886.275	4721
886.4	4611
886.525	4721
886.65	4645
886.775	4668
886.9	4797
887.025	5003
887.149	4839
887.274	4630
887.399	4577
887.523	4603
887.648	4554
887.773	4535
887.897	4717
888.021	4790
888.146	4668
888.27	4790
888.395	4919
888.519	4809
888.643	4755
888.767	4793
888.891	4660
889.015	4615
889.139	4618
889.263	4573
889.387	4797
889.511	4847
889.635	4797
889.759	4656
889.883	4630
890.006	4729
890.13	4866
890.254	4618
890.377	4706
890.501	4542
890.624	4500
890.748	4634
890.871	4527
890.995	4421
891.118	4390
891.241	4493
891.364	4592
891.488	4637
891.611	4519
891.734	4569
891.857	4672
891.98	4573
892.103	4679
892.226	4634
892.349	4558
892.471	4398
892.594	4573
892.717	4653
892.839	4588
892.962	4664
893.085	4698
893.207	4546
893.33	4512
893.452	4588
893.575	4679
893.697	4603
893.819	4870
893.941	4850
894.064	4877
894.186	4630
894.308	4596
894.43	4755
894.552	4881
894.674	4782
894.796	4599
894.918	4653
895.04	4637
895.161	4740
895.283	4710
895.405	4630
895.526	4714
895.648	4694
895.769	4759
895.891	4793
896.012	4744
896.134	4717
896.255	4698
896.376	4672
896.498	4691
896.619	4702
896.74	4603
896.861	4683
896.982	4987
897.103	5128
897.224	4881
897.345	4759
897.466	4725
897.587	4774
897.708	4911
897.828	4831
897.949	4660
898.07	4603
898.19	4710
898.311	4930
898.431	4687
898.552	4793
898.672	4835
898.792	4820
898.913	4763
899.033	4660
899.153	4558
899.273	4459
899.393	4493
899.513	4542
899.633	4554
899.753	4500
899.873	4523
899.993	4637
900.113	4584
900.232	4561
900.352	4596
900.472	4523
900.591	4398
900.711	4558
900.83	4497
900.95	4683
901.069	4687
901.189	4519
901.308	4333
901.427	4333
901.546	4413
901.665	4481
901.784	4516
901.904	4424
902.023	4314
902.141	4257
902.26	4230
902.379	4379
902.498	4310
902.617	4257
902.735	4421
902.854	4413
902.973	4363
903.091	4230
903.21	4257
903.328	4291
903.446	4276
903.565	4265
903.683	4344
903.801	4322
903.919	4405
904.038	4447
904.156	4386
904.274	4440
904.392	4424
904.51	4451
904.627	4512
904.745	4637
904.863	4664
904.981	4409
905.098	4337
905.216	4398
905.334	4474
905.451	4421
905.569	4481
905.686	4550
905.803	4554
905.921	4383
906.038	4584
906.155	4485
906.272	4421
906.389	4462
906.506	4371
906.623	4386
906.74	4390
906.857	4363
906.974	4390
907.091	4577
907.208	4691
907.324	4641
907.441	4459
907.557	4386
907.674	4390
907.79	4306
907.907	4398
908.023	4478
908.139	4512
908.256	4478
908.372	4504
908.488	4493
908.604	4383
908.72	4367
908.836	4375
908.952	4428
909.068	4466
909.184	4622
909.3	4497
909.415	4615
909.531	4596
909.647	4341
909.762	4394
909.878	4386
909.993	4474
910.108	4455
910.224	4451
910.339	4489
910.454	4436
910.57	4394
910.685	4386
910.8	4637
910.915	4618
911.03	4527
911.145	4333
911.259	4379
911.374	4398
911.489	4329
911.604	4287
911.718	4192
911.833	4219
911.947	4109
912.062	4109
912.176	4181
912.291	4234
912.405	4246
912.519	4512
912.633	4531
912.748	4417
912.862	4318
912.976	4211
913.09	4105
913.204	4230
913.318	4291
913.431	4405
913.545	4375
913.659	4443
913.772	4398
913.886	4306
914	4276
914.113	4375
914.226	4478
914.34	4394
914.453	4265
914.566	4466
914.68	4325
914.793	4352
914.906	4177
915.019	4166
915.132	4105
915.245	4211
915.358	4215
915.47	4280
915.583	4303
915.696	4325
915.809	4436
915.921	4459
916.034	4325
916.146	4265
916.259	4299
916.371	4428
916.483	4405
916.595	4257
916.708	4360
916.82	4379
916.932	4356
917.044	4398
917.156	4394
917.268	4306
917.38	4325
917.491	4295
917.603	4440
917.715	4504
917.826	4466
917.938	4356
918.049	4265
918.161	4390
918.272	4561
918.384	4535
918.495	4485
918.606	4291
918.717	4234
918.828	4333
918.939	4367
919.05	4284
919.161	4325
919.272	4158
919.383	4242
919.494	4470
919.604	4668
919.715	4489
919.826	4383
919.936	4440
920.047	4558
920.157	4500
920.267	4740
920.378	4588
920.488	4512
920.598	4755
920.708	4896
920.818	4763
920.928	4820
921.038	5006
921.148	4949
921.258	4645
921.368	4577
921.477	4565
921.587	4451
921.697	4402
921.806	4554
921.916	4417
922.025	4333
922.134	4280
922.244	4284
922.353	4322
922.462	4219
922.571	4162
922.68	4040
922.789	4010
922.898	4021
923.007	4032
923.116	4150
923.224	4097
923.333	4116
923.442	4010
923.55	4025
923.659	4063
923.767	4204
923.876	3998
923.984	4112
924.092	4036
924.201	4116
924.309	4135
924.417	4128
924.525	4082
924.633	4086
924.741	5006
924.849	3956
924.956	4150
925.064	3983
925.172	3941
925.279	3983
925.387	4101
925.494	4097
925.602	4204
925.709	4204
925.816	4051
925.924	4166
926.031	4272
926.138	4181
926.245	4261
926.352	4105
926.459	4242
926.566	4337
926.673	4204
926.779	4105
926.886	4185
926.993	4002
927.099	4002
927.206	3964
927.312	3975
927.419	4071
927.525	4036
927.631	4109
927.737	4010
927.843	3922
927.95	3876
928.056	3930
928.162	4002
928.267	4109
928.373	4599
928.479	4162
928.585	3968
928.69	3998
928.796	4116
928.901	4036
929.007	3869
929.112	3968
929.218	3956
929.323	3998
929.428	3983
929.533	4143
929.638	3941
929.743	3983
929.848	4063
929.953	4002
930.058	3964
930.163	3759
930.267	3819
930.372	3994
930.477	3800
930.581	4097
930.685	3941
930.79	3842
930.894	3892
930.998	3869
931.103	4071
931.207	3720
931.311	3728
931.415	3713
931.519	3587
931.623	3564
