Data from test_V78500241_931.txt Node
Date: Fri Mar 25 16:55:28 CST 2022
User: usil
Spectrometer: V785-0024
Trigger mode: 0
Integration Time (sec): 4.000000E-1
Scans to average: 1
Nonlinearity correction enabled: false
Boxcar width: 0
Storing dark spectrum: false
XAxis mode: Wavelengths
Number of Pixels in Spectrum: 1024
>>>>>Begin Spectral Data<<<<<
801.071	7989
801.214	7944
801.356	7906
801.499	7841
801.641	7761
801.783	7849
801.926	8020
802.068	7909
802.211	7967
802.353	7951
802.496	7799
802.638	7856
802.78	7921
802.923	7909
803.065	7890
803.208	7818
803.35	8035
803.492	8123
803.635	8119
803.777	8001
803.919	8081
804.061	8389
804.204	8092
804.346	8035
804.488	7917
804.63	8088
804.773	7974
804.915	8050
805.057	8145
805.199	8149
805.341	8172
805.483	8214
805.626	8145
805.768	8138
805.91	8187
806.052	8206
806.194	8039
806.336	8229
806.478	8065
806.62	8039
806.762	8153
806.904	8206
807.046	8473
807.188	8351
807.33	8294
807.472	8324
807.614	8149
807.756	8111
807.898	7986
808.04	7906
808.182	7868
808.324	7871
808.465	7921
808.607	8035
808.749	8077
808.891	8187
809.033	8286
809.174	8225
809.316	8081
809.458	7951
809.6	7978
809.741	8039
809.883	8020
810.025	8088
810.166	8043
810.308	7959
810.45	7967
810.591	7890
810.733	7757
810.875	7594
811.016	7521
811.158	7559
811.299	7636
811.441	7666
811.582	7571
811.724	7609
811.865	7540
812.007	7529
812.148	7578
812.29	7582
812.431	7715
812.573	7902
812.714	7989
812.855	8073
812.997	8191
813.138	8309
813.279	8168
813.421	8062
813.562	7974
813.703	7826
813.845	7784
813.986	7457
814.127	7282
814.268	7221
814.41	7202
814.551	7137
814.692	7122
814.833	7072
814.974	7118
815.115	7046
815.256	6947
815.397	6833
815.539	6977
815.68	6833
815.821	6768
815.962	6825
816.103	6772
816.244	6715
816.385	6642
816.526	6688
816.666	6506
816.807	6304
816.948	6475
817.089	6376
817.23	6448
817.371	6350
817.512	6357
817.653	6384
817.793	6350
817.934	6441
818.075	6433
818.216	6448
818.356	6426
818.497	6209
818.638	6152
818.778	6163
818.919	6064
819.06	6144
819.2	6285
819.341	6281
819.481	6407
819.622	6486
819.762	6696
819.903	6684
820.043	6570
820.184	6620
820.324	6509
820.465	6669
820.605	6635
820.746	6582
820.886	6486
821.026	6589
821.167	6730
821.307	6795
821.447	6734
821.588	6669
821.728	6585
821.868	6513
822.008	6254
822.149	6437
822.289	6338
822.429	6175
822.569	6159
822.709	6163
822.849	5870
822.99	5863
823.13	5927
823.27	5984
823.41	5737
823.55	5760
823.69	5756
823.83	5737
823.97	5665
824.11	5493
824.25	5463
824.389	5554
824.529	5532
824.669	5463
824.809	5642
824.949	5627
825.089	5596
825.228	5577
825.368	5410
825.508	5345
825.648	5277
825.787	5349
825.927	5341
826.067	5269
826.206	5273
826.346	5379
826.485	5337
826.625	5383
826.765	5535
826.904	5455
827.044	5284
827.183	5204
827.323	5109
827.462	5193
827.601	5178
827.741	5159
827.88	5216
828.02	5140
828.159	5220
828.298	5299
828.437	5330
828.577	5292
828.716	5448
828.855	5299
828.994	5185
829.134	5155
829.273	5212
829.412	5132
829.551	5124
829.69	5136
829.829	5204
829.968	5318
830.107	5216
830.246	5231
830.385	5128
830.524	5136
830.663	5064
830.802	4957
830.941	4911
831.08	4873
831.219	4904
831.357	4930
831.496	5151
831.635	4911
831.774	4835
831.913	4797
832.051	4698
832.19	4698
832.329	4828
832.467	4683
832.606	4630
832.744	4729
832.883	4752
833.022	4714
833.16	4778
833.299	4828
833.437	4801
833.576	4820
833.714	4881
833.852	4828
833.991	4877
834.129	4957
834.267	4927
834.406	4847
834.544	4923
834.682	4972
834.821	4957
834.959	5143
835.097	5006
835.235	5132
835.373	5086
835.511	5113
835.65	5041
835.788	4984
835.926	4892
836.064	4816
836.202	4835
836.34	5098
836.478	5258
836.615	5067
836.753	5109
836.891	5269
837.029	5239
837.167	5193
837.305	5181
837.443	5147
837.58	5033
837.718	5254
837.856	5201
837.993	5124
838.131	5185
838.269	5193
838.406	5254
838.544	5155
838.681	5041
838.819	4976
838.956	4949
839.094	4870
839.231	4976
839.369	5041
839.506	5360
839.643	5246
839.781	5006
839.918	5018
840.055	5132
840.193	5086
840.33	5045
840.467	5121
840.604	5227
840.742	5387
840.879	5083
841.016	5067
841.153	5136
841.29	5398
841.427	5292
841.564	5345
841.701	5372
841.838	5250
841.975	5231
842.112	5254
842.249	5090
842.385	5079
842.522	5322
842.659	5136
842.796	5155
842.933	5235
843.069	5151
843.206	5136
843.343	5334
843.479	5185
843.616	5227
843.752	4991
843.889	4984
844.025	5204
844.162	5018
844.298	5193
844.435	5075
844.571	5060
844.708	5197
844.844	5326
844.98	5296
845.117	5277
845.253	5083
845.389	5064
845.525	5162
845.661	5147
845.798	4995
845.934	5124
846.07	5003
846.206	5189
846.342	5269
846.478	5181
846.614	5045
846.75	4968
846.886	4911
847.022	5147
847.158	5037
847.294	5022
847.429	5105
847.565	5037
847.701	5322
847.837	4816
847.972	4820
848.108	4923
848.244	4900
848.379	4763
848.515	4706
848.65	4706
848.786	4694
848.921	4793
849.057	4843
849.192	4877
849.328	4755
849.463	4873
849.598	4793
849.734	4721
849.869	4691
850.004	4615
850.14	4618
850.275	4584
850.41	4516
850.545	4592
850.68	4599
850.815	4592
850.95	4592
851.085	4820
851.22	4733
851.355	4649
851.49	4580
851.625	4618
851.76	4653
851.895	4504
852.03	4558
852.165	4664
852.299	4725
852.434	4755
852.569	4763
852.703	4782
852.838	4850
852.973	4949
853.107	4881
853.242	4744
853.376	4634
853.511	4546
853.645	4656
853.78	4820
853.914	4702
854.048	4637
854.183	4672
854.317	4664
854.451	4896
854.585	4694
854.72	4584
854.854	4698
854.988	4580
855.122	4550
855.256	4546
855.39	4611
855.524	4771
855.658	4698
855.792	4698
855.926	4767
856.06	4759
856.194	4782
856.327	4691
856.461	4630
856.595	4573
856.729	4573
856.862	4706
856.996	4675
857.13	4725
857.263	4733
857.397	4763
857.53	4698
857.664	4752
857.797	4736
857.931	4767
858.064	4691
858.197	4763
858.331	4611
858.464	4599
858.597	4481
858.731	4622
858.864	4622
858.997	4596
859.13	4664
859.263	4687
859.396	4641
859.529	4603
859.662	4527
859.795	4516
859.928	4523
860.061	4763
860.194	4759
860.327	4599
860.46	4500
860.592	4664
860.725	4717
860.858	4694
860.99	4577
861.123	4508
861.256	4500
861.388	4615
861.521	5162
861.653	4512
861.786	4432
861.918	4421
862.05	4531
862.183	4504
862.315	4596
862.447	4615
862.58	4565
862.712	4329
862.844	4303
862.976	4447
863.108	4459
863.24	4736
863.372	4367
863.504	4398
863.636	4413
863.768	4493
863.9	4413
864.032	4371
864.164	4375
864.296	4459
864.428	4455
864.559	4538
864.691	4516
864.823	4546
864.954	4474
865.086	4561
865.217	4459
865.349	4367
865.48	4424
865.612	4455
865.743	4588
865.875	4462
866.006	4383
866.137	4421
866.269	4436
866.4	4451
866.531	4379
866.662	4383
866.793	4367
866.924	4367
867.055	4470
867.186	4436
867.317	4379
867.448	4360
867.579	4409
867.71	4367
867.841	4386
867.972	4443
868.103	4455
868.233	4383
868.364	4424
868.495	4478
868.625	4622
868.756	4748
868.886	4584
869.017	4542
869.147	4782
869.278	4778
869.408	4588
869.539	4618
869.669	4702
869.799	4645
869.929	4740
870.06	4691
870.19	4980
870.32	4892
870.45	4961
870.58	4976
870.71	5113
870.84	5067
870.97	4911
871.1	4889
871.23	5105
871.36	5140
871.489	4984
871.619	5018
871.749	5086
871.879	5140
872.008	5136
872.138	5117
872.267	4957
872.397	4850
872.526	4809
872.656	4706
872.785	4797
872.915	4953
873.044	4995
873.173	4949
873.303	4984
873.432	4942
873.561	4904
873.69	4873
873.819	4824
873.948	4908
874.077	4828
874.206	4736
874.335	4771
874.464	4919
874.593	5067
874.722	4953
874.851	5075
874.979	5048
875.108	5022
875.237	4892
875.365	4793
875.494	4930
875.623	4980
875.751	4824
875.88	4847
876.008	4946
876.136	5025
876.265	5166
876.393	5277
876.521	5250
876.65	5235
876.778	5128
876.906	5045
877.034	5041
877.162	5022
877.29	4930
877.418	5045
877.546	5075
877.674	5010
877.802	4995
877.93	4984
878.058	4904
878.185	4870
878.313	4976
878.441	4881
878.568	4805
878.696	4881
878.824	4930
878.951	4991
879.079	5102
879.206	5296
879.333	5132
879.461	4991
879.588	4961
879.715	5086
879.842	5204
879.97	5003
880.097	4782
880.224	4717
880.351	4782
880.478	4801
880.605	4752
880.732	4782
880.859	5045
880.986	4904
881.112	4930
881.239	4729
881.366	4607
881.493	4615
881.619	4580
881.746	4622
881.872	4607
881.999	4656
882.125	4664
882.252	4752
882.378	4812
882.505	4930
882.631	4820
882.757	4630
882.883	4702
883.01	4752
883.136	4653
883.262	4580
883.388	4592
883.514	4793
883.64	4824
883.766	4782
883.892	4672
884.018	4744
884.143	4866
884.269	4980
884.395	4664
884.52	4580
884.646	4656
884.772	4565
884.897	4500
885.023	4691
885.148	4717
885.274	4862
885.399	4805
885.524	4691
885.65	4668
885.775	4778
885.9	4717
886.025	4835
886.15	4786
886.275	4653
886.4	4607
886.525	4698
886.65	4668
886.775	4664
886.9	4843
887.025	4972
887.149	4778
887.274	4611
887.399	4603
887.523	4599
887.648	4558
887.773	4592
887.897	4706
888.021	4740
888.146	4645
888.27	4854
888.395	4858
888.519	4805
888.643	4797
888.767	4774
888.891	4626
889.015	4569
889.139	4615
889.263	4622
889.387	4793
889.511	4843
889.635	4763
889.759	4634
889.883	4637
890.006	4672
890.13	4862
890.254	4596
890.377	4691
890.501	4577
890.624	4459
890.748	4584
890.871	4535
890.995	4394
891.118	4352
891.241	4527
891.364	4481
891.488	4618
891.611	4432
891.734	4516
891.857	4535
891.98	4546
892.103	4618
892.226	4569
892.349	4512
892.471	4360
892.594	4561
892.717	4580
892.839	4558
892.962	4554
893.085	4611
893.207	4618
893.33	4455
893.452	4527
893.575	4607
893.697	4569
893.819	4782
893.941	4763
894.064	4744
894.186	4577
894.308	4546
894.43	4710
894.552	4774
894.674	4725
894.796	4565
894.918	4580
895.04	4523
895.161	4660
895.283	4668
895.405	4584
895.526	4618
895.648	4660
895.769	4645
895.891	4687
896.012	4736
896.134	4691
896.255	4683
896.376	4626
896.498	4596
896.619	4656
896.74	4596
896.861	4615
896.982	4942
897.103	5048
897.224	4831
897.345	4729
897.466	4626
897.587	4714
897.708	4889
897.828	4774
897.949	4645
898.07	4550
898.19	4649
898.311	4820
898.431	4683
898.552	4736
898.672	4843
898.792	4771
898.913	4694
899.033	4634
899.153	4512
899.273	4417
899.393	4531
899.513	4527
899.633	4497
899.753	4554
899.873	4485
899.993	4599
900.113	4527
900.232	4634
900.352	4561
900.472	4451
900.591	4367
900.711	4538
900.83	4402
900.95	4645
901.069	4683
901.189	4561
901.308	4432
901.427	4352
901.546	4436
901.665	4485
901.784	4546
901.904	4390
902.023	4325
902.141	4230
902.26	4223
902.379	4333
902.498	4268
902.617	4299
902.735	4375
902.854	4409
902.973	4394
903.091	4265
903.21	4246
903.328	4322
903.446	4325
903.565	4303
903.683	4360
903.801	4310
903.919	4459
904.038	4489
904.156	4344
904.274	4462
904.392	4436
904.51	4493
904.627	4535
904.745	4630
904.863	4622
904.981	4417
905.098	4344
905.216	4379
905.334	4500
905.451	4455
905.569	4474
905.686	4645
905.803	4626
905.921	4459
906.038	4561
906.155	4523
906.272	4405
906.389	4478
906.506	4394
906.623	4417
906.74	4390
906.857	4341
906.974	4344
907.091	4645
907.208	4694
907.324	4637
907.441	4508
907.557	4375
907.674	4386
907.79	4322
907.907	4424
908.023	4485
908.139	4542
908.256	4462
908.372	4497
908.488	4436
908.604	4413
908.72	4371
908.836	4367
908.952	4421
909.068	4470
909.184	4611
909.3	4577
909.415	4615
909.531	4558
909.647	4348
909.762	4413
909.878	4386
909.993	4459
910.108	4447
910.224	4436
910.339	4478
910.454	4440
910.57	4348
910.685	4318
910.8	4649
910.915	4664
911.03	4489
911.145	4341
911.259	4367
911.374	4379
911.489	4299
911.604	4249
911.718	4185
911.833	4261
911.947	4124
912.062	4093
912.176	4211
912.291	4257
912.405	4246
912.519	4542
912.633	4561
912.748	4371
912.862	4318
912.976	4230
913.09	4116
913.204	4196
913.318	4261
913.431	4367
913.545	4371
913.659	4440
913.772	4363
913.886	4272
914	4272
914.113	4348
914.226	4493
914.34	4440
914.453	4238
914.566	4440
914.68	4367
914.793	4333
914.906	4192
915.019	4185
915.132	4074
915.245	4177
915.358	4242
915.47	4246
915.583	4238
915.696	4314
915.809	4470
915.921	4493
916.034	4299
916.146	4287
916.259	4257
916.371	4413
916.483	4371
916.595	4261
916.708	4371
916.82	4325
916.932	4348
917.044	4367
917.156	4337
917.268	4234
917.38	4295
917.491	4318
917.603	4379
917.715	4409
917.826	4440
917.938	4424
918.049	4265
918.161	4440
918.272	4580
918.384	4542
918.495	4451
918.606	4337
918.717	4223
918.828	4413
918.939	4375
919.05	4272
919.161	4352
919.272	4135
919.383	4268
919.494	4500
919.604	4573
919.715	4440
919.826	4398
919.936	4470
920.047	4558
920.157	4569
920.267	4733
920.378	4592
920.488	4538
920.598	4752
920.708	4908
920.818	4793
920.928	4820
921.038	5022
921.148	4915
921.258	4660
921.368	4584
921.477	4512
921.587	4478
921.697	4363
921.806	4558
921.916	4466
922.025	4261
922.134	4333
922.244	4265
922.353	4360
922.462	4230
922.571	4177
922.68	4063
922.789	4010
922.898	4063
923.007	4025
923.116	4128
923.224	4051
923.333	4093
923.442	4013
923.55	3979
923.659	4109
923.767	4109
923.876	4025
923.984	4162
924.092	4010
924.201	4097
924.309	4116
924.417	4177
924.525	4116
924.633	4105
924.741	5067
924.849	3949
924.956	4169
925.064	3983
925.172	3896
925.279	3968
925.387	4093
925.494	4055
925.602	4265
925.709	4188
925.816	4063
925.924	4169
926.031	4223
926.138	4192
926.245	4234
926.352	4101
926.459	4284
926.566	4322
926.673	4131
926.779	4093
926.886	4101
926.993	4040
927.099	3983
927.206	3987
927.312	3987
927.419	4082
927.525	4029
927.631	4101
927.737	3979
927.843	3975
927.95	3857
928.056	3975
928.162	4021
928.267	4093
928.373	4748
928.479	4128
928.585	3888
928.69	4040
928.796	4082
928.901	4025
929.007	3857
929.112	4013
929.218	3998
929.323	3972
929.428	3983
929.533	4112
929.638	3956
929.743	4013
929.848	4051
929.953	3983
930.058	3915
930.163	3804
930.267	3827
930.372	4074
930.477	3812
930.581	4135
930.685	3987
930.79	3854
930.894	3930
930.998	3922
931.103	4067
931.207	3713
931.311	3701
931.415	3709
931.519	3545
931.623	3599
