Data from test_V78500241_328.txt Node
Date: Fri Mar 25 16:51:17 CST 2022
User: usil
Spectrometer: V785-0024
Trigger mode: 0
Integration Time (sec): 4.000000E-1
Scans to average: 1
Nonlinearity correction enabled: false
Boxcar width: 0
Storing dark spectrum: false
XAxis mode: Wavelengths
Number of Pixels in Spectrum: 1024
>>>>>Begin Spectral Data<<<<<
801.071	8092
801.214	8062
801.356	7936
801.499	7936
801.641	7928
801.783	7871
801.926	8069
802.068	7959
802.211	8031
802.353	8111
802.496	7974
802.638	7967
802.78	7902
802.923	7986
803.065	7921
803.208	7879
803.35	7974
803.492	8084
803.635	8187
803.777	8107
803.919	8081
804.061	8473
804.204	8218
804.346	8096
804.488	7967
804.63	8134
804.773	8001
804.915	8043
805.057	8199
805.199	8183
805.341	8317
805.483	8263
805.626	8229
805.768	8130
805.91	8107
806.052	8206
806.194	8176
806.336	8396
806.478	8221
806.62	8138
806.762	8187
806.904	8351
807.046	8461
807.188	8355
807.33	8317
807.472	8328
807.614	8161
807.756	8199
807.898	8062
808.04	7875
808.182	7944
808.324	7963
808.465	7959
808.607	8016
808.749	8092
808.891	8199
809.033	8298
809.174	8180
809.316	8069
809.458	8069
809.6	8031
809.741	8031
809.883	8031
810.025	8172
810.166	8202
810.308	8077
810.45	8005
810.591	7932
810.733	7769
810.875	7723
811.016	7514
811.158	7510
811.299	7647
811.441	7811
811.582	7704
811.724	7578
811.865	7540
812.007	7658
812.148	7605
812.29	7624
812.431	7788
812.573	7849
812.714	7986
812.855	8050
812.997	8138
813.138	8298
813.279	8153
813.421	8111
813.562	8031
813.703	7928
813.845	7776
813.986	7487
814.127	7282
814.268	7228
814.41	7270
814.551	7278
814.692	7240
814.833	7095
814.974	7095
815.115	7091
815.256	6977
815.397	6943
815.539	6909
815.68	6886
815.821	6825
815.962	6894
816.103	6818
816.244	6787
816.385	6650
816.526	6673
816.666	6509
816.807	6346
816.948	6426
817.089	6506
817.23	6494
817.371	6399
817.512	6388
817.653	6460
817.793	6384
817.934	6422
818.075	6460
818.216	6433
818.356	6426
818.497	6232
818.638	6155
818.778	6201
818.919	6125
819.06	6194
819.2	6319
819.341	6353
819.481	6365
819.622	6536
819.762	6768
819.903	6730
820.043	6639
820.184	6608
820.324	6597
820.465	6703
820.605	6734
820.746	6662
820.886	6509
821.026	6715
821.167	6730
821.307	6802
821.447	6840
821.588	6681
821.728	6593
821.868	6494
822.008	6285
822.149	6437
822.289	6384
822.429	6159
822.569	6144
822.709	6144
822.849	5977
822.99	5897
823.13	5980
823.27	5935
823.41	5836
823.55	5798
823.69	5771
823.83	5802
823.97	5653
824.11	5547
824.25	5516
824.389	5573
824.529	5562
824.669	5551
824.809	5623
824.949	5710
825.089	5646
825.228	5562
825.368	5455
825.508	5364
825.648	5376
825.787	5383
825.927	5391
826.067	5406
826.206	5341
826.346	5387
826.485	5429
826.625	5414
826.765	5547
826.904	5486
827.044	5307
827.183	5204
827.323	5128
827.462	5242
827.601	5174
827.741	5254
827.88	5227
828.02	5102
828.159	5220
828.298	5379
828.437	5402
828.577	5280
828.716	5467
828.855	5345
828.994	5174
829.134	5124
829.273	5254
829.412	5162
829.551	5170
829.69	5147
829.829	5261
829.968	5349
830.107	5299
830.246	5303
830.385	5185
830.524	5147
830.663	5105
830.802	4946
830.941	4908
831.08	4919
831.219	5045
831.357	5014
831.496	5128
831.635	4877
831.774	4862
831.913	4850
832.051	4752
832.19	4752
832.329	4870
832.467	4763
832.606	4660
832.744	4740
832.883	4733
833.022	4736
833.16	4809
833.299	4843
833.437	4820
833.576	4870
833.714	4866
833.852	4904
833.991	4896
834.129	4999
834.267	4972
834.406	4911
834.544	4934
834.682	4946
834.821	5025
834.959	5189
835.097	4961
835.235	5155
835.373	5094
835.511	5109
835.65	5060
835.788	5094
835.926	4953
836.064	4877
836.202	4927
836.34	5216
836.478	5277
836.615	5128
836.753	5223
836.891	5307
837.029	5231
837.167	5223
837.305	5193
837.443	5162
837.58	5102
837.718	5284
837.856	5201
837.993	5193
838.131	5269
838.269	5269
838.406	5265
838.544	5227
838.681	5075
838.819	5060
838.956	4854
839.094	4949
839.231	5003
839.369	5102
839.506	5421
839.643	5288
839.781	5121
839.918	4984
840.055	5083
840.193	5113
840.33	5124
840.467	5117
840.604	5193
840.742	5414
840.879	5079
841.016	5113
841.153	5201
841.29	5391
841.427	5353
841.564	5277
841.701	5376
841.838	5311
841.975	5204
842.112	5250
842.249	5140
842.385	5113
842.522	5357
842.659	5128
842.796	5178
842.933	5178
843.069	5140
843.206	5204
843.343	5296
843.479	5235
843.616	5231
843.752	5045
843.889	5056
844.025	5239
844.162	5022
844.298	5227
844.435	5071
844.571	5075
844.708	5189
844.844	5360
844.98	5364
845.117	5280
845.253	5121
845.389	5117
845.525	5136
845.661	5117
845.798	5041
845.934	5113
846.07	5048
846.206	5204
846.342	5258
846.478	5159
846.614	5045
846.75	4984
846.886	4946
847.022	5128
847.158	5006
847.294	5060
847.429	5121
847.565	5090
847.701	5349
847.837	4862
847.972	4828
848.108	4991
848.244	4953
848.379	4782
848.515	4717
848.65	4736
848.786	4736
848.921	4797
849.057	4870
849.192	4870
849.328	4858
849.463	4877
849.598	4790
849.734	4714
849.869	4748
850.004	4668
850.14	4641
850.275	4634
850.41	4516
850.545	4599
850.68	4615
850.815	4611
850.95	4687
851.085	4835
851.22	4778
851.355	4702
851.49	4626
851.625	4607
851.76	4683
851.895	4546
852.03	4542
852.165	4637
852.299	4710
852.434	4828
852.569	4740
852.703	4805
852.838	4831
852.973	4972
853.107	4991
853.242	4729
853.376	4679
853.511	4554
853.645	4626
853.78	4782
853.914	4721
854.048	4683
854.183	4702
854.317	4725
854.451	4831
854.585	4637
854.72	4630
854.854	4740
854.988	4630
855.122	4675
855.256	4542
855.39	4687
855.524	4774
855.658	4729
855.792	4683
855.926	4748
856.06	4748
856.194	4809
856.327	4725
856.461	4626
856.595	4592
856.729	4653
856.862	4774
856.996	4706
857.13	4748
857.263	4744
857.397	4812
857.53	4645
857.664	4755
857.797	4782
857.931	4805
858.064	4675
858.197	4748
858.331	4641
858.464	4584
858.597	4519
858.731	4653
858.864	4637
858.997	4618
859.13	4664
859.263	4683
859.396	4694
859.529	4577
859.662	4577
859.795	4554
859.928	4653
860.061	4816
860.194	4786
860.327	4580
860.46	4626
860.592	4694
860.725	4725
860.858	4725
860.99	4645
861.123	4535
861.256	4527
861.388	4611
861.521	5318
861.653	4497
861.786	4462
861.918	4474
862.05	4497
862.183	4519
862.315	4618
862.447	4698
862.58	4542
862.712	4379
862.844	4344
862.976	4474
863.108	4470
863.24	4824
863.372	4318
863.504	4489
863.636	4428
863.768	4474
863.9	4432
864.032	4344
864.164	4413
864.296	4432
864.428	4558
864.559	4519
864.691	4554
864.823	4527
864.954	4508
865.086	4527
865.217	4451
865.349	4436
865.48	4504
865.612	4485
865.743	4683
865.875	4489
866.006	4428
866.137	4413
866.269	4470
866.4	4440
866.531	4424
866.662	4402
866.793	4379
866.924	4402
867.055	4493
867.186	4462
867.317	4440
867.448	4405
867.579	4375
867.71	4413
867.841	4367
867.972	4455
868.103	4440
868.233	4474
868.364	4432
868.495	4424
868.625	4660
868.756	4752
868.886	4603
869.017	4603
869.147	4809
869.278	4725
869.408	4717
869.539	4618
869.669	4698
869.799	4656
869.929	4752
870.06	4744
870.19	4976
870.32	4927
870.45	5006
870.58	5029
870.71	5098
870.84	5083
870.97	4968
871.1	4968
871.23	5170
871.36	5124
871.489	5056
871.619	5105
871.749	5067
871.879	5159
872.008	5201
872.138	5033
872.267	4972
872.397	4873
872.526	4835
872.656	4698
872.785	4889
872.915	4984
873.044	5022
873.173	4946
873.303	5014
873.432	4946
873.561	4942
873.69	4854
873.819	4927
873.948	4915
874.077	4771
874.206	4767
874.335	4850
874.464	4938
874.593	5067
874.722	4930
874.851	5109
874.979	5136
875.108	5037
875.237	4889
875.365	4873
875.494	4858
875.623	4942
875.751	4850
875.88	4949
876.008	4953
876.136	5056
876.265	5181
876.393	5311
876.521	5242
876.65	5239
876.778	5147
876.906	5064
877.034	4987
877.162	5033
877.29	5006
877.418	5037
877.546	5071
877.674	5022
877.802	4987
877.93	5010
878.058	4942
878.185	4835
878.313	4923
878.441	4968
878.568	4847
878.696	4919
878.824	4957
878.951	5025
879.079	5117
879.206	5269
879.333	5090
879.461	5045
879.588	4995
879.715	5147
879.842	5273
879.97	5037
880.097	4801
880.224	4797
880.351	4831
880.478	4820
880.605	4854
880.732	4782
880.859	5105
880.986	4881
881.112	4965
881.239	4812
881.366	4698
881.493	4637
881.619	4634
881.746	4637
881.872	4630
881.999	4599
882.125	4691
882.252	4816
882.378	4847
882.505	5022
882.631	4793
882.757	4710
882.883	4752
883.01	4706
883.136	4717
883.262	4675
883.388	4645
883.514	4812
883.64	4908
883.766	4782
883.892	4698
884.018	4748
884.143	4866
884.269	5025
884.395	4653
884.52	4592
884.646	4691
884.772	4554
884.897	4580
885.023	4672
885.148	4793
885.274	4828
885.399	4809
885.524	4702
885.65	4687
885.775	4782
885.9	4694
886.025	4862
886.15	4793
886.275	4744
886.4	4653
886.525	4771
886.65	4668
886.775	4706
886.9	4870
887.025	5041
887.149	4786
887.274	4653
887.399	4588
887.523	4607
887.648	4622
887.773	4641
887.897	4752
888.021	4854
888.146	4702
888.27	4778
888.395	4889
888.519	4801
888.643	4793
888.767	4847
888.891	4691
889.015	4592
889.139	4694
889.263	4641
889.387	4782
889.511	4881
889.635	4805
889.759	4668
889.883	4687
890.006	4729
890.13	4812
890.254	4672
890.377	4687
890.501	4538
890.624	4531
890.748	4656
890.871	4493
890.995	4421
891.118	4356
891.241	4493
891.364	4538
891.488	4653
891.611	4519
891.734	4561
891.857	4588
891.98	4546
892.103	4630
892.226	4607
892.349	4573
892.471	4455
892.594	4558
892.717	4615
892.839	4618
892.962	4596
893.085	4645
893.207	4618
893.33	4481
893.452	4558
893.575	4649
893.697	4550
893.819	4790
893.941	4828
894.064	4759
894.186	4599
894.308	4538
894.43	4721
894.552	4820
894.674	4816
894.796	4546
894.918	4615
895.04	4573
895.161	4702
895.283	4698
895.405	4580
895.526	4679
895.648	4725
895.769	4698
895.891	4729
896.012	4714
896.134	4774
896.255	4641
896.376	4603
896.498	4634
896.619	4664
896.74	4637
896.861	4668
896.982	4930
897.103	5048
897.224	4835
897.345	4714
897.466	4683
897.587	4755
897.708	4900
897.828	4744
897.949	4694
898.07	4554
898.19	4675
898.311	4797
898.431	4668
898.552	4778
898.672	4778
898.792	4812
898.913	4748
899.033	4645
899.153	4500
899.273	4466
899.393	4504
899.513	4497
899.633	4470
899.753	4538
899.873	4466
899.993	4588
900.113	4523
900.232	4603
900.352	4508
900.472	4470
900.591	4383
900.711	4542
900.83	4440
900.95	4645
901.069	4710
901.189	4535
901.308	4383
901.427	4306
901.546	4390
901.665	4497
901.784	4493
901.904	4394
902.023	4333
902.141	4188
902.26	4124
902.379	4322
902.498	4261
902.617	4227
902.735	4341
902.854	4402
902.973	4367
903.091	4192
903.21	4227
903.328	4291
903.446	4276
903.565	4261
903.683	4352
903.801	4295
903.919	4379
904.038	4428
904.156	4325
904.274	4436
904.392	4432
904.51	4432
904.627	4485
904.745	4592
904.863	4656
904.981	4436
905.098	4280
905.216	4379
905.334	4451
905.451	4436
905.569	4413
905.686	4588
905.803	4558
905.921	4428
906.038	4542
906.155	4455
906.272	4363
906.389	4443
906.506	4394
906.623	4371
906.74	4421
906.857	4299
906.974	4367
907.091	4569
907.208	4702
907.324	4649
907.441	4493
907.557	4341
907.674	4356
907.79	4306
907.907	4383
908.023	4481
908.139	4523
908.256	4474
908.372	4497
908.488	4432
908.604	4405
908.72	4341
908.836	4432
908.952	4402
909.068	4409
909.184	4546
909.3	4546
909.415	4573
909.531	4565
909.647	4356
909.762	4318
909.878	4356
909.993	4443
910.108	4379
910.224	4383
910.339	4474
910.454	4398
910.57	4409
910.685	4352
910.8	4668
910.915	4611
911.03	4508
911.145	4318
911.259	4333
911.374	4356
911.489	4287
911.604	4322
911.718	4211
911.833	4192
911.947	4051
912.062	4071
912.176	4204
912.291	4242
912.405	4249
912.519	4474
912.633	4504
912.748	4318
912.862	4295
912.976	4204
913.09	4158
913.204	4173
913.318	4268
913.431	4360
913.545	4363
913.659	4440
913.772	4379
913.886	4242
914	4242
914.113	4360
914.226	4436
914.34	4428
914.453	4188
914.566	4402
914.68	4333
914.793	4371
914.906	4147
915.019	4128
915.132	4093
915.245	4143
915.358	4257
915.47	4234
915.583	4234
915.696	4314
915.809	4428
915.921	4424
916.034	4284
916.146	4246
916.259	4219
916.371	4394
916.483	4386
916.595	4223
916.708	4325
916.82	4337
916.932	4333
917.044	4318
917.156	4379
917.268	4223
917.38	4284
917.491	4272
917.603	4299
917.715	4440
917.826	4432
917.938	4402
918.049	4306
918.161	4424
918.272	4538
918.384	4504
918.495	4440
918.606	4322
918.717	4261
918.828	4337
918.939	4356
919.05	4257
919.161	4367
919.272	4158
919.383	4257
919.494	4462
919.604	4584
919.715	4398
919.826	4371
919.936	4398
920.047	4561
920.157	4466
920.267	4710
920.378	4516
920.488	4485
920.598	4694
920.708	4889
920.818	4778
920.928	4778
921.038	4930
921.148	4911
921.258	4622
921.368	4584
921.477	4508
921.587	4462
921.697	4451
921.806	4550
921.916	4356
922.025	4287
922.134	4272
922.244	4261
922.353	4318
922.462	4143
922.571	4093
922.68	4010
922.789	3975
922.898	4032
923.007	3991
923.116	4090
923.224	4067
923.333	4086
923.442	4006
923.55	3998
923.659	4059
923.767	4135
923.876	4021
923.984	4192
924.092	4006
924.201	4112
924.309	4112
924.417	4112
924.525	4063
924.633	4063
924.741	4873
924.849	3960
924.956	4154
925.064	3960
925.172	3896
925.279	3968
925.387	4059
925.494	4071
925.602	4230
925.709	4185
925.816	4013
925.924	4158
926.031	4215
926.138	4185
926.245	4227
926.352	4105
926.459	4276
926.566	4276
926.673	4150
926.779	4109
926.886	4101
926.993	3964
927.099	4002
927.206	3964
927.312	3937
927.419	4040
927.525	4040
927.631	4101
927.737	3994
927.843	4013
927.95	3873
928.056	3964
928.162	3956
928.267	4048
928.373	4577
928.479	4112
928.585	3861
928.69	4063
928.796	4063
928.901	3960
929.007	3816
929.112	4021
929.218	3972
929.323	3926
929.428	3968
929.533	4112
929.638	3896
929.743	3945
929.848	4036
929.953	4010
930.058	3956
930.163	3781
930.267	3892
930.372	4036
930.477	3774
930.581	4124
930.685	3937
930.79	3831
930.894	3876
930.998	3846
931.103	4059
931.207	3747
931.311	3694
931.415	3713
931.519	3568
931.623	3549
