Data from test_V78500241_1214.txt Node
Date: Fri Mar 25 16:57:26 CST 2022
User: usil
Spectrometer: V785-0024
Trigger mode: 0
Integration Time (sec): 4.000000E-1
Scans to average: 1
Nonlinearity correction enabled: false
Boxcar width: 0
Storing dark spectrum: false
XAxis mode: Wavelengths
Number of Pixels in Spectrum: 1024
>>>>>Begin Spectral Data<<<<<
801.071	8100
801.214	8027
801.356	7936
801.499	7833
801.641	7750
801.783	7776
801.926	7951
802.068	7928
802.211	7955
802.353	7932
802.496	7795
802.638	7852
802.78	7883
802.923	7959
803.065	7902
803.208	7845
803.35	7932
803.492	8001
803.635	8130
803.777	8058
803.919	8176
804.061	8480
804.204	8240
804.346	7993
804.488	7940
804.63	8111
804.773	8008
804.915	8092
805.057	8240
805.199	8130
805.341	8237
805.483	8294
805.626	8161
805.768	8111
805.91	8229
806.052	8183
806.194	8065
806.336	8339
806.478	8088
806.62	8039
806.762	8142
806.904	8259
807.046	8419
807.188	8259
807.33	8259
807.472	8294
807.614	8176
807.756	8123
807.898	7986
808.04	7864
808.182	7860
808.324	7928
808.465	7982
808.607	8115
808.749	8103
808.891	8206
809.033	8252
809.174	8199
809.316	8069
809.458	7978
809.6	8005
809.741	8069
809.883	8020
810.025	8016
810.166	8103
810.308	8088
810.45	8031
810.591	7887
810.733	7727
810.875	7734
811.016	7537
811.158	7544
811.299	7616
811.441	7734
811.582	7674
811.724	7533
811.865	7518
812.007	7563
812.148	7525
812.29	7601
812.431	7700
812.573	7913
812.714	7974
812.855	8123
812.997	8237
813.138	8279
813.279	8164
813.421	8073
813.562	8008
813.703	7826
813.845	7738
813.986	7403
814.127	7221
814.268	7244
814.41	7190
814.551	7141
814.692	7149
814.833	7015
814.974	7103
815.115	7114
815.256	6901
815.397	6897
815.539	6916
815.68	6726
815.821	6772
815.962	6802
816.103	6829
816.244	6722
816.385	6620
816.526	6616
816.666	6452
816.807	6285
816.948	6403
817.089	6452
817.23	6475
817.371	6380
817.512	6414
817.653	6346
817.793	6365
817.934	6308
818.075	6437
818.216	6399
818.356	6391
818.497	6190
818.638	6087
818.778	6133
818.919	6140
819.06	6190
819.2	6327
819.341	6251
819.481	6315
819.622	6517
819.762	6749
819.903	6711
820.043	6559
820.184	6521
820.324	6578
820.465	6677
820.605	6684
820.746	6570
820.886	6513
821.026	6623
821.167	6662
821.307	6768
821.447	6688
821.588	6650
821.728	6544
821.868	6437
822.008	6331
822.149	6311
822.289	6311
822.429	6155
822.569	6068
822.709	6079
822.849	5935
822.99	5878
823.13	5931
823.27	5939
823.41	5767
823.55	5737
823.69	5802
823.83	5805
823.97	5657
824.11	5505
824.25	5474
824.389	5589
824.529	5524
824.669	5528
824.809	5630
824.949	5688
825.089	5577
825.228	5532
825.368	5444
825.508	5349
825.648	5368
825.787	5402
825.927	5383
826.067	5288
826.206	5292
826.346	5299
826.485	5383
826.625	5376
826.765	5520
826.904	5482
827.044	5246
827.183	5227
827.323	5124
827.462	5242
827.601	5136
827.741	5197
827.88	5178
828.02	5079
828.159	5235
828.298	5246
828.437	5296
828.577	5296
828.716	5440
828.855	5288
828.994	5151
829.134	5121
829.273	5143
829.412	5102
829.551	5102
829.69	5181
829.829	5246
829.968	5364
830.107	5223
830.246	5242
830.385	5170
830.524	5086
830.663	5037
830.802	5014
830.941	4908
831.08	4835
831.219	5060
831.357	4934
831.496	5121
831.635	4881
831.774	4816
831.913	4870
832.051	4710
832.19	4733
832.329	4809
832.467	4698
832.606	4634
832.744	4710
832.883	4683
833.022	4710
833.16	4771
833.299	4790
833.437	4809
833.576	4873
833.714	4843
833.852	4843
833.991	4911
834.129	4934
834.267	4938
834.406	4858
834.544	4976
834.682	4942
834.821	4965
834.959	5166
835.097	4991
835.235	5140
835.373	5010
835.511	5071
835.65	4999
835.788	5045
835.926	4843
836.064	4930
836.202	4934
836.34	5170
836.478	5189
836.615	5090
836.753	5193
836.891	5269
837.029	5181
837.167	5189
837.305	5147
837.443	5117
837.58	5075
837.718	5235
837.856	5208
837.993	5086
838.131	5201
838.269	5193
838.406	5185
838.544	5136
838.681	5052
838.819	5014
838.956	4911
839.094	4866
839.231	4965
839.369	5037
839.506	5398
839.643	5185
839.781	5041
839.918	5006
840.055	5147
840.193	5048
840.33	5045
840.467	5117
840.604	5216
840.742	5421
840.879	5094
841.016	5098
841.153	5124
841.29	5341
841.427	5318
841.564	5299
841.701	5326
841.838	5235
841.975	5201
842.112	5277
842.249	5147
842.385	5086
842.522	5334
842.659	5151
842.796	5151
842.933	5201
843.069	5105
843.206	5193
843.343	5250
843.479	5208
843.616	5250
843.752	5003
843.889	4995
844.025	5178
844.162	5010
844.298	5166
844.435	5102
844.571	5041
844.708	5140
844.844	5239
844.98	5277
845.117	5288
845.253	5140
845.389	5083
845.525	5121
845.661	5140
845.798	5060
845.934	5075
846.07	5105
846.206	5147
846.342	5231
846.478	5151
846.614	4999
846.75	4961
846.886	4915
847.022	5117
847.158	5018
847.294	5022
847.429	5071
847.565	5022
847.701	5277
847.837	4809
847.972	4774
848.108	4957
848.244	4881
848.379	4771
848.515	4725
848.65	4645
848.786	4763
848.921	4736
849.057	4812
849.192	4908
849.328	4824
849.463	4835
849.598	4835
849.734	4755
849.869	4653
850.004	4626
850.14	4622
850.275	4653
850.41	4504
850.545	4546
850.68	4565
850.815	4588
850.95	4637
851.085	4790
851.22	4767
851.355	4660
851.49	4615
851.625	4580
851.76	4630
851.895	4542
852.03	4523
852.165	4611
852.299	4698
852.434	4687
852.569	4752
852.703	4706
852.838	4816
852.973	4949
853.107	4877
853.242	4759
853.376	4622
853.511	4542
853.645	4588
853.78	4755
853.914	4683
854.048	4645
854.183	4611
854.317	4656
854.451	4771
854.585	4584
854.72	4645
854.854	4698
854.988	4599
855.122	4641
855.256	4516
855.39	4645
855.524	4759
855.658	4717
855.792	4668
855.926	4725
856.06	4759
856.194	4797
856.327	4672
856.461	4584
856.595	4588
856.729	4577
856.862	4763
856.996	4748
857.13	4714
857.263	4748
857.397	4748
857.53	4592
857.664	4736
857.797	4729
857.931	4763
858.064	4687
858.197	4683
858.331	4668
858.464	4607
858.597	4531
858.731	4573
858.864	4679
858.997	4584
859.13	4656
859.263	4660
859.396	4656
859.529	4512
859.662	4569
859.795	4588
859.928	4641
860.061	4755
860.194	4767
860.327	4615
860.46	4561
860.592	4683
860.725	4664
860.858	4736
860.99	4584
861.123	4550
861.256	4485
861.388	4596
861.521	5246
861.653	4409
861.786	4424
861.918	4459
862.05	4542
862.183	4542
862.315	4603
862.447	4645
862.58	4573
862.712	4424
862.844	4299
862.976	4481
863.108	4432
863.24	4862
863.372	4306
863.504	4375
863.636	4371
863.768	4447
863.9	4428
864.032	4390
864.164	4421
864.296	4432
864.428	4558
864.559	4569
864.691	4519
864.823	4504
864.954	4440
865.086	4489
865.217	4451
865.349	4383
865.48	4470
865.612	4424
865.743	4641
865.875	4459
866.006	4363
866.137	4455
866.269	4398
866.4	4417
866.531	4386
866.662	4424
866.793	4375
866.924	4405
867.055	4470
867.186	4478
867.317	4371
867.448	4360
867.579	4363
867.71	4379
867.841	4344
867.972	4428
868.103	4440
868.233	4394
868.364	4481
868.495	4504
868.625	4702
868.756	4717
868.886	4565
869.017	4599
869.147	4755
869.278	4702
869.408	4656
869.539	4645
869.669	4683
869.799	4630
869.929	4759
870.06	4710
870.19	5010
870.32	4896
870.45	4942
870.58	4911
870.71	5037
870.84	5159
870.97	4873
871.1	4889
871.23	5086
871.36	5109
871.489	4991
871.619	5083
871.749	5067
871.879	5098
872.008	5109
872.138	5037
872.267	4999
872.397	4847
872.526	4778
872.656	4687
872.785	4805
872.915	4965
873.044	5010
873.173	4930
873.303	4938
873.432	4930
873.561	4976
873.69	4850
873.819	4858
873.948	4919
874.077	4885
874.206	4717
874.335	4824
874.464	4934
874.593	5056
874.722	4968
874.851	5075
874.979	5105
875.108	4995
875.237	4919
875.365	4847
875.494	4881
875.623	4972
875.751	4797
875.88	4850
876.008	4946
876.136	5014
876.265	5208
876.393	5311
876.521	5299
876.65	5166
876.778	5155
876.906	5052
877.034	5022
877.162	5056
877.29	4991
877.418	5041
877.546	5014
877.674	5025
877.802	5045
877.93	4995
878.058	4919
878.185	4847
878.313	4908
878.441	4908
878.568	4801
878.696	4850
878.824	4911
878.951	4995
879.079	5143
879.206	5261
879.333	5048
879.461	4976
879.588	5018
879.715	5166
879.842	5208
879.97	4980
880.097	4755
880.224	4683
880.351	4786
880.478	4873
880.605	4771
880.732	4748
880.859	5075
880.986	4885
881.112	4919
881.239	4793
881.366	4653
881.493	4622
881.619	4577
881.746	4664
881.872	4618
881.999	4611
882.125	4698
882.252	4801
882.378	4820
882.505	4957
882.631	4854
882.757	4683
882.883	4736
883.01	4702
883.136	4653
883.262	4618
883.388	4603
883.514	4790
883.64	4835
883.766	4835
883.892	4656
884.018	4736
884.143	4877
884.269	5048
884.395	4630
884.52	4588
884.646	4618
884.772	4546
884.897	4527
885.023	4664
885.148	4786
885.274	4885
885.399	4755
885.524	4759
885.65	4668
885.775	4736
885.9	4694
886.025	4854
886.15	4763
886.275	4664
886.4	4672
886.525	4668
886.65	4714
886.775	4733
886.9	4938
887.025	4987
887.149	4786
887.274	4641
887.399	4599
887.523	4580
887.648	4554
887.773	4580
887.897	4763
888.021	4774
888.146	4691
888.27	4828
888.395	4881
888.519	4782
888.643	4828
888.767	4805
888.891	4683
889.015	4580
889.139	4645
889.263	4584
889.387	4752
889.511	4835
889.635	4786
889.759	4618
889.883	4630
890.006	4714
890.13	4805
890.254	4584
890.377	4641
890.501	4504
890.624	4443
890.748	4626
890.871	4485
890.995	4428
891.118	4375
891.241	4516
891.364	4497
891.488	4649
891.611	4516
891.734	4542
891.857	4546
891.98	4519
892.103	4672
892.226	4535
892.349	4500
892.471	4421
892.594	4573
892.717	4611
892.839	4550
892.962	4645
893.085	4596
893.207	4561
893.33	4447
893.452	4516
893.575	4706
893.697	4554
893.819	4797
893.941	4850
894.064	4801
894.186	4637
894.308	4573
894.43	4725
894.552	4816
894.674	4763
894.796	4558
894.918	4592
895.04	4523
895.161	4687
895.283	4698
895.405	4561
895.526	4637
895.648	4630
895.769	4702
895.891	4691
896.012	4717
896.134	4694
896.255	4622
896.376	4679
896.498	4565
896.619	4683
896.74	4596
896.861	4630
896.982	4915
897.103	5025
897.224	4767
897.345	4786
897.466	4691
897.587	4691
897.708	4877
897.828	4767
897.949	4660
898.07	4592
898.19	4653
898.311	4812
898.431	4653
898.552	4706
898.672	4767
898.792	4793
898.913	4736
899.033	4603
899.153	4554
899.273	4421
899.393	4519
899.513	4478
899.633	4512
899.753	4508
899.873	4542
899.993	4523
900.113	4516
900.232	4584
900.352	4546
900.472	4466
900.591	4394
900.711	4466
900.83	4428
900.95	4649
901.069	4679
901.189	4538
901.308	4375
901.427	4329
901.546	4360
901.665	4451
901.784	4542
901.904	4402
902.023	4310
902.141	4150
902.26	4150
902.379	4284
902.498	4192
902.617	4242
902.735	4386
902.854	4329
902.973	4356
903.091	4227
903.21	4238
903.328	4299
903.446	4234
903.565	4280
903.683	4325
903.801	4238
903.919	4371
904.038	4417
904.156	4322
904.274	4405
904.392	4402
904.51	4455
904.627	4459
904.745	4618
904.863	4603
904.981	4356
905.098	4284
905.216	4390
905.334	4398
905.451	4379
905.569	4436
905.686	4535
905.803	4561
905.921	4432
906.038	4519
906.155	4424
906.272	4398
906.389	4436
906.506	4348
906.623	4383
906.74	4383
906.857	4356
906.974	4333
907.091	4580
907.208	4641
907.324	4630
907.441	4466
907.557	4337
907.674	4344
907.79	4276
907.907	4390
908.023	4500
908.139	4470
908.256	4402
908.372	4478
908.488	4440
908.604	4303
908.72	4268
908.836	4379
908.952	4337
909.068	4402
909.184	4569
909.3	4489
909.415	4538
909.531	4538
909.647	4322
909.762	4360
909.878	4348
909.993	4398
910.108	4432
910.224	4352
910.339	4489
910.454	4394
910.57	4371
910.685	4341
910.8	4618
910.915	4542
911.03	4535
911.145	4371
911.259	4371
911.374	4341
911.489	4325
911.604	4253
911.718	4169
911.833	4211
911.947	4074
912.062	4082
912.176	4169
912.291	4253
912.405	4265
912.519	4493
912.633	4531
912.748	4344
912.862	4337
912.976	4207
913.09	4067
913.204	4166
913.318	4211
913.431	4322
913.545	4360
913.659	4474
913.772	4371
913.886	4246
914	4169
914.113	4421
914.226	4409
914.34	4367
914.453	4185
914.566	4428
914.68	4261
914.793	4306
914.906	4109
915.019	4131
915.132	4051
915.245	4154
915.358	4188
915.47	4238
915.583	4253
915.696	4295
915.809	4405
915.921	4417
916.034	4204
916.146	4261
916.259	4192
916.371	4371
916.483	4363
916.595	4227
916.708	4280
916.82	4333
916.932	4322
917.044	4310
917.156	4310
917.268	4207
917.38	4268
917.491	4284
917.603	4310
917.715	4390
917.826	4424
917.938	4344
918.049	4230
918.161	4379
918.272	4535
918.384	4500
918.495	4417
918.606	4276
918.717	4249
918.828	4348
918.939	4383
919.05	4284
919.161	4306
919.272	4147
919.383	4227
919.494	4440
919.604	4580
919.715	4371
919.826	4276
919.936	4371
920.047	4519
920.157	4451
920.267	4702
920.378	4531
920.488	4466
920.598	4710
920.708	4889
920.818	4706
920.928	4740
921.038	4877
921.148	4946
921.258	4656
921.368	4558
921.477	4451
921.587	4443
921.697	4409
921.806	4542
921.916	4402
922.025	4295
922.134	4272
922.244	4211
922.353	4363
922.462	4177
922.571	4097
922.68	3998
922.789	3953
922.898	3994
923.007	3979
923.116	4109
923.224	4078
923.333	4021
923.442	4013
923.55	3949
923.659	4002
923.767	4128
923.876	3975
923.984	4097
924.092	3964
924.201	4090
924.309	4097
924.417	4105
924.525	4105
924.633	4086
924.741	5018
924.849	3918
924.956	4109
925.064	3930
925.172	3903
925.279	3922
925.387	4059
925.494	4051
925.602	4230
925.709	4173
925.816	4010
925.924	4147
926.031	4253
926.138	4173
926.245	4219
926.352	4112
926.459	4200
926.566	4333
926.673	4150
926.779	4090
926.886	4055
926.993	3979
927.099	3972
927.206	3960
927.312	3945
927.419	4048
927.525	4040
927.631	4067
927.737	3968
927.843	3945
927.95	3793
928.056	3953
928.162	3979
928.267	4051
928.373	4664
928.479	4074
928.585	3819
928.69	4006
928.796	4078
928.901	3960
929.007	3819
929.112	3975
929.218	3941
929.323	3949
929.428	3945
929.533	4097
929.638	3888
929.743	3930
929.848	4051
929.953	4002
930.058	3949
930.163	3781
930.267	3819
930.372	3991
930.477	3789
930.581	4101
930.685	3926
930.79	3827
930.894	3884
930.998	3816
931.103	4055
931.207	3713
931.311	3694
931.415	3637
931.519	3530
931.623	3553
