Data from test_V78500241_2658.txt Node
Date: Fri Mar 25 17:07:29 CST 2022
User: usil
Spectrometer: V785-0024
Trigger mode: 0
Integration Time (sec): 4.000000E-1
Scans to average: 1
Nonlinearity correction enabled: false
Boxcar width: 0
Storing dark spectrum: false
XAxis mode: Wavelengths
Number of Pixels in Spectrum: 1024
>>>>>Begin Spectral Data<<<<<
801.071	8073
801.214	8046
801.356	7860
801.499	7852
801.641	7761
801.783	7780
801.926	7986
802.068	7913
802.211	7997
802.353	8054
802.496	7833
802.638	7917
802.78	7940
802.923	7932
803.065	7868
803.208	7887
803.35	7997
803.492	8195
803.635	8210
803.777	8043
803.919	8130
804.061	8469
804.204	8180
804.346	8043
804.488	8005
804.63	8073
804.773	8027
804.915	8103
805.057	8279
805.199	8157
805.341	8225
805.483	8282
805.626	8225
805.768	8161
805.91	8202
806.052	8214
806.194	8119
806.336	8320
806.478	8073
806.62	8096
806.762	8100
806.904	8202
807.046	8366
807.188	8313
807.33	8328
807.472	8275
807.614	8126
807.756	8142
807.898	8039
808.04	7879
808.182	7868
808.324	7849
808.465	7830
808.607	7997
808.749	8107
808.891	8279
809.033	8339
809.174	8183
809.316	8081
809.458	8054
809.6	8005
809.741	7997
809.883	8065
810.025	8058
810.166	8027
810.308	8077
810.45	7944
810.591	7860
810.733	7746
810.875	7685
811.016	7495
811.158	7457
811.299	7601
811.441	7765
811.582	7689
811.724	7563
811.865	7487
812.007	7578
812.148	7632
812.29	7582
812.431	7700
812.573	7917
812.714	7894
812.855	8088
812.997	8202
813.138	8279
813.279	8153
813.421	8115
813.562	7959
813.703	7871
813.845	7719
813.986	7354
814.127	7244
814.268	7145
814.41	7209
814.551	7126
814.692	7175
814.833	7129
814.974	7160
815.115	7107
815.256	6981
815.397	6954
815.539	6958
815.68	6772
815.821	6741
815.962	6863
816.103	6837
816.244	6749
816.385	6604
816.526	6597
816.666	6490
816.807	6285
816.948	6422
817.089	6467
817.23	6448
817.371	6403
817.512	6388
817.653	6357
817.793	6315
817.934	6456
818.075	6429
818.216	6498
818.356	6418
818.497	6201
818.638	6110
818.778	6144
818.919	6152
819.06	6167
819.2	6334
819.341	6327
819.481	6395
819.622	6513
819.762	6734
819.903	6776
820.043	6631
820.184	6639
820.324	6563
820.465	6738
820.605	6669
820.746	6620
820.886	6486
821.026	6730
821.167	6745
821.307	6829
821.447	6844
821.588	6738
821.728	6570
821.868	6525
822.008	6304
822.149	6403
822.289	6388
822.429	6220
822.569	6144
822.709	6201
822.849	5935
822.99	5954
823.13	5984
823.27	5893
823.41	5889
823.55	5813
823.69	5783
823.83	5844
823.97	5767
824.11	5615
824.25	5581
824.389	5570
824.529	5642
824.669	5600
824.809	5695
824.949	5668
825.089	5657
825.228	5627
825.368	5471
825.508	5349
825.648	5421
825.787	5448
825.927	5414
826.067	5383
826.206	5360
826.346	5429
826.485	5448
826.625	5448
826.765	5554
826.904	5528
827.044	5288
827.183	5181
827.323	5193
827.462	5280
827.601	5216
827.741	5254
827.88	5258
828.02	5140
828.159	5330
828.298	5307
828.437	5387
828.577	5349
828.716	5520
828.855	5402
828.994	5231
829.134	5208
829.273	5235
829.412	5178
829.551	5197
829.69	5193
829.829	5227
829.968	5391
830.107	5315
830.246	5315
830.385	5242
830.524	5151
830.663	5094
830.802	5064
830.941	4896
831.08	4904
831.219	4980
831.357	5006
831.496	5162
831.635	4961
831.774	4900
831.913	4900
832.051	4771
832.19	4763
832.329	4839
832.467	4752
832.606	4714
832.744	4790
832.883	4793
833.022	4717
833.16	4820
833.299	4889
833.437	4934
833.576	4892
833.714	4885
833.852	4858
833.991	4908
834.129	5060
834.267	4942
834.406	4984
834.544	4968
834.682	5037
834.821	5045
834.959	5216
835.097	5041
835.235	5162
835.373	5113
835.511	5140
835.65	5029
835.788	5071
835.926	4904
836.064	4896
836.202	4976
836.34	5197
836.478	5254
836.615	5166
836.753	5223
836.891	5296
837.029	5303
837.167	5208
837.305	5166
837.443	5140
837.58	5098
837.718	5307
837.856	5170
837.993	5197
838.131	5303
838.269	5239
838.406	5246
838.544	5231
838.681	5041
838.819	5086
838.956	4915
839.094	4942
839.231	5033
839.369	5121
839.506	5471
839.643	5318
839.781	5105
839.918	5079
840.055	5109
840.193	5132
840.33	5132
840.467	5147
840.604	5246
840.742	5497
840.879	5124
841.016	5109
841.153	5155
841.29	5398
841.427	5357
841.564	5334
841.701	5410
841.838	5307
841.975	5299
842.112	5303
842.249	5216
842.385	5136
842.522	5376
842.659	5242
842.796	5193
842.933	5220
843.069	5151
843.206	5193
843.343	5299
843.479	5288
843.616	5315
843.752	5056
843.889	5075
844.025	5277
844.162	5052
844.298	5223
844.435	5140
844.571	5067
844.708	5212
844.844	5376
844.98	5383
845.117	5311
845.253	5204
845.389	5102
845.525	5201
845.661	5189
845.798	5079
845.934	5155
846.07	5052
846.206	5288
846.342	5284
846.478	5178
846.614	5006
846.75	4965
846.886	4965
847.022	5170
847.158	5083
847.294	5071
847.429	5045
847.565	5105
847.701	5307
847.837	4877
847.972	4873
848.108	4938
848.244	4961
848.379	4862
848.515	4771
848.65	4774
848.786	4824
848.921	4862
849.057	4934
849.192	4923
849.328	4824
849.463	4831
849.598	4847
849.734	4782
849.869	4717
850.004	4649
850.14	4721
850.275	4641
850.41	4573
850.545	4607
850.68	4611
850.815	4668
850.95	4649
851.085	4850
851.22	4744
851.355	4694
851.49	4656
851.625	4687
851.76	4634
851.895	4592
852.03	4554
852.165	4656
852.299	4702
852.434	4809
852.569	4809
852.703	4786
852.838	4866
852.973	4930
853.107	4976
853.242	4736
853.376	4668
853.511	4596
853.645	4630
853.78	4824
853.914	4714
854.048	4672
854.183	4653
854.317	4740
854.451	4885
854.585	4725
854.72	4615
854.854	4778
854.988	4630
855.122	4675
855.256	4527
855.39	4672
855.524	4831
855.658	4763
855.792	4744
855.926	4782
856.06	4759
856.194	4896
856.327	4710
856.461	4641
856.595	4641
856.729	4656
856.862	4786
856.996	4733
857.13	4736
857.263	4816
857.397	4805
857.53	4672
857.664	4736
857.797	4755
857.931	4801
858.064	4729
858.197	4820
858.331	4664
858.464	4653
858.597	4554
858.731	4653
858.864	4668
858.997	4637
859.13	4645
859.263	4672
859.396	4729
859.529	4603
859.662	4584
859.795	4599
859.928	4603
860.061	4824
860.194	4835
860.327	4618
860.46	4626
860.592	4736
860.725	4733
860.858	4698
860.99	4592
861.123	4550
861.256	4546
861.388	4664
861.521	5440
861.653	4535
861.786	4466
861.918	4504
862.05	4516
862.183	4573
862.315	4645
862.447	4672
862.58	4565
862.712	4428
862.844	4348
862.976	4508
863.108	4504
863.24	4790
863.372	4398
863.504	4455
863.636	4455
863.768	4508
863.9	4493
864.032	4322
864.164	4459
864.296	4504
864.428	4580
864.559	4599
864.691	4592
864.823	4554
864.954	4504
865.086	4550
865.217	4538
865.349	4474
865.48	4527
865.612	4527
865.743	4653
865.875	4485
866.006	4478
866.137	4462
866.269	4421
866.4	4508
866.531	4436
866.662	4390
866.793	4459
866.924	4432
867.055	4554
867.186	4466
867.317	4459
867.448	4405
867.579	4371
867.71	4413
867.841	4424
867.972	4497
868.103	4447
868.233	4459
868.364	4485
868.495	4485
868.625	4668
868.756	4790
868.886	4584
869.017	4641
869.147	4763
869.278	4786
869.408	4672
869.539	4626
869.669	4744
869.799	4672
869.929	4790
870.06	4748
870.19	4938
870.32	4923
870.45	4934
870.58	5041
870.71	5166
870.84	5117
870.97	4984
871.1	4904
871.23	5189
871.36	5181
871.489	5075
871.619	5102
871.749	5109
871.879	5159
872.008	5227
872.138	5102
872.267	4995
872.397	4942
872.526	4839
872.656	4740
872.785	4816
872.915	4995
873.044	5094
873.173	4938
873.303	4995
873.432	4999
873.561	4968
873.69	4881
873.819	4927
873.948	4938
874.077	4877
874.206	4740
874.335	4835
874.464	4968
874.593	5071
874.722	4984
874.851	5113
874.979	5090
875.108	5071
875.237	4949
875.365	4915
875.494	4919
875.623	5010
875.751	4870
875.88	4892
876.008	4999
876.136	5056
876.265	5231
876.393	5337
876.521	5261
876.65	5273
876.778	5181
876.906	5090
877.034	4980
877.162	5048
877.29	5014
877.418	5064
877.546	5022
877.674	5090
877.802	5025
877.93	5045
878.058	4976
878.185	4938
878.313	5029
878.441	4961
878.568	4862
878.696	4889
878.824	4968
878.951	5014
879.079	5143
879.206	5315
879.333	5178
879.461	5010
879.588	5018
879.715	5140
879.842	5284
879.97	5003
880.097	4801
880.224	4801
880.351	4812
880.478	4870
880.605	4812
880.732	4801
880.859	5128
880.986	4908
881.112	4965
881.239	4801
881.366	4714
881.493	4626
881.619	4554
881.746	4637
881.872	4668
881.999	4691
882.125	4710
882.252	4797
882.378	4873
882.505	4968
882.631	4831
882.757	4694
882.883	4694
883.01	4729
883.136	4694
883.262	4603
883.388	4626
883.514	4805
883.64	4873
883.766	4831
883.892	4641
884.018	4721
884.143	4938
884.269	5033
884.395	4717
884.52	4683
884.646	4645
884.772	4607
884.897	4573
885.023	4672
885.148	4801
885.274	4881
885.399	4843
885.524	4759
885.65	4698
885.775	4763
885.9	4771
886.025	4885
886.15	4797
886.275	4702
886.4	4618
886.525	4706
886.65	4736
886.775	4710
886.9	4961
887.025	5067
887.149	4809
887.274	4710
887.399	4603
887.523	4626
887.648	4588
887.773	4603
887.897	4736
888.021	4778
888.146	4706
888.27	4839
888.395	4892
888.519	4824
888.643	4812
888.767	4835
888.891	4641
889.015	4626
889.139	4634
889.263	4649
889.387	4786
889.511	4862
889.635	4809
889.759	4672
889.883	4637
890.006	4721
890.13	4881
890.254	4679
890.377	4714
890.501	4588
890.624	4584
890.748	4637
890.871	4535
890.995	4462
891.118	4436
891.241	4554
891.364	4569
891.488	4698
891.611	4500
891.734	4558
891.857	4649
891.98	4603
892.103	4706
892.226	4626
892.349	4542
892.471	4485
892.594	4554
892.717	4622
892.839	4565
892.962	4577
893.085	4668
893.207	4630
893.33	4493
893.452	4573
893.575	4721
893.697	4618
893.819	4774
893.941	4828
894.064	4820
894.186	4603
894.308	4550
894.43	4748
894.552	4809
894.674	4778
894.796	4550
894.918	4588
895.04	4584
895.161	4702
895.283	4675
895.405	4599
895.526	4656
895.648	4725
895.769	4717
895.891	4767
896.012	4736
896.134	4759
896.255	4679
896.376	4584
896.498	4618
896.619	4702
896.74	4630
896.861	4664
896.982	4915
897.103	5109
897.224	4850
897.345	4733
897.466	4698
897.587	4744
897.708	4896
897.828	4782
897.949	4736
898.07	4527
898.19	4626
898.311	4831
898.431	4672
898.552	4706
898.672	4824
898.792	4774
898.913	4725
899.033	4660
899.153	4516
899.273	4398
899.393	4474
899.513	4523
899.633	4561
899.753	4580
899.873	4546
899.993	4626
900.113	4527
900.232	4596
900.352	4500
900.472	4485
900.591	4398
900.711	4527
900.83	4459
900.95	4656
901.069	4679
901.189	4542
901.308	4375
901.427	4352
901.546	4394
901.665	4489
901.784	4519
901.904	4375
902.023	4352
902.141	4188
902.26	4131
902.379	4303
902.498	4291
902.617	4204
902.735	4325
902.854	4398
902.973	4379
903.091	4238
903.21	4249
903.328	4322
903.446	4249
903.565	4284
903.683	4360
903.801	4261
903.919	4398
904.038	4421
904.156	4287
904.274	4386
904.392	4386
904.51	4455
904.627	4455
904.745	4561
904.863	4641
904.981	4379
905.098	4303
905.216	4371
905.334	4432
905.451	4443
905.569	4459
905.686	4523
905.803	4596
905.921	4421
906.038	4538
906.155	4459
906.272	4417
906.389	4489
906.506	4348
906.623	4405
906.74	4394
906.857	4284
906.974	4436
907.091	4531
907.208	4675
907.324	4558
907.441	4500
907.557	4360
907.674	4333
907.79	4363
907.907	4371
908.023	4504
908.139	4493
908.256	4440
908.372	4500
908.488	4443
908.604	4363
908.72	4352
908.836	4398
908.952	4402
909.068	4424
909.184	4588
909.3	4462
909.415	4626
909.531	4573
909.647	4386
909.762	4413
909.878	4348
909.993	4405
910.108	4436
910.224	4421
910.339	4519
910.454	4462
910.57	4363
910.685	4322
910.8	4672
910.915	4622
911.03	4470
911.145	4344
911.259	4325
911.374	4367
911.489	4276
911.604	4276
911.718	4150
911.833	4219
911.947	4116
912.062	4036
912.176	4249
912.291	4284
912.405	4242
912.519	4489
912.633	4546
912.748	4333
912.862	4325
912.976	4230
913.09	4109
913.204	4181
913.318	4234
913.431	4363
913.545	4341
913.659	4432
913.772	4409
913.886	4261
914	4234
914.113	4363
914.226	4436
914.34	4383
914.453	4257
914.566	4424
914.68	4325
914.793	4341
914.906	4139
915.019	4120
915.132	4036
915.245	4196
915.358	4257
915.47	4238
915.583	4261
915.696	4310
915.809	4375
915.921	4421
916.034	4238
916.146	4249
916.259	4242
916.371	4379
916.483	4352
916.595	4265
916.708	4325
916.82	4333
916.932	4356
917.044	4356
917.156	4337
917.268	4200
917.38	4299
917.491	4261
917.603	4390
917.715	4436
917.826	4462
917.938	4322
918.049	4219
918.161	4402
918.272	4535
918.384	4561
918.495	4421
918.606	4325
918.717	4207
918.828	4367
918.939	4356
919.05	4261
919.161	4341
919.272	4158
919.383	4204
919.494	4447
919.604	4645
919.715	4417
919.826	4440
919.936	4428
920.047	4542
920.157	4462
920.267	4698
920.378	4580
920.488	4531
920.598	4725
920.708	4900
920.818	4748
920.928	4740
921.038	4938
921.148	4915
921.258	4622
921.368	4554
921.477	4500
921.587	4424
921.697	4383
921.806	4519
921.916	4413
922.025	4295
922.134	4295
922.244	4272
922.353	4318
922.462	4227
922.571	4143
922.68	4036
922.789	3994
922.898	4048
923.007	3960
923.116	4169
923.224	4055
923.333	4013
923.442	4002
923.55	4017
923.659	4025
923.767	4086
923.876	3987
923.984	4124
924.092	3975
924.201	4135
924.309	4071
924.417	4078
924.525	4090
924.633	4128
924.741	5064
924.849	3922
924.956	4158
925.064	3964
925.172	3907
925.279	3934
925.387	4067
925.494	4078
925.602	4246
925.709	4150
925.816	4021
925.924	4154
926.031	4234
926.138	4211
926.245	4192
926.352	4090
926.459	4246
926.566	4329
926.673	4192
926.779	4112
926.886	4063
926.993	3979
927.099	4029
927.206	3922
927.312	3941
927.419	4074
927.525	4051
927.631	4090
927.737	3953
927.843	3953
927.95	3823
928.056	3994
928.162	3994
928.267	4048
928.373	4569
928.479	4112
928.585	3854
928.69	3994
928.796	4097
928.901	3949
929.007	3865
929.112	3956
929.218	3983
929.323	3941
929.428	3953
929.533	4090
929.638	3937
929.743	3983
929.848	4051
929.953	3960
930.058	3945
930.163	3789
930.267	3835
930.372	4010
930.477	3812
930.581	4059
930.685	3896
930.79	3835
930.894	3915
930.998	3873
931.103	4048
931.207	3732
931.311	3656
931.415	3675
931.519	3530
931.623	3564
