Data from test_V78500241_624.txt Node
Date: Fri Mar 25 16:53:20 CST 2022
User: usil
Spectrometer: V785-0024
Trigger mode: 0
Integration Time (sec): 4.000000E-1
Scans to average: 1
Nonlinearity correction enabled: false
Boxcar width: 0
Storing dark spectrum: false
XAxis mode: Wavelengths
Number of Pixels in Spectrum: 1024
>>>>>Begin Spectral Data<<<<<
801.071	8012
801.214	7967
801.356	7906
801.499	7837
801.641	7818
801.783	7856
801.926	8012
802.068	7959
802.211	7997
802.353	8050
802.496	7906
802.638	7913
802.78	7963
802.923	7951
803.065	7784
803.208	7879
803.35	7955
803.492	8054
803.635	8065
803.777	7970
803.919	8103
804.061	8381
804.204	8115
804.346	8027
804.488	7928
804.63	8062
804.773	7940
804.915	8073
805.057	8313
805.199	8111
805.341	8256
805.483	8237
805.626	8259
805.768	8100
805.91	8164
806.052	8237
806.194	8081
806.336	8298
806.478	8024
806.62	8058
806.762	8161
806.904	8271
807.046	8381
807.188	8389
807.33	8202
807.472	8328
807.614	8180
807.756	8096
807.898	7967
808.04	7822
808.182	7879
808.324	7906
808.465	7936
808.607	8039
808.749	8123
808.891	8244
809.033	8256
809.174	8157
809.316	8027
809.458	8016
809.6	7887
809.741	7951
809.883	8046
810.025	8149
810.166	8062
810.308	7974
810.45	8020
810.591	7856
810.733	7719
810.875	7696
811.016	7552
811.158	7483
811.299	7616
811.441	7723
811.582	7681
811.724	7480
811.865	7529
812.007	7525
812.148	7552
812.29	7639
812.431	7738
812.573	7837
812.714	7940
812.855	8126
812.997	8210
813.138	8248
813.279	8145
813.421	8206
813.562	7978
813.703	7902
813.845	7784
813.986	7495
814.127	7308
814.268	7244
814.41	7129
814.551	7107
814.692	7103
814.833	7038
814.974	7156
815.115	7095
815.256	6951
815.397	6935
815.539	6951
815.68	6821
815.821	6776
815.962	6920
816.103	6760
816.244	6684
816.385	6604
816.526	6559
816.666	6521
816.807	6232
816.948	6410
817.089	6456
817.23	6429
817.371	6365
817.512	6342
817.653	6384
817.793	6289
817.934	6441
818.075	6426
818.216	6376
818.356	6422
818.497	6239
818.638	6125
818.778	6117
818.919	6133
819.06	6079
819.2	6350
819.341	6331
819.481	6308
819.622	6574
819.762	6703
819.903	6726
820.043	6589
820.184	6551
820.324	6506
820.465	6635
820.605	6639
820.746	6578
820.886	6467
821.026	6642
821.167	6665
821.307	6749
821.447	6779
821.588	6620
821.728	6536
821.868	6433
822.008	6319
822.149	6289
822.289	6292
822.429	6171
822.569	6030
822.709	6079
822.849	5870
822.99	5855
823.13	5897
823.27	5923
823.41	5745
823.55	5813
823.69	5729
823.83	5760
823.97	5665
824.11	5509
824.25	5490
824.389	5551
824.529	5520
824.669	5528
824.809	5585
824.949	5688
825.089	5680
825.228	5547
825.368	5429
825.508	5307
825.648	5318
825.787	5360
825.927	5379
826.067	5258
826.206	5258
826.346	5368
826.485	5383
826.625	5421
826.765	5497
826.904	5433
827.044	5261
827.183	5181
827.323	5151
827.462	5250
827.601	5136
827.741	5159
827.88	5235
828.02	5102
828.159	5212
828.298	5341
828.437	5307
828.577	5265
828.716	5459
828.855	5334
828.994	5155
829.134	5155
829.273	5181
829.412	5132
829.551	5090
829.69	5136
829.829	5235
829.968	5353
830.107	5227
830.246	5220
830.385	5113
830.524	5124
830.663	5105
830.802	5003
830.941	4858
831.08	4908
831.219	4987
831.357	4953
831.496	5185
831.635	4953
831.774	4809
831.913	4809
832.051	4748
832.19	4748
832.329	4793
832.467	4694
832.606	4622
832.744	4706
832.883	4683
833.022	4710
833.16	4767
833.299	4812
833.437	4828
833.576	4812
833.714	4854
833.852	4858
833.991	4858
834.129	4930
834.267	4949
834.406	4892
834.544	4972
834.682	4934
834.821	4930
834.959	5109
835.097	5006
835.235	5132
835.373	5056
835.511	5060
835.65	4968
835.788	5029
835.926	4873
836.064	4790
836.202	4889
836.34	5170
836.478	5261
836.615	5143
836.753	5227
836.891	5288
837.029	5284
837.167	5204
837.305	5166
837.443	5143
837.58	5052
837.718	5246
837.856	5174
837.993	5204
838.131	5250
838.269	5174
838.406	5162
838.544	5185
838.681	5067
838.819	5071
838.956	4949
839.094	4858
839.231	5010
839.369	5105
839.506	5486
839.643	5284
839.781	5128
839.918	5029
840.055	5105
840.193	5090
840.33	5174
840.467	5151
840.604	5201
840.742	5467
840.879	5121
841.016	5102
841.153	5235
841.29	5398
841.427	5368
841.564	5299
841.701	5425
841.838	5284
841.975	5189
842.112	5303
842.249	5174
842.385	5071
842.522	5349
842.659	5223
842.796	5193
842.933	5223
843.069	5162
843.206	5197
843.343	5417
843.479	5265
843.616	5261
843.752	5075
843.889	5041
844.025	5220
844.162	5010
844.298	5269
844.435	5109
844.571	5098
844.708	5231
844.844	5284
844.98	5379
845.117	5372
845.253	5231
845.389	5090
845.525	5174
845.661	5212
845.798	5086
845.934	5170
846.07	5056
846.206	5201
846.342	5334
846.478	5223
846.614	5052
846.75	5067
846.886	4984
847.022	5143
847.158	5098
847.294	5140
847.429	5151
847.565	5121
847.701	5303
847.837	4877
847.972	4862
848.108	4961
848.244	5010
848.379	4793
848.515	4729
848.65	4752
848.786	4801
848.921	4774
849.057	4889
849.192	4927
849.328	4824
849.463	4911
849.598	4782
849.734	4793
849.869	4733
850.004	4672
850.14	4729
850.275	4664
850.41	4558
850.545	4577
850.68	4599
850.815	4664
850.95	4660
851.085	4889
851.22	4790
851.355	4660
851.49	4710
851.625	4679
851.76	4687
851.895	4603
852.03	4580
852.165	4672
852.299	4736
852.434	4831
852.569	4748
852.703	4774
852.838	4866
852.973	4934
853.107	4942
853.242	4748
853.376	4588
853.511	4565
853.645	4694
853.78	4805
853.914	4664
854.048	4729
854.183	4653
854.317	4706
854.451	4862
854.585	4702
854.72	4675
854.854	4805
854.988	4611
855.122	4706
855.256	4565
855.39	4691
855.524	4858
855.658	4736
855.792	4752
855.926	4717
856.06	4812
856.194	4835
856.327	4729
856.461	4656
856.595	4660
856.729	4698
856.862	4786
856.996	4759
857.13	4717
857.263	4812
857.397	4839
857.53	4618
857.664	4752
857.797	4801
857.931	4812
858.064	4729
858.197	4763
858.331	4687
858.464	4672
858.597	4573
858.731	4675
858.864	4675
858.997	4622
859.13	4675
859.263	4714
859.396	4717
859.529	4622
859.662	4626
859.795	4561
859.928	4687
860.061	4824
860.194	4744
860.327	4596
860.46	4626
860.592	4729
860.725	4774
860.858	4736
860.99	4622
861.123	4577
861.256	4542
861.388	4664
861.521	5357
861.653	4447
861.786	4481
861.918	4497
862.05	4519
862.183	4538
862.315	4626
862.447	4717
862.58	4634
862.712	4413
862.844	4421
862.976	4508
863.108	4497
863.24	4949
863.372	4371
863.504	4428
863.636	4462
863.768	4493
863.9	4451
864.032	4379
864.164	4459
864.296	4531
864.428	4554
864.559	4580
864.691	4531
864.823	4580
864.954	4508
865.086	4558
865.217	4485
865.349	4443
865.48	4485
865.612	4497
865.743	4622
865.875	4527
866.006	4478
866.137	4497
866.269	4459
866.4	4447
866.531	4409
866.662	4436
866.793	4413
866.924	4470
867.055	4519
867.186	4516
867.317	4432
867.448	4390
867.579	4375
867.71	4402
867.841	4440
867.972	4500
868.103	4527
868.233	4516
868.364	4493
868.495	4504
868.625	4706
868.756	4812
868.886	4546
869.017	4679
869.147	4778
869.278	4790
869.408	4664
869.539	4618
869.669	4721
869.799	4725
869.929	4771
870.06	4752
870.19	4934
870.32	4976
870.45	4984
870.58	5025
870.71	5102
870.84	5162
870.97	4961
871.1	4923
871.23	5174
871.36	5117
871.489	5041
871.619	5098
871.749	5121
871.879	5174
872.008	5197
872.138	5113
872.267	5014
872.397	4881
872.526	4839
872.656	4717
872.785	4831
872.915	4968
873.044	5083
873.173	4953
873.303	4999
873.432	4987
873.561	4991
873.69	4824
873.819	4870
873.948	4923
874.077	4816
874.206	4759
874.335	4828
874.464	4908
874.593	5075
874.722	4942
874.851	5166
874.979	5083
875.108	5071
875.237	4938
875.365	4908
875.494	4892
875.623	5010
875.751	4858
875.88	4961
876.008	4972
876.136	5083
876.265	5204
876.393	5357
876.521	5246
876.65	5269
876.778	5193
876.906	5071
877.034	5075
877.162	4999
877.29	5033
877.418	5094
877.546	5056
877.674	5060
877.802	5071
877.93	5086
878.058	4919
878.185	4885
878.313	5041
878.441	4987
878.568	4820
878.696	4881
878.824	4984
878.951	5041
879.079	5159
879.206	5307
879.333	5086
879.461	5010
879.588	4991
879.715	5143
879.842	5273
879.97	5006
880.097	4831
880.224	4767
880.351	4835
880.478	4835
880.605	4805
880.732	4797
880.859	5086
880.986	4930
881.112	4923
881.239	4797
881.366	4664
881.493	4542
881.619	4588
881.746	4702
881.872	4630
881.999	4653
882.125	4702
882.252	4736
882.378	4854
882.505	4991
882.631	4835
882.757	4691
882.883	4763
883.01	4725
883.136	4668
883.262	4630
883.388	4630
883.514	4885
883.64	4904
883.766	4843
883.892	4694
884.018	4752
884.143	4892
884.269	5056
884.395	4679
884.52	4649
884.646	4637
884.772	4554
884.897	4596
885.023	4664
885.148	4828
885.274	4904
885.399	4805
885.524	4767
885.65	4702
885.775	4771
885.9	4714
886.025	4908
886.15	4782
886.275	4755
886.4	4660
886.525	4820
886.65	4698
886.775	4710
886.9	4953
887.025	5086
887.149	4828
887.274	4622
887.399	4603
887.523	4630
887.648	4599
887.773	4615
887.897	4782
888.021	4854
888.146	4679
888.27	4774
888.395	4942
888.519	4786
888.643	4858
888.767	4847
888.891	4725
889.015	4622
889.139	4687
889.263	4656
889.387	4797
889.511	4877
889.635	4824
889.759	4630
889.883	4653
890.006	4767
890.13	4854
890.254	4630
890.377	4744
890.501	4577
890.624	4523
890.748	4664
890.871	4512
890.995	4455
891.118	4421
891.241	4546
891.364	4565
891.488	4645
891.611	4535
891.734	4538
891.857	4603
891.98	4565
892.103	4702
892.226	4630
892.349	4497
892.471	4428
892.594	4611
892.717	4656
892.839	4599
892.962	4618
893.085	4679
893.207	4611
893.33	4523
893.452	4584
893.575	4637
893.697	4596
893.819	4797
893.941	4877
894.064	4790
894.186	4630
894.308	4607
894.43	4729
894.552	4896
894.674	4820
894.796	4580
894.918	4584
895.04	4573
895.161	4717
895.283	4691
895.405	4603
895.526	4668
895.648	4755
895.769	4691
895.891	4736
896.012	4805
896.134	4729
896.255	4702
896.376	4660
896.498	4641
896.619	4721
896.74	4653
896.861	4653
896.982	4972
897.103	5067
897.224	4847
897.345	4744
897.466	4744
897.587	4710
897.708	4873
897.828	4809
897.949	4664
898.07	4577
898.19	4675
898.311	4801
898.431	4717
898.552	4771
898.672	4820
898.792	4858
898.913	4706
899.033	4645
899.153	4497
899.273	4447
899.393	4580
899.513	4558
899.633	4535
899.753	4577
899.873	4527
899.993	4603
900.113	4577
900.232	4599
900.352	4569
900.472	4489
900.591	4409
900.711	4512
900.83	4489
900.95	4615
901.069	4706
901.189	4573
901.308	4417
901.427	4360
901.546	4390
901.665	4462
901.784	4584
901.904	4386
902.023	4348
902.141	4261
902.26	4207
902.379	4306
902.498	4249
902.617	4246
902.735	4352
902.854	4390
902.973	4348
903.091	4215
903.21	4253
903.328	4337
903.446	4306
903.565	4242
903.683	4322
903.801	4272
903.919	4390
904.038	4417
904.156	4310
904.274	4489
904.392	4398
904.51	4409
904.627	4497
904.745	4596
904.863	4653
904.981	4432
905.098	4363
905.216	4375
905.334	4485
905.451	4424
905.569	4466
905.686	4611
905.803	4569
905.921	4421
906.038	4577
906.155	4474
906.272	4409
906.389	4455
906.506	4341
906.623	4348
906.74	4417
906.857	4310
906.974	4390
907.091	4573
907.208	4656
907.324	4592
907.441	4523
907.557	4383
907.674	4383
907.79	4280
907.907	4413
908.023	4519
908.139	4459
908.256	4405
908.372	4466
908.488	4470
908.604	4367
908.72	4337
908.836	4356
908.952	4432
909.068	4451
909.184	4634
909.3	4500
909.415	4546
909.531	4554
909.647	4390
909.762	4360
909.878	4375
909.993	4432
910.108	4417
910.224	4405
910.339	4493
910.454	4405
910.57	4390
910.685	4341
910.8	4649
910.915	4588
911.03	4565
911.145	4352
911.259	4344
911.374	4402
911.489	4341
911.604	4268
911.718	4169
911.833	4219
911.947	4078
912.062	4071
912.176	4234
912.291	4219
912.405	4276
912.519	4466
912.633	4504
912.748	4371
912.862	4329
912.976	4227
913.09	4112
913.204	4223
913.318	4306
913.431	4375
913.545	4424
913.659	4424
913.772	4337
913.886	4272
914	4200
914.113	4363
914.226	4478
914.34	4428
914.453	4276
914.566	4428
914.68	4329
914.793	4348
914.906	4150
915.019	4166
915.132	4139
915.245	4177
915.358	4280
915.47	4280
915.583	4268
915.696	4306
915.809	4421
915.921	4474
916.034	4234
916.146	4310
916.259	4223
916.371	4379
916.483	4386
916.595	4295
916.708	4306
916.82	4341
916.932	4360
917.044	4303
917.156	4318
917.268	4276
917.38	4325
917.491	4272
917.603	4310
917.715	4474
917.826	4390
917.938	4383
918.049	4268
918.161	4375
918.272	4607
918.384	4523
918.495	4466
918.606	4295
918.717	4265
918.828	4352
918.939	4428
919.05	4257
919.161	4314
919.272	4188
919.383	4272
919.494	4451
919.604	4679
919.715	4432
919.826	4306
919.936	4421
920.047	4580
920.157	4500
920.267	4694
920.378	4538
920.488	4512
920.598	4721
920.708	4885
920.818	4790
920.928	4748
921.038	4976
921.148	4953
921.258	4649
921.368	4565
921.477	4527
921.587	4459
921.697	4375
921.806	4584
921.916	4390
922.025	4253
922.134	4253
922.244	4219
922.353	4318
922.462	4120
922.571	4158
922.68	4002
922.789	3968
922.898	4059
923.007	3968
923.116	4143
923.224	4048
923.333	4082
923.442	3991
923.55	3983
923.659	4040
923.767	4139
923.876	3945
923.984	4112
924.092	3998
924.201	4078
924.309	4120
924.417	4116
924.525	4086
924.633	4086
924.741	5083
924.849	3972
924.956	4139
925.064	3937
925.172	3941
925.279	3987
925.387	4082
925.494	4074
925.602	4230
925.709	4143
925.816	4067
925.924	4192
926.031	4207
926.138	4181
926.245	4204
926.352	4067
926.459	4246
926.566	4287
926.673	4200
926.779	4071
926.886	4063
926.993	3983
927.099	3953
927.206	3926
927.312	3949
927.419	4051
927.525	4036
927.631	4112
927.737	3941
927.843	3941
927.95	3838
928.056	3945
928.162	4010
928.267	4032
928.373	4702
928.479	4097
928.585	3915
928.69	4048
928.796	4074
928.901	3956
929.007	3838
929.112	4025
929.218	4002
929.323	3953
929.428	3930
929.533	4105
929.638	3884
929.743	3972
929.848	4025
929.953	4002
930.058	3888
930.163	3774
930.267	3838
930.372	3979
930.477	3781
930.581	4086
930.685	3953
930.79	3854
930.894	3880
930.998	3842
931.103	4055
931.207	3701
931.311	3728
931.415	3679
931.519	3515
931.623	3572
