Data from test_V78500241_1365.txt Node
Date: Fri Mar 25 16:58:29 CST 2022
User: usil
Spectrometer: V785-0024
Trigger mode: 0
Integration Time (sec): 4.000000E-1
Scans to average: 1
Nonlinearity correction enabled: false
Boxcar width: 0
Storing dark spectrum: false
XAxis mode: Wavelengths
Number of Pixels in Spectrum: 1024
>>>>>Begin Spectral Data<<<<<
801.071	8043
801.214	8024
801.356	7902
801.499	7852
801.641	7845
801.783	7856
801.926	7936
802.068	8001
802.211	7989
802.353	7970
802.496	7868
802.638	7871
802.78	8001
802.923	7955
803.065	7921
803.208	7875
803.35	7955
803.492	8050
803.635	8252
803.777	8039
803.919	8218
804.061	8438
804.204	8130
804.346	8016
804.488	8001
804.63	8092
804.773	8054
804.915	8142
805.057	8271
805.199	8138
805.341	8233
805.483	8248
805.626	8168
805.768	8107
805.91	8214
806.052	8206
806.194	8142
806.336	8294
806.478	8020
806.62	8092
806.762	8168
806.904	8282
807.046	8549
807.188	8332
807.33	8370
807.472	8328
807.614	8145
807.756	8119
807.898	8012
808.04	7909
808.182	7871
808.324	7902
808.465	7970
808.607	8107
808.749	8134
808.891	8191
809.033	8332
809.174	8210
809.316	8111
809.458	8001
809.6	8039
809.741	7989
809.883	8035
810.025	8065
810.166	8050
810.308	7997
810.45	8005
810.591	7868
810.733	7734
810.875	7685
811.016	7483
811.158	7514
811.299	7658
811.441	7708
811.582	7670
811.724	7605
811.865	7521
812.007	7609
812.148	7567
812.29	7651
812.431	7765
812.573	7879
812.714	7989
812.855	8126
812.997	8191
813.138	8328
813.279	8199
813.421	8062
813.562	8024
813.703	7826
813.845	7788
813.986	7457
814.127	7312
814.268	7228
814.41	7266
814.551	7164
814.692	7187
814.833	7061
814.974	7114
815.115	7099
815.256	6909
815.397	6951
815.539	6970
815.68	6833
815.821	6722
815.962	6897
816.103	6837
816.244	6707
816.385	6688
816.526	6612
816.666	6471
816.807	6247
816.948	6456
817.089	6460
817.23	6418
817.371	6369
817.512	6433
817.653	6414
817.793	6334
817.934	6452
818.075	6441
818.216	6403
818.356	6399
818.497	6308
818.638	6098
818.778	6171
818.919	6125
819.06	6159
819.2	6304
819.341	6334
819.481	6323
819.622	6540
819.762	6703
819.903	6753
820.043	6597
820.184	6509
820.324	6540
820.465	6745
820.605	6681
820.746	6662
820.886	6506
821.026	6646
821.167	6734
821.307	6810
821.447	6783
821.588	6627
821.728	6528
821.868	6498
822.008	6289
822.149	6369
822.289	6395
822.429	6125
822.569	6079
822.709	6140
822.849	5931
822.99	5885
823.13	5939
823.27	5935
823.41	5752
823.55	5794
823.69	5767
823.83	5733
823.97	5684
824.11	5497
824.25	5512
824.389	5547
824.529	5524
824.669	5543
824.809	5646
824.949	5668
825.089	5577
825.228	5543
825.368	5364
825.508	5330
825.648	5322
825.787	5417
825.927	5292
826.067	5242
826.206	5277
826.346	5398
826.485	5364
826.625	5398
826.765	5501
826.904	5471
827.044	5223
827.183	5242
827.323	5124
827.462	5246
827.601	5174
827.741	5185
827.88	5227
828.02	5105
828.159	5246
828.298	5318
828.437	5387
828.577	5223
828.716	5482
828.855	5318
828.994	5185
829.134	5151
829.273	5181
829.412	5128
829.551	5132
829.69	5159
829.829	5223
829.968	5353
830.107	5311
830.246	5265
830.385	5143
830.524	5117
830.663	5147
830.802	4965
830.941	4911
831.08	4862
831.219	4980
831.357	5018
831.496	5208
831.635	4942
831.774	4904
831.913	4873
832.051	4790
832.19	4847
832.329	4828
832.467	4706
832.606	4626
832.744	4687
832.883	4744
833.022	4672
833.16	4748
833.299	4824
833.437	4835
833.576	4847
833.714	4896
833.852	4801
833.991	4915
834.129	4980
834.267	4900
834.406	4915
834.544	4946
834.682	5010
834.821	4946
834.959	5128
835.097	4980
835.235	5132
835.373	5117
835.511	5117
835.65	5075
835.788	5018
835.926	4877
836.064	4892
836.202	4896
836.34	5162
836.478	5231
836.615	5132
836.753	5201
836.891	5258
837.029	5242
837.167	5193
837.305	5143
837.443	5178
837.58	5136
837.718	5254
837.856	5174
837.993	5151
838.131	5242
838.269	5223
838.406	5212
838.544	5204
838.681	5056
838.819	5010
838.956	5010
839.094	4858
839.231	4968
839.369	5090
839.506	5421
839.643	5273
839.781	5102
839.918	4984
840.055	5064
840.193	5094
840.33	5113
840.467	5117
840.604	5201
840.742	5440
840.879	5045
841.016	5105
841.153	5151
841.29	5368
841.427	5318
841.564	5330
841.701	5311
841.838	5235
841.975	5197
842.112	5288
842.249	5124
842.385	5159
842.522	5303
842.659	5162
842.796	5185
842.933	5208
843.069	5136
843.206	5143
843.343	5296
843.479	5265
843.616	5242
843.752	5018
843.889	5033
844.025	5208
844.162	4968
844.298	5254
844.435	5083
844.571	5071
844.708	5242
844.844	5299
844.98	5353
845.117	5273
845.253	5132
845.389	5056
845.525	5181
845.661	5159
845.798	5006
845.934	5155
846.07	5052
846.206	5185
846.342	5299
846.478	5208
846.614	4995
846.75	4987
846.886	4923
847.022	5117
847.158	5060
847.294	5105
847.429	5052
847.565	5064
847.701	5284
847.837	4843
847.972	4816
848.108	4862
848.244	4892
848.379	4755
848.515	4721
848.65	4710
848.786	4748
848.921	4740
849.057	4858
849.192	4835
849.328	4824
849.463	4831
849.598	4790
849.734	4721
849.869	4660
850.004	4611
850.14	4706
850.275	4599
850.41	4508
850.545	4527
850.68	4596
850.815	4611
850.95	4611
851.085	4774
851.22	4752
851.355	4668
851.49	4653
851.625	4615
851.76	4626
851.895	4504
852.03	4519
852.165	4660
852.299	4733
852.434	4782
852.569	4755
852.703	4744
852.838	4797
852.973	4896
853.107	4927
853.242	4698
853.376	4714
853.511	4527
853.645	4596
853.78	4763
853.914	4668
854.048	4683
854.183	4611
854.317	4694
854.451	4847
854.585	4702
854.72	4679
854.854	4759
854.988	4599
855.122	4618
855.256	4527
855.39	4649
855.524	4812
855.658	4721
855.792	4641
855.926	4736
856.06	4755
856.194	4755
856.327	4675
856.461	4558
856.595	4599
856.729	4588
856.862	4736
856.996	4691
857.13	4763
857.263	4763
857.397	4793
857.53	4634
857.664	4748
857.797	4717
857.931	4767
858.064	4683
858.197	4759
858.331	4679
858.464	4584
858.597	4519
858.731	4580
858.864	4634
858.997	4626
859.13	4634
859.263	4611
859.396	4668
859.529	4550
859.662	4569
859.795	4516
859.928	4656
860.061	4710
860.194	4763
860.327	4588
860.46	4599
860.592	4679
860.725	4687
860.858	4748
860.99	4535
861.123	4527
861.256	4493
861.388	4573
861.521	5307
861.653	4470
861.786	4478
861.918	4451
862.05	4512
862.183	4603
862.315	4611
862.447	4675
862.58	4546
862.712	4394
862.844	4329
862.976	4413
863.108	4470
863.24	4904
863.372	4363
863.504	4428
863.636	4421
863.768	4436
863.9	4409
864.032	4421
864.164	4360
864.296	4474
864.428	4516
864.559	4508
864.691	4485
864.823	4538
864.954	4474
865.086	4542
865.217	4470
865.349	4455
865.48	4462
865.612	4504
865.743	4577
865.875	4447
866.006	4405
866.137	4470
866.269	4455
866.4	4344
866.531	4409
866.662	4417
866.793	4405
866.924	4428
867.055	4493
867.186	4432
867.317	4386
867.448	4299
867.579	4405
867.71	4379
867.841	4337
867.972	4493
868.103	4474
868.233	4459
868.364	4459
868.495	4478
868.625	4679
868.756	4763
868.886	4607
869.017	4630
869.147	4740
869.278	4809
869.408	4645
869.539	4588
869.669	4683
869.799	4656
869.929	4744
870.06	4744
870.19	4938
870.32	4889
870.45	4961
870.58	5022
870.71	5090
870.84	5117
870.97	4942
871.1	4858
871.23	5178
871.36	5083
871.489	4961
871.619	5079
871.749	5109
871.879	5102
872.008	5181
872.138	4999
872.267	4949
872.397	4850
872.526	4767
872.656	4694
872.785	4801
872.915	4908
873.044	5075
873.173	4919
873.303	4896
873.432	4923
873.561	4972
873.69	4858
873.819	4877
873.948	4881
874.077	4793
874.206	4706
874.335	4790
874.464	4927
874.593	5048
874.722	4946
874.851	5041
874.979	5037
875.108	4991
875.237	4896
875.365	4858
875.494	4870
875.623	4923
875.751	4831
875.88	4831
876.008	4930
876.136	4995
876.265	5143
876.393	5360
876.521	5254
876.65	5140
876.778	5181
876.906	5067
877.034	5037
877.162	5025
877.29	4995
877.418	5083
877.546	5041
877.674	5056
877.802	5003
877.93	4987
878.058	4938
878.185	4873
878.313	4938
878.441	4953
878.568	4790
878.696	4858
878.824	4991
878.951	4999
879.079	5064
879.206	5341
879.333	5060
879.461	4980
879.588	5025
879.715	5079
879.842	5151
879.97	4984
880.097	4786
880.224	4744
880.351	4778
880.478	4820
880.605	4755
880.732	4786
880.859	5048
880.986	4904
881.112	4866
881.239	4793
881.366	4660
881.493	4615
881.619	4577
881.746	4637
881.872	4611
881.999	4679
882.125	4672
882.252	4774
882.378	4824
882.505	4911
882.631	4793
882.757	4626
882.883	4729
883.01	4706
883.136	4683
883.262	4577
883.388	4660
883.514	4816
883.64	4892
883.766	4793
883.892	4675
884.018	4710
884.143	4850
884.269	5010
884.395	4672
884.52	4618
884.646	4660
884.772	4569
884.897	4569
885.023	4618
885.148	4778
885.274	4896
885.399	4763
885.524	4694
885.65	4668
885.775	4706
885.9	4714
886.025	4835
886.15	4831
886.275	4733
886.4	4660
886.525	4698
886.65	4649
886.775	4672
886.9	4892
887.025	5064
887.149	4771
887.274	4596
887.399	4565
887.523	4596
887.648	4554
887.773	4611
887.897	4736
888.021	4782
888.146	4634
888.27	4763
888.395	4847
888.519	4771
888.643	4812
888.767	4824
888.891	4656
889.015	4611
889.139	4618
889.263	4554
889.387	4759
889.511	4793
889.635	4793
889.759	4603
889.883	4634
890.006	4714
890.13	4847
890.254	4611
890.377	4672
890.501	4573
890.624	4489
890.748	4656
890.871	4504
890.995	4443
891.118	4402
891.241	4535
891.364	4546
891.488	4630
891.611	4451
891.734	4535
891.857	4569
891.98	4531
892.103	4603
892.226	4618
892.349	4538
892.471	4398
892.594	4554
892.717	4569
892.839	4561
892.962	4626
893.085	4656
893.207	4603
893.33	4466
893.452	4550
893.575	4675
893.697	4535
893.819	4763
893.941	4862
894.064	4790
894.186	4523
894.308	4546
894.43	4702
894.552	4759
894.674	4767
894.796	4493
894.918	4538
895.04	4542
895.161	4683
895.283	4679
895.405	4538
895.526	4615
895.648	4702
895.769	4752
895.891	4698
896.012	4691
896.134	4691
896.255	4675
896.376	4565
896.498	4588
896.619	4641
896.74	4577
896.861	4641
896.982	4881
897.103	5098
897.224	4850
897.345	4717
897.466	4649
897.587	4698
897.708	4831
897.828	4744
897.949	4615
898.07	4558
898.19	4660
898.311	4839
898.431	4668
898.552	4717
898.672	4755
898.792	4809
898.913	4710
899.033	4634
899.153	4500
899.273	4409
899.393	4459
899.513	4497
899.633	4508
899.753	4500
899.873	4508
899.993	4535
900.113	4527
900.232	4573
900.352	4531
900.472	4504
900.591	4367
900.711	4459
900.83	4390
900.95	4611
901.069	4611
901.189	4519
901.308	4325
901.427	4268
901.546	4360
901.665	4466
901.784	4500
901.904	4383
902.023	4344
902.141	4177
902.26	4177
902.379	4360
902.498	4219
902.617	4246
902.735	4363
902.854	4402
902.973	4386
903.091	4215
903.21	4211
903.328	4268
903.446	4280
903.565	4276
903.683	4322
903.801	4284
903.919	4390
904.038	4375
904.156	4306
904.274	4432
904.392	4356
904.51	4413
904.627	4440
904.745	4580
904.863	4664
904.981	4379
905.098	4337
905.216	4344
905.334	4413
905.451	4432
905.569	4432
905.686	4538
905.803	4565
905.921	4367
906.038	4569
906.155	4474
906.272	4390
906.389	4478
906.506	4356
906.623	4348
906.74	4367
906.857	4265
906.974	4356
907.091	4561
907.208	4691
907.324	4584
907.441	4512
907.557	4360
907.674	4318
907.79	4287
907.907	4394
908.023	4512
908.139	4481
908.256	4402
908.372	4440
908.488	4386
908.604	4333
908.72	4295
908.836	4386
908.952	4325
909.068	4443
909.184	4565
909.3	4481
909.415	4561
909.531	4519
909.647	4322
909.762	4398
909.878	4325
909.993	4409
910.108	4402
910.224	4398
910.339	4447
910.454	4394
910.57	4337
910.685	4314
910.8	4672
910.915	4596
911.03	4485
911.145	4272
911.259	4363
911.374	4363
911.489	4253
911.604	4268
911.718	4185
911.833	4143
911.947	4040
912.062	4040
912.176	4223
912.291	4234
912.405	4234
912.519	4455
912.633	4512
912.748	4314
912.862	4261
912.976	4177
913.09	4044
913.204	4169
913.318	4211
913.431	4371
913.545	4322
913.659	4424
913.772	4367
913.886	4219
914	4181
914.113	4337
914.226	4440
914.34	4383
914.453	4261
914.566	4413
914.68	4356
914.793	4322
914.906	4200
915.019	4097
915.132	4112
915.245	4185
915.358	4204
915.47	4215
915.583	4227
915.696	4287
915.809	4432
915.921	4421
916.034	4207
916.146	4265
916.259	4188
916.371	4341
916.483	4348
916.595	4238
916.708	4348
916.82	4322
916.932	4329
917.044	4287
917.156	4295
917.268	4246
917.38	4257
917.491	4272
917.603	4325
917.715	4440
917.826	4440
917.938	4390
918.049	4234
918.161	4402
918.272	4542
918.384	4546
918.495	4451
918.606	4291
918.717	4223
918.828	4306
918.939	4348
919.05	4238
919.161	4322
919.272	4169
919.383	4234
919.494	4462
919.604	4622
919.715	4451
919.826	4348
919.936	4356
920.047	4523
920.157	4474
920.267	4672
920.378	4504
920.488	4538
920.598	4729
920.708	4915
920.818	4759
920.928	4714
921.038	4953
921.148	4946
921.258	4634
921.368	4603
921.477	4485
921.587	4462
921.697	4386
921.806	4512
921.916	4428
922.025	4291
922.134	4265
922.244	4219
922.353	4348
922.462	4162
922.571	4131
922.68	3998
922.789	4006
922.898	4044
923.007	3991
923.116	4086
923.224	4063
923.333	4025
923.442	4032
923.55	3972
923.659	4021
923.767	4097
923.876	3987
923.984	4093
924.092	3972
924.201	4109
924.309	4071
924.417	4150
924.525	4116
924.633	4147
924.741	4980
924.849	3918
924.956	4093
925.064	3979
925.172	3854
925.279	3991
925.387	4048
925.494	4051
925.602	4188
925.709	4162
925.816	4071
925.924	4120
926.031	4177
926.138	4169
926.245	4215
926.352	4059
926.459	4272
926.566	4272
926.673	4166
926.779	4029
926.886	4120
926.993	3949
927.099	3941
927.206	3926
927.312	3968
927.419	4048
927.525	3991
927.631	4048
927.737	3937
927.843	3968
927.95	3846
928.056	3956
928.162	4013
928.267	4044
928.373	4641
928.479	4116
928.585	3857
928.69	4006
928.796	4063
928.901	3960
929.007	3854
929.112	3983
929.218	4013
929.323	3968
929.428	3937
929.533	4135
929.638	3880
929.743	3987
929.848	4017
929.953	4010
930.058	3953
930.163	3808
930.267	3819
930.372	3956
930.477	3831
930.581	4090
930.685	3918
930.79	3819
930.894	3899
930.998	3846
931.103	4044
931.207	3709
931.311	3705
931.415	3652
931.519	3526
931.623	3564
