Data from test_V78500241_2142.txt Node
Date: Fri Mar 25 17:03:53 CST 2022
User: usil
Spectrometer: V785-0024
Trigger mode: 0
Integration Time (sec): 4.000000E-1
Scans to average: 1
Nonlinearity correction enabled: false
Boxcar width: 0
Storing dark spectrum: false
XAxis mode: Wavelengths
Number of Pixels in Spectrum: 1024
>>>>>Begin Spectral Data<<<<<
801.071	8005
801.214	7921
801.356	7925
801.499	7879
801.641	7784
801.783	7856
801.926	8005
802.068	7925
802.211	8008
802.353	7963
802.496	7868
802.638	7822
802.78	7868
802.923	7902
803.065	7841
803.208	7818
803.35	8016
803.492	8069
803.635	8138
803.777	8001
803.919	8111
804.061	8434
804.204	8199
804.346	8012
804.488	7963
804.63	8107
804.773	8024
804.915	8092
805.057	8313
805.199	8126
805.341	8214
805.483	8240
805.626	8218
805.768	8157
805.91	8126
806.052	8252
806.194	8096
806.336	8267
806.478	8084
806.62	8054
806.762	8183
806.904	8256
807.046	8446
807.188	8366
807.33	8202
807.472	8282
807.614	8149
807.756	8149
807.898	8035
808.04	7849
808.182	7944
808.324	7898
808.465	7947
808.607	8092
808.749	8130
808.891	8225
809.033	8259
809.174	8214
809.316	8100
809.458	8039
809.6	8043
809.741	8012
809.883	8043
810.025	8008
810.166	8016
810.308	8039
810.45	7932
810.591	7860
810.733	7719
810.875	7681
811.016	7544
811.158	7422
811.299	7578
811.441	7719
811.582	7643
811.724	7582
811.865	7529
812.007	7578
812.148	7575
812.29	7594
812.431	7704
812.573	7883
812.714	7993
812.855	8142
812.997	8161
813.138	8313
813.279	8168
813.421	8043
813.562	7944
813.703	7788
813.845	7734
813.986	7441
814.127	7259
814.268	7202
814.41	7171
814.551	7213
814.692	7213
814.833	7133
814.974	7091
815.115	7095
815.256	6966
815.397	6909
815.539	6924
815.68	6814
815.821	6738
815.962	6821
816.103	6795
816.244	6711
816.385	6597
816.526	6635
816.666	6517
816.807	6372
816.948	6369
817.089	6433
817.23	6448
817.371	6334
817.512	6365
817.653	6388
817.793	6357
817.934	6452
818.075	6429
818.216	6429
818.356	6467
818.497	6266
818.638	6106
818.778	6171
818.919	6159
819.06	6197
819.2	6350
819.341	6342
819.481	6327
819.622	6528
819.762	6692
819.903	6658
820.043	6578
820.184	6540
820.324	6566
820.465	6696
820.605	6627
820.746	6620
820.886	6574
821.026	6642
821.167	6722
821.307	6783
821.447	6810
821.588	6757
821.728	6570
821.868	6475
822.008	6346
822.149	6300
822.289	6342
822.429	6117
822.569	6091
822.709	6106
822.849	5939
822.99	5878
823.13	5912
823.27	5916
823.41	5809
823.55	5779
823.69	5794
823.83	5779
823.97	5642
824.11	5539
824.25	5509
824.389	5520
824.529	5539
824.669	5528
824.809	5630
824.949	5634
825.089	5611
825.228	5554
825.368	5395
825.508	5277
825.648	5334
825.787	5364
825.927	5414
826.067	5311
826.206	5299
826.346	5360
826.485	5436
826.625	5444
826.765	5585
826.904	5505
827.044	5269
827.183	5181
827.323	5166
827.462	5235
827.601	5159
827.741	5231
827.88	5174
828.02	5121
828.159	5261
828.298	5296
828.437	5326
828.577	5299
828.716	5509
828.855	5326
828.994	5143
829.134	5083
829.273	5193
829.412	5136
829.551	5113
829.69	5124
829.829	5277
829.968	5334
830.107	5303
830.246	5239
830.385	5185
830.524	5113
830.663	5025
830.802	4972
830.941	4889
831.08	4847
831.219	4930
831.357	4991
831.496	5159
831.635	4885
831.774	4812
831.913	4774
832.051	4759
832.19	4782
832.329	4820
832.467	4645
832.606	4653
832.744	4771
832.883	4733
833.022	4702
833.16	4790
833.299	4805
833.437	4805
833.576	4801
833.714	4839
833.852	4877
833.991	4892
834.129	4930
834.267	4953
834.406	4919
834.544	4957
834.682	4938
834.821	4938
834.959	5117
835.097	4999
835.235	5159
835.373	5113
835.511	5105
835.65	5071
835.788	5010
835.926	4896
836.064	4877
836.202	4946
836.34	5136
836.478	5269
836.615	5037
836.753	5178
836.891	5284
837.029	5231
837.167	5170
837.305	5178
837.443	5166
837.58	5071
837.718	5277
837.856	5159
837.993	5086
838.131	5250
838.269	5181
838.406	5189
838.544	5193
838.681	5037
838.819	4976
838.956	4881
839.094	4854
839.231	4972
839.369	5064
839.506	5440
839.643	5277
839.781	5086
839.918	4976
840.055	5090
840.193	5060
840.33	5121
840.467	5121
840.604	5178
840.742	5425
840.879	5113
841.016	5052
841.153	5109
841.29	5334
841.427	5322
841.564	5273
841.701	5330
841.838	5284
841.975	5189
842.112	5258
842.249	5170
842.385	5075
842.522	5303
842.659	5193
842.796	5170
842.933	5155
843.069	5109
843.206	5140
843.343	5303
843.479	5216
843.616	5261
843.752	5029
843.889	5033
844.025	5208
844.162	5033
844.298	5250
844.435	5045
844.571	5060
844.708	5166
844.844	5345
844.98	5318
845.117	5246
845.253	5140
845.389	5083
845.525	5185
845.661	5124
845.798	5041
845.934	5147
846.07	5033
846.206	5166
846.342	5258
846.478	5181
846.614	5025
846.75	4923
846.886	4900
847.022	5117
847.158	4976
847.294	5064
847.429	5124
847.565	5056
847.701	5296
847.837	4850
847.972	4797
848.108	4911
848.244	4900
848.379	4771
848.515	4717
848.65	4714
848.786	4736
848.921	4778
849.057	4889
849.192	4870
849.328	4828
849.463	4801
849.598	4771
849.734	4729
849.869	4672
850.004	4641
850.14	4660
850.275	4569
850.41	4527
850.545	4584
850.68	4596
850.815	4630
850.95	4649
851.085	4854
851.22	4733
851.355	4637
851.49	4611
851.625	4664
851.76	4622
851.895	4599
852.03	4516
852.165	4687
852.299	4714
852.434	4782
852.569	4694
852.703	4809
852.838	4828
852.973	4965
853.107	4953
853.242	4721
853.376	4649
853.511	4561
853.645	4637
853.78	4778
853.914	4664
854.048	4649
854.183	4679
854.317	4725
854.451	4889
854.585	4649
854.72	4637
854.854	4736
854.988	4599
855.122	4634
855.256	4542
855.39	4702
855.524	4801
855.658	4694
855.792	4740
855.926	4691
856.06	4714
856.194	4797
856.327	4637
856.461	4592
856.595	4611
856.729	4649
856.862	4752
856.996	4717
857.13	4740
857.263	4774
857.397	4797
857.53	4649
857.664	4717
857.797	4767
857.931	4778
858.064	4664
858.197	4744
858.331	4656
858.464	4599
858.597	4565
858.731	4611
858.864	4599
858.997	4607
859.13	4664
859.263	4664
859.396	4714
859.529	4580
859.662	4565
859.795	4455
859.928	4599
860.061	4755
860.194	4740
860.327	4630
860.46	4573
860.592	4687
860.725	4694
860.858	4679
860.99	4599
861.123	4527
861.256	4523
861.388	4630
861.521	5452
861.653	4455
861.786	4481
861.918	4489
862.05	4508
862.183	4538
862.315	4592
862.447	4634
862.58	4535
862.712	4402
862.844	4314
862.976	4470
863.108	4451
863.24	4740
863.372	4360
863.504	4451
863.636	4405
863.768	4440
863.9	4383
864.032	4375
864.164	4432
864.296	4481
864.428	4569
864.559	4584
864.691	4493
864.823	4519
864.954	4508
865.086	4481
865.217	4428
865.349	4367
865.48	4424
865.612	4462
865.743	4615
865.875	4459
866.006	4413
866.137	4440
866.269	4440
866.4	4417
866.531	4432
866.662	4383
866.793	4386
866.924	4405
867.055	4470
867.186	4417
867.317	4402
867.448	4363
867.579	4409
867.71	4436
867.841	4386
867.972	4428
868.103	4428
868.233	4413
868.364	4432
868.495	4512
868.625	4592
868.756	4698
868.886	4535
869.017	4592
869.147	4755
869.278	4774
869.408	4668
869.539	4653
869.669	4683
869.799	4599
869.929	4767
870.06	4698
870.19	4965
870.32	4953
870.45	4908
870.58	4987
870.71	5090
870.84	5060
870.97	4949
871.1	4908
871.23	5155
871.36	5105
871.489	5060
871.619	5094
871.749	5086
871.879	5113
872.008	5174
872.138	5025
872.267	4976
872.397	4866
872.526	4797
872.656	4786
872.785	4778
872.915	4923
873.044	5064
873.173	4938
873.303	5025
873.432	4999
873.561	4957
873.69	4870
873.819	4854
873.948	4896
874.077	4858
874.206	4736
874.335	4839
874.464	4904
874.593	5060
874.722	4972
874.851	5094
874.979	5105
875.108	5003
875.237	4911
875.365	4870
875.494	4927
875.623	5029
875.751	4870
875.88	4866
876.008	4938
876.136	5029
876.265	5204
876.393	5277
876.521	5284
876.65	5223
876.778	5220
876.906	5083
877.034	4968
877.162	4999
877.29	4957
877.418	5041
877.546	5018
877.674	5018
877.802	4957
877.93	4953
878.058	4946
878.185	4873
878.313	4930
878.441	4953
878.568	4828
878.696	4820
878.824	4991
878.951	4984
879.079	5094
879.206	5246
879.333	5071
879.461	4972
879.588	4999
879.715	5117
879.842	5220
879.97	4984
880.097	4744
880.224	4721
880.351	4828
880.478	4809
880.605	4774
880.732	4828
880.859	5045
880.986	4965
881.112	4870
881.239	4748
881.366	4656
881.493	4615
881.619	4569
881.746	4664
881.872	4660
881.999	4634
882.125	4710
882.252	4793
882.378	4854
882.505	4961
882.631	4736
882.757	4630
882.883	4725
883.01	4725
883.136	4649
883.262	4634
883.388	4596
883.514	4816
883.64	4847
883.766	4763
883.892	4645
884.018	4782
884.143	4877
884.269	5010
884.395	4653
884.52	4611
884.646	4618
884.772	4565
884.897	4554
885.023	4656
885.148	4793
885.274	4828
885.399	4858
885.524	4672
885.65	4702
885.775	4736
885.9	4668
886.025	4843
886.15	4771
886.275	4683
886.4	4675
886.525	4683
886.65	4698
886.775	4679
886.9	4881
887.025	5018
887.149	4744
887.274	4634
887.399	4596
887.523	4630
887.648	4596
887.773	4577
887.897	4748
888.021	4778
888.146	4683
888.27	4774
888.395	4877
888.519	4805
888.643	4786
888.767	4831
888.891	4733
889.015	4611
889.139	4641
889.263	4634
889.387	4771
889.511	4824
889.635	4771
889.759	4603
889.883	4649
890.006	4736
890.13	4797
890.254	4630
890.377	4694
890.501	4531
890.624	4516
890.748	4622
890.871	4497
890.995	4409
891.118	4398
891.241	4478
891.364	4588
891.488	4615
891.611	4535
891.734	4512
891.857	4603
891.98	4542
892.103	4641
892.226	4607
892.349	4538
892.471	4417
892.594	4519
892.717	4615
892.839	4508
892.962	4550
893.085	4592
893.207	4618
893.33	4462
893.452	4535
893.575	4706
893.697	4584
893.819	4790
893.941	4809
894.064	4759
894.186	4542
894.308	4592
894.43	4675
894.552	4801
894.674	4782
894.796	4531
894.918	4558
895.04	4580
895.161	4710
895.283	4634
895.405	4577
895.526	4618
895.648	4668
895.769	4664
895.891	4675
896.012	4691
896.134	4714
896.255	4634
896.376	4615
896.498	4645
896.619	4664
896.74	4603
896.861	4656
896.982	4961
897.103	5056
897.224	4801
897.345	4740
897.466	4653
897.587	4763
897.708	4850
897.828	4778
897.949	4702
898.07	4573
898.19	4672
898.311	4801
898.431	4653
898.552	4752
898.672	4835
898.792	4839
898.913	4729
899.033	4615
899.153	4527
899.273	4459
899.393	4516
899.513	4554
899.633	4493
899.753	4573
899.873	4516
899.993	4626
900.113	4542
900.232	4611
900.352	4588
900.472	4455
900.591	4417
900.711	4554
900.83	4462
900.95	4641
901.069	4721
901.189	4550
901.308	4432
901.427	4360
901.546	4413
901.665	4459
901.784	4565
901.904	4409
902.023	4322
902.141	4246
902.26	4177
902.379	4356
902.498	4261
902.617	4242
902.735	4398
902.854	4451
902.973	4440
903.091	4230
903.21	4265
903.328	4344
903.446	4253
903.565	4341
903.683	4363
903.801	4333
903.919	4436
904.038	4508
904.156	4386
904.274	4508
904.392	4386
904.51	4459
904.627	4504
904.745	4596
904.863	4664
904.981	4421
905.098	4409
905.216	4405
905.334	4455
905.451	4462
905.569	4459
905.686	4558
905.803	4615
905.921	4527
906.038	4611
906.155	4527
906.272	4489
906.389	4508
906.506	4398
906.623	4417
906.74	4421
906.857	4310
906.974	4383
907.091	4569
907.208	4683
907.324	4596
907.441	4542
907.557	4386
907.674	4360
907.79	4375
907.907	4383
908.023	4527
908.139	4519
908.256	4485
908.372	4523
908.488	4462
908.604	4398
908.72	4371
908.836	4455
908.952	4371
909.068	4497
909.184	4630
909.3	4519
909.415	4603
909.531	4653
909.647	4413
909.762	4383
909.878	4371
909.993	4459
910.108	4459
910.224	4474
910.339	4527
910.454	4470
910.57	4379
910.685	4322
910.8	4694
910.915	4668
911.03	4493
911.145	4363
911.259	4356
911.374	4421
911.489	4325
911.604	4322
911.718	4207
911.833	4204
911.947	4090
912.062	4059
912.176	4230
912.291	4246
912.405	4268
912.519	4481
912.633	4531
912.748	4386
912.862	4337
912.976	4253
913.09	4116
913.204	4162
913.318	4314
913.431	4390
913.545	4417
913.659	4478
913.772	4352
913.886	4325
914	4261
914.113	4375
914.226	4462
914.34	4402
914.453	4280
914.566	4428
914.68	4265
914.793	4356
914.906	4188
915.019	4192
915.132	4101
915.245	4249
915.358	4230
915.47	4272
915.583	4306
915.696	4291
915.809	4447
915.921	4421
916.034	4322
916.146	4280
916.259	4253
916.371	4352
916.483	4409
916.595	4284
916.708	4367
916.82	4398
916.932	4329
917.044	4352
917.156	4367
917.268	4287
917.38	4337
917.491	4299
917.603	4322
917.715	4459
917.826	4489
917.938	4402
918.049	4272
918.161	4459
918.272	4607
918.384	4542
918.495	4497
918.606	4348
918.717	4268
918.828	4337
918.939	4390
919.05	4303
919.161	4329
919.272	4169
919.383	4230
919.494	4466
919.604	4641
919.715	4455
919.826	4398
919.936	4481
920.047	4550
920.157	4569
920.267	4740
920.378	4558
920.488	4493
920.598	4763
920.708	4934
920.818	4782
920.928	4790
921.038	4953
921.148	4911
921.258	4660
921.368	4599
921.477	4500
921.587	4459
921.697	4390
921.806	4561
921.916	4481
922.025	4287
922.134	4367
922.244	4261
922.353	4386
922.462	4200
922.571	4200
922.68	4032
922.789	3991
922.898	4063
923.007	4013
923.116	4112
923.224	4116
923.333	4101
923.442	4063
923.55	4029
923.659	4071
923.767	4131
923.876	4017
923.984	4158
924.092	3949
924.201	4082
924.309	4128
924.417	4131
924.525	4105
924.633	4135
924.741	5102
924.849	3972
924.956	4204
925.064	3987
925.172	3907
925.279	3964
925.387	4124
925.494	4029
925.602	4227
925.709	4204
925.816	4078
925.924	4188
926.031	4215
926.138	4219
926.245	4238
926.352	4116
926.459	4280
926.566	4295
926.673	4204
926.779	4124
926.886	4116
926.993	4017
927.099	4002
927.206	3956
927.312	3960
927.419	4090
927.525	4063
927.631	4101
927.737	3991
927.843	3972
927.95	3823
928.056	3975
928.162	4010
928.267	4071
928.373	4725
928.479	4166
928.585	3926
928.69	4044
928.796	4128
928.901	4044
929.007	3854
929.112	4006
929.218	3956
929.323	3979
929.428	4002
929.533	4139
929.638	3964
929.743	3994
929.848	4051
929.953	4036
930.058	3949
930.163	3789
930.267	3842
930.372	3983
930.477	3827
930.581	4112
930.685	3991
930.79	3857
930.894	3918
930.998	3865
931.103	4059
931.207	3728
931.311	3705
931.415	3663
931.519	3523
931.623	3576
