Data from test_V78500241_1199.txt Node
Date: Fri Mar 25 16:57:20 CST 2022
User: usil
Spectrometer: V785-0024
Trigger mode: 0
Integration Time (sec): 4.000000E-1
Scans to average: 1
Nonlinearity correction enabled: false
Boxcar width: 0
Storing dark spectrum: false
XAxis mode: Wavelengths
Number of Pixels in Spectrum: 1024
>>>>>Begin Spectral Data<<<<<
801.071	7959
801.214	7986
801.356	7864
801.499	7811
801.641	7761
801.783	7883
801.926	7940
802.068	7917
802.211	7959
802.353	7932
802.496	7841
802.638	7803
802.78	7913
802.923	7936
803.065	7890
803.208	7913
803.35	7940
803.492	8100
803.635	8107
803.777	8035
803.919	8119
804.061	8450
804.204	8157
804.346	7974
804.488	7917
804.63	8096
804.773	8020
804.915	8130
805.057	8263
805.199	8180
805.341	8332
805.483	8290
805.626	8157
805.768	8100
805.91	8172
806.052	8183
806.194	8115
806.336	8237
806.478	8077
806.62	7989
806.762	8157
806.904	8294
807.046	8450
807.188	8324
807.33	8225
807.472	8301
807.614	8145
807.756	8119
807.898	7989
808.04	7868
808.182	7887
808.324	7833
808.465	7928
808.607	8065
808.749	8107
808.891	8225
809.033	8279
809.174	8210
809.316	8001
809.458	8001
809.6	7925
809.741	8035
809.883	8039
810.025	8107
810.166	8035
810.308	7997
810.45	7989
810.591	7871
810.733	7776
810.875	7681
811.016	7506
811.158	7514
811.299	7597
811.441	7719
811.582	7712
811.724	7586
811.865	7468
812.007	7594
812.148	7571
812.29	7605
812.431	7696
812.573	7921
812.714	7978
812.855	8084
812.997	8176
813.138	8358
813.279	8164
813.421	8126
813.562	7925
813.703	7845
813.845	7765
813.986	7422
814.127	7247
814.268	7251
814.41	7156
814.551	7168
814.692	7137
814.833	7069
814.974	7065
815.115	7129
815.256	6966
815.397	6901
815.539	6913
815.68	6810
815.821	6779
815.962	6818
816.103	6810
816.244	6795
816.385	6654
816.526	6597
816.666	6437
816.807	6273
816.948	6456
817.089	6536
817.23	6467
817.371	6399
817.512	6422
817.653	6372
817.793	6410
817.934	6437
818.075	6464
818.216	6422
818.356	6327
818.497	6247
818.638	6144
818.778	6140
818.919	6079
819.06	6186
819.2	6342
819.341	6315
819.481	6308
819.622	6551
819.762	6711
819.903	6700
820.043	6589
820.184	6544
820.324	6597
820.465	6711
820.605	6688
820.746	6616
820.886	6559
821.026	6601
821.167	6669
821.307	6757
821.447	6741
821.588	6570
821.728	6570
821.868	6471
822.008	6323
822.149	6388
822.289	6342
822.429	6178
822.569	6102
822.709	6117
822.849	5950
822.99	5863
823.13	5912
823.27	5897
823.41	5805
823.55	5764
823.69	5748
823.83	5775
823.97	5653
824.11	5493
824.25	5490
824.389	5509
824.529	5558
824.669	5539
824.809	5657
824.949	5638
825.089	5551
825.228	5528
825.368	5391
825.508	5296
825.648	5337
825.787	5353
825.927	5334
826.067	5246
826.206	5277
826.346	5379
826.485	5360
826.625	5425
826.765	5566
826.904	5474
827.044	5204
827.183	5174
827.323	5102
827.462	5212
827.601	5109
827.741	5162
827.88	5220
828.02	5147
828.159	5201
828.298	5280
828.437	5391
828.577	5284
828.716	5440
828.855	5299
828.994	5208
829.134	5136
829.273	5208
829.412	5086
829.551	5109
829.69	5140
829.829	5216
829.968	5330
830.107	5292
830.246	5261
830.385	5216
830.524	5102
830.663	5037
830.802	4968
830.941	4850
831.08	4850
831.219	4995
831.357	4972
831.496	5124
831.635	4870
831.774	4858
831.913	4828
832.051	4691
832.19	4759
832.329	4816
832.467	4679
832.606	4607
832.744	4694
832.883	4710
833.022	4694
833.16	4801
833.299	4805
833.437	4805
833.576	4797
833.714	4843
833.852	4824
833.991	4877
834.129	4961
834.267	4919
834.406	4908
834.544	4896
834.682	4972
834.821	4984
834.959	5132
835.097	4968
835.235	5102
835.373	5064
835.511	5105
835.65	5048
835.788	5033
835.926	4915
836.064	4866
836.202	4854
836.34	5136
836.478	5197
836.615	5102
836.753	5170
836.891	5284
837.029	5220
837.167	5151
837.305	5181
837.443	5113
837.58	5083
837.718	5204
837.856	5155
837.993	5147
838.131	5208
838.269	5189
838.406	5197
838.544	5121
838.681	5014
838.819	5022
838.956	4805
839.094	4873
839.231	4965
839.369	5113
839.506	5436
839.643	5227
839.781	5056
839.918	4980
840.055	5094
840.193	5140
840.33	5064
840.467	5170
840.604	5155
840.742	5410
840.879	5098
841.016	5022
841.153	5109
841.29	5372
841.427	5311
841.564	5311
841.701	5330
841.838	5284
841.975	5246
842.112	5277
842.249	5117
842.385	5075
842.522	5284
842.659	5132
842.796	5079
842.933	5208
843.069	5181
843.206	5083
843.343	5277
843.479	5204
843.616	5220
843.752	4972
843.889	5045
844.025	5170
844.162	5037
844.298	5231
844.435	5045
844.571	5006
844.708	5170
844.844	5368
844.98	5296
845.117	5280
845.253	5159
845.389	5033
845.525	5124
845.661	5121
845.798	5060
845.934	5121
846.07	5075
846.206	5143
846.342	5292
846.478	5162
846.614	4999
846.75	4972
846.886	4934
847.022	5083
847.158	4984
847.294	5064
847.429	5090
847.565	5056
847.701	5303
847.837	4828
847.972	4820
848.108	4961
848.244	4938
848.379	4752
848.515	4729
848.65	4706
848.786	4710
848.921	4729
849.057	4831
849.192	4881
849.328	4831
849.463	4850
849.598	4774
849.734	4706
849.869	4679
850.004	4580
850.14	4660
850.275	4542
850.41	4523
850.545	4542
850.68	4554
850.815	4577
850.95	4584
851.085	4816
851.22	4752
851.355	4679
851.49	4558
851.625	4660
851.76	4599
851.895	4546
852.03	4474
852.165	4618
852.299	4683
852.434	4729
852.569	4683
852.703	4793
852.838	4801
852.973	4949
853.107	4885
853.242	4714
853.376	4668
853.511	4558
853.645	4599
853.78	4786
853.914	4691
854.048	4683
854.183	4664
854.317	4679
854.451	4828
854.585	4653
854.72	4615
854.854	4767
854.988	4561
855.122	4626
855.256	4481
855.39	4656
855.524	4778
855.658	4675
855.792	4706
855.926	4694
856.06	4778
856.194	4774
856.327	4679
856.461	4634
856.595	4577
856.729	4618
856.862	4729
856.996	4675
857.13	4717
857.263	4733
857.397	4710
857.53	4645
857.664	4744
857.797	4744
857.931	4748
858.064	4675
858.197	4687
858.331	4615
858.464	4596
858.597	4489
858.731	4615
858.864	4626
858.997	4596
859.13	4656
859.263	4637
859.396	4721
859.529	4554
859.662	4607
859.795	4573
859.928	4603
860.061	4755
860.194	4778
860.327	4596
860.46	4523
860.592	4698
860.725	4729
860.858	4664
860.99	4558
861.123	4523
861.256	4508
861.388	4626
861.521	5269
861.653	4474
861.786	4394
861.918	4436
862.05	4493
862.183	4546
862.315	4607
862.447	4622
862.58	4527
862.712	4424
862.844	4322
862.976	4421
863.108	4443
863.24	4870
863.372	4322
863.504	4371
863.636	4341
863.768	4493
863.9	4440
864.032	4325
864.164	4360
864.296	4462
864.428	4546
864.559	4558
864.691	4508
864.823	4558
864.954	4500
865.086	4481
865.217	4436
865.349	4383
865.48	4421
865.612	4470
865.743	4565
865.875	4493
866.006	4402
866.137	4432
866.269	4424
866.4	4390
866.531	4371
866.662	4360
866.793	4436
866.924	4360
867.055	4523
867.186	4459
867.317	4428
867.448	4360
867.579	4383
867.71	4417
867.841	4325
867.972	4459
868.103	4413
868.233	4451
868.364	4428
868.495	4447
868.625	4660
868.756	4736
868.886	4546
869.017	4596
869.147	4759
869.278	4740
869.408	4622
869.539	4538
869.669	4691
869.799	4649
869.929	4755
870.06	4744
870.19	4904
870.32	4866
870.45	4946
870.58	4991
870.71	5033
870.84	5022
870.97	4923
871.1	4870
871.23	5147
871.36	5109
871.489	4976
871.619	5079
871.749	5075
871.879	5048
872.008	5117
872.138	5029
872.267	4949
872.397	4839
872.526	4797
872.656	4752
872.785	4752
872.915	4908
873.044	5006
873.173	4938
873.303	4904
873.432	4900
873.561	4965
873.69	4923
873.819	4839
873.948	4900
874.077	4866
874.206	4706
874.335	4824
874.464	4972
874.593	4984
874.722	4942
874.851	5113
874.979	5041
875.108	5045
875.237	4881
875.365	4831
875.494	4889
875.623	4961
875.751	4850
875.88	4934
876.008	4968
876.136	4991
876.265	5250
876.393	5349
876.521	5277
876.65	5250
876.778	5178
876.906	5052
877.034	5071
877.162	5075
877.29	5033
877.418	5102
877.546	5079
877.674	5086
877.802	5048
877.93	5014
878.058	4984
878.185	4911
878.313	4980
878.441	4987
878.568	4793
878.696	4862
878.824	4984
878.951	5025
879.079	5197
879.206	5341
879.333	5117
879.461	4991
879.588	5003
879.715	5166
879.842	5242
879.97	5090
880.097	4797
880.224	4812
880.351	4786
880.478	4873
880.605	4828
880.732	4816
880.859	5132
880.986	4896
881.112	4957
881.239	4759
881.366	4660
881.493	4611
881.619	4637
881.746	4706
881.872	4664
881.999	4691
882.125	4763
882.252	4774
882.378	4831
882.505	5018
882.631	4816
882.757	4683
882.883	4782
883.01	4801
883.136	4702
883.262	4622
883.388	4622
883.514	4828
883.64	4870
883.766	4839
883.892	4683
884.018	4782
884.143	4896
884.269	5048
884.395	4729
884.52	4687
884.646	4706
884.772	4668
884.897	4588
885.023	4679
885.148	4835
885.274	4873
885.399	4889
885.524	4748
885.65	4706
885.775	4793
885.9	4679
886.025	4862
886.15	4812
886.275	4755
886.4	4683
886.525	4790
886.65	4679
886.775	4717
886.9	4919
887.025	5018
887.149	4839
887.274	4660
887.399	4615
887.523	4607
887.648	4611
887.773	4607
887.897	4824
888.021	4828
888.146	4740
888.27	4919
888.395	4927
888.519	4843
888.643	4858
888.767	4862
888.891	4706
889.015	4630
889.139	4702
889.263	4679
889.387	4763
889.511	4900
889.635	4805
889.759	4698
889.883	4618
890.006	4698
890.13	4835
890.254	4649
890.377	4729
890.501	4561
890.624	4523
890.748	4653
890.871	4489
890.995	4474
891.118	4432
891.241	4561
891.364	4580
891.488	4630
891.611	4538
891.734	4550
891.857	4649
891.98	4569
892.103	4668
892.226	4611
892.349	4546
892.471	4432
892.594	4577
892.717	4599
892.839	4622
892.962	4607
893.085	4679
893.207	4649
893.33	4508
893.452	4565
893.575	4714
893.697	4603
893.819	4755
893.941	4847
894.064	4824
894.186	4558
894.308	4592
894.43	4717
894.552	4828
894.674	4721
894.796	4599
894.918	4561
895.04	4580
895.161	4740
895.283	4637
895.405	4653
895.526	4691
895.648	4717
895.769	4748
895.891	4744
896.012	4752
896.134	4774
896.255	4660
896.376	4672
896.498	4626
896.619	4675
896.74	4607
896.861	4710
896.982	4930
897.103	5079
897.224	4824
897.345	4786
897.466	4717
897.587	4763
897.708	4904
897.828	4847
897.949	4694
898.07	4535
898.19	4653
898.311	4873
898.431	4717
898.552	4725
898.672	4801
898.792	4854
898.913	4729
899.033	4641
899.153	4561
899.273	4443
899.393	4504
899.513	4550
899.633	4535
899.753	4588
899.873	4561
899.993	4599
900.113	4523
900.232	4618
900.352	4531
900.472	4500
900.591	4447
900.711	4519
900.83	4451
900.95	4634
901.069	4694
901.189	4580
901.308	4348
901.427	4348
901.546	4402
901.665	4527
901.784	4531
901.904	4375
902.023	4333
902.141	4207
902.26	4234
902.379	4280
902.498	4223
902.617	4253
902.735	4360
902.854	4447
902.973	4424
903.091	4253
903.21	4268
903.328	4325
903.446	4261
903.565	4287
903.683	4394
903.801	4341
903.919	4394
904.038	4474
904.156	4310
904.274	4459
904.392	4451
904.51	4432
904.627	4440
904.745	4649
904.863	4656
904.981	4436
905.098	4398
905.216	4386
905.334	4451
905.451	4432
905.569	4527
905.686	4569
905.803	4637
905.921	4360
906.038	4561
906.155	4519
906.272	4390
906.389	4478
906.506	4424
906.623	4417
906.74	4424
906.857	4295
906.974	4417
907.091	4558
907.208	4721
907.324	4618
907.441	4542
907.557	4356
907.674	4383
907.79	4329
907.907	4405
908.023	4489
908.139	4489
908.256	4489
908.372	4474
908.488	4459
908.604	4367
908.72	4348
908.836	4436
908.952	4325
909.068	4451
909.184	4592
909.3	4516
909.415	4588
909.531	4599
909.647	4356
909.762	4383
909.878	4375
909.993	4443
910.108	4417
910.224	4398
910.339	4493
910.454	4409
910.57	4348
910.685	4360
910.8	4618
910.915	4607
911.03	4516
911.145	4314
911.259	4329
911.374	4390
911.489	4249
911.604	4306
911.718	4211
911.833	4227
911.947	4093
912.062	4059
912.176	4268
912.291	4257
912.405	4291
912.519	4519
912.633	4523
912.748	4417
912.862	4310
912.976	4207
913.09	4109
913.204	4185
913.318	4238
913.431	4379
913.545	4402
913.659	4443
913.772	4348
913.886	4261
914	4242
914.113	4375
914.226	4432
914.34	4398
914.453	4261
914.566	4443
914.68	4375
914.793	4306
914.906	4154
915.019	4116
915.132	4071
915.245	4181
915.358	4242
915.47	4291
915.583	4276
915.696	4306
915.809	4462
915.921	4424
916.034	4246
916.146	4257
916.259	4261
916.371	4402
916.483	4371
916.595	4280
916.708	4337
916.82	4299
916.932	4356
917.044	4360
917.156	4325
917.268	4230
917.38	4333
917.491	4287
917.603	4318
917.715	4470
917.826	4455
917.938	4371
918.049	4238
918.161	4394
918.272	4508
918.384	4546
918.495	4474
918.606	4295
918.717	4268
918.828	4386
918.939	4443
919.05	4280
919.161	4337
919.272	4169
919.383	4200
919.494	4436
919.604	4653
919.715	4470
919.826	4344
919.936	4394
920.047	4550
920.157	4466
920.267	4706
920.378	4588
920.488	4508
920.598	4736
920.708	4923
920.818	4824
920.928	4782
921.038	4942
921.148	4915
921.258	4630
921.368	4550
921.477	4493
921.587	4474
921.697	4371
921.806	4607
921.916	4478
922.025	4306
922.134	4242
922.244	4249
922.353	4360
922.462	4204
922.571	4143
922.68	3994
922.789	4002
922.898	4044
923.007	4032
923.116	4071
923.224	4063
923.333	4082
923.442	4063
923.55	3998
923.659	4021
923.767	4116
923.876	4029
923.984	4143
924.092	3979
924.201	4071
924.309	4097
924.417	4097
924.525	4063
924.633	4166
924.741	5094
924.849	3911
924.956	4105
925.064	3960
925.172	3861
925.279	3956
925.387	4029
925.494	4078
925.602	4204
925.709	4173
925.816	4036
925.924	4150
926.031	4192
926.138	4188
926.245	4261
926.352	4082
926.459	4219
926.566	4306
926.673	4227
926.779	4093
926.886	4074
926.993	3987
927.099	3979
927.206	3964
927.312	3911
927.419	4017
927.525	4036
927.631	4124
927.737	3983
927.843	3964
927.95	3861
928.056	4013
928.162	3964
928.267	4067
928.373	4698
928.479	4128
928.585	3888
928.69	4006
928.796	4105
928.901	3956
929.007	3857
929.112	4040
929.218	3987
929.323	3979
929.428	3934
929.533	4150
929.638	3869
929.743	3983
929.848	4055
929.953	4021
930.058	3953
930.163	3797
930.267	3838
930.372	3949
930.477	3842
930.581	4090
930.685	3953
930.79	3819
930.894	3899
930.998	3854
931.103	4063
931.207	3751
931.311	3709
931.415	3667
931.519	3515
931.623	3595
