Data from test_V78500241_2078.txt Node
Date: Fri Mar 25 17:03:27 CST 2022
User: usil
Spectrometer: V785-0024
Trigger mode: 0
Integration Time (sec): 4.000000E-1
Scans to average: 1
Nonlinearity correction enabled: false
Boxcar width: 0
Storing dark spectrum: false
XAxis mode: Wavelengths
Number of Pixels in Spectrum: 1024
>>>>>Begin Spectral Data<<<<<
801.071	8016
801.214	7940
801.356	7784
801.499	7814
801.641	7738
801.783	7822
801.926	7917
802.068	7951
802.211	7974
802.353	8012
802.496	7860
802.638	7845
802.78	7856
802.923	7932
803.065	7860
803.208	7875
803.35	7963
803.492	8084
803.635	8111
803.777	8054
803.919	8100
804.061	8434
804.204	8168
804.346	8077
804.488	7898
804.63	8077
804.773	8008
804.915	8111
805.057	8320
805.199	8149
805.341	8233
805.483	8248
805.626	8157
805.768	8100
805.91	8168
806.052	8252
806.194	8145
806.336	8210
806.478	8046
806.62	8081
806.762	8126
806.904	8244
807.046	8469
807.188	8317
807.33	8244
807.472	8290
807.614	8157
807.756	8103
807.898	7947
808.04	7913
808.182	7852
808.324	7917
808.465	7841
808.607	8039
808.749	8153
808.891	8240
809.033	8286
809.174	8248
809.316	8062
809.458	8065
809.6	7997
809.741	8008
809.883	7982
810.025	8069
810.166	8020
810.308	8039
810.45	7993
810.591	7856
810.733	7788
810.875	7674
811.016	7518
811.158	7464
811.299	7559
811.441	7685
811.582	7719
811.724	7586
811.865	7499
812.007	7616
812.148	7605
812.29	7643
812.431	7753
812.573	7894
812.714	7936
812.855	8134
812.997	8210
813.138	8248
813.279	8100
813.421	8096
813.562	7909
813.703	7765
813.845	7753
813.986	7468
814.127	7213
814.268	7149
814.41	7213
814.551	7149
814.692	7156
814.833	7050
814.974	7046
815.115	7122
815.256	6897
815.397	6977
815.539	6935
815.68	6821
815.821	6764
815.962	6821
816.103	6772
816.244	6662
816.385	6639
816.526	6604
816.666	6475
816.807	6292
816.948	6452
817.089	6467
817.23	6448
817.371	6399
817.512	6331
817.653	6403
817.793	6353
817.934	6384
818.075	6471
818.216	6376
818.356	6433
818.497	6266
818.638	6072
818.778	6091
818.919	6171
819.06	6182
819.2	6289
819.341	6258
819.481	6365
819.622	6540
819.762	6745
819.903	6692
820.043	6559
820.184	6532
820.324	6517
820.465	6730
820.605	6635
820.746	6627
820.886	6471
821.026	6620
821.167	6684
821.307	6787
821.447	6749
821.588	6627
821.728	6563
821.868	6525
822.008	6308
822.149	6365
822.289	6334
822.429	6197
822.569	6091
822.709	6102
822.849	5889
822.99	5889
823.13	5893
823.27	5942
823.41	5790
823.55	5748
823.69	5752
823.83	5775
823.97	5630
824.11	5474
824.25	5566
824.389	5547
824.529	5539
824.669	5493
824.809	5611
824.949	5608
825.089	5638
825.228	5524
825.368	5440
825.508	5322
825.648	5334
825.787	5364
825.927	5406
826.067	5311
826.206	5258
826.346	5383
826.485	5345
826.625	5379
826.765	5532
826.904	5512
827.044	5269
827.183	5159
827.323	5121
827.462	5239
827.601	5178
827.741	5170
827.88	5220
828.02	5128
828.159	5204
828.298	5311
828.437	5368
828.577	5330
828.716	5490
828.855	5299
828.994	5155
829.134	5124
829.273	5197
829.412	5121
829.551	5128
829.69	5212
829.829	5242
829.968	5330
830.107	5235
830.246	5292
830.385	5178
830.524	5083
830.663	5056
830.802	4930
830.941	4877
831.08	4934
831.219	4991
831.357	5010
831.496	5170
831.635	4854
831.774	4858
831.913	4873
832.051	4714
832.19	4748
832.329	4831
832.467	4694
832.606	4649
832.744	4683
832.883	4771
833.022	4710
833.16	4740
833.299	4790
833.437	4824
833.576	4831
833.714	4820
833.852	4896
833.991	4870
834.129	4934
834.267	4919
834.406	4900
834.544	4927
834.682	4995
834.821	4949
834.959	5151
835.097	5022
835.235	5140
835.373	5098
835.511	5147
835.65	5025
835.788	5075
835.926	4904
836.064	4889
836.202	4889
836.34	5170
836.478	5174
836.615	5162
836.753	5193
836.891	5269
837.029	5239
837.167	5231
837.305	5159
837.443	5124
837.58	5041
837.718	5227
837.856	5174
837.993	5174
838.131	5254
838.269	5189
838.406	5197
838.544	5170
838.681	5075
838.819	4995
838.956	4866
839.094	4927
839.231	5003
839.369	5105
839.506	5452
839.643	5303
839.781	5037
839.918	4949
840.055	5132
840.193	5102
840.33	5109
840.467	5109
840.604	5166
840.742	5452
840.879	5052
841.016	5071
841.153	5201
841.29	5414
841.427	5299
841.564	5307
841.701	5330
841.838	5311
841.975	5250
842.112	5261
842.249	5162
842.385	5109
842.522	5349
842.659	5147
842.796	5170
842.933	5162
843.069	5132
843.206	5140
843.343	5288
843.479	5284
843.616	5235
843.752	5025
843.889	5003
844.025	5178
844.162	4984
844.298	5220
844.435	5136
844.571	4999
844.708	5227
844.844	5318
844.98	5334
845.117	5315
845.253	5079
845.389	5064
845.525	5121
845.661	5132
845.798	5060
845.934	5147
846.07	5045
846.206	5185
846.342	5273
846.478	5178
846.614	4938
846.75	4946
846.886	4881
847.022	5128
847.158	5075
847.294	5014
847.429	5102
847.565	5075
847.701	5261
847.837	4801
847.972	4824
848.108	4949
848.244	4908
848.379	4767
848.515	4752
848.65	4656
848.786	4736
848.921	4801
849.057	4824
849.192	4854
849.328	4831
849.463	4835
849.598	4774
849.734	4778
849.869	4702
850.004	4618
850.14	4698
850.275	4603
850.41	4561
850.545	4561
850.68	4607
850.815	4637
850.95	4637
851.085	4828
851.22	4736
851.355	4653
851.49	4618
851.625	4641
851.76	4637
851.895	4577
852.03	4504
852.165	4683
852.299	4717
852.434	4774
852.569	4714
852.703	4740
852.838	4870
852.973	4930
853.107	4934
853.242	4752
853.376	4645
853.511	4584
853.645	4618
853.78	4805
853.914	4694
854.048	4653
854.183	4649
854.317	4733
854.451	4805
854.585	4675
854.72	4641
854.854	4744
854.988	4580
855.122	4675
855.256	4523
855.39	4698
855.524	4755
855.658	4675
855.792	4641
855.926	4733
856.06	4733
856.194	4767
856.327	4668
856.461	4618
856.595	4649
856.729	4630
856.862	4767
856.996	4634
857.13	4782
857.263	4763
857.397	4816
857.53	4702
857.664	4702
857.797	4763
857.931	4767
858.064	4694
858.197	4694
858.331	4679
858.464	4637
858.597	4580
858.731	4626
858.864	4653
858.997	4592
859.13	4664
859.263	4641
859.396	4714
859.529	4584
859.662	4573
859.795	4508
859.928	4622
860.061	4752
860.194	4790
860.327	4596
860.46	4584
860.592	4687
860.725	4729
860.858	4694
860.99	4550
861.123	4485
861.256	4504
861.388	4607
861.521	5292
861.653	4432
861.786	4436
861.918	4466
862.05	4516
862.183	4527
862.315	4592
862.447	4653
862.58	4558
862.712	4383
862.844	4363
862.976	4489
863.108	4478
863.24	4736
863.372	4356
863.504	4398
863.636	4402
863.768	4481
863.9	4485
864.032	4363
864.164	4363
864.296	4481
864.428	4565
864.559	4603
864.691	4500
864.823	4561
864.954	4451
865.086	4550
865.217	4462
865.349	4424
865.48	4447
865.612	4504
865.743	4588
865.875	4413
866.006	4432
866.137	4459
866.269	4451
866.4	4459
866.531	4405
866.662	4405
866.793	4402
866.924	4424
867.055	4459
867.186	4489
867.317	4424
867.448	4363
867.579	4417
867.71	4409
867.841	4367
867.972	4432
868.103	4462
868.233	4428
868.364	4440
868.495	4447
868.625	4653
868.756	4778
868.886	4592
869.017	4637
869.147	4771
869.278	4748
869.408	4634
869.539	4653
869.669	4706
869.799	4679
869.929	4725
870.06	4740
870.19	4968
870.32	4843
870.45	4908
870.58	5006
870.71	5075
870.84	5094
870.97	4896
871.1	4919
871.23	5151
871.36	5121
871.489	4995
871.619	5155
871.749	5102
871.879	5140
872.008	5121
872.138	5022
872.267	4938
872.397	4854
872.526	4816
872.656	4729
872.785	4816
872.915	4930
873.044	5048
873.173	4923
873.303	4995
873.432	4942
873.561	4892
873.69	4850
873.819	4900
873.948	4908
874.077	4843
874.206	4786
874.335	4809
874.464	4858
874.593	5014
874.722	4896
874.851	5067
874.979	5086
875.108	5010
875.237	4946
875.365	4877
875.494	4911
875.623	5006
875.751	4831
875.88	4889
876.008	5003
876.136	5025
876.265	5265
876.393	5311
876.521	5178
876.65	5223
876.778	5178
876.906	5056
877.034	5006
877.162	5052
877.29	5102
877.418	5052
877.546	5037
877.674	4972
877.802	5022
877.93	5048
878.058	4923
878.185	4953
878.313	4927
878.441	4900
878.568	4828
878.696	4820
878.824	4923
878.951	5010
879.079	5098
879.206	5261
879.333	5064
879.461	4942
879.588	4957
879.715	5105
879.842	5231
879.97	5006
880.097	4778
880.224	4660
880.351	4828
880.478	4767
880.605	4816
880.732	4763
880.859	5048
880.986	4858
881.112	4911
881.239	4809
881.366	4649
881.493	4599
881.619	4584
881.746	4634
881.872	4660
881.999	4645
882.125	4664
882.252	4744
882.378	4831
882.505	4957
882.631	4812
882.757	4698
882.883	4759
883.01	4706
883.136	4736
883.262	4626
883.388	4592
883.514	4767
883.64	4839
883.766	4774
883.892	4653
884.018	4774
884.143	4908
884.269	5033
884.395	4679
884.52	4618
884.646	4626
884.772	4542
884.897	4580
885.023	4687
885.148	4801
885.274	4873
885.399	4778
885.524	4744
885.65	4679
885.775	4702
885.9	4721
886.025	4870
886.15	4812
886.275	4736
886.4	4679
886.525	4725
886.65	4736
886.775	4710
886.9	4908
887.025	5041
887.149	4797
887.274	4618
887.399	4599
887.523	4641
887.648	4523
887.773	4584
887.897	4763
888.021	4820
888.146	4679
888.27	4797
888.395	4938
888.519	4782
888.643	4748
888.767	4866
888.891	4645
889.015	4622
889.139	4683
889.263	4626
889.387	4778
889.511	4877
889.635	4820
889.759	4626
889.883	4653
890.006	4706
890.13	4771
890.254	4626
890.377	4698
890.501	4500
890.624	4527
890.748	4622
890.871	4504
890.995	4462
891.118	4360
891.241	4565
891.364	4523
891.488	4580
891.611	4512
891.734	4527
891.857	4599
891.98	4538
892.103	4641
892.226	4634
892.349	4519
892.471	4405
892.594	4512
892.717	4599
892.839	4611
892.962	4588
893.085	4656
893.207	4561
893.33	4466
893.452	4500
893.575	4672
893.697	4561
893.819	4767
893.941	4820
894.064	4767
894.186	4634
894.308	4569
894.43	4721
894.552	4820
894.674	4759
894.796	4516
894.918	4577
895.04	4603
895.161	4698
895.283	4626
895.405	4592
895.526	4626
895.648	4630
895.769	4634
895.891	4706
896.012	4668
896.134	4694
896.255	4649
896.376	4607
896.498	4615
896.619	4649
896.74	4607
896.861	4672
896.982	4938
897.103	5067
897.224	4801
897.345	4786
897.466	4656
897.587	4660
897.708	4824
897.828	4793
897.949	4649
898.07	4554
898.19	4630
898.311	4820
898.431	4710
898.552	4714
898.672	4835
898.792	4793
898.913	4786
899.033	4649
899.153	4516
899.273	4459
899.393	4561
899.513	4542
899.633	4535
899.753	4500
899.873	4546
899.993	4508
900.113	4481
900.232	4558
900.352	4565
900.472	4500
900.591	4409
900.711	4516
900.83	4459
900.95	4611
901.069	4649
901.189	4527
901.308	4341
901.427	4295
901.546	4348
901.665	4493
901.784	4535
901.904	4344
902.023	4337
902.141	4211
902.26	4120
902.379	4306
902.498	4265
902.617	4230
902.735	4409
902.854	4363
902.973	4314
903.091	4268
903.21	4227
903.328	4257
903.446	4306
903.565	4204
903.683	4337
903.801	4246
903.919	4375
904.038	4481
904.156	4325
904.274	4424
904.392	4402
904.51	4417
904.627	4451
904.745	4626
904.863	4641
904.981	4402
905.098	4329
905.216	4352
905.334	4405
905.451	4455
905.569	4432
905.686	4577
905.803	4535
905.921	4360
906.038	4558
906.155	4508
906.272	4337
906.389	4516
906.506	4360
906.623	4421
906.74	4310
906.857	4314
906.974	4390
907.091	4577
907.208	4672
907.324	4527
907.441	4481
907.557	4363
907.674	4337
907.79	4337
907.907	4394
908.023	4512
908.139	4489
908.256	4409
908.372	4500
908.488	4413
908.604	4383
908.72	4310
908.836	4348
908.952	4299
909.068	4470
909.184	4592
909.3	4493
909.415	4607
909.531	4554
909.647	4337
909.762	4409
909.878	4360
909.993	4470
910.108	4413
910.224	4459
910.339	4493
910.454	4428
910.57	4341
910.685	4318
910.8	4630
910.915	4584
911.03	4504
911.145	4325
911.259	4360
911.374	4325
911.489	4291
911.604	4261
911.718	4154
911.833	4158
911.947	4067
912.062	4032
912.176	4196
912.291	4238
912.405	4268
912.519	4436
912.633	4497
912.748	4383
912.862	4306
912.976	4173
913.09	4090
913.204	4188
913.318	4265
913.431	4329
913.545	4390
913.659	4455
913.772	4341
913.886	4261
914	4211
914.113	4352
914.226	4440
914.34	4341
914.453	4253
914.566	4447
914.68	4322
914.793	4303
914.906	4185
915.019	4101
915.132	4086
915.245	4211
915.358	4227
915.47	4227
915.583	4329
915.696	4276
915.809	4421
915.921	4398
916.034	4200
916.146	4246
916.259	4207
916.371	4390
916.483	4356
916.595	4246
916.708	4341
916.82	4299
916.932	4284
917.044	4337
917.156	4318
917.268	4242
917.38	4299
917.491	4303
917.603	4367
917.715	4413
917.826	4451
917.938	4337
918.049	4276
918.161	4405
918.272	4538
918.384	4512
918.495	4455
918.606	4280
918.717	4223
918.828	4383
918.939	4344
919.05	4257
919.161	4322
919.272	4105
919.383	4207
919.494	4451
919.604	4626
919.715	4413
919.826	4341
919.936	4356
920.047	4508
920.157	4485
920.267	4683
920.378	4535
920.488	4531
920.598	4729
920.708	4885
920.818	4748
920.928	4771
921.038	4953
921.148	4885
921.258	4656
921.368	4535
921.477	4474
921.587	4474
921.697	4405
921.806	4569
921.916	4432
922.025	4306
922.134	4310
922.244	4268
922.353	4333
922.462	4147
922.571	4150
922.68	4036
922.789	4044
922.898	4051
923.007	4036
923.116	4105
923.224	4086
923.333	4116
923.442	3960
923.55	3998
923.659	4044
923.767	4105
923.876	3998
923.984	4116
924.092	4002
924.201	4032
924.309	4090
924.417	4086
924.525	4063
924.633	4086
924.741	5025
924.849	3949
924.956	4135
925.064	3975
925.172	3918
925.279	3930
925.387	4010
925.494	4067
925.602	4196
925.709	4162
925.816	4063
925.924	4109
926.031	4223
926.138	4150
926.245	4200
926.352	4074
926.459	4234
926.566	4284
926.673	4169
926.779	4093
926.886	4093
926.993	3979
927.099	3987
927.206	3972
927.312	3930
927.419	4059
927.525	4040
927.631	4101
927.737	3968
927.843	3888
927.95	3880
928.056	3960
928.162	4010
928.267	4063
928.373	4584
928.479	4116
928.585	3903
928.69	4025
928.796	4086
928.901	3979
929.007	3865
929.112	3972
929.218	3953
929.323	3953
929.428	3922
929.533	4090
929.638	3896
929.743	3968
929.848	4101
929.953	3998
930.058	3922
930.163	3797
930.267	3838
930.372	3960
930.477	3781
930.581	4086
930.685	3884
930.79	3823
930.894	3884
930.998	3835
931.103	4017
931.207	3743
931.311	3690
931.415	3648
931.519	3530
931.623	3523
