Data from test_V78500241_2771.txt Node
Date: Fri Mar 25 17:08:16 CST 2022
User: usil
Spectrometer: V785-0024
Trigger mode: 0
Integration Time (sec): 4.000000E-1
Scans to average: 1
Nonlinearity correction enabled: false
Boxcar width: 0
Storing dark spectrum: false
XAxis mode: Wavelengths
Number of Pixels in Spectrum: 1024
>>>>>Begin Spectral Data<<<<<
801.071	8024
801.214	7974
801.356	7936
801.499	7932
801.641	7780
801.783	7837
801.926	7928
802.068	7959
802.211	8035
802.353	7978
802.496	7932
802.638	7909
802.78	7902
802.923	7921
803.065	7879
803.208	7894
803.35	7940
803.492	8062
803.635	8126
803.777	8084
803.919	8153
804.061	8446
804.204	8145
804.346	8016
804.488	7936
804.63	8103
804.773	8012
804.915	8084
805.057	8252
805.199	8103
805.341	8214
805.483	8290
805.626	8244
805.768	8161
805.91	8168
806.052	8149
806.194	8134
806.336	8309
806.478	8073
806.62	8062
806.762	8142
806.904	8252
807.046	8450
807.188	8317
807.33	8324
807.472	8351
807.614	8237
807.756	8123
807.898	7974
808.04	7849
808.182	7887
808.324	7894
808.465	7909
808.607	8100
808.749	8191
808.891	8324
809.033	8271
809.174	8199
809.316	8073
809.458	8027
809.6	7940
809.741	7986
809.883	8046
810.025	8103
810.166	7997
810.308	8050
810.45	7993
810.591	7902
810.733	7772
810.875	7685
811.016	7571
811.158	7491
811.299	7670
811.441	7753
811.582	7734
811.724	7510
811.865	7495
812.007	7556
812.148	7544
812.29	7662
812.431	7830
812.573	7921
812.714	7951
812.855	8187
812.997	8237
813.138	8252
813.279	8153
813.421	8180
813.562	7940
813.703	7864
813.845	7746
813.986	7457
814.127	7282
814.268	7225
814.41	7217
814.551	7209
814.692	7244
814.833	7061
814.974	7118
815.115	7129
815.256	6970
815.397	6871
815.539	6935
815.68	6810
815.821	6852
815.962	6818
816.103	6875
816.244	6753
816.385	6623
816.526	6608
816.666	6521
816.807	6315
816.948	6452
817.089	6494
817.23	6441
817.371	6426
817.512	6357
817.653	6414
817.793	6407
817.934	6422
818.075	6422
818.216	6384
818.356	6456
818.497	6216
818.638	6129
818.778	6144
818.919	6194
819.06	6186
819.2	6331
819.341	6342
819.481	6372
819.622	6498
819.762	6787
819.903	6738
820.043	6582
820.184	6517
820.324	6532
820.465	6715
820.605	6662
820.746	6662
820.886	6502
821.026	6673
821.167	6711
821.307	6795
821.447	6749
821.588	6650
821.728	6563
821.868	6502
822.008	6357
822.149	6395
822.289	6365
822.429	6178
822.569	6110
822.709	6121
822.849	5893
822.99	5916
823.13	5901
823.27	5965
823.41	5783
823.55	5745
823.69	5783
823.83	5741
823.97	5684
824.11	5551
824.25	5455
824.389	5570
824.529	5539
824.669	5554
824.809	5600
824.949	5649
825.089	5611
825.228	5512
825.368	5440
825.508	5364
825.648	5322
825.787	5364
825.927	5349
826.067	5315
826.206	5292
826.346	5421
826.485	5410
826.625	5402
826.765	5585
826.904	5501
827.044	5250
827.183	5197
827.323	5140
827.462	5269
827.601	5132
827.741	5201
827.88	5212
828.02	5090
828.159	5250
828.298	5318
828.437	5398
828.577	5280
828.716	5429
828.855	5391
828.994	5136
829.134	5143
829.273	5178
829.412	5083
829.551	5105
829.69	5174
829.829	5235
829.968	5395
830.107	5284
830.246	5357
830.385	5162
830.524	5155
830.663	5086
830.802	4999
830.941	4919
831.08	4873
831.219	4984
831.357	4946
831.496	5159
831.635	4900
831.774	4866
831.913	4816
832.051	4664
832.19	4717
832.329	4831
832.467	4687
832.606	4649
832.744	4729
832.883	4687
833.022	4736
833.16	4748
833.299	4778
833.437	4877
833.576	4843
833.714	4873
833.852	4831
833.991	4976
834.129	4961
834.267	4968
834.406	4870
834.544	4976
834.682	4965
834.821	4930
834.959	5143
835.097	4972
835.235	5136
835.373	5117
835.511	5090
835.65	5037
835.788	5022
835.926	4923
836.064	4858
836.202	4877
836.34	5197
836.478	5277
836.615	5162
836.753	5220
836.891	5299
837.029	5208
837.167	5220
837.305	5121
837.443	5155
837.58	5075
837.718	5208
837.856	5220
837.993	5136
838.131	5265
838.269	5216
838.406	5162
838.544	5178
838.681	5052
838.819	5037
838.956	4915
839.094	4885
839.231	4961
839.369	5109
839.506	5444
839.643	5261
839.781	5022
839.918	5018
840.055	5102
840.193	5060
840.33	5128
840.467	5155
840.604	5235
840.742	5398
840.879	5083
841.016	5071
841.153	5124
841.29	5311
841.427	5349
841.564	5265
841.701	5311
841.838	5265
841.975	5223
842.112	5307
842.249	5140
842.385	5086
842.522	5345
842.659	5162
842.796	5151
842.933	5147
843.069	5128
843.206	5162
843.343	5326
843.479	5193
843.616	5284
843.752	5056
843.889	5018
844.025	5223
844.162	4995
844.298	5204
844.435	5124
844.571	5018
844.708	5170
844.844	5330
844.98	5395
845.117	5299
845.253	5136
845.389	5102
845.525	5140
845.661	5170
845.798	5022
845.934	5109
846.07	5060
846.206	5223
846.342	5258
846.478	5170
846.614	5090
846.75	5018
846.886	4923
847.022	5136
847.158	4968
847.294	5064
847.429	5075
847.565	5052
847.701	5288
847.837	4858
847.972	4782
848.108	4949
848.244	4911
848.379	4767
848.515	4759
848.65	4733
848.786	4698
848.921	4809
849.057	4850
849.192	4828
849.328	4843
849.463	4885
849.598	4786
849.734	4790
849.869	4653
850.004	4603
850.14	4653
850.275	4630
850.41	4550
850.545	4558
850.68	4672
850.815	4607
850.95	4649
851.085	4866
851.22	4744
851.355	4733
851.49	4649
851.625	4653
851.76	4599
851.895	4584
852.03	4538
852.165	4687
852.299	4759
852.434	4763
852.569	4740
852.703	4774
852.838	4843
852.973	4934
853.107	4911
853.242	4744
853.376	4668
853.511	4577
853.645	4637
853.78	4797
853.914	4672
854.048	4656
854.183	4626
854.317	4729
854.451	4854
854.585	4656
854.72	4607
854.854	4778
854.988	4546
855.122	4622
855.256	4478
855.39	4634
855.524	4812
855.658	4698
855.792	4691
855.926	4763
856.06	4763
856.194	4771
856.327	4710
856.461	4626
856.595	4637
856.729	4580
856.862	4733
856.996	4656
857.13	4672
857.263	4767
857.397	4797
857.53	4607
857.664	4721
857.797	4748
857.931	4763
858.064	4698
858.197	4736
858.331	4664
858.464	4607
858.597	4497
858.731	4615
858.864	4687
858.997	4599
859.13	4653
859.263	4706
859.396	4725
859.529	4577
859.662	4565
859.795	4523
859.928	4615
860.061	4740
860.194	4752
860.327	4634
860.46	4558
860.592	4702
860.725	4714
860.858	4721
860.99	4599
861.123	4535
861.256	4523
861.388	4615
861.521	5326
861.653	4466
861.786	4447
861.918	4455
862.05	4493
862.183	4538
862.315	4599
862.447	4611
862.58	4573
862.712	4360
862.844	4303
862.976	4459
863.108	4436
863.24	4748
863.372	4352
863.504	4421
863.636	4402
863.768	4474
863.9	4440
864.032	4363
864.164	4455
864.296	4493
864.428	4538
864.559	4558
864.691	4512
864.823	4577
864.954	4455
865.086	4558
865.217	4478
865.349	4459
865.48	4440
865.612	4478
865.743	4645
865.875	4394
866.006	4455
866.137	4493
866.269	4424
866.4	4493
866.531	4428
866.662	4398
866.793	4390
866.924	4390
867.055	4497
867.186	4424
867.317	4413
867.448	4363
867.579	4379
867.71	4329
867.841	4337
867.972	4497
868.103	4405
868.233	4455
868.364	4470
868.495	4500
868.625	4649
868.756	4790
868.886	4592
869.017	4634
869.147	4714
869.278	4752
869.408	4691
869.539	4618
869.669	4656
869.799	4660
869.929	4759
870.06	4714
870.19	4953
870.32	4930
870.45	4938
870.58	4999
870.71	5060
870.84	5132
870.97	4930
871.1	4885
871.23	5147
871.36	5056
871.489	5037
871.619	5086
871.749	5060
871.879	5178
872.008	5174
872.138	5052
872.267	4995
872.397	4858
872.526	4831
872.656	4714
872.785	4831
872.915	4949
873.044	5018
873.173	4911
873.303	4957
873.432	4930
873.561	4984
873.69	4870
873.819	4870
873.948	4942
874.077	4858
874.206	4824
874.335	4790
874.464	4911
874.593	5048
874.722	4946
874.851	5090
874.979	5052
875.108	5025
875.237	4930
875.365	4892
875.494	4839
875.623	5010
875.751	4816
875.88	4828
876.008	4980
876.136	5045
876.265	5231
876.393	5368
876.521	5216
876.65	5246
876.778	5197
876.906	5098
877.034	5079
877.162	5033
877.29	5022
877.418	5105
877.546	5037
877.674	5048
877.802	5064
877.93	5052
878.058	4923
878.185	4870
878.313	4976
878.441	4927
878.568	4881
878.696	4873
878.824	4938
878.951	5010
879.079	5117
879.206	5265
879.333	5010
879.461	4995
879.588	5018
879.715	5094
879.842	5231
879.97	5025
880.097	4809
880.224	4729
880.351	4797
880.478	4793
880.605	4805
880.732	4744
880.859	5064
880.986	4923
881.112	4911
881.239	4755
881.366	4588
881.493	4580
881.619	4615
881.746	4660
881.872	4653
881.999	4664
882.125	4752
882.252	4782
882.378	4866
882.505	4938
882.631	4786
882.757	4649
882.883	4767
883.01	4774
883.136	4687
883.262	4649
883.388	4641
883.514	4812
883.64	4862
883.766	4744
883.892	4656
884.018	4729
884.143	4850
884.269	4999
884.395	4687
884.52	4603
884.646	4672
884.772	4580
884.897	4512
885.023	4679
885.148	4763
885.274	4824
885.399	4786
885.524	4698
885.65	4641
885.775	4736
885.9	4740
886.025	4835
886.15	4812
886.275	4717
886.4	4622
886.525	4729
886.65	4683
886.775	4668
886.9	4892
887.025	5029
887.149	4767
887.274	4645
887.399	4592
887.523	4577
887.648	4558
887.773	4538
887.897	4736
888.021	4767
888.146	4675
888.27	4801
888.395	4904
888.519	4801
888.643	4828
888.767	4793
888.891	4679
889.015	4611
889.139	4664
889.263	4565
889.387	4744
889.511	4881
889.635	4824
889.759	4618
889.883	4622
890.006	4710
890.13	4812
890.254	4649
890.377	4687
890.501	4558
890.624	4527
890.748	4634
890.871	4546
890.995	4394
891.118	4375
891.241	4523
891.364	4504
891.488	4653
891.611	4500
891.734	4542
891.857	4580
891.98	4584
892.103	4675
892.226	4592
892.349	4535
892.471	4447
892.594	4508
892.717	4607
892.839	4580
892.962	4599
893.085	4637
893.207	4588
893.33	4493
893.452	4538
893.575	4645
893.697	4596
893.819	4793
893.941	4839
894.064	4801
894.186	4618
894.308	4603
894.43	4748
894.552	4797
894.674	4721
894.796	4542
894.918	4577
895.04	4554
895.161	4714
895.283	4683
895.405	4550
895.526	4668
895.648	4664
895.769	4706
895.891	4729
896.012	4767
896.134	4740
896.255	4664
896.376	4645
896.498	4618
896.619	4694
896.74	4584
896.861	4630
896.982	4961
897.103	5105
897.224	4793
897.345	4733
897.466	4672
897.587	4683
897.708	4828
897.828	4771
897.949	4679
898.07	4584
898.19	4599
898.311	4828
898.431	4679
898.552	4778
898.672	4847
898.792	4771
898.913	4786
899.033	4672
899.153	4508
899.273	4421
899.393	4462
899.513	4546
899.633	4512
899.753	4527
899.873	4527
899.993	4554
900.113	4542
900.232	4565
900.352	4596
900.472	4485
900.591	4428
900.711	4447
900.83	4390
900.95	4626
901.069	4668
901.189	4561
901.308	4379
901.427	4329
901.546	4379
901.665	4447
901.784	4485
901.904	4413
902.023	4341
902.141	4211
902.26	4120
902.379	4306
902.498	4238
902.617	4223
902.735	4375
902.854	4405
902.973	4405
903.091	4219
903.21	4257
903.328	4291
903.446	4325
903.565	4284
903.683	4341
903.801	4295
903.919	4390
904.038	4470
904.156	4352
904.274	4474
904.392	4398
904.51	4413
904.627	4489
904.745	4561
904.863	4584
904.981	4409
905.098	4322
905.216	4348
905.334	4459
905.451	4459
905.569	4478
905.686	4573
905.803	4561
905.921	4470
906.038	4512
906.155	4535
906.272	4398
906.389	4462
906.506	4360
906.623	4341
906.74	4421
906.857	4303
906.974	4379
907.091	4535
907.208	4672
907.324	4626
907.441	4497
907.557	4363
907.674	4348
907.79	4325
907.907	4360
908.023	4489
908.139	4516
908.256	4417
908.372	4500
908.488	4436
908.604	4363
908.72	4322
908.836	4375
908.952	4375
909.068	4421
909.184	4584
909.3	4489
909.415	4592
909.531	4538
909.647	4402
909.762	4402
909.878	4341
909.993	4405
910.108	4436
910.224	4447
910.339	4504
910.454	4451
910.57	4375
910.685	4318
910.8	4611
910.915	4630
911.03	4519
911.145	4333
911.259	4363
911.374	4379
911.489	4318
911.604	4284
911.718	4162
911.833	4185
911.947	4101
912.062	4032
912.176	4177
912.291	4253
912.405	4280
912.519	4462
912.633	4497
912.748	4413
912.862	4303
912.976	4207
913.09	4124
913.204	4192
913.318	4272
913.431	4344
913.545	4367
913.659	4409
913.772	4375
913.886	4261
914	4261
914.113	4375
914.226	4402
914.34	4383
914.453	4265
914.566	4428
914.68	4341
914.793	4299
914.906	4204
915.019	4139
915.132	4090
915.245	4173
915.358	4211
915.47	4249
915.583	4287
915.696	4322
915.809	4424
915.921	4474
916.034	4253
916.146	4249
916.259	4234
916.371	4344
916.483	4348
916.595	4257
916.708	4367
916.82	4303
916.932	4318
917.044	4303
917.156	4352
917.268	4253
917.38	4322
917.491	4272
917.603	4356
917.715	4421
917.826	4447
917.938	4360
918.049	4314
918.161	4402
918.272	4542
918.384	4504
918.495	4470
918.606	4325
918.717	4265
918.828	4352
918.939	4413
919.05	4306
919.161	4337
919.272	4158
919.383	4284
919.494	4443
919.604	4626
919.715	4466
919.826	4398
919.936	4379
920.047	4554
920.157	4447
920.267	4714
920.378	4550
920.488	4516
920.598	4733
920.708	4847
920.818	4740
920.928	4778
921.038	4961
921.148	4957
921.258	4702
921.368	4592
921.477	4474
921.587	4489
921.697	4409
921.806	4603
921.916	4440
922.025	4261
922.134	4299
922.244	4219
922.353	4310
922.462	4211
922.571	4150
922.68	4029
922.789	4040
922.898	4032
923.007	4010
923.116	4105
923.224	4105
923.333	4101
923.442	4006
923.55	4013
923.659	4044
923.767	4143
923.876	4078
923.984	4158
924.092	4002
924.201	4071
924.309	4124
924.417	4147
924.525	4086
924.633	4158
924.741	4889
924.849	3964
924.956	4131
925.064	3941
925.172	3956
925.279	4002
925.387	4135
925.494	4128
925.602	4242
925.709	4219
925.816	4082
925.924	4173
926.031	4253
926.138	4215
926.245	4253
926.352	4185
926.459	4280
926.566	4299
926.673	4211
926.779	4097
926.886	4120
926.993	4032
927.099	4044
927.206	3972
927.312	4029
927.419	4040
927.525	4048
927.631	4143
927.737	3991
927.843	3983
927.95	3850
928.056	3934
928.162	3994
928.267	4105
928.373	4702
928.479	4158
928.585	3876
928.69	4032
928.796	4074
928.901	3983
929.007	3888
929.112	3983
929.218	4029
929.323	3911
929.428	4021
929.533	4147
929.638	3945
929.743	3975
929.848	4036
929.953	4032
930.058	3941
930.163	3823
930.267	3838
930.372	4021
930.477	3846
930.581	4082
930.685	3972
930.79	3804
930.894	3896
930.998	3869
931.103	4051
931.207	3743
931.311	3679
931.415	3641
931.519	3564
931.623	3572
