Data from test_V78500241_198.txt Node
Date: Fri Mar 25 16:50:22 CST 2022
User: usil
Spectrometer: V785-0024
Trigger mode: 0
Integration Time (sec): 4.000000E-1
Scans to average: 1
Nonlinearity correction enabled: false
Boxcar width: 0
Storing dark spectrum: false
XAxis mode: Wavelengths
Number of Pixels in Spectrum: 1024
>>>>>Begin Spectral Data<<<<<
801.071	8020
801.214	7974
801.356	7826
801.499	7868
801.641	7776
801.783	7803
801.926	7967
802.068	7974
802.211	7997
802.353	8016
802.496	7811
802.638	7883
802.78	7890
802.923	7955
803.065	7788
803.208	7826
803.35	7955
803.492	8115
803.635	8183
803.777	8020
803.919	8058
804.061	8415
804.204	8145
804.346	8043
804.488	7970
804.63	8081
804.773	7947
804.915	8054
805.057	8290
805.199	8103
805.341	8149
805.483	8218
805.626	8176
805.768	8005
805.91	8168
806.052	8157
806.194	8054
806.336	8240
806.478	8164
806.62	8012
806.762	8153
806.904	8210
807.046	8484
807.188	8347
807.33	8259
807.472	8286
807.614	8065
807.756	8187
807.898	7974
808.04	7841
808.182	7883
808.324	7913
808.465	7944
808.607	8081
808.749	8088
808.891	8180
809.033	8275
809.174	8183
809.316	8012
809.458	8065
809.6	7993
809.741	7978
809.883	8084
810.025	8096
810.166	8115
810.308	8043
810.45	7951
810.591	7792
810.733	7776
810.875	7582
811.016	7491
811.158	7544
811.299	7658
811.441	7731
811.582	7670
811.724	7514
811.865	7601
812.007	7529
812.148	7613
812.29	7597
812.431	7818
812.573	7936
812.714	7997
812.855	8164
812.997	8252
813.138	8244
813.279	8130
813.421	8157
813.562	8039
813.703	7906
813.845	7723
813.986	7400
814.127	7228
814.268	7236
814.41	7183
814.551	7164
814.692	7156
814.833	7133
814.974	7183
815.115	7175
815.256	6958
815.397	6951
815.539	6947
815.68	6894
815.821	6837
815.962	6932
816.103	6798
816.244	6669
816.385	6593
816.526	6616
816.666	6490
816.807	6357
816.948	6479
817.089	6422
817.23	6475
817.371	6372
817.512	6372
817.653	6391
817.793	6365
817.934	6403
818.075	6410
818.216	6422
818.356	6418
818.497	6228
818.638	6064
818.778	6095
818.919	6155
819.06	6155
819.2	6254
819.341	6334
819.481	6357
819.622	6544
819.762	6688
819.903	6646
820.043	6555
820.184	6582
820.324	6582
820.465	6665
820.605	6707
820.746	6601
820.886	6544
821.026	6635
821.167	6741
821.307	6760
821.447	6745
821.588	6665
821.728	6540
821.868	6456
822.008	6346
822.149	6410
822.289	6346
822.429	6159
822.569	6079
822.709	6167
822.849	5874
822.99	5912
823.13	5813
823.27	5885
823.41	5855
823.55	5802
823.69	5756
823.83	5790
823.97	5699
824.11	5501
824.25	5551
824.389	5589
824.529	5585
824.669	5501
824.809	5691
824.949	5638
825.089	5581
825.228	5554
825.368	5398
825.508	5360
825.648	5322
825.787	5406
825.927	5322
826.067	5360
826.206	5239
826.346	5368
826.485	5410
826.625	5433
826.765	5497
826.904	5490
827.044	5273
827.183	5231
827.323	5124
827.462	5261
827.601	5204
827.741	5174
827.88	5235
828.02	5143
828.159	5197
828.298	5307
828.437	5360
828.577	5223
828.716	5501
828.855	5311
828.994	5159
829.134	5155
829.273	5181
829.412	5143
829.551	5162
829.69	5147
829.829	5227
829.968	5425
830.107	5277
830.246	5280
830.385	5189
830.524	5105
830.663	5094
830.802	5025
830.941	4896
831.08	4870
831.219	5037
831.357	4949
831.496	5121
831.635	4908
831.774	4877
831.913	4816
832.051	4755
832.19	4778
832.329	4850
832.467	4694
832.606	4637
832.744	4714
832.883	4733
833.022	4725
833.16	4755
833.299	4786
833.437	4847
833.576	4839
833.714	4866
833.852	4873
833.991	4866
834.129	4942
834.267	5003
834.406	4881
834.544	4953
834.682	4953
834.821	4965
834.959	5132
835.097	5022
835.235	5147
835.373	5067
835.511	5090
835.65	5037
835.788	5045
835.926	4938
836.064	4843
836.202	4934
836.34	5140
836.478	5216
836.615	5083
836.753	5181
836.891	5254
837.029	5292
837.167	5181
837.305	5102
837.443	5189
837.58	5075
837.718	5208
837.856	5170
837.993	5143
838.131	5261
838.269	5220
838.406	5204
838.544	5193
838.681	5033
838.819	4976
838.956	4908
839.094	4889
839.231	4972
839.369	5113
839.506	5433
839.643	5223
839.781	5060
839.918	5029
840.055	5075
840.193	5048
840.33	5083
840.467	5132
840.604	5193
840.742	5448
840.879	5079
841.016	5018
841.153	5181
841.29	5376
841.427	5379
841.564	5299
841.701	5334
841.838	5345
841.975	5242
842.112	5265
842.249	5117
842.385	5121
842.522	5322
842.659	5155
842.796	5159
842.933	5197
843.069	5140
843.206	5105
843.343	5254
843.479	5220
843.616	5288
843.752	5025
843.889	4957
844.025	5220
844.162	5006
844.298	5216
844.435	5060
844.571	5045
844.708	5208
844.844	5292
844.98	5330
845.117	5288
845.253	5098
845.389	5079
845.525	5170
845.661	5143
845.798	5041
845.934	5155
846.07	5025
846.206	5231
846.342	5235
846.478	5174
846.614	5033
846.75	4965
846.886	4942
847.022	5147
847.158	5006
847.294	5075
847.429	5102
847.565	5060
847.701	5307
847.837	4870
847.972	4816
848.108	4991
848.244	4927
848.379	4759
848.515	4710
848.65	4755
848.786	4721
848.921	4801
849.057	4873
849.192	4889
849.328	4812
849.463	4870
849.598	4793
849.734	4759
849.869	4675
850.004	4634
850.14	4706
850.275	4656
850.41	4542
850.545	4588
850.68	4649
850.815	4645
850.95	4588
851.085	4858
851.22	4748
851.355	4653
851.49	4596
851.625	4668
851.76	4637
851.895	4599
852.03	4485
852.165	4634
852.299	4683
852.434	4736
852.569	4744
852.703	4790
852.838	4835
852.973	4949
853.107	4870
853.242	4729
853.376	4664
853.511	4577
853.645	4630
853.78	4820
853.914	4687
854.048	4653
854.183	4592
854.317	4698
854.451	4862
854.585	4668
854.72	4656
854.854	4767
854.988	4618
855.122	4649
855.256	4538
855.39	4679
855.524	4793
855.658	4694
855.792	4710
855.926	4702
856.06	4755
856.194	4767
856.327	4672
856.461	4634
856.595	4599
856.729	4596
856.862	4744
856.996	4664
857.13	4717
857.263	4767
857.397	4805
857.53	4645
857.664	4740
857.797	4774
857.931	4744
858.064	4725
858.197	4721
858.331	4679
858.464	4634
858.597	4527
858.731	4622
858.864	4660
858.997	4603
859.13	4641
859.263	4698
859.396	4744
859.529	4577
859.662	4577
859.795	4546
859.928	4607
860.061	4733
860.194	4786
860.327	4653
860.46	4565
860.592	4691
860.725	4710
860.858	4691
860.99	4569
861.123	4538
861.256	4538
861.388	4618
861.521	5360
861.653	4478
861.786	4417
861.918	4455
862.05	4512
862.183	4607
862.315	4622
862.447	4637
862.58	4588
862.712	4379
862.844	4318
862.976	4481
863.108	4455
863.24	4881
863.372	4344
863.504	4504
863.636	4405
863.768	4504
863.9	4466
864.032	4421
864.164	4443
864.296	4470
864.428	4558
864.559	4596
864.691	4573
864.823	4561
864.954	4512
865.086	4561
865.217	4470
865.349	4470
865.48	4500
865.612	4504
865.743	4679
865.875	4516
866.006	4447
866.137	4504
866.269	4470
866.4	4474
866.531	4519
866.662	4459
866.793	4443
866.924	4485
867.055	4554
867.186	4523
867.317	4485
867.448	4398
867.579	4394
867.71	4413
867.841	4489
867.972	4561
868.103	4538
868.233	4478
868.364	4489
868.495	4554
868.625	4710
868.756	4790
868.886	4637
869.017	4622
869.147	4816
869.278	4843
869.408	4710
869.539	4698
869.669	4740
869.799	4714
869.929	4831
870.06	4782
870.19	4946
870.32	4987
870.45	4991
870.58	5060
870.71	5140
870.84	5109
870.97	4995
871.1	4972
871.23	5181
871.36	5140
871.489	5121
871.619	5109
871.749	5185
871.879	5151
872.008	5265
872.138	5102
872.267	5014
872.397	4919
872.526	4847
872.656	4786
872.785	4828
872.915	5014
873.044	5037
873.173	5003
873.303	4976
873.432	5064
873.561	5003
873.69	4930
873.819	4889
873.948	4972
874.077	4908
874.206	4820
874.335	4847
874.464	4968
874.593	5151
874.722	5014
874.851	5109
874.979	5109
875.108	5128
875.237	4968
875.365	4919
875.494	4900
875.623	5018
875.751	4866
875.88	4900
876.008	4995
876.136	5098
876.265	5242
876.393	5376
876.521	5250
876.65	5280
876.778	5223
876.906	5109
877.034	5067
877.162	5086
877.29	5075
877.418	5060
877.546	5083
877.674	5079
877.802	5102
877.93	5067
878.058	4976
878.185	4900
878.313	5045
878.441	5045
878.568	4892
878.696	4919
878.824	4991
878.951	5052
879.079	5197
879.206	5265
879.333	5181
879.461	5045
879.588	5037
879.715	5143
879.842	5261
879.97	5003
880.097	4774
880.224	4767
880.351	4828
880.478	4881
880.605	4889
880.732	4850
880.859	5083
880.986	4824
881.112	4942
881.239	4778
881.366	4710
881.493	4649
881.619	4656
881.746	4656
881.872	4725
881.999	4714
882.125	4694
882.252	4778
882.378	4908
882.505	5029
882.631	4824
882.757	4672
882.883	4755
883.01	4790
883.136	4683
883.262	4622
883.388	4653
883.514	4862
883.64	4870
883.766	4843
883.892	4725
884.018	4736
884.143	4915
884.269	5025
884.395	4702
884.52	4710
884.646	4683
884.772	4618
884.897	4622
885.023	4675
885.148	4835
885.274	4957
885.399	4812
885.524	4767
885.65	4767
885.775	4847
885.9	4786
886.025	4908
886.15	4873
886.275	4782
886.4	4687
886.525	4816
886.65	4733
886.775	4706
886.9	4961
887.025	5105
887.149	4850
887.274	4687
887.399	4664
887.523	4596
887.648	4592
887.773	4637
887.897	4854
888.021	4839
888.146	4714
888.27	4877
888.395	4889
888.519	4885
888.643	4828
888.767	4873
888.891	4698
889.015	4611
889.139	4691
889.263	4622
889.387	4812
889.511	4892
889.635	4831
889.759	4710
889.883	4694
890.006	4725
890.13	4824
890.254	4702
890.377	4683
890.501	4611
890.624	4584
890.748	4694
890.871	4538
890.995	4474
891.118	4424
891.241	4565
891.364	4554
891.488	4694
891.611	4527
891.734	4577
891.857	4637
891.98	4546
892.103	4645
892.226	4630
892.349	4546
892.471	4436
892.594	4565
892.717	4683
892.839	4592
892.962	4630
893.085	4721
893.207	4664
893.33	4485
893.452	4565
893.575	4710
893.697	4588
893.819	4812
893.941	4877
894.064	4797
894.186	4626
894.308	4550
894.43	4790
894.552	4854
894.674	4733
894.796	4569
894.918	4649
895.04	4592
895.161	4759
895.283	4733
895.405	4630
895.526	4675
895.648	4698
895.769	4714
895.891	4748
896.012	4744
896.134	4763
896.255	4736
896.376	4679
896.498	4656
896.619	4691
896.74	4664
896.861	4706
896.982	4949
897.103	5094
897.224	4828
897.345	4820
897.466	4706
897.587	4797
897.708	4881
897.828	4835
897.949	4717
898.07	4645
898.19	4641
898.311	4873
898.431	4706
898.552	4824
898.672	4828
898.792	4824
898.913	4774
899.033	4653
899.153	4584
899.273	4493
899.393	4527
899.513	4538
899.633	4550
899.753	4523
899.873	4512
899.993	4622
900.113	4550
900.232	4596
900.352	4580
900.472	4500
900.591	4432
900.711	4500
900.83	4466
900.95	4675
901.069	4744
901.189	4592
901.308	4386
901.427	4360
901.546	4363
901.665	4550
901.784	4561
901.904	4390
902.023	4333
902.141	4234
902.26	4177
902.379	4363
902.498	4276
902.617	4246
902.735	4375
902.854	4421
902.973	4390
903.091	4223
903.21	4318
903.328	4352
903.446	4341
903.565	4310
903.683	4379
903.801	4287
903.919	4383
904.038	4455
904.156	4371
904.274	4485
904.392	4440
904.51	4481
904.627	4481
904.745	4588
904.863	4653
904.981	4398
905.098	4348
905.216	4367
905.334	4451
905.451	4470
905.569	4485
905.686	4554
905.803	4634
905.921	4402
906.038	4592
906.155	4519
906.272	4405
906.389	4497
906.506	4379
906.623	4432
906.74	4436
906.857	4348
906.974	4417
907.091	4626
907.208	4664
907.324	4565
907.441	4512
907.557	4409
907.674	4356
907.79	4341
907.907	4424
908.023	4451
908.139	4527
908.256	4474
908.372	4516
908.488	4481
908.604	4383
908.72	4352
908.836	4398
908.952	4413
909.068	4459
909.184	4588
909.3	4538
909.415	4656
909.531	4584
909.647	4421
909.762	4371
909.878	4314
909.993	4459
910.108	4455
910.224	4443
910.339	4478
910.454	4402
910.57	4424
910.685	4306
910.8	4660
910.915	4596
911.03	4550
911.145	4367
911.259	4360
911.374	4417
911.489	4344
911.604	4310
911.718	4257
911.833	4257
911.947	4105
912.062	4063
912.176	4238
912.291	4261
912.405	4219
912.519	4504
912.633	4519
912.748	4375
912.862	4379
912.976	4211
913.09	4109
913.204	4181
913.318	4257
913.431	4367
913.545	4409
913.659	4436
913.772	4390
913.886	4272
914	4276
914.113	4375
914.226	4459
914.34	4440
914.453	4238
914.566	4455
914.68	4341
914.793	4348
914.906	4173
915.019	4154
915.132	4093
915.245	4204
915.358	4230
915.47	4280
915.583	4287
915.696	4329
915.809	4466
915.921	4462
916.034	4299
916.146	4249
916.259	4257
916.371	4360
916.483	4371
916.595	4276
916.708	4322
916.82	4314
916.932	4360
917.044	4333
917.156	4367
917.268	4230
917.38	4276
917.491	4291
917.603	4375
917.715	4455
917.826	4413
917.938	4394
918.049	4272
918.161	4398
918.272	4546
918.384	4531
918.495	4474
918.606	4276
918.717	4268
918.828	4402
918.939	4329
919.05	4310
919.161	4352
919.272	4158
919.383	4230
919.494	4497
919.604	4630
919.715	4481
919.826	4417
919.936	4436
920.047	4569
920.157	4516
920.267	4729
920.378	4569
920.488	4535
920.598	4714
920.708	4972
920.818	4812
920.928	4812
921.038	4995
921.148	4873
921.258	4660
921.368	4546
921.477	4554
921.587	4504
921.697	4432
921.806	4584
921.916	4443
922.025	4242
922.134	4287
922.244	4249
922.353	4325
922.462	4230
922.571	4139
922.68	4013
922.789	4017
922.898	4059
923.007	4025
923.116	4082
923.224	4071
923.333	4120
923.442	4021
923.55	4002
923.659	4067
923.767	4120
923.876	4010
923.984	4188
924.092	4010
924.201	4120
924.309	4147
924.417	4120
924.525	4040
924.633	4135
924.741	4938
924.849	3972
924.956	4090
925.064	4010
925.172	3934
925.279	3991
925.387	4067
925.494	4055
925.602	4230
925.709	4215
925.816	4063
925.924	4143
926.031	4265
926.138	4169
926.245	4249
926.352	4105
926.459	4287
926.566	4306
926.673	4207
926.779	4109
926.886	4040
926.993	4013
927.099	3915
927.206	3930
927.312	3960
927.419	4090
927.525	4059
927.631	4128
927.737	3964
927.843	3907
927.95	3816
928.056	3964
928.162	4002
928.267	4116
928.373	4748
928.479	4116
928.585	3876
928.69	4036
928.796	4101
928.901	3945
929.007	3865
929.112	4021
929.218	3994
929.323	3953
929.428	3987
929.533	4120
929.638	3983
929.743	3987
929.848	4105
929.953	4032
930.058	3937
930.163	3835
930.267	3865
930.372	4017
930.477	3854
930.581	4101
930.685	3972
930.79	3896
930.894	3922
930.998	3907
931.103	4101
931.207	3755
931.311	3724
931.415	3717
931.519	3561
931.623	3561
