Data from test_V78500241_1990.txt Node
Date: Fri Mar 25 17:02:50 CST 2022
User: usil
Spectrometer: V785-0024
Trigger mode: 0
Integration Time (sec): 4.000000E-1
Scans to average: 1
Nonlinearity correction enabled: false
Boxcar width: 0
Storing dark spectrum: false
XAxis mode: Wavelengths
Number of Pixels in Spectrum: 1024
>>>>>Begin Spectral Data<<<<<
801.071	8062
801.214	8005
801.356	7940
801.499	7894
801.641	7833
801.783	7875
801.926	8035
802.068	8043
802.211	7940
802.353	8031
802.496	7833
802.638	7917
802.78	7959
802.923	7963
803.065	7928
803.208	7925
803.35	8077
803.492	8134
803.635	8191
803.777	8077
803.919	8168
804.061	8461
804.204	8229
804.346	8092
804.488	8012
804.63	8123
804.773	7947
804.915	8164
805.057	8374
805.199	8119
805.341	8214
805.483	8271
805.626	8271
805.768	8157
805.91	8210
806.052	8298
806.194	8153
806.336	8290
806.478	8088
806.62	8103
806.762	8214
806.904	8324
807.046	8503
807.188	8442
807.33	8305
807.472	8400
807.614	8210
807.756	8157
807.898	8035
808.04	7974
808.182	7917
808.324	7925
808.465	7967
808.607	8145
808.749	8180
808.891	8244
809.033	8351
809.174	8221
809.316	8119
809.458	8100
809.6	8050
809.741	8107
809.883	8050
810.025	8092
810.166	8111
810.308	8035
810.45	8077
810.591	7860
810.733	7788
810.875	7715
811.016	7563
811.158	7445
811.299	7567
811.441	7715
811.582	7696
811.724	7514
811.865	7521
812.007	7609
812.148	7636
812.29	7651
812.431	7795
812.573	7875
812.714	7963
812.855	8183
812.997	8267
813.138	8339
813.279	8202
813.421	8065
813.562	7963
813.703	7856
813.845	7757
813.986	7464
814.127	7278
814.268	7274
814.41	7164
814.551	7221
814.692	7285
814.833	7122
814.974	7171
815.115	7221
815.256	6928
815.397	6924
815.539	6966
815.68	6890
815.821	6779
815.962	6882
816.103	6806
816.244	6726
816.385	6627
816.526	6658
816.666	6547
816.807	6296
816.948	6475
817.089	6479
817.23	6422
817.371	6429
817.512	6331
817.653	6399
817.793	6376
817.934	6452
818.075	6494
818.216	6448
818.356	6471
818.497	6266
818.638	6148
818.778	6167
818.919	6194
819.06	6148
819.2	6342
819.341	6372
819.481	6422
819.622	6574
819.762	6764
819.903	6738
820.043	6673
820.184	6589
820.324	6544
820.465	6722
820.605	6730
820.746	6692
820.886	6509
821.026	6635
821.167	6715
821.307	6818
821.447	6772
821.588	6696
821.728	6570
821.868	6532
822.008	6327
822.149	6410
822.289	6384
822.429	6175
822.569	6133
822.709	6129
822.849	5916
822.99	5923
823.13	5939
823.27	5882
823.41	5802
823.55	5878
823.69	5805
823.83	5813
823.97	5707
824.11	5570
824.25	5532
824.389	5585
824.529	5535
824.669	5554
824.809	5619
824.949	5703
825.089	5619
825.228	5573
825.368	5433
825.508	5383
825.648	5387
825.787	5436
825.927	5414
826.067	5360
826.206	5315
826.346	5406
826.485	5463
826.625	5459
826.765	5505
826.904	5509
827.044	5265
827.183	5269
827.323	5178
827.462	5250
827.601	5181
827.741	5204
827.88	5242
828.02	5121
828.159	5235
828.298	5288
828.437	5379
828.577	5326
828.716	5471
828.855	5376
828.994	5212
829.134	5151
829.273	5227
829.412	5128
829.551	5155
829.69	5189
829.829	5204
829.968	5391
830.107	5318
830.246	5250
830.385	5193
830.524	5170
830.663	5041
830.802	5010
830.941	4911
831.08	4900
831.219	5014
831.357	4984
831.496	5178
831.635	4953
831.774	4877
831.913	4866
832.051	4778
832.19	4721
832.329	4835
832.467	4729
832.606	4618
832.744	4714
832.883	4733
833.022	4801
833.16	4744
833.299	4801
833.437	4767
833.576	4877
833.714	4850
833.852	4938
833.991	4915
834.129	4995
834.267	4980
834.406	4934
834.544	5022
834.682	5033
834.821	5045
834.959	5174
835.097	4991
835.235	5189
835.373	5090
835.511	5117
835.65	5022
835.788	4984
835.926	4885
836.064	4911
836.202	4934
836.34	5166
836.478	5220
836.615	5128
836.753	5235
836.891	5250
837.029	5318
837.167	5212
837.305	5178
837.443	5189
837.58	5117
837.718	5254
837.856	5197
837.993	5124
838.131	5254
838.269	5246
838.406	5178
838.544	5201
838.681	5052
838.819	4987
838.956	4930
839.094	4942
839.231	5025
839.369	5117
839.506	5402
839.643	5288
839.781	5033
839.918	5033
840.055	5094
840.193	5086
840.33	5143
840.467	5102
840.604	5231
840.742	5455
840.879	5098
841.016	5124
841.153	5201
841.29	5379
841.427	5360
841.564	5334
841.701	5398
841.838	5296
841.975	5242
842.112	5273
842.249	5159
842.385	5140
842.522	5299
842.659	5231
842.796	5136
842.933	5269
843.069	5170
843.206	5189
843.343	5326
843.479	5288
843.616	5254
843.752	5041
843.889	5018
844.025	5231
844.162	5052
844.298	5254
844.435	5132
844.571	4984
844.708	5258
844.844	5364
844.98	5311
845.117	5292
845.253	5159
845.389	5124
845.525	5181
845.661	5227
845.798	5014
845.934	5083
846.07	5064
846.206	5197
846.342	5269
846.478	5147
846.614	4991
846.75	4957
846.886	4953
847.022	5166
847.158	5033
847.294	5067
847.429	5109
847.565	5094
847.701	5357
847.837	4866
847.972	4847
848.108	4961
848.244	5022
848.379	4824
848.515	4763
848.65	4694
848.786	4774
848.921	4850
849.057	4896
849.192	4908
849.328	4786
849.463	4946
849.598	4835
849.734	4698
849.869	4710
850.004	4626
850.14	4668
850.275	4607
850.41	4512
850.545	4577
850.68	4611
850.815	4626
850.95	4645
851.085	4786
851.22	4752
851.355	4649
851.49	4668
851.625	4634
851.76	4668
851.895	4554
852.03	4542
852.165	4653
852.299	4714
852.434	4816
852.569	4748
852.703	4801
852.838	4889
852.973	4938
853.107	4942
853.242	4717
853.376	4725
853.511	4584
853.645	4618
853.78	4797
853.914	4668
854.048	4683
854.183	4641
854.317	4702
854.451	4831
854.585	4683
854.72	4687
854.854	4752
854.988	4611
855.122	4641
855.256	4519
855.39	4691
855.524	4752
855.658	4744
855.792	4706
855.926	4759
856.06	4786
856.194	4797
856.327	4729
856.461	4675
856.595	4645
856.729	4641
856.862	4733
856.996	4714
857.13	4759
857.263	4763
857.397	4820
857.53	4668
857.664	4759
857.797	4771
857.931	4858
858.064	4672
858.197	4771
858.331	4649
858.464	4584
858.597	4542
858.731	4637
858.864	4641
858.997	4580
859.13	4668
859.263	4694
859.396	4679
859.529	4584
859.662	4550
859.795	4531
859.928	4653
860.061	4744
860.194	4774
860.327	4664
860.46	4561
860.592	4679
860.725	4733
860.858	4698
860.99	4599
861.123	4523
861.256	4550
861.388	4656
861.521	5181
861.653	4504
861.786	4459
861.918	4497
862.05	4573
862.183	4519
862.315	4588
862.447	4641
862.58	4512
862.712	4383
862.844	4295
862.976	4451
863.108	4451
863.24	4771
863.372	4348
863.504	4390
863.636	4417
863.768	4481
863.9	4451
864.032	4421
864.164	4424
864.296	4504
864.428	4550
864.559	4550
864.691	4577
864.823	4531
864.954	4459
865.086	4481
865.217	4485
865.349	4402
865.48	4440
865.612	4485
865.743	4615
865.875	4500
866.006	4470
866.137	4459
866.269	4398
866.4	4462
866.531	4383
866.662	4394
866.793	4428
866.924	4428
867.055	4538
867.186	4462
867.317	4447
867.448	4333
867.579	4405
867.71	4352
867.841	4375
867.972	4451
868.103	4466
868.233	4466
868.364	4466
868.495	4497
868.625	4641
868.756	4717
868.886	4558
869.017	4649
869.147	4752
869.278	4725
869.408	4702
869.539	4641
869.669	4729
869.799	4592
869.929	4763
870.06	4755
870.19	4953
870.32	4919
870.45	4965
870.58	5048
870.71	5086
870.84	5140
870.97	4957
871.1	4889
871.23	5155
871.36	5113
871.489	5010
871.619	5048
871.749	5121
871.879	5117
872.008	5178
872.138	5025
872.267	5003
872.397	4862
872.526	4809
872.656	4744
872.785	4786
872.915	4995
873.044	4995
873.173	4938
873.303	4968
873.432	4957
873.561	4984
873.69	4877
873.819	4870
873.948	4949
874.077	4805
874.206	4759
874.335	4835
874.464	4934
874.593	5029
874.722	4984
874.851	5121
874.979	5064
875.108	5041
875.237	4885
875.365	4911
875.494	4908
875.623	5037
875.751	4801
875.88	4843
876.008	4999
876.136	5109
876.265	5185
876.393	5315
876.521	5254
876.65	5265
876.778	5151
876.906	5045
877.034	4995
877.162	5029
877.29	5075
877.418	5079
877.546	5045
877.674	5102
877.802	5022
877.93	5010
878.058	4968
878.185	4793
878.313	4965
878.441	4915
878.568	4831
878.696	4862
878.824	4930
878.951	5018
879.079	5105
879.206	5223
879.333	5128
879.461	4984
879.588	4995
879.715	5124
879.842	5299
879.97	5025
880.097	4820
880.224	4736
880.351	4774
880.478	4854
880.605	4733
880.732	4820
880.859	5143
880.986	4885
881.112	4919
881.239	4824
881.366	4660
881.493	4649
881.619	4580
881.746	4660
881.872	4634
881.999	4637
882.125	4706
882.252	4797
882.378	4839
882.505	4949
882.631	4755
882.757	4653
882.883	4755
883.01	4790
883.136	4641
883.262	4580
883.388	4588
883.514	4771
883.64	4854
883.766	4835
883.892	4672
884.018	4717
884.143	4885
884.269	5064
884.395	4691
884.52	4649
884.646	4630
884.772	4580
884.897	4542
885.023	4656
885.148	4793
885.274	4873
885.399	4828
885.524	4778
885.65	4748
885.775	4748
885.9	4729
886.025	4831
886.15	4786
886.275	4736
886.4	4622
886.525	4759
886.65	4721
886.775	4691
886.9	4892
887.025	4976
887.149	4759
887.274	4599
887.399	4580
887.523	4596
887.648	4577
887.773	4554
887.897	4763
888.021	4774
888.146	4634
888.27	4782
888.395	4919
888.519	4790
888.643	4809
888.767	4820
888.891	4641
889.015	4615
889.139	4611
889.263	4603
889.387	4740
889.511	4862
889.635	4816
889.759	4668
889.883	4603
890.006	4710
890.13	4862
890.254	4660
890.377	4660
890.501	4538
890.624	4538
890.748	4603
890.871	4493
890.995	4428
891.118	4383
891.241	4462
891.364	4577
891.488	4683
891.611	4470
891.734	4554
891.857	4634
891.98	4573
892.103	4626
892.226	4607
892.349	4531
892.471	4443
892.594	4535
892.717	4641
892.839	4558
892.962	4569
893.085	4634
893.207	4615
893.33	4497
893.452	4527
893.575	4668
893.697	4504
893.819	4774
893.941	4885
894.064	4736
894.186	4550
894.308	4588
894.43	4725
894.552	4790
894.674	4782
894.796	4508
894.918	4611
895.04	4546
895.161	4736
895.283	4649
895.405	4565
895.526	4626
895.648	4672
895.769	4698
895.891	4744
896.012	4763
896.134	4679
896.255	4660
896.376	4622
896.498	4641
896.619	4714
896.74	4603
896.861	4649
896.982	4953
897.103	5056
897.224	4824
897.345	4752
897.466	4672
897.587	4717
897.708	4831
897.828	4778
897.949	4634
898.07	4577
898.19	4611
898.311	4805
898.431	4706
898.552	4744
898.672	4812
898.792	4763
898.913	4729
899.033	4649
899.153	4512
899.273	4402
899.393	4527
899.513	4493
899.633	4527
899.753	4523
899.873	4519
899.993	4573
900.113	4508
900.232	4596
900.352	4493
900.472	4497
900.591	4409
900.711	4500
900.83	4428
900.95	4596
901.069	4679
901.189	4508
901.308	4325
901.427	4314
901.546	4405
901.665	4455
901.784	4474
901.904	4394
902.023	4344
902.141	4230
902.26	4162
902.379	4295
902.498	4234
902.617	4238
902.735	4360
902.854	4428
902.973	4360
903.091	4196
903.21	4238
903.328	4276
903.446	4234
903.565	4287
903.683	4394
903.801	4227
903.919	4360
904.038	4413
904.156	4322
904.274	4447
904.392	4394
904.51	4443
904.627	4478
904.745	4607
904.863	4660
904.981	4402
905.098	4303
905.216	4363
905.334	4394
905.451	4489
905.569	4405
905.686	4527
905.803	4546
905.921	4428
906.038	4561
906.155	4478
906.272	4409
906.389	4451
906.506	4352
906.623	4341
906.74	4398
906.857	4314
906.974	4375
907.091	4588
907.208	4683
907.324	4558
907.441	4508
907.557	4360
907.674	4325
907.79	4310
907.907	4402
908.023	4493
908.139	4466
908.256	4474
908.372	4478
908.488	4432
908.604	4356
908.72	4356
908.836	4360
908.952	4352
909.068	4421
909.184	4592
909.3	4481
909.415	4599
909.531	4527
909.647	4356
909.762	4375
909.878	4299
909.993	4474
910.108	4409
910.224	4398
910.339	4421
910.454	4390
910.57	4356
910.685	4272
910.8	4626
910.915	4596
911.03	4508
911.145	4344
911.259	4299
911.374	4367
911.489	4280
911.604	4299
911.718	4154
911.833	4188
911.947	4105
912.062	4025
912.176	4215
912.291	4261
912.405	4246
912.519	4455
912.633	4493
912.748	4344
912.862	4352
912.976	4238
913.09	4074
913.204	4211
913.318	4215
913.431	4394
913.545	4390
913.659	4474
913.772	4360
913.886	4253
914	4219
914.113	4363
914.226	4436
914.34	4398
914.453	4207
914.566	4390
914.68	4268
914.793	4325
914.906	4173
915.019	4143
915.132	4093
915.245	4177
915.358	4211
915.47	4272
915.583	4265
915.696	4287
915.809	4379
915.921	4398
916.034	4230
916.146	4249
916.259	4238
916.371	4348
916.483	4348
916.595	4261
916.708	4306
916.82	4295
916.932	4352
917.044	4295
917.156	4310
917.268	4230
917.38	4284
917.491	4291
917.603	4352
917.715	4367
917.826	4489
917.938	4371
918.049	4207
918.161	4417
918.272	4538
918.384	4577
918.495	4432
918.606	4276
918.717	4253
918.828	4337
918.939	4306
919.05	4265
919.161	4306
919.272	4120
919.383	4257
919.494	4455
919.604	4573
919.715	4405
919.826	4318
919.936	4390
920.047	4565
920.157	4470
920.267	4706
920.378	4584
920.488	4504
920.598	4725
920.708	4896
920.818	4752
920.928	4721
921.038	4930
921.148	4923
921.258	4656
921.368	4538
921.477	4497
921.587	4421
921.697	4371
921.806	4481
921.916	4386
922.025	4280
922.134	4265
922.244	4204
922.353	4310
922.462	4162
922.571	4150
922.68	4006
922.789	3949
922.898	4055
923.007	3979
923.116	4101
923.224	4078
923.333	4067
923.442	3975
923.55	3968
923.659	4002
923.767	4135
923.876	3979
923.984	4101
924.092	3972
924.201	4059
924.309	4059
924.417	4109
924.525	4059
924.633	4124
924.741	5037
924.849	3896
924.956	4124
925.064	3953
925.172	3941
925.279	3945
925.387	4029
925.494	4029
925.602	4257
925.709	4139
925.816	4025
925.924	4101
926.031	4230
926.138	4147
926.245	4185
926.352	4093
926.459	4249
926.566	4287
926.673	4150
926.779	4059
926.886	4059
926.993	3972
927.099	3968
927.206	3922
927.312	3930
927.419	3998
927.525	4010
927.631	4086
927.737	3937
927.843	3915
927.95	3800
928.056	3930
928.162	3975
928.267	4048
928.373	4573
928.479	4112
928.585	3922
928.69	4044
928.796	4040
928.901	3968
929.007	3842
929.112	3968
929.218	3975
929.323	3956
929.428	3975
929.533	4078
929.638	3911
929.743	3991
929.848	4048
929.953	4006
930.058	3918
930.163	3747
930.267	3850
930.372	3937
930.477	3755
930.581	4078
930.685	3930
930.79	3778
930.894	3922
930.998	3823
931.103	3998
931.207	3701
931.311	3686
931.415	3663
931.519	3496
931.623	3504
