Data from test_V78500241_435.txt Node
Date: Fri Mar 25 16:52:01 CST 2022
User: usil
Spectrometer: V785-0024
Trigger mode: 0
Integration Time (sec): 4.000000E-1
Scans to average: 1
Nonlinearity correction enabled: false
Boxcar width: 0
Storing dark spectrum: false
XAxis mode: Wavelengths
Number of Pixels in Spectrum: 1024
>>>>>Begin Spectral Data<<<<<
801.071	8031
801.214	8035
801.356	7917
801.499	7879
801.641	7795
801.783	7925
801.926	8073
802.068	7989
802.211	7963
802.353	7989
802.496	7887
802.638	7944
802.78	7982
802.923	7993
803.065	7890
803.208	7917
803.35	7951
803.492	8092
803.635	8142
803.777	8035
803.919	8157
804.061	8427
804.204	8218
804.346	8062
804.488	7970
804.63	8046
804.773	8008
804.915	8126
805.057	8317
805.199	8214
805.341	8248
805.483	8263
805.626	8092
805.768	8046
805.91	8092
806.052	8244
806.194	8050
806.336	8286
806.478	8153
806.62	8115
806.762	8157
806.904	8202
807.046	8385
807.188	8328
807.33	8225
807.472	8256
807.614	8145
807.756	8126
807.898	8005
808.04	7868
808.182	7955
808.324	8027
808.465	7959
808.607	8012
808.749	8054
808.891	8123
809.033	8252
809.174	8195
809.316	8084
809.458	8119
809.6	7986
809.741	8065
809.883	8012
810.025	8084
810.166	8107
810.308	8107
810.45	8031
810.591	7833
810.733	7715
810.875	7601
811.016	7575
811.158	7521
811.299	7613
811.441	7704
811.582	7708
811.724	7575
811.865	7616
812.007	7605
812.148	7559
812.29	7643
812.431	7799
812.573	7913
812.714	8058
812.855	8218
812.997	8195
813.138	8377
813.279	8202
813.421	8161
813.562	8062
813.703	7890
813.845	7830
813.986	7506
814.127	7358
814.268	7266
814.41	7198
814.551	7209
814.692	7206
814.833	7103
814.974	7072
815.115	7080
815.256	6951
815.397	7012
815.539	6951
815.68	6821
815.821	6859
815.962	6943
816.103	6894
816.244	6783
816.385	6635
816.526	6665
816.666	6460
816.807	6296
816.948	6483
817.089	6483
817.23	6486
817.371	6414
817.512	6391
817.653	6384
817.793	6391
817.934	6384
818.075	6445
818.216	6422
818.356	6372
818.497	6296
818.638	6133
818.778	6136
818.919	6148
819.06	6144
819.2	6323
819.341	6315
819.481	6376
819.622	6506
819.762	6791
819.903	6681
820.043	6654
820.184	6608
820.324	6616
820.465	6707
820.605	6673
820.746	6578
820.886	6506
821.026	6700
821.167	6749
821.307	6818
821.447	6738
821.588	6646
821.728	6612
821.868	6452
822.008	6331
822.149	6380
822.289	6407
822.429	6133
822.569	6034
822.709	6136
822.849	5931
822.99	5901
823.13	5923
823.27	5923
823.41	5779
823.55	5813
823.69	5737
823.83	5783
823.97	5695
824.11	5524
824.25	5490
824.389	5554
824.529	5570
824.669	5528
824.809	5646
824.949	5653
825.089	5573
825.228	5596
825.368	5387
825.508	5368
825.648	5364
825.787	5360
825.927	5364
826.067	5353
826.206	5265
826.346	5372
826.485	5379
826.625	5429
826.765	5566
826.904	5467
827.044	5231
827.183	5220
827.323	5155
827.462	5307
827.601	5170
827.741	5140
827.88	5189
828.02	5132
828.159	5235
828.298	5299
828.437	5360
828.577	5318
828.716	5463
828.855	5322
828.994	5140
829.134	5136
829.273	5201
829.412	5143
829.551	5147
829.69	5193
829.829	5273
829.968	5368
830.107	5239
830.246	5326
830.385	5132
830.524	5117
830.663	5094
830.802	4972
830.941	4873
831.08	4870
831.219	4946
831.357	4938
831.496	5136
831.635	4961
831.774	4866
831.913	4831
832.051	4763
832.19	4793
832.329	4866
832.467	4714
832.606	4668
832.744	4706
832.883	4725
833.022	4736
833.16	4820
833.299	4839
833.437	4854
833.576	4812
833.714	4862
833.852	4831
833.991	4885
834.129	4961
834.267	4919
834.406	4923
834.544	5022
834.682	4961
834.821	5014
834.959	5121
835.097	4972
835.235	5136
835.373	5094
835.511	5102
835.65	5067
835.788	5045
835.926	4881
836.064	4866
836.202	4919
836.34	5121
836.478	5258
836.615	5124
836.753	5208
836.891	5250
837.029	5258
837.167	5220
837.305	5174
837.443	5136
837.58	5071
837.718	5239
837.856	5155
837.993	5178
838.131	5193
838.269	5242
838.406	5231
838.544	5166
838.681	5041
838.819	5048
838.956	4904
839.094	4934
839.231	4980
839.369	5071
839.506	5383
839.643	5307
839.781	5079
839.918	4991
840.055	5124
840.193	5109
840.33	5083
840.467	5151
840.604	5201
840.742	5414
840.879	5083
841.016	5109
841.153	5113
841.29	5364
841.427	5334
841.564	5261
841.701	5387
841.838	5261
841.975	5261
842.112	5261
842.249	5189
842.385	5132
842.522	5307
842.659	5178
842.796	5162
842.933	5181
843.069	5136
843.206	5159
843.343	5296
843.479	5288
843.616	5284
843.752	5022
843.889	5056
844.025	5185
844.162	4987
844.298	5216
844.435	5067
844.571	5086
844.708	5212
844.844	5315
844.98	5364
845.117	5303
845.253	5098
845.389	5048
845.525	5117
845.661	5147
845.798	5079
845.934	5136
846.07	5075
846.206	5189
846.342	5269
846.478	5155
846.614	5014
846.75	4980
846.886	4949
847.022	5147
847.158	5025
847.294	5067
847.429	5094
847.565	5056
847.701	5364
847.837	4858
847.972	4805
848.108	4927
848.244	4949
848.379	4774
848.515	4717
848.65	4733
848.786	4748
848.921	4797
849.057	4854
849.192	4854
849.328	4812
849.463	4877
849.598	4786
849.734	4740
849.869	4733
850.004	4656
850.14	4706
850.275	4603
850.41	4504
850.545	4592
850.68	4599
850.815	4596
850.95	4656
851.085	4911
851.22	4748
851.355	4714
851.49	4656
851.625	4653
851.76	4653
851.895	4580
852.03	4554
852.165	4672
852.299	4698
852.434	4797
852.569	4801
852.703	4767
852.838	4839
852.973	4911
853.107	4968
853.242	4714
853.376	4675
853.511	4588
853.645	4637
853.78	4801
853.914	4706
854.048	4634
854.183	4634
854.317	4725
854.451	4850
854.585	4725
854.72	4622
854.854	4782
854.988	4596
855.122	4653
855.256	4523
855.39	4672
855.524	4748
855.658	4771
855.792	4717
855.926	4752
856.06	4763
856.194	4801
856.327	4664
856.461	4611
856.595	4580
856.729	4603
856.862	4748
856.996	4736
857.13	4706
857.263	4752
857.397	4801
857.53	4660
857.664	4710
857.797	4759
857.931	4759
858.064	4679
858.197	4763
858.331	4675
858.464	4615
858.597	4516
858.731	4596
858.864	4649
858.997	4546
859.13	4672
859.263	4694
859.396	4664
859.529	4596
859.662	4569
859.795	4519
859.928	4626
860.061	4763
860.194	4786
860.327	4599
860.46	4580
860.592	4717
860.725	4721
860.858	4740
860.99	4596
861.123	4500
861.256	4500
861.388	4607
861.521	5387
861.653	4466
861.786	4421
861.918	4447
862.05	4531
862.183	4554
862.315	4584
862.447	4622
862.58	4535
862.712	4390
862.844	4348
862.976	4455
863.108	4432
863.24	4763
863.372	4344
863.504	4409
863.636	4417
863.768	4516
863.9	4455
864.032	4310
864.164	4478
864.296	4470
864.428	4542
864.559	4573
864.691	4531
864.823	4577
864.954	4516
865.086	4485
865.217	4447
865.349	4440
865.48	4478
865.612	4497
865.743	4584
865.875	4451
866.006	4432
866.137	4508
866.269	4493
866.4	4436
866.531	4383
866.662	4443
866.793	4432
866.924	4394
867.055	4481
867.186	4481
867.317	4428
867.448	4318
867.579	4421
867.71	4402
867.841	4379
867.972	4478
868.103	4516
868.233	4436
868.364	4466
868.495	4489
868.625	4710
868.756	4755
868.886	4588
869.017	4603
869.147	4710
869.278	4752
869.408	4615
869.539	4660
869.669	4767
869.799	4637
869.929	4744
870.06	4748
870.19	4976
870.32	4911
870.45	4900
870.58	5010
870.71	5086
870.84	5064
870.97	4987
871.1	4873
871.23	5117
871.36	5124
871.489	5010
871.619	5075
871.749	5109
871.879	5098
872.008	5189
872.138	5025
872.267	4965
872.397	4850
872.526	4824
872.656	4706
872.785	4790
872.915	4919
873.044	5018
873.173	4980
873.303	4881
873.432	4949
873.561	4965
873.69	4904
873.819	4915
873.948	4934
874.077	4782
874.206	4771
874.335	4782
874.464	4911
874.593	5025
874.722	4972
874.851	5098
874.979	5124
875.108	5056
875.237	4900
875.365	4862
875.494	4873
875.623	4968
875.751	4809
875.88	4889
876.008	4991
876.136	5037
876.265	5166
876.393	5322
876.521	5239
876.65	5216
876.778	5117
876.906	5083
877.034	5003
877.162	4965
877.29	5014
877.418	5071
877.546	5037
877.674	5022
877.802	5003
877.93	5045
878.058	4965
878.185	4892
878.313	5006
878.441	4934
878.568	4831
878.696	4892
878.824	4949
878.951	4968
879.079	5162
879.206	5231
879.333	5105
879.461	4946
879.588	5006
879.715	5102
879.842	5227
879.97	5056
880.097	4774
880.224	4729
880.351	4809
880.478	4809
880.605	4793
880.732	4797
880.859	5071
880.986	4904
881.112	4911
881.239	4797
881.366	4698
881.493	4618
881.619	4596
881.746	4656
881.872	4668
881.999	4641
882.125	4725
882.252	4793
882.378	4835
882.505	4911
882.631	4824
882.757	4637
882.883	4729
883.01	4634
883.136	4634
883.262	4584
883.388	4656
883.514	4812
883.64	4911
883.766	4797
883.892	4626
884.018	4721
884.143	4843
884.269	5041
884.395	4683
884.52	4599
884.646	4668
884.772	4538
884.897	4542
885.023	4668
885.148	4809
885.274	4835
885.399	4793
885.524	4691
885.65	4660
885.775	4714
885.9	4717
886.025	4854
886.15	4740
886.275	4717
886.4	4675
886.525	4740
886.65	4649
886.775	4634
886.9	4919
887.025	5064
887.149	4824
887.274	4649
887.399	4599
887.523	4577
887.648	4569
887.773	4584
887.897	4733
888.021	4778
888.146	4679
888.27	4774
888.395	4904
888.519	4812
888.643	4862
888.767	4870
888.891	4725
889.015	4637
889.139	4656
889.263	4596
889.387	4778
889.511	4896
889.635	4854
889.759	4698
889.883	4622
890.006	4740
890.13	4900
890.254	4634
890.377	4755
890.501	4584
890.624	4565
890.748	4683
890.871	4519
890.995	4470
891.118	4447
891.241	4538
891.364	4584
891.488	4653
891.611	4558
891.734	4565
891.857	4706
891.98	4615
892.103	4706
892.226	4637
892.349	4561
892.471	4451
892.594	4588
892.717	4672
892.839	4622
892.962	4611
893.085	4683
893.207	4668
893.33	4550
893.452	4584
893.575	4740
893.697	4611
893.819	4812
893.941	4889
894.064	4828
894.186	4596
894.308	4611
894.43	4790
894.552	4858
894.674	4755
894.796	4607
894.918	4645
895.04	4607
895.161	4755
895.283	4733
895.405	4634
895.526	4668
895.648	4733
895.769	4771
895.891	4816
896.012	4774
896.134	4786
896.255	4675
896.376	4664
896.498	4649
896.619	4714
896.74	4630
896.861	4683
896.982	4938
897.103	5143
897.224	4927
897.345	4774
897.466	4710
897.587	4729
897.708	4889
897.828	4839
897.949	4733
898.07	4565
898.19	4679
898.311	4854
898.431	4694
898.552	4752
898.672	4877
898.792	4820
898.913	4790
899.033	4687
899.153	4603
899.273	4470
899.393	4523
899.513	4561
899.633	4500
899.753	4565
899.873	4531
899.993	4645
900.113	4577
900.232	4592
900.352	4508
900.472	4558
900.591	4470
900.711	4569
900.83	4489
900.95	4637
901.069	4725
901.189	4599
901.308	4417
901.427	4341
901.546	4398
901.665	4516
901.784	4573
901.904	4459
902.023	4329
902.141	4253
902.26	4181
902.379	4337
902.498	4306
902.617	4306
902.735	4413
902.854	4432
902.973	4432
903.091	4257
903.21	4265
903.328	4325
903.446	4303
903.565	4329
903.683	4329
903.801	4325
903.919	4459
904.038	4504
904.156	4394
904.274	4481
904.392	4428
904.51	4424
904.627	4478
904.745	4599
904.863	4630
904.981	4455
905.098	4375
905.216	4398
905.334	4440
905.451	4436
905.569	4504
905.686	4592
905.803	4630
905.921	4413
906.038	4535
906.155	4504
906.272	4421
906.389	4500
906.506	4375
906.623	4390
906.74	4481
906.857	4375
906.974	4421
907.091	4558
907.208	4740
907.324	4668
907.441	4577
907.557	4367
907.674	4428
907.79	4394
907.907	4398
908.023	4519
908.139	4497
908.256	4443
908.372	4523
908.488	4489
908.604	4402
908.72	4322
908.836	4436
908.952	4405
909.068	4470
909.184	4584
909.3	4546
909.415	4611
909.531	4577
909.647	4432
909.762	4436
909.878	4375
909.993	4451
910.108	4512
910.224	4466
910.339	4554
910.454	4443
910.57	4348
910.685	4314
910.8	4721
910.915	4630
911.03	4538
911.145	4375
911.259	4375
911.374	4417
911.489	4352
911.604	4318
911.718	4188
911.833	4287
911.947	4166
912.062	4051
912.176	4284
912.291	4253
912.405	4314
912.519	4531
912.633	4512
912.748	4398
912.862	4390
912.976	4249
913.09	4143
913.204	4280
913.318	4284
913.431	4443
913.545	4363
913.659	4474
913.772	4394
913.886	4261
914	4299
914.113	4398
914.226	4462
914.34	4447
914.453	4261
914.566	4497
914.68	4371
914.793	4394
914.906	4200
915.019	4162
915.132	4128
915.245	4177
915.358	4268
915.47	4253
915.583	4344
915.696	4356
915.809	4470
915.921	4436
916.034	4287
916.146	4306
916.259	4246
916.371	4356
916.483	4348
916.595	4318
916.708	4333
916.82	4333
916.932	4356
917.044	4356
917.156	4383
917.268	4287
917.38	4299
917.491	4318
917.603	4383
917.715	4485
917.826	4455
917.938	4322
918.049	4253
918.161	4428
918.272	4645
918.384	4573
918.495	4481
918.606	4394
918.717	4280
918.828	4348
918.939	4405
919.05	4348
919.161	4352
919.272	4185
919.383	4242
919.494	4466
919.604	4668
919.715	4459
919.826	4421
919.936	4459
920.047	4550
920.157	4497
920.267	4797
920.378	4573
920.488	4569
920.598	4771
920.708	4938
920.818	4805
920.928	4774
921.038	5014
921.148	4911
921.258	4672
921.368	4565
921.477	4569
921.587	4508
921.697	4394
921.806	4592
921.916	4440
922.025	4299
922.134	4329
922.244	4238
922.353	4344
922.462	4207
922.571	4181
922.68	4017
922.789	4017
922.898	4071
923.007	3991
923.116	4150
923.224	4078
923.333	4097
923.442	4044
923.55	4002
923.659	4063
923.767	4147
923.876	4017
923.984	4150
924.092	3941
924.201	4093
924.309	4086
924.417	4158
924.525	4071
924.633	4120
924.741	5022
924.849	3956
924.956	4131
925.064	4006
925.172	3953
925.279	3975
925.387	4086
925.494	4097
925.602	4261
925.709	4196
925.816	4086
925.924	4200
926.031	4242
926.138	4162
926.245	4223
926.352	4158
926.459	4238
926.566	4333
926.673	4158
926.779	4101
926.886	4078
926.993	3991
927.099	3983
927.206	3968
927.312	3964
927.419	4044
927.525	4048
927.631	4139
927.737	4002
927.843	3972
927.95	3865
928.056	4002
928.162	4002
928.267	4055
928.373	4740
928.479	4169
928.585	3888
928.69	4010
928.796	4074
928.901	3991
929.007	3911
929.112	4048
929.218	4017
929.323	3975
929.428	3979
929.533	4150
929.638	3922
929.743	4006
929.848	4040
929.953	4051
930.058	3994
930.163	3842
930.267	3865
930.372	4048
930.477	3808
930.581	4124
930.685	3941
930.79	3838
930.894	3896
930.998	3888
931.103	4128
931.207	3762
931.311	3686
931.415	3660
931.519	3595
931.623	3595
