Data from test_V78500241_949.txt Node
Date: Fri Mar 25 16:55:36 CST 2022
User: usil
Spectrometer: V785-0024
Trigger mode: 0
Integration Time (sec): 4.000000E-1
Scans to average: 1
Nonlinearity correction enabled: false
Boxcar width: 0
Storing dark spectrum: false
XAxis mode: Wavelengths
Number of Pixels in Spectrum: 1024
>>>>>Begin Spectral Data<<<<<
801.071	7974
801.214	8012
801.356	7932
801.499	7909
801.641	7830
801.783	7871
801.926	7955
802.068	7989
802.211	7944
802.353	8001
802.496	7837
802.638	7849
802.78	7951
802.923	7921
803.065	7913
803.208	7833
803.35	7974
803.492	8103
803.635	8191
803.777	8043
803.919	8142
804.061	8347
804.204	8100
804.346	8043
804.488	7940
804.63	8123
804.773	8005
804.915	8172
805.057	8275
805.199	8126
805.341	8214
805.483	8252
805.626	8149
805.768	8153
805.91	8199
806.052	8145
806.194	8111
806.336	8328
806.478	8096
806.62	8043
806.762	8187
806.904	8248
807.046	8518
807.188	8415
807.33	8301
807.472	8328
807.614	8103
807.756	8153
807.898	8084
808.04	7932
808.182	7890
808.324	7849
808.465	7917
808.607	8039
808.749	8145
808.891	8214
809.033	8328
809.174	8180
809.316	8081
809.458	8123
809.6	7936
809.741	8073
809.883	8065
810.025	8062
810.166	8024
810.308	7997
810.45	8020
810.591	7936
810.733	7746
810.875	7647
811.016	7537
811.158	7483
811.299	7624
811.441	7734
811.582	7666
811.724	7559
811.865	7529
812.007	7514
812.148	7567
812.29	7639
812.431	7715
812.573	7894
812.714	7974
812.855	8088
812.997	8183
813.138	8309
813.279	8195
813.421	8115
813.562	8039
813.703	7860
813.845	7765
813.986	7499
814.127	7331
814.268	7274
814.41	7183
814.551	7103
814.692	7164
814.833	7027
814.974	7099
815.115	7084
815.256	6932
815.397	6920
815.539	6989
815.68	6878
815.821	6821
815.962	6863
816.103	6840
816.244	6745
816.385	6688
816.526	6604
816.666	6460
816.807	6338
816.948	6395
817.089	6479
817.23	6456
817.371	6391
817.512	6384
817.653	6414
817.793	6376
817.934	6445
818.075	6471
818.216	6467
818.356	6380
818.497	6216
818.638	6140
818.778	6106
818.919	6136
819.06	6159
819.2	6346
819.341	6331
819.481	6311
819.622	6593
819.762	6726
819.903	6711
820.043	6631
820.184	6601
820.324	6570
820.465	6631
820.605	6662
820.746	6673
820.886	6528
821.026	6662
821.167	6719
821.307	6730
821.447	6776
821.588	6692
821.728	6604
821.868	6483
822.008	6369
822.149	6308
822.289	6391
822.429	6152
822.569	6102
822.709	6106
822.849	5882
822.99	5889
823.13	5901
823.27	5908
823.41	5748
823.55	5836
823.69	5745
823.83	5726
823.97	5642
824.11	5570
824.25	5509
824.389	5497
824.529	5589
824.669	5543
824.809	5638
824.949	5623
825.089	5592
825.228	5562
825.368	5440
825.508	5334
825.648	5353
825.787	5334
825.927	5296
826.067	5273
826.206	5315
826.346	5410
826.485	5383
826.625	5414
826.765	5547
826.904	5459
827.044	5193
827.183	5162
827.323	5121
827.462	5235
827.601	5189
827.741	5216
827.88	5250
828.02	5124
828.159	5227
828.298	5284
828.437	5376
828.577	5307
828.716	5509
828.855	5334
828.994	5121
829.134	5132
829.273	5159
829.412	5140
829.551	5132
829.69	5151
829.829	5235
829.968	5334
830.107	5227
830.246	5326
830.385	5143
830.524	5147
830.663	5086
830.802	4976
830.941	4911
831.08	4881
831.219	4995
831.357	4987
831.496	5201
831.635	4949
831.774	4831
831.913	4854
832.051	4774
832.19	4759
832.329	4858
832.467	4691
832.606	4611
832.744	4714
832.883	4767
833.022	4710
833.16	4767
833.299	4870
833.437	4797
833.576	4786
833.714	4828
833.852	4877
833.991	4889
834.129	4987
834.267	4942
834.406	4942
834.544	4934
834.682	4995
834.821	4927
834.959	5174
835.097	5037
835.235	5140
835.373	5105
835.511	5086
835.65	4991
835.788	5006
835.926	4866
836.064	4885
836.202	4927
836.34	5223
836.478	5227
836.615	5075
836.753	5212
836.891	5296
837.029	5216
837.167	5197
837.305	5151
837.443	5147
837.58	5075
837.718	5303
837.856	5212
837.993	5121
838.131	5231
838.269	5117
838.406	5204
838.544	5193
838.681	5025
838.819	5003
838.956	4949
839.094	4957
839.231	4999
839.369	5083
839.506	5410
839.643	5258
839.781	5033
839.918	4987
840.055	5067
840.193	5105
840.33	5105
840.467	5155
840.604	5132
840.742	5425
840.879	5102
841.016	5162
841.153	5136
841.29	5311
841.427	5341
841.564	5341
841.701	5334
841.838	5239
841.975	5227
842.112	5181
842.249	5094
842.385	5083
842.522	5288
842.659	5162
842.796	5174
842.933	5128
843.069	5147
843.206	5140
843.343	5235
843.479	5235
843.616	5280
843.752	5033
843.889	5006
844.025	5208
844.162	5022
844.298	5181
844.435	5079
844.571	5052
844.708	5193
844.844	5250
844.98	5322
845.117	5250
845.253	5113
845.389	5071
845.525	5147
845.661	5117
845.798	5048
845.934	5102
846.07	5052
846.206	5201
846.342	5288
846.478	5166
846.614	5022
846.75	4957
846.886	4866
847.022	5155
847.158	4999
847.294	5071
847.429	5102
847.565	5075
847.701	5273
847.837	4866
847.972	4809
848.108	4927
848.244	4915
848.379	4774
848.515	4733
848.65	4698
848.786	4736
848.921	4774
849.057	4877
849.192	4889
849.328	4847
849.463	4812
849.598	4763
849.734	4767
849.869	4691
850.004	4645
850.14	4641
850.275	4603
850.41	4516
850.545	4535
850.68	4645
850.815	4569
850.95	4660
851.085	4828
851.22	4744
851.355	4645
851.49	4622
851.625	4618
851.76	4618
851.895	4554
852.03	4512
852.165	4611
852.299	4725
852.434	4801
852.569	4744
852.703	4763
852.838	4835
852.973	4915
853.107	4965
853.242	4736
853.376	4717
853.511	4626
853.645	4611
853.78	4790
853.914	4679
854.048	4607
854.183	4672
854.317	4660
854.451	4843
854.585	4660
854.72	4630
854.854	4755
854.988	4573
855.122	4622
855.256	4508
855.39	4656
855.524	4820
855.658	4702
855.792	4683
855.926	4740
856.06	4725
856.194	4782
856.327	4672
856.461	4622
856.595	4596
856.729	4615
856.862	4740
856.996	4672
857.13	4725
857.263	4721
857.397	4839
857.53	4630
857.664	4710
857.797	4774
857.931	4755
858.064	4668
858.197	4736
858.331	4622
858.464	4618
858.597	4497
858.731	4679
858.864	4603
858.997	4569
859.13	4599
859.263	4679
859.396	4694
859.529	4565
859.662	4538
859.795	4542
859.928	4588
860.061	4778
860.194	4748
860.327	4588
860.46	4550
860.592	4729
860.725	4721
860.858	4721
860.99	4577
861.123	4459
861.256	4535
861.388	4611
861.521	5151
861.653	4459
861.786	4405
861.918	4466
862.05	4523
862.183	4580
862.315	4569
862.447	4603
862.58	4584
862.712	4337
862.844	4287
862.976	4493
863.108	4451
863.24	4729
863.372	4363
863.504	4443
863.636	4333
863.768	4428
863.9	4470
864.032	4318
864.164	4352
864.296	4451
864.428	4497
864.559	4558
864.691	4558
864.823	4493
864.954	4519
865.086	4500
865.217	4409
865.349	4390
865.48	4428
865.612	4451
865.743	4637
865.875	4462
866.006	4390
866.137	4413
866.269	4447
866.4	4428
866.531	4436
866.662	4386
866.793	4375
866.924	4436
867.055	4512
867.186	4409
867.317	4428
867.448	4329
867.579	4363
867.71	4440
867.841	4348
867.972	4470
868.103	4455
868.233	4413
868.364	4451
868.495	4504
868.625	4626
868.756	4752
868.886	4569
869.017	4607
869.147	4748
869.278	4740
869.408	4653
869.539	4630
869.669	4729
869.799	4679
869.929	4702
870.06	4725
870.19	4972
870.32	4904
870.45	4957
870.58	4999
870.71	5086
870.84	5086
870.97	4938
871.1	4949
871.23	5056
871.36	5064
871.489	5006
871.619	5041
871.749	5094
871.879	5136
872.008	5166
872.138	5083
872.267	4927
872.397	4812
872.526	4774
872.656	4691
872.785	4774
872.915	4938
873.044	4987
873.173	4908
873.303	4961
873.432	4870
873.561	4980
873.69	4835
873.819	4839
873.948	4896
874.077	4714
874.206	4721
874.335	4820
874.464	4942
874.593	5075
874.722	4949
874.851	5086
874.979	4991
875.108	4991
875.237	4930
875.365	4904
875.494	4866
875.623	4976
875.751	4797
875.88	4854
876.008	4965
876.136	4995
876.265	5147
876.393	5303
876.521	5216
876.65	5197
876.778	5151
876.906	5018
877.034	5003
877.162	5029
877.29	4987
877.418	5079
877.546	5071
877.674	5029
877.802	5037
877.93	4999
878.058	4892
878.185	4919
878.313	4938
878.441	4915
878.568	4820
878.696	4847
878.824	4919
878.951	5010
879.079	5075
879.206	5265
879.333	5033
879.461	4942
879.588	4999
879.715	5113
879.842	5216
879.97	4984
880.097	4763
880.224	4782
880.351	4820
880.478	4824
880.605	4820
880.732	4786
880.859	5075
880.986	4881
881.112	4877
881.239	4748
881.366	4641
881.493	4615
881.619	4573
881.746	4630
881.872	4634
881.999	4645
882.125	4717
882.252	4759
882.378	4835
882.505	4900
882.631	4778
882.757	4618
882.883	4729
883.01	4729
883.136	4664
883.262	4577
883.388	4645
883.514	4831
883.64	4854
883.766	4809
883.892	4634
884.018	4694
884.143	4873
884.269	5010
884.395	4641
884.52	4599
884.646	4641
884.772	4550
884.897	4573
885.023	4649
885.148	4809
885.274	4862
885.399	4782
885.524	4721
885.65	4706
885.775	4710
885.9	4683
886.025	4824
886.15	4752
886.275	4710
886.4	4679
886.525	4714
886.65	4698
886.775	4645
886.9	4904
887.025	4976
887.149	4828
887.274	4611
887.399	4565
887.523	4565
887.648	4550
887.773	4569
887.897	4736
888.021	4786
888.146	4668
888.27	4786
888.395	4866
888.519	4786
888.643	4797
888.767	4850
888.891	4694
889.015	4577
889.139	4637
889.263	4584
889.387	4748
889.511	4885
889.635	4839
889.759	4622
889.883	4675
890.006	4729
890.13	4790
890.254	4618
890.377	4653
890.501	4542
890.624	4516
890.748	4649
890.871	4489
890.995	4409
891.118	4402
891.241	4504
891.364	4561
891.488	4626
891.611	4550
891.734	4546
891.857	4603
891.98	4546
892.103	4622
892.226	4580
892.349	4512
892.471	4386
892.594	4584
892.717	4596
892.839	4561
892.962	4626
893.085	4656
893.207	4596
893.33	4470
893.452	4474
893.575	4656
893.697	4599
893.819	4744
893.941	4824
894.064	4767
894.186	4599
894.308	4542
894.43	4744
894.552	4812
894.674	4763
894.796	4596
894.918	4558
895.04	4577
895.161	4710
895.283	4668
895.405	4554
895.526	4645
895.648	4725
895.769	4683
895.891	4683
896.012	4740
896.134	4691
896.255	4683
896.376	4630
896.498	4637
896.619	4672
896.74	4615
896.861	4649
896.982	4923
897.103	5041
897.224	4801
897.345	4744
897.466	4679
897.587	4691
897.708	4831
897.828	4744
897.949	4702
898.07	4554
898.19	4630
898.311	4824
898.431	4664
898.552	4736
898.672	4824
898.792	4805
898.913	4668
899.033	4603
899.153	4531
899.273	4436
899.393	4478
899.513	4508
899.633	4466
899.753	4516
899.873	4459
899.993	4523
900.113	4531
900.232	4577
900.352	4516
900.472	4478
900.591	4371
900.711	4489
900.83	4436
900.95	4599
901.069	4645
901.189	4489
901.308	4314
901.427	4325
901.546	4371
901.665	4462
901.784	4462
901.904	4402
902.023	4325
902.141	4196
902.26	4128
902.379	4287
902.498	4276
902.617	4238
902.735	4333
902.854	4360
902.973	4352
903.091	4173
903.21	4200
903.328	4344
903.446	4204
903.565	4219
903.683	4352
903.801	4268
903.919	4375
904.038	4398
904.156	4314
904.274	4413
904.392	4390
904.51	4428
904.627	4474
904.745	4577
904.863	4630
904.981	4402
905.098	4234
905.216	4348
905.334	4424
905.451	4402
905.569	4455
905.686	4523
905.803	4508
905.921	4398
906.038	4527
906.155	4432
906.272	4363
906.389	4428
906.506	4314
906.623	4379
906.74	4322
906.857	4246
906.974	4348
907.091	4558
907.208	4672
907.324	4580
907.441	4535
907.557	4386
907.674	4348
907.79	4344
907.907	4348
908.023	4478
908.139	4481
908.256	4413
908.372	4500
908.488	4428
908.604	4299
908.72	4363
908.836	4379
908.952	4386
909.068	4360
909.184	4569
909.3	4493
909.415	4573
909.531	4550
909.647	4352
909.762	4405
909.878	4352
909.993	4432
910.108	4402
910.224	4455
910.339	4493
910.454	4367
910.57	4371
910.685	4337
910.8	4649
910.915	4561
911.03	4504
911.145	4356
911.259	4318
911.374	4367
911.489	4253
911.604	4272
911.718	4173
911.833	4204
911.947	4093
912.062	3998
912.176	4211
912.291	4227
912.405	4242
912.519	4466
912.633	4500
912.748	4367
912.862	4295
912.976	4181
913.09	4082
913.204	4169
913.318	4227
913.431	4360
913.545	4371
913.659	4451
913.772	4363
913.886	4223
914	4223
914.113	4360
914.226	4440
914.34	4322
914.453	4196
914.566	4409
914.68	4261
914.793	4356
914.906	4112
915.019	4093
915.132	4082
915.245	4135
915.358	4227
915.47	4253
915.583	4291
915.696	4257
915.809	4383
915.921	4405
916.034	4291
916.146	4234
916.259	4196
916.371	4329
916.483	4344
916.595	4261
916.708	4329
916.82	4322
916.932	4295
917.044	4344
917.156	4268
917.268	4219
917.38	4249
917.491	4265
917.603	4344
917.715	4421
917.826	4428
917.938	4284
918.049	4211
918.161	4428
918.272	4519
918.384	4542
918.495	4409
918.606	4337
918.717	4188
918.828	4310
918.939	4325
919.05	4238
919.161	4299
919.272	4090
919.383	4227
919.494	4474
919.604	4630
919.715	4440
919.826	4344
919.936	4409
920.047	4500
920.157	4462
920.267	4660
920.378	4531
920.488	4481
920.598	4714
920.708	4854
920.818	4752
920.928	4793
921.038	4896
921.148	4896
921.258	4615
921.368	4542
921.477	4512
921.587	4432
921.697	4379
921.806	4519
921.916	4417
922.025	4242
922.134	4295
922.244	4227
922.353	4322
922.462	4154
922.571	4150
922.68	3994
922.789	3998
922.898	4044
923.007	3960
923.116	4090
923.224	4078
923.333	4090
923.442	3994
923.55	4029
923.659	3994
923.767	4082
923.876	4029
923.984	4067
924.092	3960
924.201	4071
924.309	4082
924.417	4120
924.525	4059
924.633	4093
924.741	5018
924.849	3934
924.956	4143
925.064	3960
925.172	3907
925.279	4021
925.387	4040
925.494	4044
925.602	4192
925.709	4173
925.816	4071
925.924	4147
926.031	4185
926.138	4169
926.245	4204
926.352	4105
926.459	4272
926.566	4257
926.673	4139
926.779	4067
926.886	4101
926.993	3979
927.099	3926
927.206	3937
927.312	3964
927.419	4048
927.525	3987
927.631	4074
927.737	3979
927.843	3915
927.95	3884
928.056	3918
928.162	3968
928.267	4090
928.373	4714
928.479	4093
928.585	3812
928.69	3991
928.796	4090
928.901	3934
929.007	3812
929.112	4029
929.218	4010
929.323	3949
929.428	3937
929.533	4101
929.638	3865
929.743	3945
929.848	4029
929.953	3915
930.058	3922
930.163	3770
930.267	3819
930.372	3941
930.477	3800
930.581	4036
930.685	3972
930.79	3816
930.894	3888
930.998	3823
931.103	4013
931.207	3713
931.311	3724
931.415	3652
931.519	3500
931.623	3572
