Data from test_V78500241_1274.txt Node
Date: Fri Mar 25 16:57:51 CST 2022
User: usil
Spectrometer: V785-0024
Trigger mode: 0
Integration Time (sec): 4.000000E-1
Scans to average: 1
Nonlinearity correction enabled: false
Boxcar width: 0
Storing dark spectrum: false
XAxis mode: Wavelengths
Number of Pixels in Spectrum: 1024
>>>>>Begin Spectral Data<<<<<
801.071	7974
801.214	8012
801.356	7868
801.499	7860
801.641	7769
801.783	7860
801.926	7898
802.068	7944
802.211	7982
802.353	8005
802.496	7860
802.638	7814
802.78	7951
802.923	8008
803.065	7887
803.208	7811
803.35	7928
803.492	8069
803.635	8130
803.777	8043
803.919	8081
804.061	8377
804.204	8199
804.346	8027
804.488	8008
804.63	8115
804.773	7963
804.915	8062
805.057	8210
805.199	8187
805.341	8180
805.483	8267
805.626	8221
805.768	8046
805.91	8126
806.052	8206
806.194	8111
806.336	8298
806.478	8043
806.62	8008
806.762	8145
806.904	8259
807.046	8457
807.188	8317
807.33	8191
807.472	8317
807.614	8176
807.756	8096
807.898	7921
808.04	7898
808.182	7940
808.324	7947
808.465	7921
808.607	8050
808.749	8103
808.891	8202
809.033	8317
809.174	8180
809.316	8024
809.458	8008
809.6	7978
809.741	7997
809.883	7986
810.025	8081
810.166	8024
810.308	8050
810.45	8062
810.591	7947
810.733	7693
810.875	7609
811.016	7487
811.158	7521
811.299	7563
811.441	7639
811.582	7765
811.724	7518
811.865	7578
812.007	7605
812.148	7567
812.29	7632
812.431	7723
812.573	7818
812.714	7970
812.855	8138
812.997	8221
813.138	8294
813.279	8180
813.421	8107
813.562	7986
813.703	7803
813.845	7788
813.986	7396
814.127	7259
814.268	7206
814.41	7206
814.551	7164
814.692	7236
814.833	7103
814.974	7042
815.115	7107
815.256	6966
815.397	6916
815.539	6943
815.68	6787
815.821	6829
815.962	6867
816.103	6837
816.244	6749
816.385	6631
816.526	6620
816.666	6475
816.807	6270
816.948	6448
817.089	6490
817.23	6433
817.371	6361
817.512	6380
817.653	6407
817.793	6369
817.934	6395
818.075	6506
818.216	6429
818.356	6418
818.497	6251
818.638	6091
818.778	6091
818.919	6133
819.06	6144
819.2	6311
819.341	6289
819.481	6315
819.622	6494
819.762	6730
819.903	6673
820.043	6597
820.184	6574
820.324	6578
820.465	6696
820.605	6642
820.746	6650
820.886	6498
821.026	6627
821.167	6654
821.307	6760
821.447	6703
821.588	6654
821.728	6479
821.868	6464
822.008	6327
822.149	6334
822.289	6327
822.429	6155
822.569	6095
822.709	6133
822.849	5885
822.99	5824
823.13	5912
823.27	5874
823.41	5767
823.55	5737
823.69	5733
823.83	5722
823.97	5653
824.11	5509
824.25	5535
824.389	5532
824.529	5581
824.669	5562
824.809	5577
824.949	5619
825.089	5596
825.228	5512
825.368	5410
825.508	5280
825.648	5318
825.787	5379
825.927	5315
826.067	5265
826.206	5330
826.346	5376
826.485	5349
826.625	5391
826.765	5585
826.904	5471
827.044	5280
827.183	5201
827.323	5128
827.462	5189
827.601	5147
827.741	5136
827.88	5185
828.02	5117
828.159	5246
828.298	5318
828.437	5357
828.577	5280
828.716	5486
828.855	5303
828.994	5151
829.134	5128
829.273	5147
829.412	5102
829.551	5147
829.69	5159
829.829	5216
829.968	5345
830.107	5311
830.246	5201
830.385	5105
830.524	5113
830.663	5064
830.802	4965
830.941	4885
831.08	4881
831.219	4934
831.357	4995
831.496	5121
831.635	4911
831.774	4824
831.913	4828
832.051	4687
832.19	4725
832.329	4812
832.467	4664
832.606	4618
832.744	4702
832.883	4672
833.022	4725
833.16	4774
833.299	4801
833.437	4790
833.576	4831
833.714	4858
833.852	4835
833.991	4850
834.129	4991
834.267	4900
834.406	4896
834.544	4904
834.682	5006
834.821	4946
834.959	5132
835.097	4980
835.235	5128
835.373	5056
835.511	5102
835.65	5010
835.788	5029
835.926	4908
836.064	4812
836.202	4919
836.34	5159
836.478	5208
836.615	5113
836.753	5189
836.891	5292
837.029	5231
837.167	5159
837.305	5181
837.443	5109
837.58	5128
837.718	5242
837.856	5162
837.993	5162
838.131	5216
838.269	5212
838.406	5220
838.544	5166
838.681	5018
838.819	5041
838.956	4896
839.094	4930
839.231	4984
839.369	5045
839.506	5410
839.643	5212
839.781	5037
839.918	4987
840.055	5086
840.193	5086
840.33	5067
840.467	5128
840.604	5128
840.742	5417
840.879	5098
841.016	5083
841.153	5147
841.29	5337
841.427	5315
841.564	5315
841.701	5353
841.838	5269
841.975	5216
842.112	5246
842.249	5109
842.385	5094
842.522	5349
842.659	5136
842.796	5105
842.933	5174
843.069	5128
843.206	5124
843.343	5318
843.479	5223
843.616	5265
843.752	5083
843.889	5018
844.025	5178
844.162	5014
844.298	5178
844.435	5094
844.571	5018
844.708	5197
844.844	5235
844.98	5318
845.117	5254
845.253	5105
845.389	5098
845.525	5170
845.661	5109
845.798	4987
845.934	5048
846.07	5067
846.206	5159
846.342	5246
846.478	5151
846.614	5025
846.75	5014
846.886	4915
847.022	5128
847.158	4968
847.294	4995
847.429	5098
847.565	5056
847.701	5273
847.837	4805
847.972	4782
848.108	4938
848.244	4919
848.379	4740
848.515	4721
848.65	4714
848.786	4729
848.921	4748
849.057	4862
849.192	4885
849.328	4767
849.463	4843
849.598	4763
849.734	4736
849.869	4672
850.004	4592
850.14	4706
850.275	4611
850.41	4508
850.545	4538
850.68	4569
850.815	4596
850.95	4611
851.085	4839
851.22	4740
851.355	4615
851.49	4577
851.625	4672
851.76	4592
851.895	4573
852.03	4554
852.165	4603
852.299	4660
852.434	4725
852.569	4740
852.703	4717
852.838	4801
852.973	4919
853.107	4892
853.242	4725
853.376	4615
853.511	4554
853.645	4599
853.78	4767
853.914	4641
854.048	4694
854.183	4596
854.317	4714
854.451	4824
854.585	4675
854.72	4637
854.854	4733
854.988	4565
855.122	4641
855.256	4508
855.39	4615
855.524	4706
855.658	4744
855.792	4729
855.926	4694
856.06	4733
856.194	4790
856.327	4679
856.461	4596
856.595	4634
856.729	4584
856.862	4744
856.996	4668
857.13	4774
857.263	4763
857.397	4809
857.53	4672
857.664	4752
857.797	4721
857.931	4812
858.064	4687
858.197	4740
858.331	4622
858.464	4615
858.597	4523
858.731	4637
858.864	4672
858.997	4573
859.13	4622
859.263	4656
859.396	4752
859.529	4531
859.662	4592
859.795	4504
859.928	4637
860.061	4755
860.194	4729
860.327	4580
860.46	4580
860.592	4694
860.725	4675
860.858	4702
860.99	4592
861.123	4466
861.256	4516
861.388	4603
861.521	5178
861.653	4508
861.786	4447
861.918	4424
862.05	4519
862.183	4500
862.315	4634
862.447	4672
862.58	4607
862.712	4428
862.844	4337
862.976	4500
863.108	4405
863.24	4900
863.372	4325
863.504	4417
863.636	4371
863.768	4485
863.9	4417
864.032	4360
864.164	4371
864.296	4405
864.428	4500
864.559	4519
864.691	4489
864.823	4542
864.954	4504
865.086	4474
865.217	4489
865.349	4398
865.48	4451
865.612	4451
865.743	4615
865.875	4523
866.006	4459
866.137	4424
866.269	4413
866.4	4432
866.531	4405
866.662	4386
866.793	4379
866.924	4413
867.055	4478
867.186	4440
867.317	4363
867.448	4383
867.579	4375
867.71	4344
867.841	4363
867.972	4474
868.103	4466
868.233	4409
868.364	4459
868.495	4462
868.625	4622
868.756	4759
868.886	4531
869.017	4630
869.147	4771
869.278	4736
869.408	4645
869.539	4618
869.669	4759
869.799	4672
869.929	4694
870.06	4717
870.19	4930
870.32	4919
870.45	4919
870.58	4980
870.71	5098
870.84	5079
870.97	4904
871.1	4900
871.23	5140
871.36	5105
871.489	4987
871.619	5094
871.749	5037
871.879	5105
872.008	5170
872.138	5010
872.267	4965
872.397	4862
872.526	4809
872.656	4736
872.785	4790
872.915	4942
873.044	4953
873.173	4923
873.303	4934
873.432	4961
873.561	4892
873.69	4862
873.819	4877
873.948	4995
874.077	4816
874.206	4763
874.335	4812
874.464	4957
874.593	5060
874.722	4923
874.851	5052
874.979	5079
875.108	5018
875.237	4870
875.365	4896
875.494	4866
875.623	5006
875.751	4835
875.88	4889
876.008	4980
876.136	5006
876.265	5174
876.393	5280
876.521	5239
876.65	5147
876.778	5102
876.906	5048
877.034	5014
877.162	5022
877.29	4995
877.418	5071
877.546	4995
877.674	4987
877.802	5003
877.93	4953
878.058	4949
878.185	4866
878.313	4968
878.441	4934
878.568	4748
878.696	4847
878.824	4949
878.951	4991
879.079	5105
879.206	5318
879.333	5083
879.461	5006
879.588	4987
879.715	5132
879.842	5212
879.97	4987
880.097	4782
880.224	4698
880.351	4805
880.478	4816
880.605	4835
880.732	4752
880.859	5083
880.986	4877
881.112	4965
881.239	4759
881.366	4649
881.493	4599
881.619	4569
881.746	4653
881.872	4615
881.999	4664
882.125	4691
882.252	4733
882.378	4816
882.505	4946
882.631	4748
882.757	4653
882.883	4725
883.01	4706
883.136	4675
883.262	4569
883.388	4634
883.514	4805
883.64	4870
883.766	4797
883.892	4702
884.018	4698
884.143	4870
884.269	5014
884.395	4672
884.52	4577
884.646	4664
884.772	4569
884.897	4599
885.023	4691
885.148	4816
885.274	4866
885.399	4812
885.524	4675
885.65	4698
885.775	4725
885.9	4706
886.025	4873
886.15	4721
886.275	4637
886.4	4611
886.525	4752
886.65	4694
886.775	4675
886.9	4866
887.025	5006
887.149	4831
887.274	4687
887.399	4527
887.523	4664
887.648	4558
887.773	4577
887.897	4740
888.021	4778
888.146	4675
888.27	4759
888.395	4911
888.519	4801
888.643	4850
888.767	4820
888.891	4668
889.015	4592
889.139	4656
889.263	4634
889.387	4729
889.511	4805
889.635	4759
889.759	4599
889.883	4649
890.006	4714
890.13	4816
890.254	4592
890.377	4653
890.501	4500
890.624	4500
890.748	4637
890.871	4489
890.995	4398
891.118	4432
891.241	4508
891.364	4516
891.488	4607
891.611	4493
891.734	4516
891.857	4664
891.98	4531
892.103	4641
892.226	4504
892.349	4485
892.471	4398
892.594	4558
892.717	4618
892.839	4516
892.962	4535
893.085	4649
893.207	4592
893.33	4443
893.452	4478
893.575	4672
893.697	4577
893.819	4797
893.941	4828
894.064	4820
894.186	4538
894.308	4569
894.43	4694
894.552	4786
894.674	4733
894.796	4516
894.918	4580
895.04	4577
895.161	4702
895.283	4660
895.405	4538
895.526	4656
895.648	4702
895.769	4683
895.891	4744
896.012	4748
896.134	4694
896.255	4622
896.376	4634
896.498	4599
896.619	4714
896.74	4596
896.861	4607
896.982	4927
897.103	5075
897.224	4870
897.345	4710
897.466	4611
897.587	4755
897.708	4896
897.828	4786
897.949	4679
898.07	4550
898.19	4675
898.311	4809
898.431	4664
898.552	4725
898.672	4771
898.792	4831
898.913	4702
899.033	4596
899.153	4512
899.273	4424
899.393	4481
899.513	4493
899.633	4478
899.753	4542
899.873	4466
899.993	4580
900.113	4523
900.232	4603
900.352	4500
900.472	4459
900.591	4409
900.711	4466
900.83	4413
900.95	4596
901.069	4691
901.189	4519
901.308	4337
901.427	4310
901.546	4402
901.665	4451
901.784	4489
901.904	4337
902.023	4333
902.141	4234
902.26	4124
902.379	4299
902.498	4211
902.617	4230
902.735	4341
902.854	4363
902.973	4356
903.091	4185
903.21	4207
903.328	4310
903.446	4268
903.565	4257
903.683	4348
903.801	4238
903.919	4379
904.038	4394
904.156	4329
904.274	4432
904.392	4409
904.51	4386
904.627	4470
904.745	4561
904.863	4634
904.981	4337
905.098	4322
905.216	4363
905.334	4413
905.451	4428
905.569	4455
905.686	4554
905.803	4596
905.921	4371
906.038	4485
906.155	4500
906.272	4367
906.389	4447
906.506	4344
906.623	4360
906.74	4424
906.857	4310
906.974	4371
907.091	4542
907.208	4630
907.324	4565
907.441	4481
907.557	4348
907.674	4322
907.79	4268
907.907	4379
908.023	4478
908.139	4455
908.256	4413
908.372	4497
908.488	4428
908.604	4310
908.72	4276
908.836	4379
908.952	4394
909.068	4409
909.184	4588
909.3	4432
909.415	4565
909.531	4504
909.647	4348
909.762	4352
909.878	4329
909.993	4451
910.108	4398
910.224	4424
910.339	4451
910.454	4413
910.57	4405
910.685	4329
910.8	4649
910.915	4603
911.03	4531
911.145	4287
911.259	4352
911.374	4352
911.489	4284
911.604	4295
911.718	4200
911.833	4200
911.947	4082
912.062	4036
912.176	4219
912.291	4230
912.405	4280
912.519	4451
912.633	4508
912.748	4367
912.862	4265
912.976	4185
913.09	4090
913.204	4154
913.318	4272
913.431	4322
913.545	4375
913.659	4405
913.772	4352
913.886	4219
914	4211
914.113	4348
914.226	4421
914.34	4360
914.453	4227
914.566	4447
914.68	4284
914.793	4356
914.906	4143
915.019	4131
915.132	4097
915.245	4162
915.358	4185
915.47	4223
915.583	4253
915.696	4291
915.809	4383
915.921	4375
916.034	4253
916.146	4238
916.259	4223
916.371	4333
916.483	4337
916.595	4249
916.708	4310
916.82	4287
916.932	4322
917.044	4291
917.156	4325
917.268	4234
917.38	4280
917.491	4268
917.603	4363
917.715	4428
917.826	4375
917.938	4360
918.049	4227
918.161	4329
918.272	4577
918.384	4523
918.495	4455
918.606	4261
918.717	4185
918.828	4360
918.939	4356
919.05	4284
919.161	4299
919.272	4120
919.383	4223
919.494	4443
919.604	4584
919.715	4459
919.826	4375
919.936	4375
920.047	4500
920.157	4478
920.267	4694
920.378	4519
920.488	4504
920.598	4714
920.708	4889
920.818	4740
920.928	4763
921.038	4927
921.148	4919
921.258	4592
921.368	4531
921.477	4481
921.587	4432
921.697	4409
921.806	4550
921.916	4497
922.025	4306
922.134	4230
922.244	4265
922.353	4306
922.462	4147
922.571	4204
922.68	3994
922.789	3983
922.898	3994
923.007	3964
923.116	4071
923.224	4051
923.333	4051
923.442	3994
923.55	3964
923.659	4029
923.767	4090
923.876	4044
923.984	4082
924.092	3991
924.201	4086
924.309	4078
924.417	4105
924.525	4040
924.633	4105
924.741	5014
924.849	3926
924.956	4116
925.064	3949
925.172	3930
925.279	3934
925.387	4029
925.494	4036
925.602	4211
925.709	4158
925.816	4063
925.924	4131
926.031	4181
926.138	4150
926.245	4215
926.352	4086
926.459	4230
926.566	4268
926.673	4135
926.779	4071
926.886	4040
926.993	3972
927.099	3956
927.206	3918
927.312	3892
927.419	4036
927.525	4017
927.631	4086
927.737	3968
927.843	3926
927.95	3846
928.056	3918
928.162	4025
928.267	4048
928.373	4660
928.479	4093
928.585	3896
928.69	3964
928.796	4078
928.901	3907
929.007	3850
929.112	3979
929.218	3979
929.323	3998
929.428	3888
929.533	4078
929.638	3918
929.743	3953
929.848	4025
929.953	3987
930.058	3896
930.163	3766
930.267	3778
930.372	3953
930.477	3838
930.581	4093
930.685	3880
930.79	3827
930.894	3880
930.998	3880
931.103	4036
931.207	3705
931.311	3671
931.415	3644
931.519	3504
931.623	3561
