Data from test_V78500241_636.txt Node
Date: Fri Mar 25 16:53:25 CST 2022
User: usil
Spectrometer: V785-0024
Trigger mode: 0
Integration Time (sec): 4.000000E-1
Scans to average: 1
Nonlinearity correction enabled: false
Boxcar width: 0
Storing dark spectrum: false
XAxis mode: Wavelengths
Number of Pixels in Spectrum: 1024
>>>>>Begin Spectral Data<<<<<
801.071	8058
801.214	7959
801.356	7925
801.499	7856
801.641	7841
801.783	7856
801.926	7997
802.068	7978
802.211	8024
802.353	8001
802.496	7894
802.638	7936
802.78	7883
802.923	7868
803.065	7772
803.208	7841
803.35	7993
803.492	8058
803.635	8145
803.777	8046
803.919	8142
804.061	8419
804.204	8088
804.346	8039
804.488	8039
804.63	8096
804.773	8039
804.915	8119
805.057	8282
805.199	8240
805.341	8233
805.483	8313
805.626	8199
805.768	8130
805.91	8252
806.052	8233
806.194	8119
806.336	8263
806.478	8145
806.62	8062
806.762	8115
806.904	8271
807.046	8469
807.188	8423
807.33	8324
807.472	8393
807.614	8153
807.756	8233
807.898	7997
808.04	7868
808.182	7909
808.324	7951
808.465	7868
808.607	8065
808.749	8123
808.891	8195
809.033	8252
809.174	8164
809.316	8058
809.458	8088
809.6	7932
809.741	8012
809.883	8039
810.025	8084
810.166	8054
810.308	8039
810.45	7963
810.591	7864
810.733	7765
810.875	7765
811.016	7518
811.158	7476
811.299	7624
811.441	7757
811.582	7731
811.724	7537
811.865	7491
812.007	7594
812.148	7521
812.29	7590
812.431	7746
812.573	7868
812.714	7970
812.855	8206
812.997	8161
813.138	8377
813.279	8221
813.421	8164
813.562	8073
813.703	7947
813.845	7746
813.986	7525
814.127	7301
814.268	7266
814.41	7217
814.551	7209
814.692	7183
814.833	7046
814.974	7137
815.115	7095
815.256	6939
815.397	6901
815.539	6905
815.68	6878
815.821	6821
815.962	6806
816.103	6852
816.244	6681
816.385	6627
816.526	6608
816.666	6498
816.807	6315
816.948	6319
817.089	6452
817.23	6464
817.371	6448
817.512	6369
817.653	6361
817.793	6384
817.934	6418
818.075	6441
818.216	6403
818.356	6418
818.497	6220
818.638	6117
818.778	6163
818.919	6140
819.06	6140
819.2	6292
819.341	6315
819.481	6369
819.622	6479
819.762	6764
819.903	6692
820.043	6559
820.184	6563
820.324	6551
820.465	6677
820.605	6673
820.746	6623
820.886	6464
821.026	6631
821.167	6776
821.307	6757
821.447	6734
821.588	6662
821.728	6574
821.868	6467
822.008	6239
822.149	6357
822.289	6357
822.429	6125
822.569	6053
822.709	6148
822.849	5901
822.99	5874
823.13	5958
823.27	5912
823.41	5748
823.55	5760
823.69	5756
823.83	5828
823.97	5710
824.11	5501
824.25	5543
824.389	5566
824.529	5604
824.669	5539
824.809	5573
824.949	5726
825.089	5589
825.228	5501
825.368	5364
825.508	5315
825.648	5330
825.787	5353
825.927	5414
826.067	5307
826.206	5337
826.346	5387
826.485	5433
826.625	5376
826.765	5528
826.904	5421
827.044	5269
827.183	5216
827.323	5128
827.462	5254
827.601	5151
827.741	5170
827.88	5189
828.02	5140
828.159	5242
828.298	5292
828.437	5322
828.577	5269
828.716	5452
828.855	5349
828.994	5170
829.134	5166
829.273	5178
829.412	5159
829.551	5162
829.69	5132
829.829	5239
829.968	5334
830.107	5277
830.246	5284
830.385	5151
830.524	5178
830.663	5029
830.802	4965
830.941	4828
831.08	4904
831.219	4946
831.357	4980
831.496	5140
831.635	4866
831.774	4881
831.913	4900
832.051	4744
832.19	4748
832.329	4847
832.467	4710
832.606	4637
832.744	4706
832.883	4706
833.022	4736
833.16	4767
833.299	4824
833.437	4847
833.576	4831
833.714	4889
833.852	4904
833.991	4911
834.129	4930
834.267	4934
834.406	4927
834.544	4976
834.682	4957
834.821	4953
834.959	5136
835.097	4953
835.235	5166
835.373	5037
835.511	5098
835.65	4987
835.788	5022
835.926	4904
836.064	4835
836.202	4911
836.34	5159
836.478	5223
836.615	5075
836.753	5220
836.891	5337
837.029	5231
837.167	5201
837.305	5143
837.443	5075
837.58	5079
837.718	5288
837.856	5155
837.993	5124
838.131	5189
838.269	5132
838.406	5216
838.544	5166
838.681	5025
838.819	5037
838.956	4900
839.094	4877
839.231	4984
839.369	5098
839.506	5398
839.643	5242
839.781	5083
839.918	4999
840.055	5109
840.193	5128
840.33	5105
840.467	5162
840.604	5170
840.742	5452
840.879	5105
841.016	5121
841.153	5113
841.29	5364
841.427	5326
841.564	5307
841.701	5357
841.838	5284
841.975	5193
842.112	5326
842.249	5136
842.385	5102
842.522	5334
842.659	5178
842.796	5124
842.933	5151
843.069	5121
843.206	5128
843.343	5299
843.479	5185
843.616	5334
843.752	4995
843.889	5022
844.025	5242
844.162	4995
844.298	5189
844.435	5105
844.571	5003
844.708	5128
844.844	5307
844.98	5353
845.117	5311
845.253	5128
845.389	5090
845.525	5166
845.661	5136
845.798	5079
845.934	5166
846.07	5086
846.206	5170
846.342	5277
846.478	5181
846.614	5048
846.75	4999
846.886	4965
847.022	5109
847.158	4987
847.294	5045
847.429	5128
847.565	5010
847.701	5311
847.837	4866
847.972	4740
848.108	4946
848.244	4866
848.379	4744
848.515	4755
848.65	4679
848.786	4790
848.921	4759
849.057	4858
849.192	4927
849.328	4782
849.463	4850
849.598	4816
849.734	4805
849.869	4668
850.004	4607
850.14	4649
850.275	4634
850.41	4546
850.545	4523
850.68	4626
850.815	4618
850.95	4626
851.085	4835
851.22	4736
851.355	4675
851.49	4622
851.625	4611
851.76	4588
851.895	4596
852.03	4508
852.165	4672
852.299	4664
852.434	4790
852.569	4748
852.703	4748
852.838	4858
852.973	4885
853.107	4972
853.242	4721
853.376	4679
853.511	4538
853.645	4607
853.78	4782
853.914	4702
854.048	4641
854.183	4596
854.317	4702
854.451	4847
854.585	4637
854.72	4618
854.854	4721
854.988	4569
855.122	4645
855.256	4500
855.39	4672
855.524	4812
855.658	4721
855.792	4683
855.926	4748
856.06	4786
856.194	4809
856.327	4675
856.461	4649
856.595	4603
856.729	4641
856.862	4771
856.996	4687
857.13	4725
857.263	4767
857.397	4805
857.53	4603
857.664	4725
857.797	4778
857.931	4797
858.064	4694
858.197	4736
858.331	4645
858.464	4607
858.597	4542
858.731	4630
858.864	4615
858.997	4569
859.13	4649
859.263	4645
859.396	4694
859.529	4565
859.662	4565
859.795	4500
859.928	4607
860.061	4755
860.194	4717
860.327	4634
860.46	4558
860.592	4717
860.725	4672
860.858	4656
860.99	4565
861.123	4542
861.256	4535
861.388	4573
861.521	5288
861.653	4462
861.786	4379
861.918	4443
862.05	4538
862.183	4523
862.315	4565
862.447	4622
862.58	4512
862.712	4402
862.844	4333
862.976	4459
863.108	4436
863.24	4904
863.372	4367
863.504	4402
863.636	4394
863.768	4478
863.9	4466
864.032	4394
864.164	4402
864.296	4459
864.428	4504
864.559	4519
864.691	4554
864.823	4531
864.954	4542
865.086	4527
865.217	4451
865.349	4394
865.48	4462
865.612	4443
865.743	4675
865.875	4497
866.006	4402
866.137	4440
866.269	4436
866.4	4436
866.531	4413
866.662	4352
866.793	4405
866.924	4432
867.055	4504
867.186	4451
867.317	4394
867.448	4371
867.579	4402
867.71	4352
867.841	4371
867.972	4455
868.103	4440
868.233	4451
868.364	4440
868.495	4459
868.625	4645
868.756	4721
868.886	4542
869.017	4630
869.147	4752
869.278	4767
869.408	4637
869.539	4634
869.669	4679
869.799	4626
869.929	4759
870.06	4702
870.19	4927
870.32	4900
870.45	4972
870.58	5003
870.71	5117
870.84	5105
870.97	4904
871.1	4854
871.23	5155
871.36	5143
871.489	5083
871.619	5052
871.749	5071
871.879	5117
872.008	5197
872.138	5029
872.267	4984
872.397	4862
872.526	4767
872.656	4744
872.785	4809
872.915	4968
873.044	5022
873.173	4957
873.303	4953
873.432	4972
873.561	4946
873.69	4896
873.819	4877
873.948	4866
874.077	4843
874.206	4771
874.335	4774
874.464	4889
874.593	5064
874.722	4961
874.851	5109
874.979	5048
875.108	5006
875.237	4873
875.365	4870
875.494	4870
875.623	5037
875.751	4835
875.88	4892
876.008	4915
876.136	5003
876.265	5185
876.393	5345
876.521	5231
876.65	5235
876.778	5193
876.906	5083
877.034	5018
877.162	5003
877.29	4934
877.418	5041
877.546	5033
877.674	5029
877.802	5052
877.93	4984
878.058	4965
878.185	4843
878.313	4953
878.441	4934
878.568	4790
878.696	4870
878.824	4946
878.951	4987
879.079	5090
879.206	5258
879.333	5105
879.461	4968
879.588	5010
879.715	5117
879.842	5181
879.97	5006
880.097	4748
880.224	4748
880.351	4820
880.478	4828
880.605	4786
880.732	4824
880.859	5071
880.986	4843
881.112	4930
881.239	4809
881.366	4645
881.493	4584
881.619	4573
881.746	4702
881.872	4641
881.999	4691
882.125	4710
882.252	4786
882.378	4793
882.505	5006
882.631	4786
882.757	4710
882.883	4710
883.01	4752
883.136	4637
883.262	4622
883.388	4626
883.514	4839
883.64	4889
883.766	4797
883.892	4729
884.018	4767
884.143	4896
884.269	4995
884.395	4672
884.52	4672
884.646	4630
884.772	4546
884.897	4569
885.023	4649
885.148	4763
885.274	4870
885.399	4797
885.524	4721
885.65	4698
885.775	4725
885.9	4725
886.025	4835
886.15	4763
886.275	4740
886.4	4634
886.525	4721
886.65	4660
886.775	4653
886.9	4908
887.025	5052
887.149	4835
887.274	4664
887.399	4573
887.523	4584
887.648	4588
887.773	4573
887.897	4740
888.021	4725
888.146	4687
888.27	4831
888.395	4949
888.519	4740
888.643	4816
888.767	4835
888.891	4672
889.015	4634
889.139	4656
889.263	4618
889.387	4748
889.511	4835
889.635	4786
889.759	4573
889.883	4622
890.006	4740
890.13	4847
890.254	4653
890.377	4687
890.501	4573
890.624	4504
890.748	4630
890.871	4470
890.995	4443
891.118	4363
891.241	4493
891.364	4512
891.488	4607
891.611	4527
891.734	4569
891.857	4584
891.98	4516
892.103	4653
892.226	4626
892.349	4519
892.471	4421
892.594	4569
892.717	4565
892.839	4554
892.962	4546
893.085	4694
893.207	4626
893.33	4470
893.452	4531
893.575	4714
893.697	4588
893.819	4763
893.941	4858
894.064	4748
894.186	4596
894.308	4573
894.43	4721
894.552	4896
894.674	4717
894.796	4542
894.918	4603
895.04	4523
895.161	4687
895.283	4637
895.405	4542
895.526	4668
895.648	4668
895.769	4649
895.891	4691
896.012	4710
896.134	4721
896.255	4675
896.376	4664
896.498	4702
896.619	4725
896.74	4618
896.861	4626
896.982	4915
897.103	5067
897.224	4828
897.345	4786
897.466	4675
897.587	4733
897.708	4896
897.828	4820
897.949	4683
898.07	4558
898.19	4675
898.311	4793
898.431	4736
898.552	4740
898.672	4831
898.792	4812
898.913	4717
899.033	4637
899.153	4485
899.273	4443
899.393	4485
899.513	4531
899.633	4538
899.753	4584
899.873	4535
899.993	4577
900.113	4500
900.232	4596
900.352	4546
900.472	4500
900.591	4398
900.711	4443
900.83	4432
900.95	4599
901.069	4668
901.189	4462
901.308	4348
901.427	4303
901.546	4360
901.665	4470
901.784	4512
901.904	4363
902.023	4325
902.141	4181
902.26	4131
902.379	4295
902.498	4249
902.617	4215
902.735	4367
902.854	4367
902.973	4379
903.091	4188
903.21	4219
903.328	4333
903.446	4284
903.565	4257
903.683	4348
903.801	4333
903.919	4371
904.038	4432
904.156	4333
904.274	4497
904.392	4390
904.51	4436
904.627	4417
904.745	4599
904.863	4550
904.981	4390
905.098	4295
905.216	4375
905.334	4470
905.451	4402
905.569	4459
905.686	4580
905.803	4542
905.921	4413
906.038	4542
906.155	4455
906.272	4417
906.389	4478
906.506	4318
906.623	4322
906.74	4432
906.857	4299
906.974	4371
907.091	4554
907.208	4675
907.324	4592
907.441	4481
907.557	4352
907.674	4341
907.79	4333
907.907	4383
908.023	4481
908.139	4500
908.256	4413
908.372	4451
908.488	4455
908.604	4371
908.72	4333
908.836	4386
908.952	4379
909.068	4443
909.184	4542
909.3	4489
909.415	4573
909.531	4569
909.647	4421
909.762	4390
909.878	4337
909.993	4447
910.108	4424
910.224	4432
910.339	4455
910.454	4379
910.57	4352
910.685	4295
910.8	4664
910.915	4626
911.03	4470
911.145	4379
911.259	4352
911.374	4405
911.489	4341
911.604	4310
911.718	4188
911.833	4227
911.947	4116
912.062	4044
912.176	4207
912.291	4211
912.405	4261
912.519	4459
912.633	4489
912.748	4379
912.862	4299
912.976	4200
913.09	4074
913.204	4200
913.318	4280
913.431	4363
913.545	4402
913.659	4459
913.772	4367
913.886	4230
914	4223
914.113	4386
914.226	4443
914.34	4386
914.453	4257
914.566	4402
914.68	4310
914.793	4375
914.906	4166
915.019	4154
915.132	4090
915.245	4246
915.358	4204
915.47	4291
915.583	4284
915.696	4333
915.809	4398
915.921	4379
916.034	4265
916.146	4268
916.259	4185
916.371	4417
916.483	4371
916.595	4268
916.708	4306
916.82	4333
916.932	4341
917.044	4325
917.156	4337
917.268	4215
917.38	4265
917.491	4246
917.603	4322
917.715	4436
917.826	4440
917.938	4386
918.049	4253
918.161	4348
918.272	4558
918.384	4554
918.495	4428
918.606	4249
918.717	4238
918.828	4314
918.939	4379
919.05	4287
919.161	4322
919.272	4105
919.383	4215
919.494	4436
919.604	4634
919.715	4424
919.826	4356
919.936	4375
920.047	4512
920.157	4466
920.267	4675
920.378	4500
920.488	4497
920.598	4721
920.708	4930
920.818	4771
920.928	4771
921.038	4896
921.148	4923
921.258	4634
921.368	4538
921.477	4516
921.587	4459
921.697	4405
921.806	4596
921.916	4432
922.025	4295
922.134	4261
922.244	4234
922.353	4337
922.462	4211
922.571	4181
922.68	4002
922.789	3964
922.898	4048
923.007	3994
923.116	4112
923.224	4051
923.333	4055
923.442	3975
923.55	3964
923.659	4063
923.767	4078
923.876	3991
923.984	4128
924.092	3987
924.201	4101
924.309	4109
924.417	4131
924.525	4017
924.633	4116
924.741	5003
924.849	3941
924.956	4097
925.064	3945
925.172	3911
925.279	3922
925.387	4116
925.494	4044
925.602	4215
925.709	4181
925.816	4048
925.924	4131
926.031	4272
926.138	4188
926.245	4192
926.352	4109
926.459	4249
926.566	4306
926.673	4109
926.779	4109
926.886	4090
926.993	3983
927.099	3926
927.206	3922
927.312	3934
927.419	4032
927.525	4059
927.631	4078
927.737	4013
927.843	3915
927.95	3838
928.056	3975
928.162	3979
928.267	4063
928.373	4672
928.479	4147
928.585	3911
928.69	4032
928.796	4097
928.901	3945
929.007	3876
929.112	4040
929.218	3945
929.323	3934
929.428	3975
929.533	4124
929.638	3915
929.743	3937
929.848	4071
929.953	4013
930.058	3926
930.163	3789
930.267	3827
930.372	3945
930.477	3884
930.581	4086
930.685	3922
930.79	3835
930.894	3915
930.998	3869
931.103	4040
931.207	3686
931.311	3667
931.415	3671
931.519	3534
931.623	3580
