Data from test_V78500241_1417.txt Node
Date: Fri Mar 25 16:58:51 CST 2022
User: usil
Spectrometer: V785-0024
Trigger mode: 0
Integration Time (sec): 4.000000E-1
Scans to average: 1
Nonlinearity correction enabled: false
Boxcar width: 0
Storing dark spectrum: false
XAxis mode: Wavelengths
Number of Pixels in Spectrum: 1024
>>>>>Begin Spectral Data<<<<<
801.071	8016
801.214	7986
801.356	7868
801.499	7860
801.641	7727
801.783	7822
801.926	7871
802.068	7951
802.211	7955
802.353	7959
802.496	7868
802.638	7879
802.78	7875
802.923	7955
803.065	7856
803.208	7871
803.35	7970
803.492	8092
803.635	8157
803.777	8005
803.919	8142
804.061	8427
804.204	8126
804.346	8062
804.488	7986
804.63	8100
804.773	8001
804.915	8081
805.057	8336
805.199	8126
805.341	8240
805.483	8271
805.626	8145
805.768	8168
805.91	8183
806.052	8218
806.194	8096
806.336	8305
806.478	8081
806.62	8092
806.762	8153
806.904	8324
807.046	8518
807.188	8351
807.33	8317
807.472	8332
807.614	8161
807.756	8225
807.898	8050
808.04	7833
808.182	7902
808.324	7841
808.465	7970
808.607	8100
808.749	8069
808.891	8191
809.033	8320
809.174	8218
809.316	8027
809.458	8058
809.6	8005
809.741	8001
809.883	7951
810.025	8031
810.166	7963
810.308	7963
810.45	7967
810.591	7875
810.733	7677
810.875	7636
811.016	7480
811.158	7449
811.299	7590
811.441	7685
811.582	7632
811.724	7567
811.865	7548
812.007	7510
812.148	7620
812.29	7594
812.431	7723
812.573	7845
812.714	7974
812.855	8081
812.997	8229
813.138	8328
813.279	8153
813.421	8111
813.562	7986
813.703	7852
813.845	7784
813.986	7411
814.127	7301
814.268	7217
814.41	7171
814.551	7213
814.692	7149
814.833	7053
814.974	7038
815.115	7122
815.256	6996
815.397	6905
815.539	6951
815.68	6814
815.821	6802
815.962	6779
816.103	6738
816.244	6669
816.385	6574
816.526	6589
816.666	6452
816.807	6285
816.948	6464
817.089	6467
817.23	6433
817.371	6403
817.512	6407
817.653	6384
817.793	6338
817.934	6399
818.075	6395
818.216	6376
818.356	6380
818.497	6190
818.638	6068
818.778	6125
818.919	6133
819.06	6136
819.2	6338
819.341	6266
819.481	6311
819.622	6532
819.762	6738
819.903	6650
820.043	6574
820.184	6574
820.324	6570
820.465	6707
820.605	6734
820.746	6601
820.886	6536
821.026	6639
821.167	6677
821.307	6692
821.447	6745
821.588	6642
821.728	6551
821.868	6509
822.008	6323
822.149	6369
822.289	6319
822.429	6125
822.569	6091
822.709	6114
822.849	5863
822.99	5882
823.13	5912
823.27	5889
823.41	5821
823.55	5783
823.69	5805
823.83	5726
823.97	5649
824.11	5573
824.25	5440
824.389	5558
824.529	5539
824.669	5463
824.809	5611
824.949	5646
825.089	5604
825.228	5554
825.368	5402
825.508	5315
825.648	5337
825.787	5330
825.927	5345
826.067	5299
826.206	5261
826.346	5360
826.485	5383
826.625	5349
826.765	5512
826.904	5474
827.044	5178
827.183	5121
827.323	5113
827.462	5220
827.601	5086
827.741	5147
827.88	5261
828.02	5178
828.159	5204
828.298	5303
828.437	5303
828.577	5212
828.716	5444
828.855	5353
828.994	5113
829.134	5197
829.273	5170
829.412	5178
829.551	5083
829.69	5151
829.829	5170
829.968	5391
830.107	5227
830.246	5231
830.385	5159
830.524	5102
830.663	5086
830.802	4995
830.941	4915
831.08	4881
831.219	5029
831.357	4946
831.496	5147
831.635	4911
831.774	4809
831.913	4790
832.051	4675
832.19	4736
832.329	4850
832.467	4679
832.606	4622
832.744	4717
832.883	4683
833.022	4679
833.16	4736
833.299	4831
833.437	4816
833.576	4854
833.714	4847
833.852	4870
833.991	4847
834.129	4911
834.267	4980
834.406	4843
834.544	4953
834.682	4961
834.821	4949
834.959	5178
835.097	4995
835.235	5174
835.373	5075
835.511	5086
835.65	5067
835.788	5003
835.926	4854
836.064	4885
836.202	4873
836.34	5151
836.478	5189
836.615	5136
836.753	5189
836.891	5273
837.029	5269
837.167	5189
837.305	5170
837.443	5121
837.58	5014
837.718	5231
837.856	5185
837.993	5105
838.131	5231
838.269	5208
838.406	5181
838.544	5155
838.681	5079
838.819	5018
838.956	4934
839.094	4873
839.231	4995
839.369	5041
839.506	5433
839.643	5220
839.781	5022
839.918	5052
840.055	5064
840.193	5136
840.33	5117
840.467	5060
840.604	5109
840.742	5467
840.879	5079
841.016	5098
841.153	5094
841.29	5334
841.427	5311
841.564	5258
841.701	5364
841.838	5254
841.975	5170
842.112	5223
842.249	5075
842.385	5060
842.522	5322
842.659	5124
842.796	5151
842.933	5143
843.069	5117
843.206	5140
843.343	5311
843.479	5223
843.616	5258
843.752	4991
843.889	5041
844.025	5212
844.162	5052
844.298	5121
844.435	5041
844.571	5048
844.708	5147
844.844	5208
844.98	5261
845.117	5220
845.253	5113
845.389	5083
845.525	5143
845.661	5151
845.798	4968
845.934	5113
846.07	4980
846.206	5170
846.342	5250
846.478	5147
846.614	5010
846.75	4919
846.886	4923
847.022	5079
847.158	5014
847.294	5079
847.429	5121
847.565	5052
847.701	5311
847.837	4892
847.972	4782
848.108	4976
848.244	4934
848.379	4812
848.515	4759
848.65	4721
848.786	4782
848.921	4786
849.057	4938
849.192	4938
849.328	4835
849.463	4885
849.598	4793
849.734	4782
849.869	4691
850.004	4653
850.14	4679
850.275	4637
850.41	4554
850.545	4596
850.68	4668
850.815	4577
850.95	4649
851.085	4866
851.22	4809
851.355	4733
851.49	4634
851.625	4675
851.76	4672
851.895	4596
852.03	4558
852.165	4660
852.299	4740
852.434	4797
852.569	4736
852.703	4793
852.838	4850
852.973	4991
853.107	4999
853.242	4774
853.376	4725
853.511	4550
853.645	4622
853.78	4828
853.914	4687
854.048	4748
854.183	4641
854.317	4740
854.451	4843
854.585	4679
854.72	4691
854.854	4774
854.988	4653
855.122	4691
855.256	4542
855.39	4687
855.524	4843
855.658	4748
855.792	4740
855.926	4755
856.06	4774
856.194	4831
856.327	4725
856.461	4641
856.595	4634
856.729	4653
856.862	4771
856.996	4752
857.13	4744
857.263	4786
857.397	4828
857.53	4660
857.664	4740
857.797	4805
857.931	4786
858.064	4748
858.197	4774
858.331	4683
858.464	4656
858.597	4561
858.731	4637
858.864	4611
858.997	4645
859.13	4710
859.263	4702
859.396	4725
859.529	4618
859.662	4626
859.795	4577
859.928	4634
860.061	4793
860.194	4767
860.327	4645
860.46	4580
860.592	4733
860.725	4725
860.858	4767
860.99	4618
861.123	4546
861.256	4596
861.388	4592
861.521	5467
861.653	4519
861.786	4493
861.918	4455
862.05	4538
862.183	4611
862.315	4626
862.447	4622
862.58	4584
862.712	4485
862.844	4344
862.976	4516
863.108	4535
863.24	4866
863.372	4337
863.504	4413
863.636	4455
863.768	4489
863.9	4481
864.032	4375
864.164	4436
864.296	4466
864.428	4561
864.559	4546
864.691	4523
864.823	4550
864.954	4493
865.086	4538
865.217	4428
865.349	4466
865.48	4485
865.612	4493
865.743	4698
865.875	4485
866.006	4447
866.137	4485
866.269	4478
866.4	4440
866.531	4493
866.662	4451
866.793	4424
866.924	4428
867.055	4554
867.186	4436
867.317	4409
867.448	4402
867.579	4455
867.71	4409
867.841	4417
867.972	4478
868.103	4504
868.233	4459
868.364	4531
868.495	4500
868.625	4733
868.756	4767
868.886	4538
869.017	4622
869.147	4721
869.278	4805
869.408	4694
869.539	4599
869.669	4729
869.799	4675
869.929	4797
870.06	4740
870.19	4957
870.32	4949
870.45	4949
870.58	5098
870.71	5105
870.84	5117
870.97	4949
871.1	4938
871.23	5143
871.36	5185
871.489	5075
871.619	5105
871.749	5052
871.879	5147
872.008	5204
872.138	5136
872.267	4987
872.397	4854
872.526	4843
872.656	4755
872.785	4835
872.915	4946
873.044	5098
873.173	4930
873.303	5022
873.432	5033
873.561	4980
873.69	4870
873.819	4919
873.948	4968
874.077	4801
874.206	4812
874.335	4858
874.464	4949
874.593	5060
874.722	4995
874.851	5075
874.979	5105
875.108	5037
875.237	4946
875.365	4862
875.494	4911
875.623	4991
875.751	4873
875.88	4911
876.008	5025
876.136	5033
876.265	5242
876.393	5368
876.521	5277
876.65	5197
876.778	5166
876.906	5075
877.034	5029
877.162	5075
877.29	5056
877.418	5060
877.546	5052
877.674	5041
877.802	5056
877.93	5048
878.058	4953
878.185	4881
878.313	5022
878.441	4968
878.568	4847
878.696	4908
878.824	4961
878.951	4980
879.079	5170
879.206	5311
879.333	5048
879.461	5003
879.588	5060
879.715	5147
879.842	5204
879.97	5025
880.097	4812
880.224	4767
880.351	4854
880.478	4820
880.605	4854
880.732	4831
880.859	5090
880.986	4866
881.112	4885
881.239	4816
881.366	4694
881.493	4634
881.619	4603
881.746	4637
881.872	4675
881.999	4641
882.125	4725
882.252	4835
882.378	4862
882.505	5018
882.631	4809
882.757	4706
882.883	4736
883.01	4767
883.136	4679
883.262	4603
883.388	4645
883.514	4839
883.64	4885
883.766	4820
883.892	4683
884.018	4759
884.143	4919
884.269	4991
884.395	4683
884.52	4611
884.646	4660
884.772	4641
884.897	4607
885.023	4698
885.148	4763
885.274	4850
885.399	4831
885.524	4687
885.65	4729
885.775	4771
885.9	4691
886.025	4816
886.15	4866
886.275	4725
886.4	4637
886.525	4710
886.65	4641
886.775	4733
886.9	4927
887.025	5102
887.149	4778
887.274	4653
887.399	4554
887.523	4653
887.648	4592
887.773	4584
887.897	4740
888.021	4752
888.146	4706
888.27	4839
888.395	4858
888.519	4843
888.643	4843
888.767	4812
888.891	4691
889.015	4607
889.139	4694
889.263	4592
889.387	4759
889.511	4896
889.635	4793
889.759	4596
889.883	4664
890.006	4706
890.13	4797
890.254	4637
890.377	4672
890.501	4565
890.624	4538
890.748	4675
890.871	4523
890.995	4470
891.118	4421
891.241	4535
891.364	4542
891.488	4660
891.611	4531
891.734	4569
891.857	4584
891.98	4516
892.103	4675
892.226	4618
892.349	4584
892.471	4447
892.594	4611
892.717	4607
892.839	4611
892.962	4580
893.085	4706
893.207	4573
893.33	4466
893.452	4523
893.575	4664
893.697	4584
893.819	4816
893.941	4839
894.064	4782
894.186	4577
894.308	4660
894.43	4763
894.552	4820
894.674	4771
894.796	4580
894.918	4596
895.04	4580
895.161	4748
895.283	4649
895.405	4554
895.526	4668
895.648	4710
895.769	4740
895.891	4698
896.012	4748
896.134	4767
896.255	4675
896.376	4668
896.498	4660
896.619	4702
896.74	4630
896.861	4668
896.982	4976
897.103	5064
897.224	4835
897.345	4782
897.466	4694
897.587	4740
897.708	4824
897.828	4782
897.949	4637
898.07	4573
898.19	4664
898.311	4824
898.431	4691
898.552	4740
898.672	4790
898.792	4809
898.913	4740
899.033	4634
899.153	4523
899.273	4443
899.393	4493
899.513	4550
899.633	4531
899.753	4630
899.873	4538
899.993	4607
900.113	4573
900.232	4561
900.352	4550
900.472	4512
900.591	4386
900.711	4432
900.83	4443
900.95	4664
901.069	4721
901.189	4535
901.308	4356
901.427	4303
901.546	4386
901.665	4508
901.784	4493
901.904	4405
902.023	4379
902.141	4185
902.26	4169
902.379	4322
902.498	4280
902.617	4196
902.735	4405
902.854	4375
902.973	4379
903.091	4257
903.21	4265
903.328	4284
903.446	4249
903.565	4299
903.683	4390
903.801	4272
903.919	4405
904.038	4398
904.156	4291
904.274	4462
904.392	4432
904.51	4440
904.627	4470
904.745	4599
904.863	4637
904.981	4440
905.098	4295
905.216	4394
905.334	4417
905.451	4440
905.569	4474
905.686	4599
905.803	4535
905.921	4417
906.038	4565
906.155	4512
906.272	4421
906.389	4504
906.506	4383
906.623	4344
906.74	4409
906.857	4333
906.974	4371
907.091	4569
907.208	4694
907.324	4565
907.441	4542
907.557	4325
907.674	4405
907.79	4337
907.907	4402
908.023	4470
908.139	4485
908.256	4428
908.372	4481
908.488	4428
908.604	4386
908.72	4314
908.836	4402
908.952	4360
909.068	4466
909.184	4577
909.3	4451
909.415	4550
909.531	4565
909.647	4363
909.762	4383
909.878	4367
909.993	4451
910.108	4409
910.224	4436
910.339	4489
910.454	4424
910.57	4322
910.685	4322
910.8	4672
910.915	4592
911.03	4523
911.145	4322
911.259	4314
911.374	4390
911.489	4291
911.604	4291
911.718	4192
911.833	4200
911.947	4071
912.062	4029
912.176	4238
912.291	4204
912.405	4265
912.519	4478
912.633	4512
912.748	4329
912.862	4291
912.976	4192
913.09	4116
913.204	4181
913.318	4280
913.431	4367
913.545	4371
913.659	4459
913.772	4421
913.886	4261
914	4227
914.113	4398
914.226	4451
914.34	4447
914.453	4234
914.566	4371
914.68	4318
914.793	4337
914.906	4181
915.019	4131
915.132	4120
915.245	4192
915.358	4223
915.47	4246
915.583	4272
915.696	4322
915.809	4413
915.921	4417
916.034	4268
916.146	4265
916.259	4227
916.371	4447
916.483	4409
916.595	4306
916.708	4337
916.82	4352
916.932	4333
917.044	4379
917.156	4352
917.268	4238
917.38	4276
917.491	4314
917.603	4402
917.715	4451
917.826	4455
917.938	4386
918.049	4249
918.161	4413
918.272	4596
918.384	4565
918.495	4489
918.606	4367
918.717	4265
918.828	4367
918.939	4424
919.05	4303
919.161	4337
919.272	4230
919.383	4268
919.494	4516
919.604	4668
919.715	4451
919.826	4386
919.936	4409
920.047	4569
920.157	4584
920.267	4736
920.378	4535
920.488	4519
920.598	4748
920.708	4873
920.818	4786
920.928	4774
921.038	5018
921.148	4953
921.258	4675
921.368	4569
921.477	4565
921.587	4527
921.697	4386
921.806	4615
921.916	4466
922.025	4318
922.134	4341
922.244	4268
922.353	4379
922.462	4219
922.571	4166
922.68	4048
922.789	4013
922.898	4086
923.007	4013
923.116	4105
923.224	4135
923.333	4135
923.442	3991
923.55	4063
923.659	4036
923.767	4188
923.876	4055
923.984	4169
924.092	4021
924.201	4090
924.309	4116
924.417	4139
924.525	4109
924.633	4166
924.741	5064
924.849	3949
924.956	4124
925.064	4002
925.172	3903
925.279	4010
925.387	4109
925.494	4135
925.602	4227
925.709	4215
925.816	4101
925.924	4181
926.031	4230
926.138	4265
926.245	4234
926.352	4105
926.459	4314
926.566	4348
926.673	4177
926.779	4143
926.886	4131
926.993	4048
927.099	3975
927.206	4032
927.312	3987
927.419	4082
927.525	4055
927.631	4112
927.737	3979
927.843	3960
927.95	3888
928.056	4002
928.162	4048
928.267	4097
928.373	4596
928.479	4109
928.585	3907
928.69	4097
928.796	4090
928.901	4051
929.007	3869
929.112	4032
929.218	3956
929.323	3979
929.428	3975
929.533	4143
929.638	3964
929.743	3972
929.848	4067
929.953	4036
930.058	3926
930.163	3816
930.267	3873
930.372	3972
930.477	3842
930.581	4128
930.685	3972
930.79	3827
930.894	3930
930.998	3892
931.103	4051
931.207	3785
931.311	3701
931.415	3717
931.519	3580
931.623	3610
