Data from test_V78500241_1072.txt Node
Date: Fri Mar 25 16:56:27 CST 2022
User: usil
Spectrometer: V785-0024
Trigger mode: 0
Integration Time (sec): 4.000000E-1
Scans to average: 1
Nonlinearity correction enabled: false
Boxcar width: 0
Storing dark spectrum: false
XAxis mode: Wavelengths
Number of Pixels in Spectrum: 1024
>>>>>Begin Spectral Data<<<<<
801.071	8062
801.214	8035
801.356	7883
801.499	7852
801.641	7780
801.783	7776
801.926	7947
802.068	7913
802.211	7902
802.353	7814
802.496	7837
802.638	7788
802.78	7959
802.923	7909
803.065	7864
803.208	7875
803.35	7890
803.492	8058
803.635	8153
803.777	7993
803.919	8164
804.061	8450
804.204	8183
804.346	8043
804.488	7970
804.63	8062
804.773	8050
804.915	8107
805.057	8210
805.199	8172
805.341	8195
805.483	8320
805.626	8168
805.768	8096
805.91	8244
806.052	8233
806.194	8073
806.336	8271
806.478	8142
806.62	8046
806.762	8199
806.904	8233
807.046	8450
807.188	8347
807.33	8305
807.472	8343
807.614	8077
807.756	8180
807.898	8031
808.04	7875
808.182	7978
808.324	7955
808.465	7936
808.607	8043
808.749	8069
808.891	8199
809.033	8275
809.174	8191
809.316	8111
809.458	8054
809.6	7959
809.741	8046
809.883	8001
810.025	8073
810.166	8157
810.308	8024
810.45	7989
810.591	7909
810.733	7712
810.875	7632
811.016	7491
811.158	7457
811.299	7586
811.441	7689
811.582	7670
811.724	7575
811.865	7544
812.007	7586
812.148	7605
812.29	7636
812.431	7723
812.573	7868
812.714	8031
812.855	8100
812.997	8145
813.138	8343
813.279	8172
813.421	8092
813.562	7959
813.703	7913
813.845	7723
813.986	7529
814.127	7274
814.268	7217
814.41	7171
814.551	7160
814.692	7168
814.833	7034
814.974	7103
815.115	7110
815.256	6932
815.397	6970
815.539	6947
815.68	6897
815.821	6814
815.962	6875
816.103	6871
816.244	6738
816.385	6665
816.526	6616
816.666	6509
816.807	6258
816.948	6467
817.089	6471
817.23	6471
817.371	6422
817.512	6441
817.653	6380
817.793	6372
817.934	6433
818.075	6517
818.216	6471
818.356	6391
818.497	6247
818.638	6163
818.778	6178
818.919	6178
819.06	6220
819.2	6357
819.341	6254
819.481	6395
819.622	6540
819.762	6768
819.903	6635
820.043	6639
820.184	6597
820.324	6639
820.465	6662
820.605	6631
820.746	6635
820.886	6525
821.026	6620
821.167	6719
821.307	6795
821.447	6707
821.588	6700
821.728	6525
821.868	6555
822.008	6311
822.149	6365
822.289	6380
822.429	6152
822.569	6079
822.709	6136
822.849	5999
822.99	5859
823.13	5931
823.27	5931
823.41	5805
823.55	5760
823.69	5790
823.83	5836
823.97	5707
824.11	5497
824.25	5562
824.389	5524
824.529	5554
824.669	5539
824.809	5596
824.949	5623
825.089	5573
825.228	5509
825.368	5410
825.508	5368
825.648	5372
825.787	5376
825.927	5341
826.067	5284
826.206	5345
826.346	5410
826.485	5379
826.625	5452
826.765	5566
826.904	5520
827.044	5273
827.183	5174
827.323	5166
827.462	5223
827.601	5185
827.741	5239
827.88	5246
828.02	5102
828.159	5212
828.298	5280
828.437	5383
828.577	5357
828.716	5471
828.855	5341
828.994	5155
829.134	5178
829.273	5242
829.412	5113
829.551	5140
829.69	5170
829.829	5246
829.968	5395
830.107	5315
830.246	5326
830.385	5181
830.524	5174
830.663	5094
830.802	5010
830.941	4915
831.08	4870
831.219	4976
831.357	5010
831.496	5140
831.635	4919
831.774	4892
831.913	4816
832.051	4733
832.19	4782
832.329	4858
832.467	4786
832.606	4641
832.744	4755
832.883	4710
833.022	4736
833.16	4809
833.299	4839
833.437	4820
833.576	4873
833.714	4927
833.852	4858
833.991	4919
834.129	4949
834.267	4923
834.406	4946
834.544	4980
834.682	5052
834.821	4968
834.959	5147
835.097	4987
835.235	5136
835.373	5113
835.511	5090
835.65	5025
835.788	5056
835.926	4896
836.064	4919
836.202	4980
836.34	5189
836.478	5258
836.615	5143
836.753	5280
836.891	5296
837.029	5254
837.167	5231
837.305	5151
837.443	5132
837.58	5162
837.718	5258
837.856	5170
837.993	5109
838.131	5261
838.269	5189
838.406	5216
838.544	5216
838.681	5109
838.819	4999
838.956	4946
839.094	4930
839.231	4946
839.369	5067
839.506	5493
839.643	5284
839.781	5086
839.918	5037
840.055	5113
840.193	5117
840.33	5102
840.467	5201
840.604	5250
840.742	5421
840.879	5090
841.016	5124
841.153	5193
841.29	5410
841.427	5334
841.564	5296
841.701	5387
841.838	5315
841.975	5204
842.112	5242
842.249	5204
842.385	5166
842.522	5345
842.659	5178
842.796	5155
842.933	5212
843.069	5067
843.206	5170
843.343	5364
843.479	5193
843.616	5292
843.752	5048
843.889	5052
844.025	5178
844.162	5029
844.298	5204
844.435	5083
844.571	5098
844.708	5185
844.844	5353
844.98	5326
845.117	5364
845.253	5155
845.389	5067
845.525	5147
845.661	5067
845.798	5083
845.934	5136
846.07	5079
846.206	5273
846.342	5277
846.478	5197
846.614	5048
846.75	5003
846.886	4976
847.022	5113
847.158	5033
847.294	5064
847.429	5045
847.565	5029
847.701	5288
847.837	4850
847.972	4805
848.108	4965
848.244	4938
848.379	4793
848.515	4774
848.65	4729
848.786	4763
848.921	4809
849.057	4915
849.192	4919
849.328	4831
849.463	4843
849.598	4828
849.734	4767
849.869	4687
850.004	4668
850.14	4664
850.275	4596
850.41	4535
850.545	4527
850.68	4630
850.815	4634
850.95	4626
851.085	4812
851.22	4763
851.355	4672
851.49	4607
851.625	4618
851.76	4626
851.895	4580
852.03	4519
852.165	4611
852.299	4778
852.434	4778
852.569	4767
852.703	4786
852.838	4801
852.973	4927
853.107	4930
853.242	4763
853.376	4729
853.511	4565
853.645	4645
853.78	4835
853.914	4687
854.048	4653
854.183	4672
854.317	4729
854.451	4847
854.585	4653
854.72	4645
854.854	4755
854.988	4592
855.122	4622
855.256	4497
855.39	4672
855.524	4752
855.658	4702
855.792	4702
855.926	4767
856.06	4729
856.194	4793
856.327	4714
856.461	4626
856.595	4664
856.729	4687
856.862	4774
856.996	4725
857.13	4755
857.263	4801
857.397	4744
857.53	4626
857.664	4687
857.797	4782
857.931	4778
858.064	4653
858.197	4755
858.331	4630
858.464	4607
858.597	4554
858.731	4634
858.864	4653
858.997	4611
859.13	4672
859.263	4683
859.396	4679
859.529	4565
859.662	4565
859.795	4569
859.928	4599
860.061	4736
860.194	4748
860.327	4596
860.46	4611
860.592	4710
860.725	4755
860.858	4729
860.99	4558
861.123	4527
861.256	4561
861.388	4611
861.521	5296
861.653	4489
861.786	4451
861.918	4455
862.05	4508
862.183	4565
862.315	4645
862.447	4664
862.58	4558
862.712	4417
862.844	4314
862.976	4478
863.108	4440
863.24	4862
863.372	4284
863.504	4413
863.636	4390
863.768	4474
863.9	4447
864.032	4383
864.164	4402
864.296	4455
864.428	4550
864.559	4546
864.691	4558
864.823	4527
864.954	4512
865.086	4489
865.217	4478
865.349	4421
865.48	4459
865.612	4481
865.743	4569
865.875	4451
866.006	4447
866.137	4512
866.269	4474
866.4	4424
866.531	4386
866.662	4394
866.793	4405
866.924	4405
867.055	4535
867.186	4497
867.317	4440
867.448	4375
867.579	4375
867.71	4379
867.841	4379
867.972	4542
868.103	4523
868.233	4447
868.364	4375
868.495	4504
868.625	4660
868.756	4763
868.886	4569
869.017	4630
869.147	4748
869.278	4805
869.408	4675
869.539	4611
869.669	4706
869.799	4679
869.929	4755
870.06	4691
870.19	4934
870.32	4908
870.45	4911
870.58	5006
870.71	5098
870.84	5064
870.97	4949
871.1	4850
871.23	5155
871.36	5113
871.489	5003
871.619	5045
871.749	5071
871.879	5094
872.008	5246
872.138	5052
872.267	4999
872.397	4828
872.526	4809
872.656	4725
872.785	4812
872.915	4991
873.044	5006
873.173	4961
873.303	5010
873.432	4957
873.561	4908
873.69	4831
873.819	4900
873.948	4885
874.077	4824
874.206	4797
874.335	4793
874.464	4908
874.593	5033
874.722	4889
874.851	5102
874.979	5075
875.108	5014
875.237	4930
875.365	4820
875.494	4873
875.623	4995
875.751	4839
875.88	4870
876.008	4961
876.136	5018
876.265	5197
876.393	5311
876.521	5258
876.65	5273
876.778	5117
876.906	5094
877.034	4987
877.162	5010
877.29	4923
877.418	5033
877.546	5079
877.674	4976
877.802	4991
877.93	5052
878.058	4908
878.185	4908
878.313	4942
878.441	4949
878.568	4767
878.696	4831
878.824	4949
878.951	4938
879.079	5109
879.206	5307
879.333	5128
879.461	4972
879.588	5014
879.715	5094
879.842	5239
879.97	5003
880.097	4854
880.224	4744
880.351	4820
880.478	4839
880.605	4839
880.732	4828
880.859	5094
880.986	4911
881.112	4911
881.239	4771
881.366	4641
881.493	4656
881.619	4611
881.746	4637
881.872	4656
881.999	4706
882.125	4748
882.252	4782
882.378	4866
882.505	5006
882.631	4850
882.757	4706
882.883	4812
883.01	4774
883.136	4721
883.262	4641
883.388	4691
883.514	4866
883.64	4892
883.766	4854
883.892	4698
884.018	4729
884.143	4915
884.269	5045
884.395	4729
884.52	4698
884.646	4622
884.772	4615
884.897	4599
885.023	4702
885.148	4828
885.274	4877
885.399	4801
885.524	4759
885.65	4729
885.775	4793
885.9	4725
886.025	4862
886.15	4805
886.275	4786
886.4	4714
886.525	4786
886.65	4740
886.775	4748
886.9	4904
887.025	5075
887.149	4797
887.274	4687
887.399	4573
887.523	4702
887.648	4649
887.773	4599
887.897	4797
888.021	4831
888.146	4694
888.27	4839
888.395	4900
888.519	4809
888.643	4885
888.767	4919
888.891	4683
889.015	4675
889.139	4672
889.263	4637
889.387	4740
889.511	4858
889.635	4809
889.759	4691
889.883	4653
890.006	4759
890.13	4847
890.254	4626
890.377	4698
890.501	4546
890.624	4584
890.748	4664
890.871	4538
890.995	4481
891.118	4424
891.241	4538
891.364	4577
891.488	4687
891.611	4504
891.734	4596
891.857	4607
891.98	4634
892.103	4668
892.226	4641
892.349	4546
892.471	4405
892.594	4550
892.717	4622
892.839	4603
892.962	4649
893.085	4691
893.207	4637
893.33	4478
893.452	4516
893.575	4668
893.697	4584
893.819	4759
893.941	4847
894.064	4805
894.186	4637
894.308	4615
894.43	4774
894.552	4873
894.674	4801
894.796	4569
894.918	4599
895.04	4622
895.161	4736
895.283	4706
895.405	4592
895.526	4664
895.648	4736
895.769	4729
895.891	4755
896.012	4805
896.134	4748
896.255	4668
896.376	4656
896.498	4645
896.619	4748
896.74	4637
896.861	4679
896.982	4938
897.103	5124
897.224	4828
897.345	4786
897.466	4733
897.587	4748
897.708	4854
897.828	4801
897.949	4679
898.07	4603
898.19	4645
898.311	4831
898.431	4698
898.552	4717
898.672	4812
898.792	4793
898.913	4763
899.033	4630
899.153	4504
899.273	4470
899.393	4504
899.513	4546
899.633	4584
899.753	4569
899.873	4550
899.993	4577
900.113	4542
900.232	4611
900.352	4558
900.472	4535
900.591	4443
900.711	4481
900.83	4447
900.95	4634
901.069	4656
901.189	4573
901.308	4344
901.427	4352
901.546	4402
901.665	4474
901.784	4561
901.904	4394
902.023	4318
902.141	4223
902.26	4207
902.379	4322
902.498	4276
902.617	4261
902.735	4390
902.854	4455
902.973	4344
903.091	4230
903.21	4227
903.328	4303
903.446	4337
903.565	4268
903.683	4394
903.801	4306
903.919	4440
904.038	4443
904.156	4329
904.274	4481
904.392	4428
904.51	4451
904.627	4561
904.745	4622
904.863	4691
904.981	4443
905.098	4318
905.216	4383
905.334	4447
905.451	4497
905.569	4455
905.686	4584
905.803	4592
905.921	4413
906.038	4558
906.155	4527
906.272	4405
906.389	4489
906.506	4383
906.623	4459
906.74	4394
906.857	4352
906.974	4375
907.091	4592
907.208	4679
907.324	4558
907.441	4493
907.557	4390
907.674	4405
907.79	4322
907.907	4443
908.023	4531
908.139	4569
908.256	4424
908.372	4459
908.488	4462
908.604	4371
908.72	4383
908.836	4390
908.952	4375
909.068	4436
909.184	4637
909.3	4508
909.415	4611
909.531	4588
909.647	4360
909.762	4360
909.878	4344
909.993	4443
910.108	4436
910.224	4474
910.339	4447
910.454	4440
910.57	4383
910.685	4337
910.8	4675
910.915	4637
911.03	4478
911.145	4333
911.259	4360
911.374	4402
911.489	4341
911.604	4284
911.718	4207
911.833	4230
911.947	4078
912.062	4074
912.176	4230
912.291	4246
912.405	4284
912.519	4474
912.633	4535
912.748	4417
912.862	4322
912.976	4249
913.09	4131
913.204	4219
913.318	4280
913.431	4375
913.545	4371
913.659	4470
913.772	4348
913.886	4261
914	4207
914.113	4375
914.226	4443
914.34	4424
914.453	4257
914.566	4421
914.68	4325
914.793	4329
914.906	4169
915.019	4166
915.132	4124
915.245	4234
915.358	4200
915.47	4257
915.583	4246
915.696	4325
915.809	4440
915.921	4402
916.034	4284
916.146	4276
916.259	4261
916.371	4398
916.483	4386
916.595	4261
916.708	4360
916.82	4310
916.932	4341
917.044	4322
917.156	4329
917.268	4253
917.38	4284
917.491	4261
917.603	4310
917.715	4424
917.826	4485
917.938	4428
918.049	4249
918.161	4341
918.272	4561
918.384	4558
918.495	4478
918.606	4333
918.717	4215
918.828	4356
918.939	4363
919.05	4272
919.161	4375
919.272	4135
919.383	4246
919.494	4489
919.604	4691
919.715	4421
919.826	4360
919.936	4413
920.047	4577
920.157	4500
920.267	4740
920.378	4599
920.488	4459
920.598	4706
920.708	4885
920.818	4771
920.928	4778
921.038	4961
921.148	4949
921.258	4641
921.368	4584
921.477	4538
921.587	4504
921.697	4409
921.806	4580
921.916	4481
922.025	4265
922.134	4272
922.244	4238
922.353	4310
922.462	4196
922.571	4150
922.68	4029
922.789	3960
922.898	4051
923.007	4036
923.116	4105
923.224	4086
923.333	4101
923.442	4036
923.55	4002
923.659	4036
923.767	4139
923.876	4048
923.984	4166
924.092	3987
924.201	4097
924.309	4131
924.417	4143
924.525	4082
924.633	4116
924.741	5022
924.849	3968
924.956	4101
925.064	3998
925.172	3884
925.279	4013
925.387	4097
925.494	4101
925.602	4192
925.709	4185
925.816	4040
925.924	4128
926.031	4242
926.138	4204
926.245	4215
926.352	4128
926.459	4253
926.566	4325
926.673	4169
926.779	4071
926.886	4116
926.993	3968
927.099	3979
927.206	3960
927.312	3960
927.419	4105
927.525	4063
927.631	4105
927.737	3945
927.843	3972
927.95	3880
928.056	3975
928.162	3953
928.267	4059
928.373	4725
928.479	4173
928.585	3907
928.69	4044
928.796	4086
928.901	3994
929.007	3823
929.112	4036
929.218	4021
929.323	3953
929.428	3930
929.533	4074
929.638	3937
929.743	3949
929.848	4002
929.953	4017
930.058	3922
930.163	3793
930.267	3842
930.372	3956
930.477	3797
930.581	4112
930.685	3956
930.79	3838
930.894	3918
930.998	3892
931.103	3994
931.207	3709
931.311	3713
931.415	3671
931.519	3561
931.623	3542
