Data from test_V78500241_625.txt Node
Date: Fri Mar 25 16:53:20 CST 2022
User: usil
Spectrometer: V785-0024
Trigger mode: 0
Integration Time (sec): 4.000000E-1
Scans to average: 1
Nonlinearity correction enabled: false
Boxcar width: 0
Storing dark spectrum: false
XAxis mode: Wavelengths
Number of Pixels in Spectrum: 1024
>>>>>Begin Spectral Data<<<<<
801.071	7993
801.214	7989
801.356	7898
801.499	7864
801.641	7784
801.783	7833
801.926	8054
802.068	7928
802.211	7989
802.353	7982
802.496	7852
802.638	7993
802.78	7898
802.923	7936
803.065	7833
803.208	7890
803.35	7894
803.492	8123
803.635	8180
803.777	7940
803.919	8100
804.061	8423
804.204	8153
804.346	7978
804.488	7974
804.63	8119
804.773	8012
804.915	8073
805.057	8229
805.199	8126
805.341	8161
805.483	8301
805.626	8225
805.768	8134
805.91	8206
806.052	8237
806.194	8062
806.336	8301
806.478	8046
806.62	8054
806.762	8123
806.904	8282
807.046	8415
807.188	8362
807.33	8324
807.472	8324
807.614	8168
807.756	8115
807.898	7986
808.04	7898
808.182	7864
808.324	7894
808.465	7906
808.607	8020
808.749	8058
808.891	8248
809.033	8267
809.174	8138
809.316	8073
809.458	8050
809.6	7993
809.741	8058
809.883	8001
810.025	8084
810.166	8016
810.308	8001
810.45	8005
810.591	7928
810.733	7765
810.875	7651
811.016	7559
811.158	7559
811.299	7571
811.441	7757
811.582	7636
811.724	7563
811.865	7563
812.007	7605
812.148	7578
812.29	7616
812.431	7704
812.573	7803
812.714	7963
812.855	8092
812.997	8149
813.138	8366
813.279	8229
813.421	8126
813.562	7982
813.703	7807
813.845	7742
813.986	7464
814.127	7305
814.268	7282
814.41	7221
814.551	7088
814.692	7164
814.833	7019
814.974	7061
815.115	7099
815.256	6935
815.397	6935
815.539	6928
815.68	6859
815.821	6844
815.962	6947
816.103	6798
816.244	6749
816.385	6578
816.526	6650
816.666	6475
816.807	6258
816.948	6445
817.089	6486
817.23	6452
817.371	6346
817.512	6410
817.653	6395
817.793	6365
817.934	6448
818.075	6426
818.216	6437
818.356	6372
818.497	6186
818.638	6136
818.778	6095
818.919	6155
819.06	6182
819.2	6292
819.341	6319
819.481	6350
819.622	6536
819.762	6726
819.903	6730
820.043	6570
820.184	6582
820.324	6559
820.465	6692
820.605	6673
820.746	6616
820.886	6521
821.026	6623
821.167	6616
821.307	6760
821.447	6688
821.588	6642
821.728	6525
821.868	6422
822.008	6300
822.149	6376
822.289	6353
822.429	6091
822.569	6053
822.709	6102
822.849	5927
822.99	5851
823.13	5935
823.27	5882
823.41	5775
823.55	5722
823.69	5745
823.83	5726
823.97	5646
824.11	5501
824.25	5547
824.389	5516
824.529	5551
824.669	5467
824.809	5615
824.949	5642
825.089	5657
825.228	5509
825.368	5379
825.508	5303
825.648	5330
825.787	5341
825.927	5334
826.067	5288
826.206	5265
826.346	5402
826.485	5402
826.625	5379
826.765	5554
826.904	5452
827.044	5269
827.183	5193
827.323	5052
827.462	5261
827.601	5208
827.741	5174
827.88	5197
828.02	5136
828.159	5178
828.298	5292
828.437	5311
828.577	5277
828.716	5509
828.855	5315
828.994	5117
829.134	5109
829.273	5178
829.412	5117
829.551	5178
829.69	5090
829.829	5254
829.968	5337
830.107	5258
830.246	5296
830.385	5223
830.524	5147
830.663	5052
830.802	4946
830.941	4881
831.08	4877
831.219	4987
831.357	4995
831.496	5117
831.635	4900
831.774	4824
831.913	4873
832.051	4717
832.19	4740
832.329	4816
832.467	4687
832.606	4641
832.744	4679
832.883	4736
833.022	4706
833.16	4824
833.299	4778
833.437	4820
833.576	4870
833.714	4858
833.852	4889
833.991	4885
834.129	4915
834.267	4957
834.406	4915
834.544	4972
834.682	5003
834.821	4968
834.959	5132
835.097	4961
835.235	5140
835.373	5128
835.511	5105
835.65	4976
835.788	5067
835.926	4900
836.064	4862
836.202	4919
836.34	5132
836.478	5265
836.615	5159
836.753	5231
836.891	5277
837.029	5223
837.167	5136
837.305	5140
837.443	5143
837.58	5029
837.718	5181
837.856	5170
837.993	5147
838.131	5185
838.269	5201
838.406	5136
838.544	5181
838.681	4995
838.819	5014
838.956	4908
839.094	4923
839.231	4980
839.369	5022
839.506	5406
839.643	5254
839.781	5045
839.918	4984
840.055	5086
840.193	5094
840.33	5147
840.467	5109
840.604	5185
840.742	5455
840.879	5056
841.016	5098
841.153	5147
841.29	5322
841.427	5353
841.564	5315
841.701	5372
841.838	5292
841.975	5246
842.112	5284
842.249	5090
842.385	5109
842.522	5391
842.659	5121
842.796	5174
842.933	5201
843.069	5132
843.206	5204
843.343	5322
843.479	5235
843.616	5231
843.752	5006
843.889	5014
844.025	5185
844.162	5048
844.298	5216
844.435	5086
844.571	5105
844.708	5178
844.844	5261
844.98	5357
845.117	5239
845.253	5159
845.389	5041
845.525	5197
845.661	5159
845.798	5041
845.934	5147
846.07	5094
846.206	5220
846.342	5273
846.478	5090
846.614	5041
846.75	4946
846.886	4961
847.022	5102
847.158	5010
847.294	5041
847.429	5121
847.565	5075
847.701	5364
847.837	4850
847.972	4824
848.108	5033
848.244	4930
848.379	4721
848.515	4714
848.65	4714
848.786	4786
848.921	4763
849.057	4896
849.192	4942
849.328	4797
849.463	4850
849.598	4812
849.734	4782
849.869	4698
850.004	4588
850.14	4653
850.275	4626
850.41	4527
850.545	4561
850.68	4607
850.815	4626
850.95	4599
851.085	4843
851.22	4729
851.355	4702
851.49	4554
851.625	4626
851.76	4607
851.895	4565
852.03	4519
852.165	4641
852.299	4717
852.434	4763
852.569	4702
852.703	4767
852.838	4828
852.973	4930
853.107	4892
853.242	4702
853.376	4683
853.511	4561
853.645	4588
853.78	4771
853.914	4706
854.048	4649
854.183	4626
854.317	4683
854.451	4854
854.585	4653
854.72	4683
854.854	4771
854.988	4596
855.122	4588
855.256	4550
855.39	4645
855.524	4752
855.658	4694
855.792	4710
855.926	4691
856.06	4710
856.194	4748
856.327	4698
856.461	4611
856.595	4622
856.729	4626
856.862	4717
856.996	4687
857.13	4679
857.263	4717
857.397	4755
857.53	4679
857.664	4755
857.797	4771
857.931	4809
858.064	4668
858.197	4763
858.331	4630
858.464	4622
858.597	4504
858.731	4603
858.864	4634
858.997	4584
859.13	4668
859.263	4607
859.396	4706
859.529	4580
859.662	4565
859.795	4459
859.928	4630
860.061	4717
860.194	4736
860.327	4626
860.46	4607
860.592	4733
860.725	4694
860.858	4710
860.99	4573
861.123	4512
861.256	4474
861.388	4607
861.521	5341
861.653	4508
861.786	4424
861.918	4436
862.05	4485
862.183	4527
862.315	4641
862.447	4664
862.58	4550
862.712	4394
862.844	4360
862.976	4470
863.108	4451
863.24	4858
863.372	4306
863.504	4405
863.636	4413
863.768	4493
863.9	4447
864.032	4322
864.164	4409
864.296	4519
864.428	4554
864.559	4538
864.691	4504
864.823	4573
864.954	4443
865.086	4512
865.217	4459
865.349	4360
865.48	4402
865.612	4512
865.743	4596
865.875	4462
866.006	4424
866.137	4466
866.269	4436
866.4	4405
866.531	4436
866.662	4383
866.793	4432
866.924	4375
867.055	4504
867.186	4516
867.317	4348
867.448	4360
867.579	4363
867.71	4379
867.841	4386
867.972	4436
868.103	4462
868.233	4481
868.364	4462
868.495	4481
868.625	4702
868.756	4736
868.886	4516
869.017	4584
869.147	4736
869.278	4740
869.408	4637
869.539	4668
869.669	4721
869.799	4675
869.929	4744
870.06	4675
870.19	4911
870.32	4930
870.45	4942
870.58	5006
870.71	5117
870.84	5102
870.97	4995
871.1	4953
871.23	5136
871.36	5083
871.489	4991
871.619	5067
871.749	5064
871.879	5067
872.008	5189
872.138	5064
872.267	4949
872.397	4866
872.526	4801
872.656	4702
872.785	4824
872.915	4965
873.044	4995
873.173	4904
873.303	4934
873.432	4965
873.561	4961
873.69	4911
873.819	4854
873.948	4915
874.077	4801
874.206	4736
874.335	4767
874.464	4911
874.593	5056
874.722	4968
874.851	5086
874.979	5086
875.108	4991
875.237	4946
875.365	4900
875.494	4904
875.623	4938
875.751	4816
875.88	4896
876.008	4972
876.136	5003
876.265	5185
876.393	5315
876.521	5216
876.65	5242
876.778	5151
876.906	5105
877.034	5029
877.162	5060
877.29	4995
877.418	5033
877.546	5083
877.674	5064
877.802	4995
877.93	5033
878.058	4919
878.185	4862
878.313	4980
878.441	4968
878.568	4790
878.696	4847
878.824	4976
878.951	4995
879.079	5159
879.206	5292
879.333	5132
879.461	4968
879.588	5029
879.715	5140
879.842	5231
879.97	4976
880.097	4809
880.224	4767
880.351	4786
880.478	4816
880.605	4809
880.732	4771
880.859	5056
880.986	4812
881.112	4854
881.239	4809
881.366	4660
881.493	4588
881.619	4592
881.746	4615
881.872	4664
881.999	4626
882.125	4679
882.252	4782
882.378	4786
882.505	4968
882.631	4812
882.757	4683
882.883	4740
883.01	4771
883.136	4653
883.262	4637
883.388	4626
883.514	4782
883.64	4850
883.766	4771
883.892	4660
884.018	4687
884.143	4873
884.269	5006
884.395	4717
884.52	4599
884.646	4683
884.772	4546
884.897	4546
885.023	4641
885.148	4767
885.274	4892
885.399	4782
885.524	4675
885.65	4698
885.775	4774
885.9	4656
886.025	4850
886.15	4771
886.275	4683
886.4	4649
886.525	4740
886.65	4710
886.775	4691
886.9	4915
887.025	5014
887.149	4812
887.274	4729
887.399	4538
887.523	4592
887.648	4561
887.773	4538
887.897	4763
888.021	4763
888.146	4672
888.27	4801
888.395	4877
888.519	4763
888.643	4790
888.767	4805
888.891	4706
889.015	4577
889.139	4630
889.263	4580
889.387	4698
889.511	4877
889.635	4812
889.759	4653
889.883	4649
890.006	4706
890.13	4812
890.254	4577
890.377	4649
890.501	4523
890.624	4478
890.748	4675
890.871	4527
890.995	4440
891.118	4383
891.241	4504
891.364	4554
891.488	4615
891.611	4535
891.734	4588
891.857	4599
891.98	4481
892.103	4656
892.226	4584
892.349	4519
892.471	4398
892.594	4538
892.717	4588
892.839	4538
892.962	4573
893.085	4687
893.207	4596
893.33	4459
893.452	4481
893.575	4660
893.697	4577
893.819	4812
893.941	4828
894.064	4725
894.186	4550
894.308	4580
894.43	4744
894.552	4847
894.674	4752
894.796	4565
894.918	4596
895.04	4599
895.161	4675
895.283	4687
895.405	4596
895.526	4641
895.648	4660
895.769	4683
895.891	4733
896.012	4725
896.134	4698
896.255	4687
896.376	4588
896.498	4584
896.619	4714
896.74	4607
896.861	4706
896.982	4949
897.103	5037
897.224	4812
897.345	4748
897.466	4653
897.587	4725
897.708	4854
897.828	4793
897.949	4653
898.07	4565
898.19	4607
898.311	4778
898.431	4694
898.552	4721
898.672	4771
898.792	4831
898.913	4736
899.033	4649
899.153	4478
899.273	4436
899.393	4500
899.513	4497
899.633	4523
899.753	4546
899.873	4508
899.993	4580
900.113	4504
900.232	4580
900.352	4535
900.472	4504
900.591	4398
900.711	4421
900.83	4421
900.95	4580
901.069	4694
901.189	4546
901.308	4394
901.427	4322
901.546	4367
901.665	4440
901.784	4500
901.904	4341
902.023	4272
902.141	4196
902.26	4135
902.379	4295
902.498	4227
902.617	4204
902.735	4348
902.854	4386
902.973	4344
903.091	4204
903.21	4227
903.328	4306
903.446	4303
903.565	4261
903.683	4322
903.801	4284
903.919	4383
904.038	4390
904.156	4322
904.274	4455
904.392	4428
904.51	4428
904.627	4447
904.745	4542
904.863	4558
904.981	4375
905.098	4303
905.216	4367
905.334	4466
905.451	4402
905.569	4417
905.686	4531
905.803	4546
905.921	4409
906.038	4535
906.155	4485
906.272	4398
906.389	4421
906.506	4318
906.623	4386
906.74	4398
906.857	4291
906.974	4371
907.091	4512
907.208	4675
907.324	4611
907.441	4489
907.557	4303
907.674	4306
907.79	4322
907.907	4379
908.023	4432
908.139	4466
908.256	4436
908.372	4462
908.488	4455
908.604	4314
908.72	4306
908.836	4383
908.952	4379
909.068	4367
909.184	4634
909.3	4466
909.415	4603
909.531	4554
909.647	4383
909.762	4398
909.878	4348
909.993	4451
910.108	4443
910.224	4383
910.339	4466
910.454	4344
910.57	4379
910.685	4367
910.8	4664
910.915	4634
911.03	4493
911.145	4303
911.259	4314
911.374	4386
911.489	4352
911.604	4299
911.718	4181
911.833	4242
911.947	4101
912.062	4029
912.176	4257
912.291	4253
912.405	4299
912.519	4542
912.633	4523
912.748	4413
912.862	4318
912.976	4287
913.09	4135
913.204	4246
913.318	4322
913.431	4363
913.545	4371
913.659	4478
913.772	4383
913.886	4291
914	4276
914.113	4459
914.226	4447
914.34	4428
914.453	4253
914.566	4478
914.68	4360
914.793	4344
914.906	4200
915.019	4162
915.132	4177
915.245	4268
915.358	4276
915.47	4227
915.583	4257
915.696	4306
915.809	4409
915.921	4474
916.034	4276
916.146	4318
916.259	4253
916.371	4432
916.483	4413
916.595	4314
916.708	4325
916.82	4348
916.932	4409
917.044	4379
917.156	4367
917.268	4299
917.38	4310
917.491	4318
917.603	4375
917.715	4459
917.826	4447
917.938	4417
918.049	4291
918.161	4409
918.272	4573
918.384	4573
918.495	4550
918.606	4318
918.717	4238
918.828	4402
918.939	4436
919.05	4325
919.161	4398
919.272	4185
919.383	4276
919.494	4462
919.604	4656
919.715	4436
919.826	4421
919.936	4470
920.047	4592
920.157	4481
920.267	4778
920.378	4618
920.488	4558
920.598	4759
920.708	4892
920.818	4824
920.928	4759
921.038	5010
921.148	4938
921.258	4653
921.368	4607
921.477	4508
921.587	4508
921.697	4398
921.806	4634
921.916	4470
922.025	4325
922.134	4306
922.244	4253
922.353	4318
922.462	4173
922.571	4150
922.68	4006
922.789	4040
922.898	4112
923.007	4017
923.116	4162
923.224	4093
923.333	4101
923.442	4032
923.55	3994
923.659	4078
923.767	4131
923.876	4059
923.984	4147
924.092	4017
924.201	4093
924.309	4093
924.417	4154
924.525	4074
924.633	4101
924.741	5109
924.849	3972
924.956	4188
925.064	4036
925.172	3934
925.279	3953
925.387	4063
925.494	4071
925.602	4192
925.709	4158
925.816	4040
925.924	4227
926.031	4238
926.138	4188
926.245	4207
926.352	4131
926.459	4295
926.566	4352
926.673	4173
926.779	4105
926.886	4101
926.993	4029
927.099	4021
927.206	3941
927.312	3972
927.419	4063
927.525	4044
927.631	4128
927.737	3968
927.843	3983
927.95	3873
928.056	4006
928.162	4021
928.267	4124
928.373	4717
928.479	4120
928.585	3873
928.69	4055
928.796	4071
928.901	4032
929.007	3903
929.112	4025
929.218	4025
929.323	3956
929.428	3972
929.533	4162
929.638	3945
929.743	4010
929.848	4093
929.953	4029
930.058	3975
930.163	3816
930.267	3835
930.372	3983
930.477	3804
930.581	4131
930.685	4002
930.79	3888
930.894	3926
930.998	3892
931.103	4101
931.207	3720
931.311	3720
931.415	3682
931.519	3599
931.623	3606
