Data from test_V78500241_2742.txt Node
Date: Fri Mar 25 17:08:04 CST 2022
User: usil
Spectrometer: V785-0024
Trigger mode: 0
Integration Time (sec): 4.000000E-1
Scans to average: 1
Nonlinearity correction enabled: false
Boxcar width: 0
Storing dark spectrum: false
XAxis mode: Wavelengths
Number of Pixels in Spectrum: 1024
>>>>>Begin Spectral Data<<<<<
801.071	8043
801.214	7974
801.356	7909
801.499	7963
801.641	7852
801.783	7894
801.926	8020
802.068	7906
802.211	7986
802.353	8065
802.496	7875
802.638	7879
802.78	7974
802.923	7940
803.065	7887
803.208	7940
803.35	8035
803.492	8103
803.635	8161
803.777	8054
803.919	8176
804.061	8526
804.204	8187
804.346	8043
804.488	8039
804.63	8046
804.773	8088
804.915	8176
805.057	8267
805.199	8153
805.341	8172
805.483	8229
805.626	8244
805.768	8123
805.91	8229
806.052	8225
806.194	8111
806.336	8377
806.478	8107
806.62	8027
806.762	8138
806.904	8145
807.046	8522
807.188	8393
807.33	8328
807.472	8313
807.614	8164
807.756	8187
807.898	8027
808.04	7917
808.182	7890
808.324	7921
808.465	7951
808.607	8058
808.749	8202
808.891	8286
809.033	8320
809.174	8248
809.316	8119
809.458	8065
809.6	7993
809.741	8058
809.883	8088
810.025	8130
810.166	8058
810.308	8035
810.45	8012
810.591	7784
810.733	7765
810.875	7601
811.016	7449
811.158	7495
811.299	7639
811.441	7723
811.582	7734
811.724	7540
811.865	7506
812.007	7655
812.148	7567
812.29	7628
812.431	7784
812.573	7921
812.714	7974
812.855	8107
812.997	8210
813.138	8313
813.279	8145
813.421	8119
813.562	8058
813.703	7875
813.845	7738
813.986	7472
814.127	7270
814.268	7293
814.41	7247
814.551	7168
814.692	7171
814.833	7038
814.974	7061
815.115	7080
815.256	6977
815.397	6863
815.539	6913
815.68	6856
815.821	6848
815.962	6882
816.103	6837
816.244	6734
816.385	6616
816.526	6589
816.666	6494
816.807	6292
816.948	6433
817.089	6532
817.23	6452
817.371	6403
817.512	6369
817.653	6395
817.793	6369
817.934	6502
818.075	6467
818.216	6410
818.356	6353
818.497	6262
818.638	6098
818.778	6106
818.919	6144
819.06	6117
819.2	6327
819.341	6292
819.481	6315
819.622	6525
819.762	6692
819.903	6707
820.043	6582
820.184	6623
820.324	6551
820.465	6730
820.605	6753
820.746	6574
820.886	6555
821.026	6677
821.167	6669
821.307	6783
821.447	6776
821.588	6665
821.728	6566
821.868	6566
822.008	6331
822.149	6388
822.289	6350
822.429	6167
822.569	6003
822.709	6133
822.849	5904
822.99	5885
823.13	5908
823.27	5908
823.41	5802
823.55	5813
823.69	5794
823.83	5779
823.97	5649
824.11	5532
824.25	5448
824.389	5520
824.529	5592
824.669	5512
824.809	5672
824.949	5707
825.089	5581
825.228	5562
825.368	5429
825.508	5398
825.648	5341
825.787	5402
825.927	5364
826.067	5315
826.206	5307
826.346	5429
826.485	5436
826.625	5395
826.765	5577
826.904	5490
827.044	5227
827.183	5212
827.323	5132
827.462	5231
827.601	5162
827.741	5208
827.88	5235
828.02	5090
828.159	5235
828.298	5315
828.437	5368
828.577	5330
828.716	5543
828.855	5315
828.994	5136
829.134	5197
829.273	5132
829.412	5132
829.551	5170
829.69	5105
829.829	5235
829.968	5433
830.107	5273
830.246	5311
830.385	5166
830.524	5121
830.663	5014
830.802	4995
830.941	4885
831.08	4843
831.219	4991
831.357	4961
831.496	5136
831.635	4946
831.774	4839
831.913	4866
832.051	4744
832.19	4717
832.329	4839
832.467	4706
832.606	4596
832.744	4683
832.883	4679
833.022	4740
833.16	4748
833.299	4881
833.437	4812
833.576	4805
833.714	4858
833.852	4816
833.991	4870
834.129	4946
834.267	4972
834.406	4904
834.544	4965
834.682	4949
834.821	4949
834.959	5162
835.097	4953
835.235	5109
835.373	5056
835.511	5086
835.65	5010
835.788	5079
835.926	4896
836.064	4904
836.202	4915
836.34	5201
836.478	5231
836.615	5143
836.753	5159
836.891	5315
837.029	5261
837.167	5197
837.305	5155
837.443	5136
837.58	5033
837.718	5227
837.856	5185
837.993	5143
838.131	5208
838.269	5181
838.406	5178
838.544	5143
838.681	5025
838.819	4991
838.956	4957
839.094	4892
839.231	5010
839.369	5075
839.506	5387
839.643	5277
839.781	5105
839.918	5014
840.055	5124
840.193	5094
840.33	5083
840.467	5136
840.604	5155
840.742	5467
840.879	5083
841.016	5128
841.153	5143
841.29	5318
841.427	5349
841.564	5337
841.701	5345
841.838	5261
841.975	5185
842.112	5292
842.249	5128
842.385	5094
842.522	5299
842.659	5155
842.796	5189
842.933	5254
843.069	5147
843.206	5128
843.343	5288
843.479	5239
843.616	5296
843.752	5010
843.889	5025
844.025	5185
844.162	5045
844.298	5193
844.435	5113
844.571	5067
844.708	5193
844.844	5273
844.98	5334
845.117	5277
845.253	5124
845.389	5094
845.525	5136
845.661	5147
845.798	5010
845.934	5075
846.07	5006
846.206	5174
846.342	5311
846.478	5208
846.614	5033
846.75	5003
846.886	4972
847.022	5121
847.158	4984
847.294	5018
847.429	5105
847.565	5041
847.701	5311
847.837	4866
847.972	4793
848.108	5018
848.244	4911
848.379	4771
848.515	4683
848.65	4774
848.786	4763
848.921	4790
849.057	4885
849.192	4934
849.328	4729
849.463	4782
849.598	4778
849.734	4740
849.869	4729
850.004	4668
850.14	4634
850.275	4588
850.41	4493
850.545	4550
850.68	4584
850.815	4588
850.95	4607
851.085	4839
851.22	4763
851.355	4660
851.49	4569
851.625	4668
851.76	4672
851.895	4538
852.03	4569
852.165	4641
852.299	4759
852.434	4759
852.569	4736
852.703	4736
852.838	4847
852.973	4919
853.107	4881
853.242	4660
853.376	4618
853.511	4542
853.645	4577
853.78	4782
853.914	4714
854.048	4649
854.183	4607
854.317	4694
854.451	4839
854.585	4698
854.72	4679
854.854	4733
854.988	4577
855.122	4691
855.256	4512
855.39	4641
855.524	4725
855.658	4740
855.792	4691
855.926	4714
856.06	4767
856.194	4801
856.327	4664
856.461	4637
856.595	4615
856.729	4645
856.862	4763
856.996	4691
857.13	4733
857.263	4714
857.397	4752
857.53	4675
857.664	4694
857.797	4729
857.931	4729
858.064	4660
858.197	4740
858.331	4630
858.464	4611
858.597	4508
858.731	4668
858.864	4622
858.997	4573
859.13	4645
859.263	4664
859.396	4668
859.529	4554
859.662	4573
859.795	4497
859.928	4660
860.061	4759
860.194	4755
860.327	4618
860.46	4561
860.592	4679
860.725	4733
860.858	4630
860.99	4599
861.123	4493
861.256	4531
861.388	4630
861.521	5303
861.653	4455
861.786	4459
861.918	4504
862.05	4493
862.183	4561
862.315	4588
862.447	4634
862.58	4504
862.712	4383
862.844	4352
862.976	4428
863.108	4436
863.24	4786
863.372	4329
863.504	4428
863.636	4421
863.768	4508
863.9	4432
864.032	4367
864.164	4443
864.296	4462
864.428	4554
864.559	4554
864.691	4546
864.823	4535
864.954	4489
865.086	4531
865.217	4478
865.349	4360
865.48	4466
865.612	4466
865.743	4588
865.875	4443
866.006	4443
866.137	4493
866.269	4432
866.4	4390
866.531	4413
866.662	4398
866.793	4409
866.924	4421
867.055	4493
867.186	4466
867.317	4360
867.448	4398
867.579	4386
867.71	4383
867.841	4371
867.972	4493
868.103	4466
868.233	4447
868.364	4428
868.495	4512
868.625	4653
868.756	4778
868.886	4527
869.017	4622
869.147	4771
869.278	4725
869.408	4660
869.539	4672
869.669	4714
869.799	4645
869.929	4763
870.06	4725
870.19	4930
870.32	4900
870.45	4961
870.58	4984
870.71	5132
870.84	5052
870.97	4961
871.1	4873
871.23	5151
871.36	5094
871.489	5037
871.619	5090
871.749	5056
871.879	5102
872.008	5185
872.138	5048
872.267	5029
872.397	4831
872.526	4782
872.656	4687
872.785	4793
872.915	4984
873.044	5006
873.173	4919
873.303	4965
873.432	4946
873.561	4949
873.69	4839
873.819	4835
873.948	4904
874.077	4763
874.206	4755
874.335	4797
874.464	4904
874.593	5075
874.722	4976
874.851	5136
874.979	5060
875.108	5041
875.237	4927
875.365	4873
875.494	4915
875.623	4961
875.751	4847
875.88	4866
876.008	4999
876.136	5018
876.265	5223
876.393	5326
876.521	5258
876.65	5174
876.778	5170
876.906	5079
877.034	4946
877.162	5010
877.29	5018
877.418	5056
877.546	5010
877.674	5071
877.802	4991
877.93	4987
878.058	4949
878.185	4873
878.313	4953
878.441	4957
878.568	4805
878.696	4866
878.824	4949
878.951	5022
879.079	5143
879.206	5250
879.333	5067
879.461	4942
879.588	4999
879.715	5079
879.842	5189
879.97	4999
880.097	4778
880.224	4710
880.351	4786
880.478	4793
880.605	4774
880.732	4790
880.859	5067
880.986	4858
881.112	4927
881.239	4771
881.366	4668
881.493	4561
881.619	4584
881.746	4607
881.872	4664
881.999	4660
882.125	4649
882.252	4820
882.378	4805
882.505	4980
882.631	4805
882.757	4660
882.883	4759
883.01	4721
883.136	4668
883.262	4577
883.388	4611
883.514	4809
883.64	4847
883.766	4793
883.892	4656
884.018	4733
884.143	4904
884.269	5025
884.395	4683
884.52	4588
884.646	4603
884.772	4546
884.897	4592
885.023	4645
885.148	4759
885.274	4835
885.399	4816
885.524	4714
885.65	4679
885.775	4721
885.9	4683
886.025	4923
886.15	4736
886.275	4694
886.4	4668
886.525	4702
886.65	4660
886.775	4694
886.9	4904
887.025	4987
887.149	4801
887.274	4668
887.399	4558
887.523	4573
887.648	4592
887.773	4561
887.897	4736
888.021	4835
888.146	4679
888.27	4831
888.395	4908
888.519	4831
888.643	4828
888.767	4801
888.891	4717
889.015	4664
889.139	4653
889.263	4611
889.387	4774
889.511	4862
889.635	4835
889.759	4694
889.883	4656
890.006	4725
890.13	4873
890.254	4656
890.377	4725
890.501	4538
890.624	4531
890.748	4683
890.871	4523
890.995	4481
891.118	4405
891.241	4519
891.364	4561
891.488	4710
891.611	4497
891.734	4634
891.857	4675
891.98	4580
892.103	4675
892.226	4603
892.349	4565
892.471	4500
892.594	4573
892.717	4580
892.839	4664
892.962	4653
893.085	4755
893.207	4653
893.33	4493
893.452	4554
893.575	4710
893.697	4656
893.819	4824
893.941	4908
894.064	4767
894.186	4630
894.308	4649
894.43	4759
894.552	4820
894.674	4801
894.796	4603
894.918	4664
895.04	4634
895.161	4831
895.283	4759
895.405	4584
895.526	4675
895.648	4748
895.769	4733
895.891	4752
896.012	4755
896.134	4744
896.255	4717
896.376	4656
896.498	4622
896.619	4725
896.74	4691
896.861	4717
896.982	4953
897.103	5090
897.224	4870
897.345	4744
897.466	4683
897.587	4759
897.708	4881
897.828	4759
897.949	4725
898.07	4626
898.19	4656
898.311	4831
898.431	4759
898.552	4740
898.672	4908
898.792	4858
898.913	4771
899.033	4687
899.153	4546
899.273	4447
899.393	4504
899.513	4569
899.633	4588
899.753	4573
899.873	4580
899.993	4626
900.113	4550
900.232	4603
900.352	4584
900.472	4508
900.591	4421
900.711	4569
900.83	4478
900.95	4622
901.069	4675
901.189	4565
901.308	4402
901.427	4360
901.546	4413
901.665	4497
901.784	4580
901.904	4417
902.023	4303
902.141	4223
902.26	4219
902.379	4367
902.498	4276
902.617	4230
902.735	4367
902.854	4386
902.973	4383
903.091	4234
903.21	4276
903.328	4402
903.446	4299
903.565	4276
903.683	4402
903.801	4310
903.919	4436
904.038	4485
904.156	4322
904.274	4470
904.392	4432
904.51	4424
904.627	4481
904.745	4584
904.863	4653
904.981	4443
905.098	4398
905.216	4379
905.334	4417
905.451	4489
905.569	4504
905.686	4615
905.803	4592
905.921	4436
906.038	4599
906.155	4523
906.272	4428
906.389	4554
906.506	4371
906.623	4398
906.74	4413
906.857	4379
906.974	4398
907.091	4596
907.208	4736
907.324	4611
907.441	4519
907.557	4360
907.674	4367
907.79	4371
907.907	4459
908.023	4500
908.139	4508
908.256	4421
908.372	4508
908.488	4462
908.604	4390
908.72	4367
908.836	4417
908.952	4405
909.068	4432
909.184	4603
909.3	4500
909.415	4630
909.531	4580
909.647	4383
909.762	4409
909.878	4363
909.993	4497
910.108	4451
910.224	4428
910.339	4538
910.454	4443
910.57	4405
910.685	4306
910.8	4675
910.915	4634
911.03	4531
911.145	4371
911.259	4375
911.374	4413
911.489	4333
911.604	4348
911.718	4219
911.833	4253
911.947	4120
912.062	4048
912.176	4234
912.291	4295
912.405	4291
912.519	4485
912.633	4512
912.748	4443
912.862	4322
912.976	4234
913.09	4154
913.204	4257
913.318	4306
913.431	4436
913.545	4417
913.659	4424
913.772	4394
913.886	4295
914	4280
914.113	4421
914.226	4478
914.34	4417
914.453	4238
914.566	4436
914.68	4318
914.793	4360
914.906	4162
915.019	4135
915.132	4128
915.245	4204
915.358	4246
915.47	4242
915.583	4318
915.696	4360
915.809	4371
915.921	4470
916.034	4314
916.146	4318
916.259	4291
916.371	4409
916.483	4363
916.595	4303
916.708	4329
916.82	4367
916.932	4341
917.044	4363
917.156	4383
917.268	4242
917.38	4322
917.491	4337
917.603	4363
917.715	4478
917.826	4497
917.938	4383
918.049	4257
918.161	4417
918.272	4618
918.384	4596
918.495	4478
918.606	4352
918.717	4265
918.828	4356
918.939	4390
919.05	4284
919.161	4371
919.272	4181
919.383	4257
919.494	4466
919.604	4592
919.715	4474
919.826	4363
919.936	4421
920.047	4535
920.157	4489
920.267	4725
920.378	4580
920.488	4569
920.598	4759
920.708	4919
920.818	4797
920.928	4805
921.038	4953
921.148	4911
921.258	4691
921.368	4580
921.477	4542
921.587	4478
921.697	4394
921.806	4561
921.916	4443
922.025	4322
922.134	4272
922.244	4276
922.353	4318
922.462	4177
922.571	4196
922.68	4036
922.789	4036
922.898	4029
923.007	4040
923.116	4093
923.224	4131
923.333	4074
923.442	4051
923.55	4010
923.659	4059
923.767	4124
923.876	4036
923.984	4139
924.092	4048
924.201	4109
924.309	4074
924.417	4207
924.525	4078
924.633	4112
924.741	5075
924.849	3953
924.956	4147
925.064	3975
925.172	3922
925.279	3983
925.387	4093
925.494	4067
925.602	4219
925.709	4215
925.816	4055
925.924	4158
926.031	4261
926.138	4158
926.245	4246
926.352	4131
926.459	4268
926.566	4325
926.673	4207
926.779	4112
926.886	4097
926.993	4006
927.099	3994
927.206	3945
927.312	3998
927.419	4078
927.525	4059
927.631	4124
927.737	4013
927.843	3949
927.95	3835
928.056	3934
928.162	3987
928.267	4086
928.373	4691
928.479	4120
928.585	3896
928.69	4017
928.796	4097
928.901	3983
929.007	3930
929.112	3979
929.218	3991
929.323	3998
929.428	4017
929.533	4116
929.638	3949
929.743	3991
929.848	4074
929.953	4040
930.058	3960
930.163	3827
930.267	3884
930.372	3983
930.477	3865
930.581	4173
930.685	3945
930.79	3865
930.894	3907
930.998	3838
931.103	4048
931.207	3743
931.311	3736
931.415	3686
931.519	3538
931.623	3580
