Data from test_V78500241_30.txt Node
Date: Fri Mar 25 16:49:12 CST 2022
User: usil
Spectrometer: V785-0024
Trigger mode: 0
Integration Time (sec): 4.000000E-1
Scans to average: 1
Nonlinearity correction enabled: false
Boxcar width: 0
Storing dark spectrum: false
XAxis mode: Wavelengths
Number of Pixels in Spectrum: 1024
>>>>>Begin Spectral Data<<<<<
801.071	8050
801.214	8073
801.356	7887
801.499	8035
801.641	7875
801.783	7887
801.926	8065
802.068	7936
802.211	8043
802.353	8119
802.496	7993
802.638	7940
802.78	7944
802.923	7963
803.065	7925
803.208	7875
803.35	8077
803.492	8187
803.635	8206
803.777	8005
803.919	8111
804.061	8518
804.204	8115
804.346	8031
804.488	7967
804.63	8161
804.773	8058
804.915	8157
805.057	8320
805.199	8218
805.341	8324
805.483	8332
805.626	8309
805.768	8172
805.91	8290
806.052	8237
806.194	8149
806.336	8324
806.478	8126
806.62	8183
806.762	8240
806.904	8328
807.046	8457
807.188	8324
807.33	8317
807.472	8362
807.614	8206
807.756	8259
807.898	8024
808.04	7955
808.182	7925
808.324	7940
808.465	7932
808.607	8035
808.749	8073
808.891	8240
809.033	8237
809.174	8229
809.316	8035
809.458	8123
809.6	8024
809.741	8046
809.883	8020
810.025	8130
810.166	8020
810.308	8050
810.45	8008
810.591	7894
810.733	7731
810.875	7704
811.016	7533
811.158	7502
811.299	7674
811.441	7792
811.582	7723
811.724	7647
811.865	7578
812.007	7590
812.148	7632
812.29	7704
812.431	7795
812.573	7894
812.714	8020
812.855	8157
812.997	8172
813.138	8332
813.279	8191
813.421	8153
813.562	8039
813.703	7875
813.845	7795
813.986	7514
814.127	7316
814.268	7240
814.41	7209
814.551	7194
814.692	7278
814.833	7107
814.974	7133
815.115	7160
815.256	6970
815.397	6970
815.539	6954
815.68	6833
815.821	6833
815.962	6932
816.103	6844
816.244	6741
816.385	6681
816.526	6673
816.666	6612
816.807	6372
816.948	6498
817.089	6467
817.23	6445
817.371	6410
817.512	6464
817.653	6407
817.793	6407
817.934	6399
818.075	6536
818.216	6471
818.356	6464
818.497	6285
818.638	6163
818.778	6152
818.919	6155
819.06	6239
819.2	6376
819.341	6391
819.481	6388
819.622	6623
819.762	6779
819.903	6760
820.043	6642
820.184	6646
820.324	6597
820.465	6783
820.605	6677
820.746	6719
820.886	6601
821.026	6696
821.167	6768
821.307	6878
821.447	6753
821.588	6738
821.728	6635
821.868	6532
822.008	6319
822.149	6380
822.289	6391
822.429	6216
822.569	6110
822.709	6144
822.849	5942
822.99	5927
823.13	5992
823.27	5908
823.41	5760
823.55	5809
823.69	5832
823.83	5836
823.97	5741
824.11	5573
824.25	5547
824.389	5615
824.529	5604
824.669	5589
824.809	5634
824.949	5699
825.089	5691
825.228	5646
825.368	5505
825.508	5360
825.648	5372
825.787	5459
825.927	5425
826.067	5315
826.206	5341
826.346	5402
826.485	5398
826.625	5455
826.765	5558
826.904	5532
827.044	5322
827.183	5208
827.323	5201
827.462	5299
827.601	5258
827.741	5231
827.88	5227
828.02	5159
828.159	5235
828.298	5318
828.437	5387
828.577	5372
828.716	5505
828.855	5349
828.994	5254
829.134	5136
829.273	5277
829.412	5193
829.551	5189
829.69	5140
829.829	5299
829.968	5349
830.107	5360
830.246	5296
830.385	5231
830.524	5128
830.663	5151
830.802	5025
830.941	4870
831.08	4870
831.219	5029
831.357	5037
831.496	5220
831.635	4976
831.774	4896
831.913	4885
832.051	4812
832.19	4805
832.329	4850
832.467	4710
832.606	4668
832.744	4778
832.883	4744
833.022	4729
833.16	4839
833.299	4828
833.437	4847
833.576	4854
833.714	4934
833.852	4873
833.991	4946
834.129	4957
834.267	4957
834.406	4984
834.544	5067
834.682	5018
834.821	5052
834.959	5235
835.097	5029
835.235	5170
835.373	5121
835.511	5117
835.65	5075
835.788	5067
835.926	4938
836.064	4961
836.202	4942
836.34	5204
836.478	5296
836.615	5212
836.753	5231
836.891	5349
837.029	5322
837.167	5204
837.305	5181
837.443	5181
837.58	5098
837.718	5277
837.856	5212
837.993	5143
838.131	5277
838.269	5250
838.406	5220
838.544	5208
838.681	5048
838.819	5029
838.956	4919
839.094	4961
839.231	4999
839.369	5155
839.506	5459
839.643	5318
839.781	5094
839.918	5056
840.055	5124
840.193	5098
840.33	5147
840.467	5143
840.604	5231
840.742	5467
840.879	5075
841.016	5147
841.153	5113
841.29	5387
841.427	5376
841.564	5357
841.701	5410
841.838	5341
841.975	5235
842.112	5318
842.249	5159
842.385	5170
842.522	5318
842.659	5185
842.796	5204
842.933	5242
843.069	5235
843.206	5231
843.343	5364
843.479	5250
843.616	5341
843.752	5083
843.889	4987
844.025	5239
844.162	5094
844.298	5242
844.435	5109
844.571	5079
844.708	5242
844.844	5318
844.98	5406
845.117	5318
845.253	5174
845.389	5094
845.525	5239
845.661	5174
845.798	5113
845.934	5181
846.07	5162
846.206	5273
846.342	5318
846.478	5220
846.614	5086
846.75	4991
846.886	5010
847.022	5189
847.158	5064
847.294	5060
847.429	5083
847.565	5105
847.701	5341
847.837	4915
847.972	4873
848.108	5003
848.244	4999
848.379	4835
848.515	4793
848.65	4744
848.786	4755
848.921	4816
849.057	4908
849.192	4946
849.328	4896
849.463	4915
849.598	4858
849.734	4797
849.869	4748
850.004	4721
850.14	4687
850.275	4637
850.41	4538
850.545	4622
850.68	4630
850.815	4637
850.95	4691
851.085	4790
851.22	4816
851.355	4725
851.49	4649
851.625	4634
851.76	4714
851.895	4580
852.03	4596
852.165	4679
852.299	4733
852.434	4782
852.569	4809
852.703	4824
852.838	4828
852.973	5010
853.107	4965
853.242	4809
853.376	4736
853.511	4519
853.645	4656
853.78	4843
853.914	4744
854.048	4691
854.183	4615
854.317	4725
854.451	4892
854.585	4710
854.72	4656
854.854	4752
854.988	4626
855.122	4653
855.256	4546
855.39	4691
855.524	4835
855.658	4774
855.792	4793
855.926	4767
856.06	4797
856.194	4824
856.327	4725
856.461	4641
856.595	4645
856.729	4664
856.862	4835
856.996	4721
857.13	4809
857.263	4812
857.397	4854
857.53	4714
857.664	4793
857.797	4793
857.931	4793
858.064	4733
858.197	4778
858.331	4683
858.464	4653
858.597	4592
858.731	4679
858.864	4660
858.997	4656
859.13	4710
859.263	4736
859.396	4774
859.529	4592
859.662	4649
859.795	4618
859.928	4641
860.061	4858
860.194	4790
860.327	4611
860.46	4607
860.592	4729
860.725	4786
860.858	4771
860.99	4596
861.123	4561
861.256	4611
861.388	4626
861.521	5414
861.653	4523
861.786	4497
861.918	4493
862.05	4599
862.183	4607
862.315	4611
862.447	4721
862.58	4538
862.712	4383
862.844	4322
862.976	4538
863.108	4538
863.24	4946
863.372	4379
863.504	4413
863.636	4470
863.768	4538
863.9	4481
864.032	4432
864.164	4447
864.296	4527
864.428	4611
864.559	4592
864.691	4569
864.823	4596
864.954	4596
865.086	4573
865.217	4523
865.349	4489
865.48	4538
865.612	4538
865.743	4668
865.875	4542
866.006	4462
866.137	4512
866.269	4470
866.4	4512
866.531	4470
866.662	4443
866.793	4474
866.924	4424
867.055	4481
867.186	4493
867.317	4424
867.448	4417
867.579	4424
867.71	4432
867.841	4394
867.972	4504
868.103	4542
868.233	4440
868.364	4516
868.495	4519
868.625	4687
868.756	4778
868.886	4626
869.017	4683
869.147	4801
869.278	4793
869.408	4706
869.539	4691
869.669	4778
869.799	4717
869.929	4820
870.06	4759
870.19	4980
870.32	4984
870.45	4991
870.58	5018
870.71	5193
870.84	5189
870.97	4976
871.1	4995
871.23	5189
871.36	5204
871.489	5056
871.619	5117
871.749	5105
871.879	5170
872.008	5273
872.138	5113
872.267	5033
872.397	4930
872.526	4881
872.656	4748
872.785	4858
872.915	4938
873.044	5162
873.173	5003
873.303	5045
873.432	5018
873.561	4980
873.69	4961
873.819	4839
873.948	4949
874.077	4896
874.206	4774
874.335	4824
874.464	4923
874.593	5113
874.722	5006
874.851	5197
874.979	5079
875.108	5086
875.237	4972
875.365	4923
875.494	4984
875.623	5037
875.751	4930
875.88	4953
876.008	5071
876.136	5079
876.265	5250
876.393	5353
876.521	5318
876.65	5258
876.778	5231
876.906	5117
877.034	5067
877.162	5151
877.29	5037
877.418	5086
877.546	5098
877.674	5064
877.802	5105
877.93	5045
878.058	4972
878.185	4885
878.313	5003
878.441	4961
878.568	4847
878.696	4866
878.824	4995
878.951	5060
879.079	5178
879.206	5292
879.333	5204
879.461	5064
879.588	5006
879.715	5140
879.842	5280
879.97	5075
880.097	4812
880.224	4771
880.351	4824
880.478	4885
880.605	4892
880.732	4847
880.859	5128
880.986	4965
881.112	4938
881.239	4809
881.366	4687
881.493	4630
881.619	4645
881.746	4694
881.872	4691
881.999	4672
882.125	4763
882.252	4824
882.378	4900
882.505	4995
882.631	4831
882.757	4714
882.883	4778
883.01	4752
883.136	4710
883.262	4660
883.388	4653
883.514	4862
883.64	4862
883.766	4828
883.892	4714
884.018	4752
884.143	4942
884.269	5056
884.395	4721
884.52	4637
884.646	4679
884.772	4596
884.897	4615
885.023	4714
885.148	4847
885.274	4927
885.399	4847
885.524	4748
885.65	4729
885.775	4828
885.9	4771
886.025	4908
886.15	4793
886.275	4786
886.4	4702
886.525	4733
886.65	4752
886.775	4759
886.9	4976
887.025	5064
887.149	4839
887.274	4717
887.399	4653
887.523	4607
887.648	4607
887.773	4622
887.897	4790
888.021	4824
888.146	4759
888.27	4839
888.395	4968
888.519	4801
888.643	4877
888.767	4831
888.891	4679
889.015	4611
889.139	4717
889.263	4653
889.387	4820
889.511	4961
889.635	4805
889.759	4668
889.883	4672
890.006	4744
890.13	4904
890.254	4656
890.377	4729
890.501	4554
890.624	4550
890.748	4675
890.871	4569
890.995	4508
891.118	4474
891.241	4577
891.364	4554
891.488	4702
891.611	4554
891.734	4588
891.857	4603
891.98	4592
892.103	4694
892.226	4634
892.349	4558
892.471	4459
892.594	4599
892.717	4656
892.839	4641
892.962	4649
893.085	4744
893.207	4599
893.33	4470
893.452	4538
893.575	4721
893.697	4634
893.819	4862
893.941	4881
894.064	4786
894.186	4603
894.308	4645
894.43	4812
894.552	4881
894.674	4809
894.796	4607
894.918	4603
895.04	4626
895.161	4698
895.283	4714
895.405	4588
895.526	4702
895.648	4744
895.769	4721
895.891	4736
896.012	4744
896.134	4763
896.255	4721
896.376	4725
896.498	4660
896.619	4748
896.74	4694
896.861	4698
896.982	5006
897.103	5109
897.224	4843
897.345	4755
897.466	4748
897.587	4759
897.708	4908
897.828	4858
897.949	4714
898.07	4672
898.19	4729
898.311	4919
898.431	4729
898.552	4793
898.672	4831
898.792	4908
898.913	4809
899.033	4706
899.153	4538
899.273	4470
899.393	4546
899.513	4561
899.633	4561
899.753	4538
899.873	4527
899.993	4645
900.113	4573
900.232	4630
900.352	4637
900.472	4527
900.591	4462
900.711	4538
900.83	4443
900.95	4660
901.069	4748
901.189	4569
901.308	4421
901.427	4417
901.546	4383
901.665	4516
901.784	4500
901.904	4443
902.023	4383
902.141	4173
902.26	4261
902.379	4314
902.498	4230
902.617	4257
902.735	4421
902.854	4436
902.973	4398
903.091	4246
903.21	4284
903.328	4318
903.446	4291
903.565	4314
903.683	4394
903.801	4322
903.919	4440
904.038	4531
904.156	4310
904.274	4474
904.392	4421
904.51	4500
904.627	4535
904.745	4634
904.863	4714
904.981	4424
905.098	4394
905.216	4394
905.334	4413
905.451	4478
905.569	4508
905.686	4603
905.803	4588
905.921	4451
906.038	4618
906.155	4546
906.272	4432
906.389	4474
906.506	4341
906.623	4451
906.74	4398
906.857	4325
906.974	4455
907.091	4607
907.208	4733
907.324	4626
907.441	4535
907.557	4413
907.674	4363
907.79	4375
907.907	4500
908.023	4478
908.139	4519
908.256	4512
908.372	4512
908.488	4497
908.604	4405
908.72	4390
908.836	4398
908.952	4409
909.068	4493
909.184	4573
909.3	4531
909.415	4637
909.531	4588
909.647	4390
909.762	4360
909.878	4363
909.993	4497
910.108	4443
910.224	4462
910.339	4512
910.454	4402
910.57	4405
910.685	4318
910.8	4710
910.915	4683
911.03	4531
911.145	4348
911.259	4379
911.374	4360
911.489	4356
911.604	4318
911.718	4196
911.833	4192
911.947	4112
912.062	4071
912.176	4272
912.291	4284
912.405	4253
912.519	4504
912.633	4538
912.748	4390
912.862	4356
912.976	4249
913.09	4128
913.204	4272
913.318	4303
913.431	4383
913.545	4375
913.659	4531
913.772	4417
913.886	4261
914	4257
914.113	4398
914.226	4481
914.34	4428
914.453	4242
914.566	4432
914.68	4329
914.793	4356
914.906	4192
915.019	4188
915.132	4074
915.245	4227
915.358	4257
915.47	4325
915.583	4303
915.696	4413
915.809	4440
915.921	4451
916.034	4280
916.146	4329
916.259	4280
916.371	4413
916.483	4398
916.595	4253
916.708	4329
916.82	4341
916.932	4329
917.044	4386
917.156	4383
917.268	4272
917.38	4287
917.491	4322
917.603	4421
917.715	4493
917.826	4493
917.938	4360
918.049	4276
918.161	4413
918.272	4580
918.384	4519
918.495	4485
918.606	4325
918.717	4272
918.828	4413
918.939	4417
919.05	4310
919.161	4325
919.272	4154
919.383	4287
919.494	4542
919.604	4653
919.715	4432
919.826	4390
919.936	4443
920.047	4584
920.157	4554
920.267	4809
920.378	4538
920.488	4546
920.598	4744
920.708	4927
920.818	4812
920.928	4797
921.038	5006
921.148	4972
921.258	4672
921.368	4592
921.477	4546
921.587	4508
921.697	4421
921.806	4653
921.916	4478
922.025	4303
922.134	4299
922.244	4261
922.353	4375
922.462	4188
922.571	4124
922.68	4063
922.789	3994
922.898	4048
923.007	3987
923.116	4181
923.224	4082
923.333	4109
923.442	4025
923.55	3979
923.659	4086
923.767	4143
923.876	4048
923.984	4177
924.092	4017
924.201	4093
924.309	4181
924.417	4143
924.525	4101
924.633	4169
924.741	5102
924.849	3915
924.956	4139
925.064	3998
925.172	3934
925.279	3964
925.387	4097
925.494	4082
925.602	4234
925.709	4219
925.816	4071
925.924	4177
926.031	4272
926.138	4177
926.245	4219
926.352	4067
926.459	4276
926.566	4352
926.673	4234
926.779	4150
926.886	4150
926.993	4063
927.099	4010
927.206	4010
927.312	3972
927.419	4044
927.525	4063
927.631	4120
927.737	4006
927.843	4002
927.95	3880
928.056	3972
928.162	4017
928.267	4097
928.373	4774
928.479	4173
928.585	3911
928.69	4051
928.796	4131
928.901	3964
929.007	3903
929.112	4051
929.218	4002
929.323	3968
929.428	3979
929.533	4169
929.638	3945
929.743	4010
929.848	4109
929.953	4059
930.058	3972
930.163	3770
930.267	3812
930.372	3998
930.477	3892
930.581	4093
930.685	3968
930.79	3873
930.894	3918
930.998	3907
931.103	4074
931.207	3759
931.311	3762
931.415	3717
931.519	3553
931.623	3584
