Data from test_V78500241_2776.txt Node
Date: Fri Mar 25 17:08:18 CST 2022
User: usil
Spectrometer: V785-0024
Trigger mode: 0
Integration Time (sec): 4.000000E-1
Scans to average: 1
Nonlinearity correction enabled: false
Boxcar width: 0
Storing dark spectrum: false
XAxis mode: Wavelengths
Number of Pixels in Spectrum: 1024
>>>>>Begin Spectral Data<<<<<
801.071	8031
801.214	7989
801.356	7906
801.499	7890
801.641	7750
801.783	7826
801.926	8012
802.068	7970
802.211	7951
802.353	8001
802.496	7898
802.638	7871
802.78	7932
802.923	7959
803.065	7830
803.208	7826
803.35	7982
803.492	8130
803.635	8138
803.777	8084
803.919	8161
804.061	8507
804.204	8202
804.346	8096
804.488	7947
804.63	8008
804.773	8142
804.915	8100
805.057	8286
805.199	8119
805.341	8176
805.483	8275
805.626	8267
805.768	8142
805.91	8187
806.052	8237
806.194	8206
806.336	8305
806.478	8134
806.62	8069
806.762	8153
806.904	8279
807.046	8400
807.188	8347
807.33	8328
807.472	8317
807.614	8157
807.756	8206
807.898	8065
808.04	7921
808.182	7951
808.324	7860
808.465	7909
808.607	8115
808.749	8138
808.891	8279
809.033	8339
809.174	8229
809.316	8062
809.458	8126
809.6	7997
809.741	7974
809.883	8035
810.025	8138
810.166	8123
810.308	8084
810.45	8012
810.591	7974
810.733	7727
810.875	7700
811.016	7578
811.158	7510
811.299	7620
811.441	7757
811.582	7712
811.724	7575
811.865	7518
812.007	7594
812.148	7597
812.29	7715
812.431	7746
812.573	7856
812.714	7978
812.855	8214
812.997	8248
813.138	8317
813.279	8172
813.421	8031
813.562	8084
813.703	7860
813.845	7780
813.986	7430
814.127	7206
814.268	7213
814.41	7213
814.551	7156
814.692	7194
814.833	7069
814.974	7122
815.115	7072
815.256	6970
815.397	6962
815.539	6935
815.68	6837
815.821	6768
815.962	6916
816.103	6863
816.244	6768
816.385	6616
816.526	6570
816.666	6509
816.807	6289
816.948	6448
817.089	6513
817.23	6448
817.371	6384
817.512	6479
817.653	6414
817.793	6331
817.934	6391
818.075	6441
818.216	6437
818.356	6376
818.497	6205
818.638	6163
818.778	6095
818.919	6140
819.06	6159
819.2	6350
819.341	6361
819.481	6376
819.622	6490
819.762	6623
819.903	6677
820.043	6631
820.184	6578
820.324	6563
820.465	6722
820.605	6662
820.746	6589
820.886	6513
821.026	6639
821.167	6734
821.307	6810
821.447	6791
821.588	6665
821.728	6540
821.868	6502
822.008	6353
822.149	6365
822.289	6391
822.429	6140
822.569	6053
822.709	6144
822.849	5965
822.99	5908
823.13	5939
823.27	5977
823.41	5764
823.55	5771
823.69	5726
823.83	5714
823.97	5665
824.11	5528
824.25	5486
824.389	5528
824.529	5589
824.669	5562
824.809	5649
824.949	5649
825.089	5661
825.228	5562
825.368	5376
825.508	5341
825.648	5376
825.787	5391
825.927	5330
826.067	5349
826.206	5280
826.346	5368
826.485	5387
826.625	5402
826.765	5505
826.904	5440
827.044	5212
827.183	5231
827.323	5159
827.462	5265
827.601	5178
827.741	5208
827.88	5193
828.02	5132
828.159	5178
828.298	5265
828.437	5372
828.577	5277
828.716	5482
828.855	5337
828.994	5132
829.134	5147
829.273	5185
829.412	5113
829.551	5147
829.69	5193
829.829	5235
829.968	5334
830.107	5265
830.246	5288
830.385	5178
830.524	5121
830.663	5075
830.802	4908
830.941	4858
831.08	4870
831.219	4976
831.357	4965
831.496	5166
831.635	4984
831.774	4831
831.913	4858
832.051	4710
832.19	4786
832.329	4824
832.467	4675
832.606	4645
832.744	4740
832.883	4714
833.022	4706
833.16	4767
833.299	4816
833.437	4797
833.576	4812
833.714	4831
833.852	4885
833.991	4877
834.129	4972
834.267	4957
834.406	4889
834.544	4995
834.682	4957
834.821	4999
834.959	5147
835.097	5033
835.235	5121
835.373	5045
835.511	5121
835.65	5083
835.788	5056
835.926	4908
836.064	4892
836.202	4930
836.34	5117
836.478	5181
836.615	5132
836.753	5250
836.891	5280
837.029	5201
837.167	5185
837.305	5109
837.443	5052
837.58	5094
837.718	5197
837.856	5178
837.993	5136
838.131	5216
838.269	5204
838.406	5174
838.544	5185
838.681	5029
838.819	5033
838.956	4919
839.094	4892
839.231	4938
839.369	5064
839.506	5436
839.643	5204
839.781	5056
839.918	4991
840.055	5128
840.193	5041
840.33	5090
840.467	5143
840.604	5181
840.742	5421
840.879	5105
841.016	5094
841.153	5162
841.29	5345
841.427	5315
841.564	5360
841.701	5341
841.838	5277
841.975	5220
842.112	5246
842.249	5109
842.385	5117
842.522	5322
842.659	5147
842.796	5174
842.933	5227
843.069	5124
843.206	5159
843.343	5322
843.479	5239
843.616	5246
843.752	4987
843.889	4995
844.025	5197
844.162	5006
844.298	5201
844.435	5113
844.571	5071
844.708	5235
844.844	5269
844.98	5376
845.117	5288
845.253	5105
845.389	5045
845.525	5124
845.661	5143
845.798	5037
845.934	5155
846.07	5045
846.206	5204
846.342	5242
846.478	5181
846.614	5018
846.75	4953
846.886	4987
847.022	5166
847.158	5022
847.294	5086
847.429	5060
847.565	5064
847.701	5322
847.837	4850
847.972	4839
848.108	4984
848.244	4889
848.379	4816
848.515	4736
848.65	4687
848.786	4748
848.921	4778
849.057	4862
849.192	4923
849.328	4812
849.463	4850
849.598	4774
849.734	4733
849.869	4698
850.004	4626
850.14	4706
850.275	4660
850.41	4493
850.545	4599
850.68	4615
850.815	4645
850.95	4607
851.085	4820
851.22	4763
851.355	4706
851.49	4592
851.625	4668
851.76	4664
851.895	4550
852.03	4531
852.165	4637
852.299	4691
852.434	4752
852.569	4763
852.703	4740
852.838	4870
852.973	4934
853.107	4965
853.242	4725
853.376	4687
853.511	4573
853.645	4626
853.78	4782
853.914	4698
854.048	4649
854.183	4649
854.317	4679
854.451	4828
854.585	4714
854.72	4630
854.854	4748
854.988	4622
855.122	4626
855.256	4508
855.39	4656
855.524	4721
855.658	4694
855.792	4664
855.926	4771
856.06	4763
856.194	4786
856.327	4729
856.461	4599
856.595	4569
856.729	4588
856.862	4714
856.996	4714
857.13	4725
857.263	4774
857.397	4831
857.53	4630
857.664	4729
857.797	4763
857.931	4778
858.064	4702
858.197	4740
858.331	4660
858.464	4675
858.597	4538
858.731	4596
858.864	4641
858.997	4550
859.13	4637
859.263	4668
859.396	4694
859.529	4531
859.662	4580
859.795	4558
859.928	4565
860.061	4736
860.194	4763
860.327	4577
860.46	4573
860.592	4736
860.725	4702
860.858	4668
860.99	4626
861.123	4546
861.256	4527
861.388	4577
861.521	5337
861.653	4508
861.786	4470
861.918	4474
862.05	4493
862.183	4577
862.315	4607
862.447	4672
862.58	4527
862.712	4432
862.844	4356
862.976	4478
863.108	4459
863.24	4767
863.372	4337
863.504	4417
863.636	4383
863.768	4504
863.9	4443
864.032	4348
864.164	4383
864.296	4443
864.428	4535
864.559	4580
864.691	4546
864.823	4493
864.954	4455
865.086	4478
865.217	4455
865.349	4390
865.48	4481
865.612	4466
865.743	4626
865.875	4474
866.006	4394
866.137	4440
866.269	4455
866.4	4436
866.531	4436
866.662	4413
866.793	4424
866.924	4413
867.055	4523
867.186	4459
867.317	4436
867.448	4344
867.579	4379
867.71	4413
867.841	4367
867.972	4405
868.103	4493
868.233	4459
868.364	4428
868.495	4470
868.625	4653
868.756	4740
868.886	4531
869.017	4569
869.147	4790
869.278	4767
869.408	4645
869.539	4630
869.669	4714
869.799	4656
869.929	4778
870.06	4759
870.19	4942
870.32	4934
870.45	4938
870.58	5045
870.71	5094
870.84	5155
870.97	4976
871.1	4915
871.23	5170
871.36	5075
871.489	5010
871.619	5086
871.749	5083
871.879	5109
872.008	5208
872.138	5086
872.267	5014
872.397	4828
872.526	4812
872.656	4729
872.785	4835
872.915	4930
873.044	5018
873.173	4942
873.303	5003
873.432	4991
873.561	4961
873.69	4866
873.819	4847
873.948	4915
874.077	4816
874.206	4774
874.335	4793
874.464	4957
874.593	5048
874.722	4965
874.851	5056
874.979	5018
875.108	5022
875.237	4889
875.365	4854
875.494	4942
875.623	4980
875.751	4805
875.88	4911
876.008	4953
876.136	4984
876.265	5212
876.393	5311
876.521	5204
876.65	5189
876.778	5170
876.906	5022
877.034	5052
877.162	5018
877.29	4999
877.418	5025
877.546	5014
877.674	5018
877.802	5022
877.93	5014
878.058	4896
878.185	4847
878.313	4987
878.441	4904
878.568	4812
878.696	4858
878.824	4999
878.951	4980
879.079	5143
879.206	5235
879.333	5079
879.461	4965
879.588	5010
879.715	5162
879.842	5197
879.97	5014
880.097	4809
880.224	4687
880.351	4778
880.478	4828
880.605	4828
880.732	4774
880.859	5086
880.986	4923
881.112	4923
881.239	4774
881.366	4664
881.493	4607
881.619	4588
881.746	4637
881.872	4656
881.999	4615
882.125	4691
882.252	4786
882.378	4835
882.505	4942
882.631	4771
882.757	4672
882.883	4763
883.01	4744
883.136	4660
883.262	4622
883.388	4630
883.514	4835
883.64	4820
883.766	4771
883.892	4717
884.018	4721
884.143	4942
884.269	4976
884.395	4679
884.52	4649
884.646	4615
884.772	4603
884.897	4535
885.023	4645
885.148	4767
885.274	4877
885.399	4828
885.524	4733
885.65	4672
885.775	4710
885.9	4694
886.025	4858
886.15	4797
886.275	4725
886.4	4603
886.525	4729
886.65	4645
886.775	4702
886.9	4930
887.025	5018
887.149	4820
887.274	4622
887.399	4596
887.523	4592
887.648	4618
887.773	4554
887.897	4748
888.021	4736
888.146	4641
888.27	4763
888.395	4919
888.519	4771
888.643	4801
888.767	4809
888.891	4683
889.015	4588
889.139	4653
889.263	4615
889.387	4755
889.511	4866
889.635	4801
889.759	4645
889.883	4596
890.006	4694
890.13	4843
890.254	4660
890.377	4664
890.501	4573
890.624	4516
890.748	4672
890.871	4481
890.995	4432
891.118	4360
891.241	4519
891.364	4592
891.488	4611
891.611	4516
891.734	4500
891.857	4641
891.98	4599
892.103	4672
892.226	4641
892.349	4535
892.471	4402
892.594	4546
892.717	4573
892.839	4584
892.962	4618
893.085	4634
893.207	4580
893.33	4500
893.452	4493
893.575	4656
893.697	4599
893.819	4805
893.941	4835
894.064	4782
894.186	4565
894.308	4577
894.43	4668
894.552	4805
894.674	4759
894.796	4500
894.918	4580
895.04	4535
895.161	4710
895.283	4653
895.405	4554
895.526	4588
895.648	4694
895.769	4630
895.891	4714
896.012	4729
896.134	4721
896.255	4675
896.376	4637
896.498	4645
896.619	4683
896.74	4645
896.861	4679
896.982	5010
897.103	5098
897.224	4850
897.345	4752
897.466	4668
897.587	4725
897.708	4873
897.828	4763
897.949	4641
898.07	4527
898.19	4618
898.311	4847
898.431	4679
898.552	4721
898.672	4843
898.792	4843
898.913	4733
899.033	4588
899.153	4500
899.273	4405
899.393	4462
899.513	4516
899.633	4493
899.753	4516
899.873	4516
899.993	4584
900.113	4535
900.232	4565
900.352	4519
900.472	4481
900.591	4398
900.711	4436
900.83	4474
900.95	4596
901.069	4729
901.189	4523
901.308	4363
901.427	4348
901.546	4371
901.665	4451
901.784	4493
901.904	4371
902.023	4352
902.141	4227
902.26	4181
902.379	4322
902.498	4227
902.617	4234
902.735	4367
902.854	4421
902.973	4383
903.091	4200
903.21	4219
903.328	4306
903.446	4238
903.565	4238
903.683	4337
903.801	4257
903.919	4383
904.038	4455
904.156	4268
904.274	4451
904.392	4375
904.51	4443
904.627	4409
904.745	4588
904.863	4672
904.981	4402
905.098	4314
905.216	4367
905.334	4462
905.451	4440
905.569	4443
905.686	4577
905.803	4561
905.921	4432
906.038	4535
906.155	4481
906.272	4375
906.389	4497
906.506	4371
906.623	4348
906.74	4394
906.857	4280
906.974	4390
907.091	4527
907.208	4660
907.324	4588
907.441	4447
907.557	4405
907.674	4310
907.79	4348
907.907	4390
908.023	4485
908.139	4497
908.256	4402
908.372	4409
908.488	4440
908.604	4367
908.72	4348
908.836	4363
908.952	4363
909.068	4474
909.184	4558
909.3	4500
909.415	4580
909.531	4558
909.647	4356
909.762	4341
909.878	4333
909.993	4436
910.108	4402
910.224	4402
910.339	4466
910.454	4375
910.57	4348
910.685	4299
910.8	4649
910.915	4584
911.03	4493
911.145	4303
911.259	4265
911.374	4341
911.489	4306
911.604	4261
911.718	4150
911.833	4158
911.947	4082
912.062	4032
912.176	4185
912.291	4230
912.405	4272
912.519	4443
912.633	4519
912.748	4413
912.862	4322
912.976	4227
913.09	4093
913.204	4135
913.318	4219
913.431	4363
913.545	4284
913.659	4424
913.772	4402
913.886	4276
914	4261
914.113	4409
914.226	4421
914.34	4329
914.453	4234
914.566	4436
914.68	4299
914.793	4318
914.906	4154
915.019	4105
915.132	4074
915.245	4181
915.358	4192
915.47	4242
915.583	4249
915.696	4310
915.809	4421
915.921	4432
916.034	4215
916.146	4265
916.259	4238
916.371	4363
916.483	4409
916.595	4200
916.708	4329
916.82	4306
916.932	4337
917.044	4329
917.156	4329
917.268	4207
917.38	4276
917.491	4234
917.603	4337
917.715	4421
917.826	4413
917.938	4383
918.049	4280
918.161	4356
918.272	4538
918.384	4493
918.495	4485
918.606	4284
918.717	4192
918.828	4325
918.939	4367
919.05	4280
919.161	4295
919.272	4135
919.383	4230
919.494	4440
919.604	4634
919.715	4436
919.826	4390
919.936	4386
920.047	4550
920.157	4459
920.267	4683
920.378	4577
920.488	4550
920.598	4714
920.708	4889
920.818	4733
920.928	4740
921.038	4980
921.148	4942
921.258	4599
921.368	4542
921.477	4493
921.587	4497
921.697	4383
921.806	4497
921.916	4455
922.025	4253
922.134	4219
922.244	4185
922.353	4348
922.462	4181
922.571	4135
922.68	4017
922.789	3991
922.898	4025
923.007	3994
923.116	4097
923.224	4040
923.333	4063
923.442	3991
923.55	3998
923.659	3994
923.767	4074
923.876	3991
923.984	4078
924.092	3953
924.201	4059
924.309	4097
924.417	4128
924.525	4093
924.633	4109
924.741	4790
924.849	3892
924.956	4105
925.064	3998
925.172	3934
925.279	3991
925.387	4067
925.494	4025
925.602	4223
925.709	4196
925.816	4036
925.924	4120
926.031	4211
926.138	4204
926.245	4207
926.352	4055
926.459	4249
926.566	4322
926.673	4192
926.779	4071
926.886	4093
926.993	3983
927.099	3934
927.206	3880
927.312	3975
927.419	4048
927.525	3991
927.631	4078
927.737	3953
927.843	3918
927.95	3831
928.056	3975
928.162	3994
928.267	4040
928.373	4656
928.479	4139
928.585	3884
928.69	4010
928.796	4048
928.901	3983
929.007	3869
929.112	3972
929.218	3994
929.323	3926
929.428	3915
929.533	4166
929.638	3903
929.743	3953
929.848	4044
929.953	3991
930.058	3930
930.163	3732
930.267	3812
930.372	3953
930.477	3808
930.581	4082
930.685	3941
930.79	3812
930.894	3892
930.998	3861
931.103	4006
931.207	3720
931.311	3705
931.415	3682
931.519	3507
931.623	3584
