Data from test_V78500241_1999.txt Node
Date: Fri Mar 25 17:02:53 CST 2022
User: usil
Spectrometer: V785-0024
Trigger mode: 0
Integration Time (sec): 4.000000E-1
Scans to average: 1
Nonlinearity correction enabled: false
Boxcar width: 0
Storing dark spectrum: false
XAxis mode: Wavelengths
Number of Pixels in Spectrum: 1024
>>>>>Begin Spectral Data<<<<<
801.071	8031
801.214	7913
801.356	7826
801.499	7788
801.641	7868
801.783	7811
801.926	7947
802.068	7978
802.211	7940
802.353	8012
802.496	7780
802.638	7826
802.78	7879
802.923	7887
803.065	7833
803.208	7818
803.35	7928
803.492	8107
803.635	8103
803.777	7989
803.919	8096
804.061	8393
804.204	8172
804.346	8039
804.488	7967
804.63	8062
804.773	7982
804.915	8111
805.057	8320
805.199	8142
805.341	8206
805.483	8206
805.626	8161
805.768	8172
805.91	8202
806.052	8225
806.194	8130
806.336	8206
806.478	8142
806.62	8016
806.762	8164
806.904	8191
807.046	8476
807.188	8393
807.33	8332
807.472	8298
807.614	8157
807.756	8164
807.898	8043
808.04	7917
808.182	7947
808.324	7887
808.465	7959
808.607	8001
808.749	8054
808.891	8237
809.033	8244
809.174	8187
809.316	8050
809.458	8107
809.6	7997
809.741	8054
809.883	8050
810.025	8065
810.166	8027
810.308	8020
810.45	7947
810.591	7849
810.733	7731
810.875	7670
811.016	7525
811.158	7457
811.299	7559
811.441	7715
811.582	7643
811.724	7529
811.865	7521
812.007	7601
812.148	7525
812.29	7567
812.431	7742
812.573	7940
812.714	7917
812.855	8119
812.997	8172
813.138	8240
813.279	8100
813.421	8039
813.562	7963
813.703	7765
813.845	7769
813.986	7400
814.127	7187
814.268	7190
814.41	7145
814.551	7149
814.692	7240
814.833	7072
814.974	7084
815.115	7168
815.256	6939
815.397	6890
815.539	6894
815.68	6848
815.821	6814
815.962	6837
816.103	6821
816.244	6646
816.385	6601
816.526	6608
816.666	6448
816.807	6281
816.948	6380
817.089	6433
817.23	6407
817.371	6384
817.512	6323
817.653	6372
817.793	6395
817.934	6391
818.075	6429
818.216	6429
818.356	6384
818.497	6270
818.638	6117
818.778	6171
818.919	6129
819.06	6155
819.2	6331
819.341	6292
819.481	6323
819.622	6490
819.762	6700
819.903	6642
820.043	6612
820.184	6532
820.324	6540
820.465	6684
820.605	6703
820.746	6601
820.886	6486
821.026	6654
821.167	6719
821.307	6783
821.447	6783
821.588	6688
821.728	6589
821.868	6490
822.008	6353
822.149	6296
822.289	6357
822.429	6125
822.569	6148
822.709	6110
822.849	5946
822.99	5874
823.13	5889
823.27	5946
823.41	5779
823.55	5752
823.69	5722
823.83	5802
823.97	5684
824.11	5528
824.25	5512
824.389	5585
824.529	5581
824.669	5490
824.809	5630
824.949	5604
825.089	5608
825.228	5520
825.368	5391
825.508	5357
825.648	5322
825.787	5345
825.927	5345
826.067	5269
826.206	5220
826.346	5345
826.485	5395
826.625	5349
826.765	5543
826.904	5520
827.044	5212
827.183	5102
827.323	5162
827.462	5220
827.601	5132
827.741	5124
827.88	5185
828.02	5071
828.159	5227
828.298	5315
828.437	5402
828.577	5280
828.716	5459
828.855	5269
828.994	5136
829.134	5181
829.273	5201
829.412	5170
829.551	5151
829.69	5136
829.829	5223
829.968	5387
830.107	5280
830.246	5220
830.385	5143
830.524	5147
830.663	5056
830.802	4995
830.941	4877
831.08	4854
831.219	4961
831.357	4968
831.496	5166
831.635	4892
831.774	4889
831.913	4835
832.051	4714
832.19	4729
832.329	4824
832.467	4656
832.606	4637
832.744	4702
832.883	4698
833.022	4645
833.16	4774
833.299	4831
833.437	4824
833.576	4858
833.714	4809
833.852	4873
833.991	4885
834.129	4953
834.267	4980
834.406	4839
834.544	4987
834.682	4957
834.821	4927
834.959	5124
835.097	4987
835.235	5189
835.373	5064
835.511	5143
835.65	4972
835.788	4972
835.926	4942
836.064	4892
836.202	4877
836.34	5136
836.478	5220
836.615	5117
836.753	5265
836.891	5296
837.029	5212
837.167	5189
837.305	5151
837.443	5208
837.58	5056
837.718	5284
837.856	5162
837.993	5109
838.131	5197
838.269	5208
838.406	5159
838.544	5140
838.681	5025
838.819	4980
838.956	4847
839.094	4911
839.231	5025
839.369	5067
839.506	5376
839.643	5265
839.781	5064
839.918	5010
840.055	5067
840.193	5083
840.33	5117
840.467	5105
840.604	5181
840.742	5421
840.879	5056
841.016	5102
841.153	5181
841.29	5395
841.427	5322
841.564	5299
841.701	5353
841.838	5242
841.975	5204
842.112	5235
842.249	5136
842.385	5090
842.522	5307
842.659	5147
842.796	5166
842.933	5212
843.069	5162
843.206	5132
843.343	5307
843.479	5204
843.616	5258
843.752	5045
843.889	5018
844.025	5216
844.162	5018
844.298	5223
844.435	5086
844.571	5041
844.708	5212
844.844	5265
844.98	5345
845.117	5269
845.253	5128
845.389	5083
845.525	5185
845.661	5109
845.798	5022
845.934	5083
846.07	5003
846.206	5227
846.342	5254
846.478	5181
846.614	4961
846.75	4968
846.886	4930
847.022	5147
847.158	5025
847.294	4995
847.429	5151
847.565	5056
847.701	5315
847.837	4828
847.972	4805
848.108	4919
848.244	4946
848.379	4774
848.515	4736
848.65	4721
848.786	4740
848.921	4767
849.057	4824
849.192	4911
849.328	4828
849.463	4828
849.598	4816
849.734	4771
849.869	4702
850.004	4599
850.14	4649
850.275	4611
850.41	4523
850.545	4611
850.68	4588
850.815	4675
850.95	4611
851.085	4854
851.22	4706
851.355	4660
851.49	4645
851.625	4637
851.76	4618
851.895	4558
852.03	4516
852.165	4626
852.299	4691
852.434	4790
852.569	4748
852.703	4736
852.838	4828
852.973	4934
853.107	4923
853.242	4672
853.376	4672
853.511	4584
853.645	4649
853.78	4835
853.914	4672
854.048	4672
854.183	4580
854.317	4714
854.451	4828
854.585	4702
854.72	4618
854.854	4759
854.988	4569
855.122	4645
855.256	4538
855.39	4672
855.524	4786
855.658	4793
855.792	4675
855.926	4744
856.06	4752
856.194	4831
856.327	4706
856.461	4596
856.595	4660
856.729	4649
856.862	4729
856.996	4649
857.13	4752
857.263	4710
857.397	4850
857.53	4618
857.664	4714
857.797	4801
857.931	4790
858.064	4675
858.197	4698
858.331	4618
858.464	4588
858.597	4512
858.731	4653
858.864	4634
858.997	4527
859.13	4634
859.263	4611
859.396	4752
859.529	4565
859.662	4596
859.795	4512
859.928	4615
860.061	4767
860.194	4717
860.327	4607
860.46	4573
860.592	4706
860.725	4733
860.858	4702
860.99	4599
861.123	4558
861.256	4527
861.388	4603
861.521	5174
861.653	4489
861.786	4504
861.918	4455
862.05	4558
862.183	4580
862.315	4603
862.447	4656
862.58	4554
862.712	4413
862.844	4348
862.976	4542
863.108	4436
863.24	4812
863.372	4352
863.504	4432
863.636	4379
863.768	4500
863.9	4432
864.032	4367
864.164	4432
864.296	4443
864.428	4500
864.559	4573
864.691	4584
864.823	4546
864.954	4470
865.086	4519
865.217	4436
865.349	4459
865.48	4447
865.612	4512
865.743	4573
865.875	4424
866.006	4413
866.137	4481
866.269	4489
866.4	4443
866.531	4367
866.662	4383
866.793	4413
866.924	4421
867.055	4455
867.186	4440
867.317	4455
867.448	4409
867.579	4375
867.71	4405
867.841	4371
867.972	4481
868.103	4538
868.233	4390
868.364	4493
868.495	4474
868.625	4675
868.756	4733
868.886	4584
869.017	4637
869.147	4835
869.278	4752
869.408	4672
869.539	4592
869.669	4672
869.799	4649
869.929	4755
870.06	4683
870.19	4972
870.32	4885
870.45	4854
870.58	5048
870.71	5105
870.84	5113
870.97	4919
871.1	4866
871.23	5147
871.36	5136
871.489	5010
871.619	5090
871.749	5060
871.879	5113
872.008	5143
872.138	5090
872.267	4987
872.397	4831
872.526	4778
872.656	4725
872.785	4843
872.915	4957
873.044	4991
873.173	4995
873.303	4946
873.432	4972
873.561	4972
873.69	4850
873.819	4843
873.948	4873
874.077	4774
874.206	4733
874.335	4797
874.464	4892
874.593	5060
874.722	4889
874.851	5102
874.979	5048
875.108	4995
875.237	4927
875.365	4885
875.494	4816
875.623	4980
875.751	4763
875.88	4908
876.008	4984
876.136	5029
876.265	5174
876.393	5372
876.521	5208
876.65	5227
876.778	5140
876.906	5033
877.034	5064
877.162	5022
877.29	5003
877.418	5014
877.546	5052
877.674	5067
877.802	5003
877.93	4995
878.058	4938
878.185	4809
878.313	4934
878.441	4946
878.568	4843
878.696	4881
878.824	4965
878.951	5048
879.079	5064
879.206	5303
879.333	5121
879.461	4972
879.588	4995
879.715	5098
879.842	5223
879.97	5041
880.097	4816
880.224	4748
880.351	4812
880.478	4824
880.605	4774
880.732	4805
880.859	5071
880.986	4934
881.112	4927
881.239	4771
881.366	4729
881.493	4626
881.619	4615
881.746	4660
881.872	4634
881.999	4702
882.125	4649
882.252	4843
882.378	4805
882.505	4957
882.631	4828
882.757	4675
882.883	4721
883.01	4778
883.136	4649
883.262	4596
883.388	4622
883.514	4801
883.64	4835
883.766	4793
883.892	4664
884.018	4729
884.143	4854
884.269	4946
884.395	4653
884.52	4634
884.646	4687
884.772	4592
884.897	4573
885.023	4721
885.148	4786
885.274	4870
885.399	4839
885.524	4702
885.65	4687
885.775	4748
885.9	4683
886.025	4801
886.15	4790
886.275	4729
886.4	4702
886.525	4698
886.65	4668
886.775	4645
886.9	4949
887.025	5025
887.149	4797
887.274	4653
887.399	4565
887.523	4618
887.648	4554
887.773	4550
887.897	4771
888.021	4793
888.146	4694
888.27	4839
888.395	4915
888.519	4763
888.643	4782
888.767	4847
888.891	4660
889.015	4607
889.139	4577
889.263	4611
889.387	4759
889.511	4892
889.635	4782
889.759	4637
889.883	4637
890.006	4691
890.13	4850
890.254	4618
890.377	4714
890.501	4542
890.624	4535
890.748	4607
890.871	4542
890.995	4417
891.118	4348
891.241	4508
891.364	4573
891.488	4649
891.611	4527
891.734	4504
891.857	4634
891.98	4569
892.103	4649
892.226	4573
892.349	4500
892.471	4443
892.594	4546
892.717	4569
892.839	4535
892.962	4573
893.085	4641
893.207	4599
893.33	4409
893.452	4455
893.575	4660
893.697	4550
893.819	4736
893.941	4816
894.064	4752
894.186	4584
894.308	4550
894.43	4736
894.552	4786
894.674	4744
894.796	4527
894.918	4573
895.04	4561
895.161	4687
895.283	4664
895.405	4626
895.526	4668
895.648	4710
895.769	4687
895.891	4672
896.012	4706
896.134	4675
896.255	4679
896.376	4645
896.498	4618
896.619	4691
896.74	4599
896.861	4653
896.982	4870
897.103	5094
897.224	4850
897.345	4702
897.466	4668
897.587	4733
897.708	4847
897.828	4771
897.949	4626
898.07	4603
898.19	4637
898.311	4820
898.431	4656
898.552	4717
898.672	4812
898.792	4767
898.913	4706
899.033	4626
899.153	4508
899.273	4478
899.393	4527
899.513	4489
899.633	4531
899.753	4542
899.873	4512
899.993	4596
900.113	4558
900.232	4546
900.352	4508
900.472	4470
900.591	4386
900.711	4432
900.83	4451
900.95	4634
901.069	4672
901.189	4538
901.308	4375
901.427	4390
901.546	4341
901.665	4436
901.784	4508
901.904	4398
902.023	4291
902.141	4177
902.26	4158
902.379	4303
902.498	4211
902.617	4227
902.735	4390
902.854	4402
902.973	4402
903.091	4207
903.21	4188
903.328	4310
903.446	4280
903.565	4284
903.683	4371
903.801	4318
903.919	4443
904.038	4474
904.156	4318
904.274	4451
904.392	4451
904.51	4443
904.627	4523
904.745	4588
904.863	4668
904.981	4409
905.098	4291
905.216	4386
905.334	4436
905.451	4455
905.569	4405
905.686	4588
905.803	4569
905.921	4440
906.038	4535
906.155	4470
906.272	4421
906.389	4459
906.506	4371
906.623	4409
906.74	4348
906.857	4329
906.974	4375
907.091	4546
907.208	4664
907.324	4626
907.441	4481
907.557	4314
907.674	4348
907.79	4325
907.907	4322
908.023	4436
908.139	4440
908.256	4455
908.372	4455
908.488	4428
908.604	4344
908.72	4299
908.836	4367
908.952	4383
909.068	4383
909.184	4550
909.3	4466
909.415	4592
909.531	4516
909.647	4352
909.762	4383
909.878	4337
909.993	4481
910.108	4409
910.224	4409
910.339	4466
910.454	4371
910.57	4371
910.685	4329
910.8	4653
910.915	4599
911.03	4424
911.145	4287
911.259	4337
911.374	4398
911.489	4337
911.604	4303
911.718	4200
911.833	4181
911.947	4029
912.062	4040
912.176	4207
912.291	4238
912.405	4249
912.519	4485
912.633	4512
912.748	4363
912.862	4261
912.976	4200
913.09	4082
913.204	4158
913.318	4238
913.431	4394
913.545	4360
913.659	4424
913.772	4348
913.886	4253
914	4204
914.113	4352
914.226	4424
914.34	4390
914.453	4280
914.566	4409
914.68	4261
914.793	4341
914.906	4135
915.019	4116
915.132	4074
915.245	4173
915.358	4207
915.47	4223
915.583	4268
915.696	4276
915.809	4367
915.921	4386
916.034	4215
916.146	4223
916.259	4215
916.371	4375
916.483	4375
916.595	4261
916.708	4322
916.82	4329
916.932	4299
917.044	4325
917.156	4333
917.268	4276
917.38	4227
917.491	4249
917.603	4344
917.715	4386
917.826	4447
917.938	4386
918.049	4257
918.161	4394
918.272	4497
918.384	4485
918.495	4409
918.606	4306
918.717	4185
918.828	4333
918.939	4337
919.05	4363
919.161	4318
919.272	4109
919.383	4238
919.494	4455
919.604	4607
919.715	4455
919.826	4295
919.936	4352
920.047	4538
920.157	4497
920.267	4721
920.378	4538
920.488	4519
920.598	4698
920.708	4881
920.818	4740
920.928	4748
921.038	4927
921.148	4942
921.258	4653
921.368	4565
921.477	4493
921.587	4512
921.697	4402
921.806	4561
921.916	4455
922.025	4265
922.134	4246
922.244	4249
922.353	4295
922.462	4166
922.571	4143
922.68	3991
922.789	3968
922.898	4032
923.007	3934
923.116	4097
923.224	4071
923.333	4093
923.442	4013
923.55	3979
923.659	3972
923.767	4063
923.876	3991
923.984	4112
924.092	4013
924.201	4059
924.309	4090
924.417	4082
924.525	4093
924.633	4128
924.741	5117
924.849	3899
924.956	4131
925.064	3941
925.172	3934
925.279	4002
925.387	4040
925.494	4029
925.602	4223
925.709	4169
925.816	4021
925.924	4093
926.031	4219
926.138	4166
926.245	4246
926.352	4124
926.459	4291
926.566	4348
926.673	4150
926.779	4086
926.886	4074
926.993	3968
927.099	3934
927.206	3907
927.312	3930
927.419	4048
927.525	4044
927.631	4074
927.737	3983
927.843	3964
927.95	3865
928.056	3903
928.162	3968
928.267	4101
928.373	4523
928.479	4116
928.585	3892
928.69	4013
928.796	4032
928.901	3983
929.007	3850
929.112	4006
929.218	3994
929.323	3945
929.428	3972
929.533	4090
929.638	3880
929.743	3960
929.848	4063
929.953	3956
930.058	3953
930.163	3804
930.267	3850
930.372	3930
930.477	3827
930.581	4044
930.685	3926
930.79	3812
930.894	3850
930.998	3854
931.103	4021
931.207	3705
931.311	3663
931.415	3667
931.519	3519
931.623	3549
