Data from test_V78500241_2305.txt Node
Date: Fri Mar 25 17:05:01 CST 2022
User: usil
Spectrometer: V785-0024
Trigger mode: 0
Integration Time (sec): 4.000000E-1
Scans to average: 1
Nonlinearity correction enabled: false
Boxcar width: 0
Storing dark spectrum: false
XAxis mode: Wavelengths
Number of Pixels in Spectrum: 1024
>>>>>Begin Spectral Data<<<<<
801.071	8039
801.214	7989
801.356	7894
801.499	7959
801.641	7788
801.783	7833
801.926	8020
802.068	7997
802.211	8001
802.353	8027
802.496	7913
802.638	7909
802.78	7921
802.923	7944
803.065	7959
803.208	7963
803.35	8008
803.492	8142
803.635	8199
803.777	8073
803.919	8195
804.061	8423
804.204	8214
804.346	8126
804.488	7967
804.63	8172
804.773	8073
804.915	8107
805.057	8279
805.199	8153
805.341	8256
805.483	8267
805.626	8214
805.768	8115
805.91	8202
806.052	8225
806.194	8107
806.336	8282
806.478	8138
806.62	8069
806.762	8187
806.904	8309
807.046	8564
807.188	8438
807.33	8377
807.472	8381
807.614	8172
807.756	8157
807.898	8039
808.04	7940
808.182	7936
808.324	7921
808.465	7963
808.607	8111
808.749	8202
808.891	8248
809.033	8336
809.174	8157
809.316	8058
809.458	8107
809.6	8069
809.741	8050
809.883	8062
810.025	8168
810.166	8119
810.308	8073
810.45	8016
810.591	7875
810.733	7715
810.875	7674
811.016	7582
811.158	7495
811.299	7616
811.441	7742
811.582	7662
811.724	7601
811.865	7559
812.007	7624
812.148	7647
812.29	7655
812.431	7826
812.573	7951
812.714	7936
812.855	8191
812.997	8309
813.138	8328
813.279	8180
813.421	8100
813.562	7974
813.703	7883
813.845	7696
813.986	7434
814.127	7354
814.268	7247
814.41	7206
814.551	7168
814.692	7232
814.833	7080
814.974	7149
815.115	7137
815.256	6996
815.397	6966
815.539	6928
815.68	6867
815.821	6779
815.962	6932
816.103	6833
816.244	6711
816.385	6639
816.526	6642
816.666	6517
816.807	6277
816.948	6452
817.089	6509
817.23	6471
817.371	6433
817.512	6361
817.653	6414
817.793	6380
817.934	6464
818.075	6532
818.216	6467
818.356	6426
818.497	6304
818.638	6167
818.778	6224
818.919	6163
819.06	6167
819.2	6384
819.341	6369
819.481	6376
819.622	6540
819.762	6768
819.903	6726
820.043	6650
820.184	6635
820.324	6639
820.465	6703
820.605	6700
820.746	6627
820.886	6563
821.026	6741
821.167	6707
821.307	6795
821.447	6833
821.588	6757
821.728	6620
821.868	6494
822.008	6357
822.149	6448
822.289	6414
822.429	6167
822.569	6163
822.709	6148
822.849	5946
822.99	5961
823.13	5923
823.27	5977
823.41	5783
823.55	5817
823.69	5794
823.83	5748
823.97	5684
824.11	5600
824.25	5474
824.389	5585
824.529	5627
824.669	5512
824.809	5672
824.949	5710
825.089	5608
825.228	5581
825.368	5436
825.508	5387
825.648	5395
825.787	5398
825.927	5410
826.067	5341
826.206	5307
826.346	5410
826.485	5429
826.625	5410
826.765	5585
826.904	5512
827.044	5254
827.183	5254
827.323	5117
827.462	5284
827.601	5140
827.741	5223
827.88	5235
828.02	5151
828.159	5284
828.298	5353
828.437	5406
828.577	5368
828.716	5512
828.855	5303
828.994	5185
829.134	5140
829.273	5223
829.412	5147
829.551	5193
829.69	5136
829.829	5250
829.968	5433
830.107	5334
830.246	5292
830.385	5258
830.524	5128
830.663	5113
830.802	5006
830.941	4915
831.08	4854
831.219	5018
831.357	5010
831.496	5181
831.635	4915
831.774	4866
831.913	4866
832.051	4714
832.19	4771
832.329	4866
832.467	4755
832.606	4660
832.744	4733
832.883	4744
833.022	4744
833.16	4790
833.299	4839
833.437	4847
833.576	4828
833.714	4881
833.852	4877
833.991	4934
834.129	4953
834.267	4934
834.406	4949
834.544	4995
834.682	5010
834.821	4995
834.959	5174
835.097	5003
835.235	5166
835.373	5132
835.511	5109
835.65	5025
835.788	5086
835.926	4889
836.064	4911
836.202	4946
836.34	5162
836.478	5223
836.615	5159
836.753	5250
836.891	5280
837.029	5273
837.167	5231
837.305	5246
837.443	5216
837.58	5098
837.718	5231
837.856	5197
837.993	5185
838.131	5239
838.269	5223
838.406	5223
838.544	5227
838.681	5010
838.819	4972
838.956	4889
839.094	4908
839.231	5037
839.369	5105
839.506	5505
839.643	5292
839.781	5079
839.918	5056
840.055	5113
840.193	5140
840.33	5086
840.467	5143
840.604	5197
840.742	5524
840.879	5128
841.016	5155
841.153	5170
841.29	5391
841.427	5334
841.564	5337
841.701	5391
841.838	5292
841.975	5258
842.112	5284
842.249	5113
842.385	5086
842.522	5395
842.659	5174
842.796	5159
842.933	5181
843.069	5189
843.206	5124
843.343	5330
843.479	5288
843.616	5315
843.752	5098
843.889	5033
844.025	5265
844.162	5052
844.298	5231
844.435	5079
844.571	5060
844.708	5208
844.844	5296
844.98	5364
845.117	5269
845.253	5113
845.389	5147
845.525	5189
845.661	5174
845.798	5098
845.934	5155
846.07	5136
846.206	5201
846.342	5288
846.478	5181
846.614	5041
846.75	5022
846.886	4923
847.022	5151
847.158	5048
847.294	5071
847.429	5166
847.565	5075
847.701	5292
847.837	4900
847.972	4892
848.108	4919
848.244	4987
848.379	4812
848.515	4744
848.65	4698
848.786	4782
848.921	4820
849.057	4911
849.192	4915
849.328	4877
849.463	4892
849.598	4862
849.734	4805
849.869	4748
850.004	4660
850.14	4729
850.275	4653
850.41	4538
850.545	4596
850.68	4596
850.815	4668
850.95	4634
851.085	4870
851.22	4755
851.355	4679
851.49	4656
851.625	4626
851.76	4630
851.895	4550
852.03	4558
852.165	4641
852.299	4752
852.434	4881
852.569	4721
852.703	4774
852.838	4885
852.973	4927
853.107	4923
853.242	4771
853.376	4660
853.511	4592
853.645	4603
853.78	4801
853.914	4687
854.048	4672
854.183	4714
854.317	4748
854.451	4809
854.585	4634
854.72	4675
854.854	4744
854.988	4622
855.122	4679
855.256	4546
855.39	4702
855.524	4782
855.658	4740
855.792	4717
855.926	4752
856.06	4763
856.194	4812
856.327	4694
856.461	4618
856.595	4641
856.729	4645
856.862	4755
856.996	4725
857.13	4786
857.263	4763
857.397	4824
857.53	4679
857.664	4740
857.797	4767
857.931	4771
858.064	4752
858.197	4717
858.331	4656
858.464	4675
858.597	4561
858.731	4641
858.864	4679
858.997	4622
859.13	4683
859.263	4687
859.396	4744
859.529	4588
859.662	4569
859.795	4519
859.928	4645
860.061	4748
860.194	4771
860.327	4580
860.46	4607
860.592	4729
860.725	4729
860.858	4740
860.99	4588
861.123	4523
861.256	4565
861.388	4626
861.521	5288
861.653	4470
861.786	4436
861.918	4531
862.05	4546
862.183	4535
862.315	4622
862.447	4694
862.58	4565
862.712	4424
862.844	4306
862.976	4481
863.108	4455
863.24	4930
863.372	4371
863.504	4440
863.636	4432
863.768	4474
863.9	4451
864.032	4348
864.164	4413
864.296	4516
864.428	4603
864.559	4565
864.691	4561
864.823	4573
864.954	4478
865.086	4497
865.217	4447
865.349	4432
865.48	4470
865.612	4531
865.743	4607
865.875	4512
866.006	4451
866.137	4500
866.269	4443
866.4	4390
866.531	4390
866.662	4417
866.793	4455
866.924	4436
867.055	4531
867.186	4470
867.317	4443
867.448	4344
867.579	4432
867.71	4383
867.841	4375
867.972	4481
868.103	4451
868.233	4436
868.364	4474
868.495	4516
868.625	4645
868.756	4797
868.886	4558
869.017	4630
869.147	4763
869.278	4782
869.408	4645
869.539	4668
869.669	4687
869.799	4698
869.929	4778
870.06	4736
870.19	4972
870.32	4927
870.45	4934
870.58	5018
870.71	5136
870.84	5132
870.97	4953
871.1	4866
871.23	5166
871.36	5136
871.489	5048
871.619	5159
871.749	5067
871.879	5155
872.008	5143
872.138	5083
872.267	4968
872.397	4835
872.526	4843
872.656	4748
872.785	4828
872.915	4976
873.044	4965
873.173	4824
873.303	4965
873.432	4949
873.561	4991
873.69	4862
873.819	4892
873.948	4915
874.077	4812
874.206	4740
874.335	4782
874.464	4930
874.593	5037
874.722	4961
874.851	5105
874.979	5037
875.108	5048
875.237	4919
875.365	4881
875.494	4862
875.623	4965
875.751	4809
875.88	4873
876.008	4968
876.136	5048
876.265	5212
876.393	5242
876.521	5246
876.65	5223
876.778	5170
876.906	5048
877.034	5025
877.162	5025
877.29	5025
877.418	5045
877.546	5029
877.674	5052
877.802	5037
877.93	5071
878.058	4904
878.185	4885
878.313	4961
878.441	4953
878.568	4847
878.696	4889
878.824	4961
878.951	5025
879.079	5174
879.206	5273
879.333	5102
879.461	4976
879.588	5033
879.715	5128
879.842	5220
879.97	5025
880.097	4790
880.224	4763
880.351	4809
880.478	4805
880.605	4782
880.732	4774
880.859	5121
880.986	4889
881.112	4915
881.239	4797
881.366	4656
881.493	4607
881.619	4584
881.746	4611
881.872	4668
881.999	4683
882.125	4675
882.252	4786
882.378	4854
882.505	4965
882.631	4835
882.757	4664
882.883	4694
883.01	4752
883.136	4645
883.262	4561
883.388	4580
883.514	4809
883.64	4839
883.766	4790
883.892	4687
884.018	4748
884.143	4919
884.269	4995
884.395	4637
884.52	4622
884.646	4660
884.772	4596
884.897	4558
885.023	4664
885.148	4786
885.274	4828
885.399	4801
885.524	4679
885.65	4717
885.775	4740
885.9	4694
886.025	4873
886.15	4774
886.275	4717
886.4	4634
886.525	4714
886.65	4706
886.775	4649
886.9	4911
887.025	5041
887.149	4786
887.274	4622
887.399	4569
887.523	4592
887.648	4573
887.773	4554
887.897	4744
888.021	4771
888.146	4656
888.27	4820
888.395	4961
888.519	4839
888.643	4828
888.767	4839
888.891	4698
889.015	4588
889.139	4664
889.263	4607
889.387	4774
889.511	4862
889.635	4790
889.759	4630
889.883	4672
890.006	4744
890.13	4824
890.254	4668
890.377	4706
890.501	4584
890.624	4481
890.748	4664
890.871	4500
890.995	4474
891.118	4360
891.241	4531
891.364	4516
891.488	4653
891.611	4596
891.734	4519
891.857	4546
891.98	4508
892.103	4637
892.226	4558
892.349	4554
892.471	4504
892.594	4573
892.717	4630
892.839	4630
892.962	4615
893.085	4660
893.207	4580
893.33	4436
893.452	4500
893.575	4637
893.697	4565
893.819	4786
893.941	4824
894.064	4790
894.186	4558
894.308	4596
894.43	4778
894.552	4835
894.674	4740
894.796	4519
894.918	4603
895.04	4554
895.161	4748
895.283	4588
895.405	4596
895.526	4664
895.648	4668
895.769	4672
895.891	4653
896.012	4744
896.134	4656
896.255	4660
896.376	4653
896.498	4626
896.619	4691
896.74	4607
896.861	4645
896.982	4911
897.103	5064
897.224	4805
897.345	4778
897.466	4668
897.587	4733
897.708	4839
897.828	4774
897.949	4622
898.07	4569
898.19	4656
898.311	4835
898.431	4683
898.552	4702
898.672	4835
898.792	4835
898.913	4717
899.033	4653
899.153	4561
899.273	4413
899.393	4512
899.513	4485
899.633	4500
899.753	4561
899.873	4485
899.993	4580
900.113	4535
900.232	4565
900.352	4569
900.472	4481
900.591	4394
900.711	4531
900.83	4447
900.95	4573
901.069	4755
901.189	4573
901.308	4383
901.427	4314
901.546	4363
901.665	4455
901.784	4485
901.904	4413
902.023	4356
902.141	4158
902.26	4211
902.379	4291
902.498	4219
902.617	4230
902.735	4402
902.854	4329
902.973	4348
903.091	4261
903.21	4188
903.328	4280
903.446	4253
903.565	4280
903.683	4386
903.801	4299
903.919	4402
904.038	4447
904.156	4329
904.274	4424
904.392	4352
904.51	4424
904.627	4481
904.745	4565
904.863	4630
904.981	4341
905.098	4333
905.216	4386
905.334	4459
905.451	4421
905.569	4466
905.686	4512
905.803	4580
905.921	4398
906.038	4489
906.155	4470
906.272	4413
906.389	4451
906.506	4341
906.623	4409
906.74	4386
906.857	4310
906.974	4386
907.091	4523
907.208	4698
907.324	4565
907.441	4474
907.557	4333
907.674	4337
907.79	4318
907.907	4383
908.023	4481
908.139	4451
908.256	4451
908.372	4421
908.488	4375
908.604	4329
908.72	4299
908.836	4367
908.952	4333
909.068	4424
909.184	4565
909.3	4466
909.415	4538
909.531	4516
909.647	4337
909.762	4394
909.878	4284
909.993	4451
910.108	4459
910.224	4409
910.339	4432
910.454	4398
910.57	4325
910.685	4318
910.8	4668
910.915	4546
911.03	4474
911.145	4310
911.259	4306
911.374	4371
911.489	4303
911.604	4272
911.718	4204
911.833	4169
911.947	4101
912.062	3998
912.176	4150
912.291	4249
912.405	4249
912.519	4489
912.633	4485
912.748	4337
912.862	4303
912.976	4200
913.09	4101
913.204	4173
913.318	4238
913.431	4440
913.545	4375
913.659	4432
913.772	4383
913.886	4234
914	4223
914.113	4371
914.226	4451
914.34	4348
914.453	4188
914.566	4428
914.68	4295
914.793	4299
914.906	4150
915.019	4158
915.132	4116
915.245	4188
915.358	4227
915.47	4246
915.583	4230
915.696	4280
915.809	4447
915.921	4447
916.034	4204
916.146	4249
916.259	4219
916.371	4367
916.483	4360
916.595	4249
916.708	4322
916.82	4284
916.932	4325
917.044	4344
917.156	4360
917.268	4261
917.38	4295
917.491	4284
917.603	4341
917.715	4466
917.826	4398
917.938	4314
918.049	4272
918.161	4394
918.272	4577
918.384	4542
918.495	4440
918.606	4352
918.717	4207
918.828	4344
918.939	4367
919.05	4253
919.161	4306
919.272	4131
919.383	4215
919.494	4383
919.604	4626
919.715	4424
919.826	4348
919.936	4371
920.047	4512
920.157	4497
920.267	4706
920.378	4531
920.488	4485
920.598	4714
920.708	4889
920.818	4748
920.928	4740
921.038	4980
921.148	4915
921.258	4668
921.368	4558
921.477	4500
921.587	4447
921.697	4390
921.806	4535
921.916	4409
922.025	4196
922.134	4310
922.244	4227
922.353	4299
922.462	4196
922.571	4169
922.68	4059
922.789	3941
922.898	4025
923.007	3994
923.116	4025
923.224	4090
923.333	4074
923.442	3968
923.55	3953
923.659	4021
923.767	4120
923.876	4021
923.984	4124
924.092	3930
924.201	4071
924.309	4059
924.417	4090
924.525	4093
924.633	4101
924.741	5079
924.849	3945
924.956	4086
925.064	3968
925.172	3896
925.279	3975
925.387	4044
925.494	4021
925.602	4204
925.709	4196
925.816	4051
925.924	4112
926.031	4227
926.138	4188
926.245	4207
926.352	4109
926.459	4215
926.566	4284
926.673	4162
926.779	4063
926.886	4051
926.993	3987
927.099	3956
927.206	3896
927.312	3930
927.419	4059
927.525	4017
927.631	4082
927.737	3941
927.843	3953
927.95	3835
928.056	3918
928.162	3987
928.267	4044
928.373	4694
928.479	4086
928.585	3899
928.69	3937
928.796	4040
928.901	3968
929.007	3804
929.112	4013
929.218	3972
929.323	3949
929.428	3949
929.533	4116
929.638	3922
929.743	3979
929.848	4017
929.953	3975
930.058	3892
930.163	3774
930.267	3793
930.372	3998
930.477	3816
930.581	4063
930.685	3956
930.79	3846
930.894	3857
930.998	3835
931.103	4021
931.207	3717
931.311	3682
931.415	3660
931.519	3545
931.623	3618
