Data from test_V78500241_699.txt Node
Date: Fri Mar 25 16:53:51 CST 2022
User: usil
Spectrometer: V785-0024
Trigger mode: 0
Integration Time (sec): 4.000000E-1
Scans to average: 1
Nonlinearity correction enabled: false
Boxcar width: 0
Storing dark spectrum: false
XAxis mode: Wavelengths
Number of Pixels in Spectrum: 1024
>>>>>Begin Spectral Data<<<<<
801.071	8035
801.214	7993
801.356	7902
801.499	7837
801.641	7837
801.783	7803
801.926	8039
802.068	7974
802.211	7936
802.353	7993
802.496	7902
802.638	7997
802.78	7944
802.923	7963
803.065	7792
803.208	7788
803.35	8054
803.492	8050
803.635	8161
803.777	7993
803.919	8172
804.061	8381
804.204	8107
804.346	8058
804.488	7974
804.63	8073
804.773	7963
804.915	8111
805.057	8233
805.199	8202
805.341	8240
805.483	8324
805.626	8172
805.768	8096
805.91	8195
806.052	8271
806.194	8050
806.336	8240
806.478	8084
806.62	8054
806.762	8183
806.904	8240
807.046	8503
807.188	8389
807.33	8237
807.472	8362
807.614	8172
807.756	8130
807.898	7951
808.04	7852
808.182	7921
808.324	7940
808.465	7890
808.607	8046
808.749	8111
808.891	8164
809.033	8214
809.174	8263
809.316	8077
809.458	7913
809.6	7944
809.741	7997
809.883	8035
810.025	8073
810.166	8077
810.308	8046
810.45	8016
810.591	7868
810.733	7723
810.875	7693
811.016	7544
811.158	7544
811.299	7571
811.441	7696
811.582	7693
811.724	7628
811.865	7499
812.007	7544
812.148	7518
812.29	7590
812.431	7746
812.573	7811
812.714	7902
812.855	8092
812.997	8202
813.138	8305
813.279	8218
813.421	8168
813.562	7989
813.703	7818
813.845	7822
813.986	7422
814.127	7209
814.268	7236
814.41	7187
814.551	7149
814.692	7099
814.833	7080
814.974	7076
815.115	7133
815.256	6962
815.397	6913
815.539	7000
815.68	6806
815.821	6772
815.962	6878
816.103	6833
816.244	6719
816.385	6677
816.526	6589
816.666	6525
816.807	6338
816.948	6410
817.089	6475
817.23	6498
817.371	6342
817.512	6376
817.653	6422
817.793	6357
817.934	6422
818.075	6471
818.216	6407
818.356	6433
818.497	6197
818.638	6091
818.778	6125
818.919	6159
819.06	6133
819.2	6289
819.341	6296
819.481	6376
819.622	6464
819.762	6696
819.903	6673
820.043	6563
820.184	6582
820.324	6544
820.465	6612
820.605	6662
820.746	6566
820.886	6525
821.026	6608
821.167	6692
821.307	6787
821.447	6802
821.588	6616
821.728	6532
821.868	6437
822.008	6251
822.149	6350
822.289	6338
822.429	6148
822.569	6106
822.709	6083
822.849	5901
822.99	5863
823.13	5939
823.27	5908
823.41	5756
823.55	5798
823.69	5779
823.83	5798
823.97	5695
824.11	5535
824.25	5474
824.389	5592
824.529	5554
824.669	5501
824.809	5661
824.949	5611
825.089	5589
825.228	5562
825.368	5379
825.508	5322
825.648	5341
825.787	5387
825.927	5322
826.067	5303
826.206	5261
826.346	5372
826.485	5440
826.625	5398
826.765	5566
826.904	5493
827.044	5212
827.183	5212
827.323	5060
827.462	5269
827.601	5174
827.741	5151
827.88	5181
828.02	5083
828.159	5227
828.298	5269
828.437	5330
828.577	5261
828.716	5467
828.855	5318
828.994	5155
829.134	5132
829.273	5166
829.412	5079
829.551	5136
829.69	5166
829.829	5216
829.968	5395
830.107	5220
830.246	5189
830.385	5193
830.524	5159
830.663	5060
830.802	4965
830.941	4885
831.08	4900
831.219	4987
831.357	4930
831.496	5143
831.635	4961
831.774	4889
831.913	4809
832.051	4744
832.19	4733
832.329	4778
832.467	4706
832.606	4634
832.744	4675
832.883	4729
833.022	4752
833.16	4755
833.299	4782
833.437	4801
833.576	4847
833.714	4847
833.852	4828
833.991	4862
834.129	4972
834.267	4987
834.406	4908
834.544	4949
834.682	4965
834.821	4942
834.959	5113
835.097	4927
835.235	5143
835.373	5105
835.511	5102
835.65	5025
835.788	4987
835.926	4927
836.064	4885
836.202	4896
836.34	5181
836.478	5269
836.615	5075
836.753	5216
836.891	5220
837.029	5246
837.167	5178
837.305	5113
837.443	5121
837.58	5064
837.718	5265
837.856	5170
837.993	5140
838.131	5254
838.269	5216
838.406	5189
838.544	5143
838.681	5064
838.819	4968
838.956	4866
839.094	4881
839.231	5006
839.369	5067
839.506	5455
839.643	5204
839.781	5056
839.918	5033
840.055	5064
840.193	5075
840.33	5128
840.467	5124
840.604	5155
840.742	5414
840.879	5094
841.016	5083
841.153	5155
841.29	5395
841.427	5303
841.564	5269
841.701	5376
841.838	5368
841.975	5280
842.112	5269
842.249	5128
842.385	5060
842.522	5299
842.659	5181
842.796	5128
842.933	5162
843.069	5151
843.206	5147
843.343	5318
843.479	5250
843.616	5235
843.752	5010
843.889	4995
844.025	5208
844.162	5029
844.298	5189
844.435	5090
844.571	5052
844.708	5212
844.844	5307
844.98	5353
845.117	5216
845.253	5121
845.389	5045
845.525	5151
845.661	5159
845.798	5067
845.934	5124
846.07	5025
846.206	5178
846.342	5265
846.478	5181
846.614	4965
846.75	4965
846.886	4976
847.022	5102
847.158	4965
847.294	5071
847.429	5136
847.565	5014
847.701	5334
847.837	4889
847.972	4763
848.108	4953
848.244	4930
848.379	4763
848.515	4744
848.65	4725
848.786	4782
848.921	4805
849.057	4881
849.192	4892
849.328	4816
849.463	4839
849.598	4812
849.734	4774
849.869	4672
850.004	4634
850.14	4603
850.275	4607
850.41	4481
850.545	4573
850.68	4577
850.815	4653
850.95	4656
851.085	4828
851.22	4714
851.355	4683
851.49	4626
851.625	4634
851.76	4622
851.895	4516
852.03	4500
852.165	4637
852.299	4649
852.434	4748
852.569	4752
852.703	4790
852.838	4877
852.973	4934
853.107	4862
853.242	4721
853.376	4649
853.511	4573
853.645	4599
853.78	4835
853.914	4675
854.048	4702
854.183	4626
854.317	4683
854.451	4862
854.585	4679
854.72	4622
854.854	4786
854.988	4615
855.122	4637
855.256	4500
855.39	4660
855.524	4778
855.658	4767
855.792	4668
855.926	4721
856.06	4778
856.194	4824
856.327	4714
856.461	4607
856.595	4634
856.729	4599
856.862	4744
856.996	4687
857.13	4759
857.263	4733
857.397	4793
857.53	4603
857.664	4649
857.797	4736
857.931	4771
858.064	4694
858.197	4725
858.331	4672
858.464	4592
858.597	4558
858.731	4592
858.864	4641
858.997	4580
859.13	4618
859.263	4641
859.396	4706
859.529	4641
859.662	4592
859.795	4550
859.928	4653
860.061	4824
860.194	4702
860.327	4573
860.46	4561
860.592	4748
860.725	4714
860.858	4752
860.99	4546
861.123	4504
861.256	4474
861.388	4637
861.521	5296
861.653	4500
861.786	4424
861.918	4519
862.05	4508
862.183	4558
862.315	4561
862.447	4626
862.58	4577
862.712	4409
862.844	4287
862.976	4409
863.108	4462
863.24	4854
863.372	4341
863.504	4436
863.636	4383
863.768	4512
863.9	4413
864.032	4333
864.164	4409
864.296	4462
864.428	4512
864.559	4550
864.691	4497
864.823	4485
864.954	4493
865.086	4512
865.217	4459
865.349	4443
865.48	4432
865.612	4451
865.743	4622
865.875	4459
866.006	4402
866.137	4447
866.269	4447
866.4	4409
866.531	4417
866.662	4390
866.793	4421
866.924	4405
867.055	4493
867.186	4432
867.317	4379
867.448	4360
867.579	4394
867.71	4413
867.841	4386
867.972	4436
868.103	4493
868.233	4402
868.364	4451
868.495	4523
868.625	4653
868.756	4744
868.886	4565
869.017	4611
869.147	4793
869.278	4767
869.408	4649
869.539	4653
869.669	4664
869.799	4675
869.929	4714
870.06	4752
870.19	4915
870.32	4942
870.45	4976
870.58	5003
870.71	5067
870.84	5098
870.97	4976
871.1	4885
871.23	5124
871.36	5079
871.489	5041
871.619	5048
871.749	5113
871.879	5128
872.008	5143
872.138	5060
872.267	4976
872.397	4873
872.526	4824
872.656	4729
872.785	4801
872.915	4949
873.044	4965
873.173	4938
873.303	4968
873.432	4934
873.561	4961
873.69	4889
873.819	4850
873.948	4896
874.077	4828
874.206	4755
874.335	4771
874.464	4946
874.593	5075
874.722	4942
874.851	5083
874.979	5052
875.108	5045
875.237	4885
875.365	4911
875.494	4866
875.623	4995
875.751	4862
875.88	4854
876.008	5006
876.136	4965
876.265	5189
876.393	5296
876.521	5208
876.65	5220
876.778	5193
876.906	5025
877.034	5006
877.162	5033
877.29	4999
877.418	5045
877.546	5014
877.674	5022
877.802	5022
877.93	5018
878.058	4961
878.185	4850
878.313	4968
878.441	4961
878.568	4797
878.696	4877
878.824	4938
878.951	5060
879.079	5128
879.206	5284
879.333	5079
879.461	4976
879.588	5018
879.715	5113
879.842	5239
879.97	4995
880.097	4755
880.224	4740
880.351	4767
880.478	4809
880.605	4797
880.732	4752
880.859	5045
880.986	4889
881.112	4831
881.239	4729
881.366	4672
881.493	4603
881.619	4618
881.746	4622
881.872	4626
881.999	4672
882.125	4683
882.252	4790
882.378	4786
882.505	4968
882.631	4801
882.757	4694
882.883	4691
883.01	4714
883.136	4637
883.262	4588
883.388	4630
883.514	4835
883.64	4858
883.766	4767
883.892	4645
884.018	4721
884.143	4847
884.269	4995
884.395	4683
884.52	4656
884.646	4634
884.772	4599
884.897	4561
885.023	4668
885.148	4774
885.274	4881
885.399	4843
885.524	4698
885.65	4660
885.775	4748
885.9	4687
886.025	4831
886.15	4801
886.275	4725
886.4	4637
886.525	4698
886.65	4672
886.775	4645
886.9	4881
887.025	5037
887.149	4755
887.274	4630
887.399	4618
887.523	4573
887.648	4596
887.773	4626
887.897	4812
888.021	4710
888.146	4702
888.27	4801
888.395	4900
888.519	4828
888.643	4824
888.767	4854
888.891	4729
889.015	4596
889.139	4637
889.263	4569
889.387	4752
889.511	4858
889.635	4805
889.759	4607
889.883	4618
890.006	4736
890.13	4824
890.254	4615
890.377	4721
890.501	4550
890.624	4512
890.748	4656
890.871	4478
890.995	4424
891.118	4379
891.241	4478
891.364	4580
891.488	4599
891.611	4481
891.734	4519
891.857	4592
891.98	4538
892.103	4649
892.226	4573
892.349	4538
892.471	4394
892.594	4523
892.717	4599
892.839	4573
892.962	4599
893.085	4702
893.207	4588
893.33	4424
893.452	4500
893.575	4698
893.697	4561
893.819	4828
893.941	4771
894.064	4763
894.186	4577
894.308	4519
894.43	4694
894.552	4820
894.674	4717
894.796	4546
894.918	4569
895.04	4542
895.161	4702
895.283	4653
895.405	4516
895.526	4645
895.648	4706
895.769	4672
895.891	4683
896.012	4774
896.134	4721
896.255	4698
896.376	4649
896.498	4596
896.619	4641
896.74	4630
896.861	4603
896.982	4934
897.103	5140
897.224	4854
897.345	4717
897.466	4656
897.587	4710
897.708	4877
897.828	4729
897.949	4653
898.07	4535
898.19	4634
898.311	4786
898.431	4683
898.552	4710
898.672	4786
898.792	4797
898.913	4721
899.033	4607
899.153	4516
899.273	4428
899.393	4497
899.513	4516
899.633	4512
899.753	4542
899.873	4489
899.993	4542
900.113	4512
900.232	4569
900.352	4516
900.472	4481
900.591	4424
900.711	4508
900.83	4478
900.95	4592
901.069	4675
901.189	4493
901.308	4371
901.427	4322
901.546	4379
901.665	4489
901.784	4474
901.904	4421
902.023	4337
902.141	4234
902.26	4128
902.379	4303
902.498	4249
902.617	4215
902.735	4413
902.854	4455
902.973	4379
903.091	4196
903.21	4265
903.328	4310
903.446	4310
903.565	4249
903.683	4375
903.801	4268
903.919	4356
904.038	4417
904.156	4341
904.274	4478
904.392	4417
904.51	4409
904.627	4459
904.745	4554
904.863	4634
904.981	4375
905.098	4284
905.216	4379
905.334	4402
905.451	4436
905.569	4428
905.686	4546
905.803	4538
905.921	4424
906.038	4565
906.155	4485
906.272	4409
906.389	4443
906.506	4360
906.623	4386
906.74	4383
906.857	4303
906.974	4363
907.091	4508
907.208	4721
907.324	4592
907.441	4497
907.557	4360
907.674	4360
907.79	4295
907.907	4375
908.023	4481
908.139	4455
908.256	4402
908.372	4493
908.488	4432
908.604	4405
908.72	4337
908.836	4337
908.952	4348
909.068	4405
909.184	4584
909.3	4504
909.415	4573
909.531	4504
909.647	4398
909.762	4386
909.878	4352
909.993	4455
910.108	4386
910.224	4421
910.339	4432
910.454	4386
910.57	4348
910.685	4329
910.8	4660
910.915	4592
911.03	4459
911.145	4348
911.259	4344
911.374	4390
911.489	4265
911.604	4276
911.718	4158
911.833	4234
911.947	4074
912.062	4063
912.176	4238
912.291	4207
912.405	4257
912.519	4443
912.633	4493
912.748	4363
912.862	4295
912.976	4219
913.09	4109
913.204	4124
913.318	4257
913.431	4367
913.545	4394
913.659	4440
913.772	4363
913.886	4253
914	4272
914.113	4394
914.226	4417
914.34	4394
914.453	4215
914.566	4462
914.68	4329
914.793	4322
914.906	4158
915.019	4120
915.132	4048
915.245	4196
915.358	4196
915.47	4227
915.583	4295
915.696	4291
915.809	4341
915.921	4451
916.034	4219
916.146	4223
916.259	4249
916.371	4405
916.483	4352
916.595	4257
916.708	4284
916.82	4352
916.932	4314
917.044	4360
917.156	4325
917.268	4204
917.38	4284
917.491	4295
917.603	4356
917.715	4383
917.826	4436
917.938	4371
918.049	4204
918.161	4409
918.272	4569
918.384	4580
918.495	4455
918.606	4261
918.717	4242
918.828	4375
918.939	4375
919.05	4242
919.161	4356
919.272	4147
919.383	4196
919.494	4462
919.604	4637
919.715	4379
919.826	4360
919.936	4367
920.047	4523
920.157	4455
920.267	4687
920.378	4489
920.488	4500
920.598	4706
920.708	4904
920.818	4778
920.928	4752
921.038	4900
921.148	4919
921.258	4645
921.368	4535
921.477	4500
921.587	4455
921.697	4371
921.806	4573
921.916	4436
922.025	4284
922.134	4299
922.244	4192
922.353	4356
922.462	4169
922.571	4116
922.68	3987
922.789	3991
922.898	4021
923.007	3979
923.116	4097
923.224	4044
923.333	4093
923.442	3987
923.55	3975
923.659	4040
923.767	4093
923.876	3964
923.984	4124
924.092	4017
924.201	4032
924.309	4078
924.417	4131
924.525	4071
924.633	4059
924.741	5037
924.849	3934
924.956	4139
925.064	3941
925.172	3911
925.279	3926
925.387	4051
925.494	4029
925.602	4188
925.709	4238
925.816	4055
925.924	4105
926.031	4265
926.138	4200
926.245	4188
926.352	4074
926.459	4246
926.566	4295
926.673	4143
926.779	4120
926.886	4067
926.993	3956
927.099	4017
927.206	3949
927.312	3941
927.419	4036
927.525	4048
927.631	4101
927.737	3949
927.843	3960
927.95	3876
928.056	3915
928.162	3991
928.267	4097
928.373	4691
928.479	4166
928.585	3876
928.69	4055
928.796	4040
928.901	4010
929.007	3880
929.112	4013
929.218	3987
929.323	3956
929.428	3903
929.533	4078
929.638	3960
929.743	4006
929.848	4017
929.953	3975
930.058	3945
930.163	3778
930.267	3827
930.372	3964
930.477	3823
930.581	4025
930.685	3941
930.79	3816
930.894	3899
930.998	3835
931.103	4078
931.207	3743
931.311	3694
931.415	3694
931.519	3557
931.623	3561
