Data from test_V78500241_590.txt Node
Date: Fri Mar 25 16:53:06 CST 2022
User: usil
Spectrometer: V785-0024
Trigger mode: 0
Integration Time (sec): 4.000000E-1
Scans to average: 1
Nonlinearity correction enabled: false
Boxcar width: 0
Storing dark spectrum: false
XAxis mode: Wavelengths
Number of Pixels in Spectrum: 1024
>>>>>Begin Spectral Data<<<<<
801.071	8054
801.214	8001
801.356	7746
801.499	7849
801.641	7750
801.783	7860
801.926	7986
802.068	7963
802.211	8024
802.353	8073
802.496	7879
802.638	7986
802.78	7921
802.923	7936
803.065	7811
803.208	7795
803.35	7944
803.492	8096
803.635	8187
803.777	7993
803.919	8092
804.061	8434
804.204	8107
804.346	8054
804.488	7902
804.63	8100
804.773	7993
804.915	8069
805.057	8301
805.199	8164
805.341	8244
805.483	8244
805.626	8244
805.768	8103
805.91	8115
806.052	8225
806.194	8069
806.336	8290
806.478	8149
806.62	8046
806.762	8115
806.904	8225
807.046	8423
807.188	8309
807.33	8237
807.472	8298
807.614	8210
807.756	8119
807.898	7959
808.04	7868
808.182	7864
808.324	7856
808.465	7932
808.607	8069
808.749	8065
808.891	8259
809.033	8377
809.174	8145
809.316	8043
809.458	8020
809.6	8001
809.741	8005
809.883	7993
810.025	8039
810.166	8050
810.308	8081
810.45	7997
810.591	7902
810.733	7765
810.875	7651
811.016	7487
811.158	7521
811.299	7571
811.441	7712
811.582	7670
811.724	7525
811.865	7559
812.007	7647
812.148	7647
812.29	7655
812.431	7731
812.573	7849
812.714	7986
812.855	8126
812.997	8252
813.138	8355
813.279	8256
813.421	8145
813.562	8046
813.703	7852
813.845	7765
813.986	7533
814.127	7335
814.268	7331
814.41	7240
814.551	7164
814.692	7168
814.833	7061
814.974	7088
815.115	7141
815.256	6993
815.397	6897
815.539	6897
815.68	6837
815.821	6821
815.962	6886
816.103	6821
816.244	6730
816.385	6612
816.526	6654
816.666	6479
816.807	6319
816.948	6441
817.089	6441
817.23	6418
817.371	6346
817.512	6376
817.653	6369
817.793	6361
817.934	6403
818.075	6471
818.216	6376
818.356	6433
818.497	6228
818.638	6098
818.778	6159
818.919	6178
819.06	6144
819.2	6357
819.341	6296
819.481	6384
819.622	6532
819.762	6734
819.903	6662
820.043	6574
820.184	6532
820.324	6513
820.465	6620
820.605	6623
820.746	6570
820.886	6467
821.026	6589
821.167	6673
821.307	6749
821.447	6715
821.588	6662
821.728	6536
821.868	6494
822.008	6254
822.149	6357
822.289	6311
822.429	6102
822.569	6049
822.709	6098
822.849	5912
822.99	5874
823.13	5882
823.27	5897
823.41	5809
823.55	5813
823.69	5745
823.83	5790
823.97	5684
824.11	5592
824.25	5512
824.389	5562
824.529	5585
824.669	5505
824.809	5653
824.949	5592
825.089	5592
825.228	5505
825.368	5421
825.508	5292
825.648	5341
825.787	5353
825.927	5360
826.067	5292
826.206	5284
826.346	5307
826.485	5402
826.625	5433
826.765	5547
826.904	5455
827.044	5239
827.183	5159
827.323	5124
827.462	5235
827.601	5155
827.741	5174
827.88	5189
828.02	5109
828.159	5258
828.298	5288
828.437	5311
828.577	5280
828.716	5490
828.855	5360
828.994	5132
829.134	5208
829.273	5181
829.412	5124
829.551	5117
829.69	5155
829.829	5220
829.968	5334
830.107	5250
830.246	5242
830.385	5159
830.524	5128
830.663	4991
830.802	4961
830.941	4881
831.08	4862
831.219	4957
831.357	4953
831.496	5128
831.635	4892
831.774	4870
831.913	4862
832.051	4714
832.19	4778
832.329	4847
832.467	4672
832.606	4599
832.744	4672
832.883	4740
833.022	4675
833.16	4778
833.299	4843
833.437	4828
833.576	4835
833.714	4904
833.852	4847
833.991	4900
834.129	4934
834.267	4911
834.406	4900
834.544	4957
834.682	4946
834.821	4972
834.959	5143
835.097	4995
835.235	5147
835.373	5124
835.511	5155
835.65	5003
835.788	5033
835.926	4889
836.064	4885
836.202	4862
836.34	5174
836.478	5246
836.615	5124
836.753	5193
836.891	5258
837.029	5223
837.167	5208
837.305	5109
837.443	5170
837.58	5083
837.718	5258
837.856	5170
837.993	5132
838.131	5265
838.269	5174
838.406	5189
838.544	5208
838.681	5029
838.819	4976
838.956	4870
839.094	4862
839.231	5010
839.369	5109
839.506	5406
839.643	5258
839.781	5094
839.918	5018
840.055	5117
840.193	5143
840.33	5075
840.467	5102
840.604	5178
840.742	5379
840.879	5075
841.016	5102
841.153	5098
841.29	5406
841.427	5315
841.564	5315
841.701	5379
841.838	5250
841.975	5231
842.112	5254
842.249	5109
842.385	5079
842.522	5376
842.659	5151
842.796	5086
842.933	5181
843.069	5155
843.206	5197
843.343	5303
843.479	5261
843.616	5307
843.752	5006
843.889	4987
844.025	5220
844.162	4995
844.298	5174
844.435	5136
844.571	5022
844.708	5170
844.844	5261
844.98	5330
845.117	5337
845.253	5086
845.389	5151
845.525	5162
845.661	5166
845.798	5014
845.934	5083
846.07	5033
846.206	5140
846.342	5284
846.478	5121
846.614	4987
846.75	4987
846.886	4938
847.022	5136
847.158	5048
847.294	5037
847.429	5067
847.565	5018
847.701	5364
847.837	4839
847.972	4782
848.108	4927
848.244	4892
848.379	4816
848.515	4702
848.65	4717
848.786	4740
848.921	4778
849.057	4881
849.192	4904
849.328	4866
849.463	4790
849.598	4824
849.734	4748
849.869	4649
850.004	4603
850.14	4664
850.275	4599
850.41	4527
850.545	4519
850.68	4641
850.815	4622
850.95	4599
851.085	4824
851.22	4748
851.355	4649
851.49	4615
851.625	4645
851.76	4664
851.895	4554
852.03	4493
852.165	4656
852.299	4717
852.434	4797
852.569	4694
852.703	4793
852.838	4805
852.973	4927
853.107	4908
853.242	4729
853.376	4668
853.511	4535
853.645	4653
853.78	4809
853.914	4706
854.048	4672
854.183	4588
854.317	4672
854.451	4881
854.585	4706
854.72	4649
854.854	4744
854.988	4527
855.122	4630
855.256	4527
855.39	4645
855.524	4710
855.658	4691
855.792	4702
855.926	4706
856.06	4740
856.194	4744
856.327	4683
856.461	4637
856.595	4611
856.729	4626
856.862	4793
856.996	4675
857.13	4786
857.263	4763
857.397	4801
857.53	4645
857.664	4736
857.797	4706
857.931	4774
858.064	4687
858.197	4725
858.331	4630
858.464	4641
858.597	4466
858.731	4611
858.864	4622
858.997	4588
859.13	4641
859.263	4611
859.396	4714
859.529	4554
859.662	4554
859.795	4493
859.928	4622
860.061	4763
860.194	4778
860.327	4580
860.46	4558
860.592	4664
860.725	4668
860.858	4698
860.99	4516
861.123	4459
861.256	4516
861.388	4573
861.521	5452
861.653	4504
861.786	4413
861.918	4440
862.05	4500
862.183	4535
862.315	4580
862.447	4656
862.58	4542
862.712	4390
862.844	4352
862.976	4424
863.108	4447
863.24	4881
863.372	4333
863.504	4367
863.636	4447
863.768	4478
863.9	4466
864.032	4352
864.164	4443
864.296	4516
864.428	4512
864.559	4573
864.691	4531
864.823	4542
864.954	4519
865.086	4455
865.217	4462
865.349	4363
865.48	4481
865.612	4478
865.743	4626
865.875	4428
866.006	4417
866.137	4474
866.269	4474
866.4	4451
866.531	4428
866.662	4402
866.793	4386
866.924	4432
867.055	4516
867.186	4421
867.317	4417
867.448	4398
867.579	4383
867.71	4363
867.841	4367
867.972	4443
868.103	4436
868.233	4447
868.364	4485
868.495	4440
868.625	4660
868.756	4771
868.886	4592
869.017	4611
869.147	4824
869.278	4767
869.408	4653
869.539	4630
869.669	4729
869.799	4649
869.929	4759
870.06	4725
870.19	4942
870.32	4873
870.45	4946
870.58	4984
870.71	5105
870.84	5086
870.97	4938
871.1	4908
871.23	5128
871.36	5113
871.489	5018
871.619	5064
871.749	5109
871.879	5083
872.008	5181
872.138	5010
872.267	4923
872.397	4862
872.526	4831
872.656	4725
872.785	4778
872.915	4972
873.044	4995
873.173	4930
873.303	4915
873.432	4919
873.561	4968
873.69	4828
873.819	4858
873.948	4911
874.077	4831
874.206	4744
874.335	4797
874.464	4927
874.593	5052
874.722	4968
874.851	5060
874.979	5041
875.108	4965
875.237	4896
875.365	4835
875.494	4843
875.623	4987
875.751	4767
875.88	4850
876.008	4968
876.136	5025
876.265	5220
876.393	5307
876.521	5250
876.65	5212
876.778	5151
876.906	5056
877.034	5010
877.162	5067
877.29	4972
877.418	5067
877.546	4976
877.674	5037
877.802	5003
877.93	4991
878.058	4930
878.185	4873
878.313	4927
878.441	4957
878.568	4778
878.696	4847
878.824	4942
878.951	5003
879.079	5132
879.206	5307
879.333	5071
879.461	4961
879.588	5018
879.715	5064
879.842	5208
879.97	4999
880.097	4729
880.224	4763
880.351	4790
880.478	4824
880.605	4740
880.732	4801
880.859	5105
880.986	4816
881.112	4885
881.239	4805
881.366	4664
881.493	4611
881.619	4573
881.746	4660
881.872	4630
881.999	4607
882.125	4672
882.252	4782
882.378	4778
882.505	4957
882.631	4786
882.757	4679
882.883	4698
883.01	4729
883.136	4675
883.262	4580
883.388	4603
883.514	4809
883.64	4866
883.766	4755
883.892	4687
884.018	4710
884.143	4835
884.269	4984
884.395	4687
884.52	4577
884.646	4637
884.772	4588
884.897	4634
885.023	4645
885.148	4767
885.274	4862
885.399	4759
885.524	4729
885.65	4675
885.775	4675
885.9	4733
886.025	4816
886.15	4763
886.275	4782
886.4	4656
886.525	4683
886.65	4714
886.775	4694
886.9	4881
887.025	5033
887.149	4801
887.274	4615
887.399	4558
887.523	4630
887.648	4527
887.773	4554
887.897	4763
888.021	4763
888.146	4626
888.27	4786
888.395	4919
888.519	4771
888.643	4820
888.767	4778
888.891	4672
889.015	4599
889.139	4656
889.263	4580
889.387	4759
889.511	4858
889.635	4755
889.759	4641
889.883	4634
890.006	4744
890.13	4820
890.254	4618
890.377	4637
890.501	4500
890.624	4508
890.748	4630
890.871	4527
890.995	4455
891.118	4386
891.241	4500
891.364	4493
891.488	4634
891.611	4504
891.734	4558
891.857	4603
891.98	4531
892.103	4615
892.226	4580
892.349	4497
892.471	4421
892.594	4504
892.717	4615
892.839	4641
892.962	4615
893.085	4672
893.207	4603
893.33	4462
893.452	4508
893.575	4691
893.697	4618
893.819	4809
893.941	4881
894.064	4774
894.186	4580
894.308	4611
894.43	4717
894.552	4847
894.674	4797
894.796	4565
894.918	4622
895.04	4596
895.161	4729
895.283	4656
895.405	4649
895.526	4710
895.648	4767
895.769	4729
895.891	4721
896.012	4740
896.134	4748
896.255	4702
896.376	4649
896.498	4630
896.619	4698
896.74	4618
896.861	4668
896.982	4934
897.103	5075
897.224	4915
897.345	4824
897.466	4706
897.587	4740
897.708	4892
897.828	4801
897.949	4668
898.07	4615
898.19	4649
898.311	4889
898.431	4721
898.552	4702
898.672	4900
898.792	4824
898.913	4824
899.033	4660
899.153	4569
899.273	4489
899.393	4523
899.513	4584
899.633	4546
899.753	4611
899.873	4588
899.993	4630
900.113	4561
900.232	4675
900.352	4580
900.472	4489
900.591	4455
900.711	4569
900.83	4436
900.95	4634
901.069	4717
901.189	4569
901.308	4470
901.427	4367
901.546	4405
901.665	4500
901.784	4554
901.904	4462
902.023	4363
902.141	4211
902.26	4200
902.379	4348
902.498	4295
902.617	4272
902.735	4417
902.854	4440
902.973	4417
903.091	4261
903.21	4276
903.328	4295
903.446	4268
903.565	4268
903.683	4413
903.801	4314
903.919	4421
904.038	4466
904.156	4367
904.274	4440
904.392	4443
904.51	4478
904.627	4481
904.745	4607
904.863	4672
904.981	4379
905.098	4333
905.216	4375
905.334	4493
905.451	4531
905.569	4474
905.686	4615
905.803	4577
905.921	4436
906.038	4615
906.155	4512
906.272	4413
906.389	4523
906.506	4398
906.623	4428
906.74	4436
906.857	4322
906.974	4409
907.091	4577
907.208	4687
907.324	4599
907.441	4508
907.557	4333
907.674	4360
907.79	4367
907.907	4478
908.023	4508
908.139	4500
908.256	4493
908.372	4504
908.488	4485
908.604	4375
908.72	4360
908.836	4424
908.952	4383
909.068	4512
909.184	4603
909.3	4523
909.415	4611
909.531	4622
909.647	4379
909.762	4405
909.878	4405
909.993	4478
910.108	4443
910.224	4485
910.339	4466
910.454	4390
910.57	4363
910.685	4360
910.8	4649
910.915	4691
911.03	4489
911.145	4394
911.259	4394
911.374	4398
911.489	4325
911.604	4310
911.718	4192
911.833	4272
911.947	4135
912.062	4025
912.176	4219
912.291	4291
912.405	4276
912.519	4466
912.633	4516
912.748	4394
912.862	4341
912.976	4249
913.09	4131
913.204	4234
913.318	4337
913.431	4417
913.545	4440
913.659	4485
913.772	4371
913.886	4246
914	4249
914.113	4375
914.226	4447
914.34	4402
914.453	4306
914.566	4516
914.68	4299
914.793	4390
914.906	4154
915.019	4181
915.132	4120
915.245	4227
915.358	4242
915.47	4265
915.583	4284
915.696	4284
915.809	4447
915.921	4440
916.034	4306
916.146	4287
916.259	4261
916.371	4390
916.483	4462
916.595	4291
916.708	4310
916.82	4337
916.932	4371
917.044	4375
917.156	4299
917.268	4310
917.38	4291
917.491	4291
917.603	4356
917.715	4493
917.826	4428
917.938	4405
918.049	4249
918.161	4413
918.272	4592
918.384	4561
918.495	4527
918.606	4303
918.717	4272
918.828	4318
918.939	4383
919.05	4272
919.161	4329
919.272	4192
919.383	4246
919.494	4508
919.604	4679
919.715	4447
919.826	4394
919.936	4428
920.047	4523
920.157	4489
920.267	4721
920.378	4565
920.488	4500
920.598	4763
920.708	4938
920.818	4774
920.928	4759
921.038	4991
921.148	4961
921.258	4656
921.368	4596
921.477	4535
921.587	4455
921.697	4398
921.806	4508
921.916	4459
922.025	4333
922.134	4287
922.244	4253
922.353	4375
922.462	4246
922.571	4139
922.68	4059
922.789	4002
922.898	4071
923.007	4021
923.116	4135
923.224	4116
923.333	4135
923.442	3983
923.55	4021
923.659	4086
923.767	4097
923.876	4021
923.984	4120
924.092	4021
924.201	4116
924.309	4090
924.417	4215
924.525	4112
924.633	4101
924.741	5071
924.849	3979
924.956	4139
925.064	4013
925.172	3922
925.279	3979
925.387	4090
925.494	4086
925.602	4265
925.709	4230
925.816	4051
925.924	4173
926.031	4272
926.138	4177
926.245	4242
926.352	4128
926.459	4253
926.566	4363
926.673	4135
926.779	4090
926.886	4097
926.993	4040
927.099	3972
927.206	3975
927.312	3941
927.419	4051
927.525	4059
927.631	4097
927.737	3987
927.843	4002
927.95	3846
928.056	3956
928.162	4002
928.267	4090
928.373	4710
928.479	4177
928.585	3896
928.69	4044
928.796	4131
928.901	4029
929.007	3869
929.112	4051
929.218	3987
929.323	3949
929.428	4013
929.533	4131
929.638	3975
929.743	3960
929.848	4082
929.953	4017
930.058	3960
930.163	3785
930.267	3854
930.372	4017
930.477	3827
930.581	4048
930.685	3979
930.79	3823
930.894	3922
930.998	3884
931.103	4082
931.207	3720
931.311	3747
931.415	3667
931.519	3545
931.623	3553
