Data from test_V78500241_2076.txt Node
Date: Fri Mar 25 17:03:26 CST 2022
User: usil
Spectrometer: V785-0024
Trigger mode: 0
Integration Time (sec): 4.000000E-1
Scans to average: 1
Nonlinearity correction enabled: false
Boxcar width: 0
Storing dark spectrum: false
XAxis mode: Wavelengths
Number of Pixels in Spectrum: 1024
>>>>>Begin Spectral Data<<<<<
801.071	7982
801.214	7947
801.356	7826
801.499	7856
801.641	7693
801.783	7803
801.926	7906
802.068	7932
802.211	7978
802.353	8024
802.496	7860
802.638	7856
802.78	7860
802.923	7868
803.065	7871
803.208	7864
803.35	7967
803.492	8054
803.635	8069
803.777	7936
803.919	8081
804.061	8400
804.204	8100
804.346	8005
804.488	7989
804.63	8073
804.773	7921
804.915	8046
805.057	8301
805.199	8081
805.341	8180
805.483	8183
805.626	8191
805.768	8153
805.91	8214
806.052	8180
806.194	8073
806.336	8271
806.478	8016
806.62	8035
806.762	8115
806.904	8240
807.046	8484
807.188	8385
807.33	8237
807.472	8328
807.614	8199
807.756	8126
807.898	7951
808.04	7852
808.182	7845
808.324	7833
808.465	7894
808.607	8081
808.749	8111
808.891	8191
809.033	8336
809.174	8138
809.316	8012
809.458	8008
809.6	7989
809.741	8027
809.883	8012
810.025	8142
810.166	8016
810.308	7967
810.45	7986
810.591	7852
810.733	7685
810.875	7708
811.016	7502
811.158	7460
811.299	7548
811.441	7723
811.582	7712
811.724	7525
811.865	7510
812.007	7601
812.148	7597
812.29	7624
812.431	7700
812.573	7890
812.714	7925
812.855	8107
812.997	8206
813.138	8343
813.279	8164
813.421	7997
813.562	7970
813.703	7830
813.845	7681
813.986	7434
814.127	7194
814.268	7175
814.41	7122
814.551	7198
814.692	7209
814.833	7118
814.974	7084
815.115	7061
815.256	6966
815.397	6863
815.539	6913
815.68	6875
815.821	6726
815.962	6829
816.103	6779
816.244	6711
816.385	6608
816.526	6616
816.666	6471
816.807	6285
816.948	6391
817.089	6486
817.23	6479
817.371	6384
817.512	6350
817.653	6292
817.793	6311
817.934	6441
818.075	6452
818.216	6418
818.356	6418
818.497	6235
818.638	6136
818.778	6152
818.919	6144
819.06	6129
819.2	6338
819.341	6251
819.481	6372
819.622	6536
819.762	6760
819.903	6642
820.043	6623
820.184	6627
820.324	6642
820.465	6684
820.605	6677
820.746	6608
820.886	6517
821.026	6673
821.167	6681
821.307	6806
821.447	6779
821.588	6696
821.728	6608
821.868	6429
822.008	6342
822.149	6323
822.289	6285
822.429	6121
822.569	6098
822.709	6091
822.849	5904
822.99	5847
823.13	5954
823.27	5916
823.41	5783
823.55	5748
823.69	5760
823.83	5752
823.97	5691
824.11	5543
824.25	5566
824.389	5581
824.529	5589
824.669	5524
824.809	5600
824.949	5646
825.089	5581
825.228	5585
825.368	5372
825.508	5318
825.648	5303
825.787	5406
825.927	5398
826.067	5273
826.206	5280
826.346	5341
826.485	5429
826.625	5402
826.765	5600
826.904	5455
827.044	5261
827.183	5178
827.323	5201
827.462	5246
827.601	5189
827.741	5208
827.88	5265
828.02	5143
828.159	5250
828.298	5353
828.437	5372
828.577	5307
828.716	5505
828.855	5322
828.994	5159
829.134	5174
829.273	5204
829.412	5159
829.551	5166
829.69	5174
829.829	5273
829.968	5391
830.107	5311
830.246	5292
830.385	5155
830.524	5132
830.663	5094
830.802	4991
830.941	4949
831.08	4923
831.219	5033
831.357	5010
831.496	5231
831.635	4938
831.774	4839
831.913	4934
832.051	4786
832.19	4786
832.329	4885
832.467	4725
832.606	4649
832.744	4824
832.883	4767
833.022	4752
833.16	4774
833.299	4843
833.437	4816
833.576	4923
833.714	4892
833.852	4900
833.991	4949
834.129	4984
834.267	4976
834.406	4892
834.544	5003
834.682	4995
834.821	4976
834.959	5170
835.097	5018
835.235	5132
835.373	5121
835.511	5140
835.65	5052
835.788	5071
835.926	4934
836.064	4911
836.202	4942
836.34	5227
836.478	5231
836.615	5166
836.753	5242
836.891	5330
837.029	5322
837.167	5223
837.305	5204
837.443	5170
837.58	5105
837.718	5299
837.856	5227
837.993	5166
838.131	5322
838.269	5216
838.406	5246
838.544	5242
838.681	5067
838.819	5033
838.956	4942
839.094	4968
839.231	5014
839.369	5121
839.506	5440
839.643	5261
839.781	5098
839.918	5067
840.055	5155
840.193	5060
840.33	5159
840.467	5159
840.604	5204
840.742	5501
840.879	5067
841.016	5098
841.153	5178
841.29	5421
841.427	5376
841.564	5345
841.701	5410
841.838	5341
841.975	5258
842.112	5288
842.249	5208
842.385	5132
842.522	5311
842.659	5212
842.796	5132
842.933	5216
843.069	5166
843.206	5189
843.343	5315
843.479	5303
843.616	5303
843.752	5086
843.889	5067
844.025	5269
844.162	5067
844.298	5216
844.435	5113
844.571	5086
844.708	5220
844.844	5296
844.98	5391
845.117	5326
845.253	5166
845.389	5094
845.525	5201
845.661	5170
845.798	5056
845.934	5208
846.07	5128
846.206	5235
846.342	5337
846.478	5208
846.614	5075
846.75	5029
846.886	4957
847.022	5185
847.158	5079
847.294	5090
847.429	5136
847.565	5079
847.701	5337
847.837	4904
847.972	4805
848.108	4972
848.244	4972
848.379	4801
848.515	4755
848.65	4755
848.786	4790
848.921	4797
849.057	4919
849.192	4915
849.328	4862
849.463	4866
849.598	4828
849.734	4831
849.869	4683
850.004	4710
850.14	4656
850.275	4615
850.41	4580
850.545	4569
850.68	4645
850.815	4653
850.95	4561
851.085	4885
851.22	4767
851.355	4691
851.49	4634
851.625	4664
851.76	4653
851.895	4554
852.03	4577
852.165	4679
852.299	4778
852.434	4778
852.569	4771
852.703	4801
852.838	4904
852.973	4987
853.107	4961
853.242	4778
853.376	4694
853.511	4599
853.645	4683
853.78	4862
853.914	4752
854.048	4710
854.183	4672
854.317	4729
854.451	4862
854.585	4717
854.72	4668
854.854	4717
854.988	4687
855.122	4660
855.256	4519
855.39	4694
855.524	4793
855.658	4706
855.792	4763
855.926	4759
856.06	4820
856.194	4835
856.327	4702
856.461	4626
856.595	4664
856.729	4634
856.862	4733
856.996	4736
857.13	4752
857.263	4755
857.397	4877
857.53	4679
857.664	4759
857.797	4793
857.931	4793
858.064	4725
858.197	4725
858.331	4672
858.464	4630
858.597	4569
858.731	4691
858.864	4649
858.997	4596
859.13	4714
859.263	4767
859.396	4706
859.529	4603
859.662	4580
859.795	4554
859.928	4691
860.061	4763
860.194	4809
860.327	4603
860.46	4599
860.592	4706
860.725	4771
860.858	4748
860.99	4615
861.123	4516
861.256	4550
861.388	4592
861.521	5273
861.653	4504
861.786	4440
861.918	4516
862.05	4577
862.183	4599
862.315	4664
862.447	4675
862.58	4561
862.712	4440
862.844	4371
862.976	4455
863.108	4462
863.24	4809
863.372	4371
863.504	4481
863.636	4436
863.768	4504
863.9	4432
864.032	4386
864.164	4398
864.296	4462
864.428	4569
864.559	4588
864.691	4561
864.823	4558
864.954	4523
865.086	4527
865.217	4508
865.349	4394
865.48	4443
865.612	4489
865.743	4622
865.875	4440
866.006	4451
866.137	4424
866.269	4413
866.4	4497
866.531	4466
866.662	4417
866.793	4451
866.924	4421
867.055	4535
867.186	4523
867.317	4474
867.448	4421
867.579	4413
867.71	4367
867.841	4360
867.972	4481
868.103	4478
868.233	4497
868.364	4470
868.495	4470
868.625	4698
868.756	4771
868.886	4535
869.017	4672
869.147	4744
869.278	4774
869.408	4675
869.539	4660
869.669	4771
869.799	4740
869.929	4790
870.06	4755
870.19	4957
870.32	4934
870.45	4949
870.58	5018
870.71	5128
870.84	5086
870.97	4934
871.1	4927
871.23	5132
871.36	5128
871.489	5064
871.619	5121
871.749	5147
871.879	5155
872.008	5216
872.138	5083
872.267	4961
872.397	4892
872.526	4881
872.656	4733
872.785	4858
872.915	5003
873.044	5041
873.173	4957
873.303	4976
873.432	4972
873.561	4972
873.69	4900
873.819	4873
873.948	4900
874.077	4854
874.206	4790
874.335	4782
874.464	4938
874.593	5094
874.722	4980
874.851	5147
874.979	5033
875.108	5124
875.237	4911
875.365	4930
875.494	4900
875.623	4995
875.751	4828
875.88	4885
876.008	5003
876.136	5037
876.265	5189
876.393	5376
876.521	5239
876.65	5235
876.778	5155
876.906	5086
877.034	5018
877.162	5083
877.29	4976
877.418	5105
877.546	5052
877.674	5109
877.802	5060
877.93	5083
878.058	4965
878.185	4919
878.313	4965
878.441	4984
878.568	4835
878.696	4919
878.824	4984
878.951	5067
879.079	5140
879.206	5345
879.333	5098
879.461	5037
879.588	5033
879.715	5113
879.842	5235
879.97	5029
880.097	4771
880.224	4755
880.351	4797
880.478	4850
880.605	4843
880.732	4820
880.859	5086
880.986	4904
881.112	4957
881.239	4839
881.366	4698
881.493	4645
881.619	4691
881.746	4649
881.872	4637
881.999	4656
882.125	4725
882.252	4767
882.378	4870
882.505	4991
882.631	4816
882.757	4664
882.883	4740
883.01	4702
883.136	4702
883.262	4577
883.388	4607
883.514	4790
883.64	4858
883.766	4801
883.892	4675
884.018	4763
884.143	4858
884.269	5006
884.395	4687
884.52	4618
884.646	4649
884.772	4596
884.897	4558
885.023	4645
885.148	4816
885.274	4927
885.399	4820
885.524	4733
885.65	4694
885.775	4740
885.9	4725
886.025	4885
886.15	4805
886.275	4721
886.4	4706
886.525	4744
886.65	4668
886.775	4729
886.9	4885
887.025	5071
887.149	4816
887.274	4664
887.399	4592
887.523	4622
887.648	4580
887.773	4611
887.897	4778
888.021	4816
888.146	4706
888.27	4816
888.395	4930
888.519	4828
888.643	4797
888.767	4858
888.891	4721
889.015	4573
889.139	4645
889.263	4656
889.387	4850
889.511	4881
889.635	4801
889.759	4691
889.883	4710
890.006	4710
890.13	4866
890.254	4607
890.377	4694
890.501	4565
890.624	4531
890.748	4641
890.871	4588
890.995	4466
891.118	4386
891.241	4455
891.364	4554
891.488	4672
891.611	4485
891.734	4565
891.857	4622
891.98	4573
892.103	4672
892.226	4580
892.349	4523
892.471	4451
892.594	4599
892.717	4630
892.839	4546
892.962	4550
893.085	4672
893.207	4637
893.33	4481
893.452	4519
893.575	4645
893.697	4588
893.819	4850
893.941	4839
894.064	4809
894.186	4596
894.308	4592
894.43	4725
894.552	4805
894.674	4740
894.796	4596
894.918	4596
895.04	4546
895.161	4725
895.283	4660
895.405	4603
895.526	4668
895.648	4698
895.769	4702
895.891	4740
896.012	4744
896.134	4725
896.255	4618
896.376	4630
896.498	4584
896.619	4691
896.74	4596
896.861	4664
896.982	4934
897.103	5113
897.224	4809
897.345	4710
897.466	4683
897.587	4725
897.708	4911
897.828	4828
897.949	4691
898.07	4588
898.19	4630
898.311	4824
898.431	4675
898.552	4744
898.672	4809
898.792	4831
898.913	4774
899.033	4626
899.153	4474
899.273	4470
899.393	4573
899.513	4561
899.633	4516
899.753	4546
899.873	4481
899.993	4596
900.113	4531
900.232	4618
900.352	4558
900.472	4432
900.591	4383
900.711	4508
900.83	4447
900.95	4615
901.069	4702
901.189	4569
901.308	4394
901.427	4268
901.546	4367
901.665	4459
901.784	4497
901.904	4398
902.023	4394
902.141	4204
902.26	4173
902.379	4299
902.498	4242
902.617	4272
902.735	4386
902.854	4348
902.973	4352
903.091	4223
903.21	4215
903.328	4284
903.446	4261
903.565	4242
903.683	4341
903.801	4303
903.919	4390
904.038	4424
904.156	4322
904.274	4497
904.392	4405
904.51	4398
904.627	4443
904.745	4607
904.863	4660
904.981	4428
905.098	4329
905.216	4356
905.334	4451
905.451	4413
905.569	4443
905.686	4577
905.803	4573
905.921	4367
906.038	4561
906.155	4481
906.272	4421
906.389	4447
906.506	4356
906.623	4390
906.74	4394
906.857	4310
906.974	4371
907.091	4615
907.208	4706
907.324	4573
907.441	4493
907.557	4379
907.674	4329
907.79	4306
907.907	4386
908.023	4516
908.139	4493
908.256	4493
908.372	4516
908.488	4500
908.604	4348
908.72	4360
908.836	4394
908.952	4440
909.068	4474
909.184	4592
909.3	4485
909.415	4599
909.531	4550
909.647	4363
909.762	4424
909.878	4367
909.993	4424
910.108	4440
910.224	4402
910.339	4500
910.454	4363
910.57	4379
910.685	4325
910.8	4645
910.915	4592
911.03	4462
911.145	4314
911.259	4325
911.374	4363
911.489	4261
911.604	4257
911.718	4227
911.833	4219
911.947	4063
912.062	4029
912.176	4196
912.291	4207
912.405	4276
912.519	4459
912.633	4516
912.748	4348
912.862	4348
912.976	4234
913.09	4071
913.204	4219
913.318	4272
913.431	4390
913.545	4371
913.659	4459
913.772	4390
913.886	4246
914	4246
914.113	4360
914.226	4474
914.34	4383
914.453	4230
914.566	4417
914.68	4303
914.793	4333
914.906	4185
915.019	4147
915.132	4109
915.245	4177
915.358	4249
915.47	4227
915.583	4287
915.696	4280
915.809	4402
915.921	4390
916.034	4246
916.146	4246
916.259	4238
916.371	4363
916.483	4371
916.595	4291
916.708	4348
916.82	4363
916.932	4371
917.044	4310
917.156	4310
917.268	4215
917.38	4299
917.491	4242
917.603	4344
917.715	4413
917.826	4432
917.938	4348
918.049	4261
918.161	4440
918.272	4546
918.384	4489
918.495	4481
918.606	4333
918.717	4257
918.828	4386
918.939	4424
919.05	4287
919.161	4287
919.272	4158
919.383	4242
919.494	4497
919.604	4618
919.715	4436
919.826	4360
919.936	4394
920.047	4535
920.157	4500
920.267	4706
920.378	4577
920.488	4550
920.598	4721
920.708	4835
920.818	4767
920.928	4778
921.038	4968
921.148	4938
921.258	4630
921.368	4561
921.477	4500
921.587	4451
921.697	4337
921.806	4550
921.916	4428
922.025	4299
922.134	4257
922.244	4192
922.353	4352
922.462	4188
922.571	4131
922.68	4002
922.789	3972
922.898	4071
923.007	3983
923.116	4120
923.224	4082
923.333	4086
923.442	3987
923.55	3991
923.659	4025
923.767	4093
923.876	4017
923.984	4120
924.092	3934
924.201	4128
924.309	4071
924.417	4097
924.525	4055
924.633	4090
924.741	5037
924.849	3922
924.956	4173
925.064	3987
925.172	3899
925.279	4010
925.387	4090
925.494	4078
925.602	4177
925.709	4173
925.816	4074
925.924	4086
926.031	4211
926.138	4105
926.245	4200
926.352	4090
926.459	4272
926.566	4253
926.673	4135
926.779	4109
926.886	4093
926.993	3972
927.099	3998
927.206	3953
927.312	3911
927.419	4074
927.525	3994
927.631	4093
927.737	3934
927.843	3972
927.95	3842
928.056	3918
928.162	3994
928.267	4105
928.373	4584
928.479	4139
928.585	3892
928.69	4032
928.796	4090
928.901	3994
929.007	3831
929.112	4006
929.218	3998
929.323	3907
929.428	3941
929.533	4112
929.638	3922
929.743	3975
929.848	4051
929.953	3949
930.058	3934
930.163	3785
930.267	3808
930.372	3998
930.477	3838
930.581	4055
930.685	3907
930.79	3816
930.894	3854
930.998	3835
931.103	4002
931.207	3740
931.311	3694
931.415	3660
931.519	3526
931.623	3538
