Data from test_V78500241_150.txt Node
Date: Fri Mar 25 16:50:02 CST 2022
User: usil
Spectrometer: V785-0024
Trigger mode: 0
Integration Time (sec): 4.000000E-1
Scans to average: 1
Nonlinearity correction enabled: false
Boxcar width: 0
Storing dark spectrum: false
XAxis mode: Wavelengths
Number of Pixels in Spectrum: 1024
>>>>>Begin Spectral Data<<<<<
801.071	8039
801.214	8035
801.356	7925
801.499	7928
801.641	7795
801.783	7864
801.926	8012
802.068	8031
802.211	7932
802.353	8043
802.496	7959
802.638	7970
802.78	8020
802.923	7890
803.065	7852
803.208	7909
803.35	8008
803.492	8111
803.635	8126
803.777	7944
803.919	8096
804.061	8404
804.204	8012
804.346	7989
804.488	7989
804.63	8088
804.773	7951
804.915	8084
805.057	8259
805.199	8183
805.341	8202
805.483	8221
805.626	8191
805.768	8043
805.91	8161
806.052	8191
806.194	8126
806.336	8324
806.478	8058
806.62	8096
806.762	8191
806.904	8271
807.046	8438
807.188	8362
807.33	8343
807.472	8298
807.614	8123
807.756	8126
807.898	7989
808.04	7875
808.182	7902
808.324	7894
808.465	7932
808.607	8062
808.749	8123
808.891	8244
809.033	8286
809.174	8221
809.316	8046
809.458	8145
809.6	8031
809.741	8046
809.883	8081
810.025	8111
810.166	8187
810.308	7974
810.45	8062
810.591	7887
810.733	7807
810.875	7677
811.016	7616
811.158	7510
811.299	7693
811.441	7826
811.582	7681
811.724	7582
811.865	7624
812.007	7647
812.148	7700
812.29	7666
812.431	7803
812.573	7902
812.714	8039
812.855	8229
812.997	8279
813.138	8415
813.279	8237
813.421	8187
813.562	8077
813.703	7967
813.845	7811
813.986	7613
814.127	7343
814.268	7293
814.41	7255
814.551	7202
814.692	7266
814.833	7190
814.974	7164
815.115	7179
815.256	7031
815.397	6913
815.539	7015
815.68	6886
815.821	6791
815.962	6916
816.103	6871
816.244	6749
816.385	6639
816.526	6722
816.666	6517
816.807	6342
816.948	6490
817.089	6517
817.23	6483
817.371	6422
817.512	6388
817.653	6391
817.793	6399
817.934	6426
818.075	6456
818.216	6426
818.356	6391
818.497	6277
818.638	6106
818.778	6171
818.919	6148
819.06	6163
819.2	6319
819.341	6391
819.481	6361
819.622	6627
819.762	6806
819.903	6768
820.043	6681
820.184	6612
820.324	6528
820.465	6684
820.605	6700
820.746	6662
820.886	6513
821.026	6787
821.167	6741
821.307	6707
821.447	6802
821.588	6730
821.728	6631
821.868	6502
822.008	6273
822.149	6372
822.289	6342
822.429	6209
822.569	6106
822.709	6114
822.849	5927
822.99	5942
823.13	5950
823.27	5958
823.41	5870
823.55	5798
823.69	5813
823.83	5760
823.97	5608
824.11	5600
824.25	5577
824.389	5577
824.529	5630
824.669	5539
824.809	5668
824.949	5611
825.089	5657
825.228	5619
825.368	5436
825.508	5360
825.648	5376
825.787	5379
825.927	5398
826.067	5334
826.206	5303
826.346	5349
826.485	5425
826.625	5429
826.765	5581
826.904	5482
827.044	5315
827.183	5242
827.323	5197
827.462	5288
827.601	5250
827.741	5155
827.88	5280
828.02	5113
828.159	5174
828.298	5322
828.437	5440
828.577	5280
828.716	5440
828.855	5360
828.994	5254
829.134	5204
829.273	5151
829.412	5159
829.551	5147
829.69	5204
829.829	5265
829.968	5360
830.107	5322
830.246	5315
830.385	5181
830.524	5178
830.663	5102
830.802	5025
830.941	4911
831.08	4866
831.219	4965
831.357	5006
831.496	5185
831.635	4961
831.774	4843
831.913	4831
832.051	4759
832.19	4767
832.329	4805
832.467	4763
832.606	4664
832.744	4714
832.883	4736
833.022	4740
833.16	4786
833.299	4778
833.437	4862
833.576	4850
833.714	4858
833.852	4873
833.991	4881
834.129	4980
834.267	4972
834.406	4892
834.544	5003
834.682	4991
834.821	5014
834.959	5162
835.097	5056
835.235	5151
835.373	5094
835.511	5113
835.65	5048
835.788	5094
835.926	4900
836.064	4908
836.202	4915
836.34	5181
836.478	5261
836.615	5102
836.753	5174
836.891	5284
837.029	5315
837.167	5220
837.305	5239
837.443	5181
837.58	5090
837.718	5231
837.856	5185
837.993	5140
838.131	5269
838.269	5223
838.406	5193
838.544	5181
838.681	5067
838.819	5037
838.956	4938
839.094	4930
839.231	4957
839.369	5090
839.506	5436
839.643	5254
839.781	5041
839.918	4972
840.055	5124
840.193	5140
840.33	5136
840.467	5162
840.604	5246
840.742	5444
840.879	5094
841.016	5075
841.153	5143
841.29	5345
841.427	5357
841.564	5334
841.701	5345
841.838	5261
841.975	5242
842.112	5235
842.249	5159
842.385	5105
842.522	5368
842.659	5193
842.796	5105
842.933	5227
843.069	5235
843.206	5143
843.343	5299
843.479	5220
843.616	5280
843.752	5079
843.889	4999
844.025	5239
844.162	5014
844.298	5170
844.435	5075
844.571	5079
844.708	5166
844.844	5364
844.98	5292
845.117	5303
845.253	5197
845.389	5075
845.525	5166
845.661	5181
845.798	5033
845.934	5166
846.07	5060
846.206	5197
846.342	5277
846.478	5170
846.614	5067
846.75	4972
846.886	4911
847.022	5155
847.158	5045
847.294	5037
847.429	5083
847.565	5064
847.701	5379
847.837	4870
847.972	4816
848.108	4976
848.244	4968
848.379	4809
848.515	4748
848.65	4710
848.786	4733
848.921	4786
849.057	4866
849.192	4930
849.328	4774
849.463	4881
849.598	4763
849.734	4748
849.869	4668
850.004	4664
850.14	4656
850.275	4607
850.41	4531
850.545	4550
850.68	4561
850.815	4634
850.95	4634
851.085	4847
851.22	4786
851.355	4683
851.49	4622
851.625	4672
851.76	4660
851.895	4550
852.03	4580
852.165	4649
852.299	4748
852.434	4744
852.569	4755
852.703	4831
852.838	4858
852.973	4953
853.107	4923
853.242	4748
853.376	4744
853.511	4554
853.645	4630
853.78	4774
853.914	4679
854.048	4592
854.183	4634
854.317	4725
854.451	4843
854.585	4626
854.72	4679
854.854	4778
854.988	4618
855.122	4592
855.256	4519
855.39	4714
855.524	4767
855.658	4736
855.792	4706
855.926	4748
856.06	4729
856.194	4805
856.327	4694
856.461	4584
856.595	4649
856.729	4630
856.862	4740
856.996	4691
857.13	4714
857.263	4774
857.397	4801
857.53	4653
857.664	4786
857.797	4767
857.931	4801
858.064	4714
858.197	4755
858.331	4645
858.464	4615
858.597	4519
858.731	4645
858.864	4634
858.997	4622
859.13	4672
859.263	4698
859.396	4660
859.529	4596
859.662	4645
859.795	4580
859.928	4558
860.061	4812
860.194	4801
860.327	4641
860.46	4599
860.592	4702
860.725	4714
860.858	4755
860.99	4596
861.123	4554
861.256	4500
861.388	4649
861.521	5387
861.653	4504
861.786	4402
861.918	4493
862.05	4573
862.183	4584
862.315	4607
862.447	4656
862.58	4554
862.712	4436
862.844	4360
862.976	4466
863.108	4443
863.24	4908
863.372	4310
863.504	4421
863.636	4424
863.768	4500
863.9	4409
864.032	4402
864.164	4440
864.296	4481
864.428	4584
864.559	4542
864.691	4569
864.823	4584
864.954	4531
865.086	4569
865.217	4436
865.349	4390
865.48	4451
865.612	4462
865.743	4641
865.875	4443
866.006	4500
866.137	4481
866.269	4428
866.4	4447
866.531	4455
866.662	4436
866.793	4398
866.924	4421
867.055	4504
867.186	4512
867.317	4417
867.448	4421
867.579	4398
867.71	4402
867.841	4383
867.972	4466
868.103	4500
868.233	4470
868.364	4455
868.495	4516
868.625	4717
868.756	4733
868.886	4607
869.017	4634
869.147	4771
869.278	4763
869.408	4679
869.539	4675
869.669	4710
869.799	4675
869.929	4812
870.06	4786
870.19	4995
870.32	4930
870.45	4927
870.58	5037
870.71	5102
870.84	5117
870.97	4949
871.1	4896
871.23	5166
871.36	5155
871.489	5071
871.619	5045
871.749	5094
871.879	5121
872.008	5166
872.138	5109
872.267	4999
872.397	4812
872.526	4809
872.656	4755
872.785	4782
872.915	4949
873.044	5037
873.173	4915
873.303	4984
873.432	4991
873.561	5010
873.69	4904
873.819	4877
873.948	4915
874.077	4889
874.206	4790
874.335	4778
874.464	4885
874.593	5083
874.722	4991
874.851	5105
874.979	5064
875.108	5052
875.237	4965
875.365	4870
875.494	4873
875.623	5025
875.751	4812
875.88	4892
876.008	5006
876.136	5029
876.265	5151
876.393	5330
876.521	5299
876.65	5220
876.778	5201
876.906	5083
877.034	4995
877.162	5018
877.29	5010
877.418	5067
877.546	5071
877.674	5071
877.802	5048
877.93	5033
878.058	4923
878.185	4866
878.313	4999
878.441	4946
878.568	4778
878.696	4839
878.824	4927
878.951	5056
879.079	5147
879.206	5311
879.333	5117
879.461	4995
879.588	5060
879.715	5102
879.842	5227
879.97	5025
880.097	4847
880.224	4752
880.351	4797
880.478	4809
880.605	4809
880.732	4778
880.859	5098
880.986	4904
881.112	4892
881.239	4763
881.366	4748
881.493	4580
881.619	4607
881.746	4698
881.872	4653
881.999	4679
882.125	4717
882.252	4812
882.378	4843
882.505	4972
882.631	4790
882.757	4683
882.883	4744
883.01	4755
883.136	4672
883.262	4649
883.388	4634
883.514	4805
883.64	4862
883.766	4824
883.892	4702
884.018	4729
884.143	4885
884.269	5003
884.395	4721
884.52	4611
884.646	4683
884.772	4580
884.897	4615
885.023	4698
885.148	4771
885.274	4881
885.399	4835
885.524	4740
885.65	4691
885.775	4771
885.9	4710
886.025	4881
886.15	4786
886.275	4736
886.4	4664
886.525	4774
886.65	4702
886.775	4729
886.9	4923
887.025	5067
887.149	4805
887.274	4653
887.399	4615
887.523	4634
887.648	4592
887.773	4546
887.897	4812
888.021	4843
888.146	4653
888.27	4847
888.395	4923
888.519	4797
888.643	4835
888.767	4831
888.891	4641
889.015	4641
889.139	4634
889.263	4626
889.387	4763
889.511	4904
889.635	4870
889.759	4660
889.883	4649
890.006	4748
890.13	4831
890.254	4664
890.377	4721
890.501	4584
890.624	4481
890.748	4675
890.871	4569
890.995	4405
891.118	4371
891.241	4565
891.364	4611
891.488	4630
891.611	4474
891.734	4535
891.857	4618
891.98	4519
892.103	4649
892.226	4615
892.349	4577
892.471	4459
892.594	4561
892.717	4637
892.839	4596
892.962	4622
893.085	4656
893.207	4634
893.33	4470
893.452	4497
893.575	4653
893.697	4618
893.819	4809
893.941	4866
894.064	4759
894.186	4622
894.308	4599
894.43	4691
894.552	4805
894.674	4771
894.796	4565
894.918	4626
895.04	4558
895.161	4740
895.283	4637
895.405	4592
895.526	4675
895.648	4721
895.769	4714
895.891	4729
896.012	4744
896.134	4736
896.255	4668
896.376	4653
896.498	4603
896.619	4660
896.74	4645
896.861	4653
896.982	4968
897.103	5124
897.224	4831
897.345	4755
897.466	4725
897.587	4733
897.708	4835
897.828	4805
897.949	4626
898.07	4535
898.19	4626
898.311	4831
898.431	4622
898.552	4809
898.672	4816
898.792	4812
898.913	4733
899.033	4675
899.153	4531
899.273	4432
899.393	4535
899.513	4535
899.633	4596
899.753	4558
899.873	4497
899.993	4626
900.113	4577
900.232	4577
900.352	4527
900.472	4470
900.591	4424
900.711	4493
900.83	4481
900.95	4615
901.069	4744
901.189	4546
901.308	4375
901.427	4333
901.546	4398
901.665	4440
901.784	4561
901.904	4413
902.023	4306
902.141	4185
902.26	4200
902.379	4314
902.498	4272
902.617	4234
902.735	4333
902.854	4398
902.973	4363
903.091	4234
903.21	4257
903.328	4287
903.446	4299
903.565	4295
903.683	4360
903.801	4314
903.919	4405
904.038	4451
904.156	4356
904.274	4459
904.392	4421
904.51	4436
904.627	4508
904.745	4607
904.863	4637
904.981	4383
905.098	4344
905.216	4398
905.334	4455
905.451	4474
905.569	4440
905.686	4573
905.803	4637
905.921	4424
906.038	4523
906.155	4538
906.272	4451
906.389	4497
906.506	4379
906.623	4436
906.74	4455
906.857	4329
906.974	4424
907.091	4569
907.208	4679
907.324	4580
907.441	4527
907.557	4432
907.674	4363
907.79	4348
907.907	4379
908.023	4546
908.139	4462
908.256	4459
908.372	4516
908.488	4436
908.604	4363
908.72	4329
908.836	4360
908.952	4375
909.068	4432
909.184	4603
909.3	4474
909.415	4634
909.531	4569
909.647	4402
909.762	4390
909.878	4371
909.993	4432
910.108	4417
910.224	4424
910.339	4489
910.454	4447
910.57	4386
910.685	4341
910.8	4626
910.915	4645
911.03	4512
911.145	4348
911.259	4341
911.374	4413
911.489	4310
911.604	4253
911.718	4173
911.833	4257
911.947	4055
912.062	4048
912.176	4219
912.291	4227
912.405	4299
912.519	4489
912.633	4535
912.748	4352
912.862	4314
912.976	4196
913.09	4169
913.204	4166
913.318	4284
913.431	4398
913.545	4417
913.659	4447
913.772	4367
913.886	4234
914	4238
914.113	4398
914.226	4447
914.34	4402
914.453	4306
914.566	4451
914.68	4295
914.793	4356
914.906	4158
915.019	4139
915.132	4097
915.245	4242
915.358	4280
915.47	4310
915.583	4291
915.696	4295
915.809	4470
915.921	4398
916.034	4265
916.146	4314
916.259	4242
916.371	4440
916.483	4390
916.595	4234
916.708	4344
916.82	4310
916.932	4371
917.044	4383
917.156	4383
917.268	4253
917.38	4287
917.491	4276
917.603	4371
917.715	4443
917.826	4474
917.938	4386
918.049	4257
918.161	4394
918.272	4573
918.384	4569
918.495	4455
918.606	4314
918.717	4242
918.828	4402
918.939	4390
919.05	4291
919.161	4337
919.272	4158
919.383	4207
919.494	4447
919.604	4691
919.715	4474
919.826	4329
919.936	4421
920.047	4538
920.157	4504
920.267	4721
920.378	4573
920.488	4508
920.598	4694
920.708	4919
920.818	4763
920.928	4786
921.038	4938
921.148	4927
921.258	4649
921.368	4626
921.477	4516
921.587	4451
921.697	4405
921.806	4519
921.916	4459
922.025	4303
922.134	4272
922.244	4219
922.353	4386
922.462	4204
922.571	4112
922.68	4017
922.789	3998
922.898	4021
923.007	4040
923.116	4128
923.224	4109
923.333	4082
923.442	4006
923.55	3998
923.659	4051
923.767	4131
923.876	3949
923.984	4128
924.092	4002
924.201	4109
924.309	4112
924.417	4173
924.525	4112
924.633	4120
924.741	4919
924.849	3937
924.956	4158
925.064	3968
925.172	3884
925.279	3968
925.387	4040
925.494	4082
925.602	4211
925.709	4192
925.816	4067
925.924	4128
926.031	4284
926.138	4166
926.245	4227
926.352	4112
926.459	4227
926.566	4325
926.673	4200
926.779	4162
926.886	4090
926.993	3953
927.099	3953
927.206	3964
927.312	3949
927.419	4105
927.525	4032
927.631	4109
927.737	3926
927.843	3987
927.95	3835
928.056	3998
928.162	3998
928.267	4093
928.373	4702
928.479	4112
928.585	3869
928.69	3983
928.796	4093
928.901	3972
929.007	3873
929.112	3991
929.218	3983
929.323	3968
929.428	3964
929.533	4143
929.638	3945
929.743	3956
929.848	4059
929.953	4010
930.058	3915
930.163	3819
930.267	3812
930.372	3991
930.477	3797
930.581	4128
930.685	3960
930.79	3869
930.894	3941
930.998	3861
931.103	4048
931.207	3720
931.311	3747
931.415	3671
931.519	3545
931.623	3557
