Data from test_V78500241_2775.txt Node
Date: Fri Mar 25 17:08:17 CST 2022
User: usil
Spectrometer: V785-0024
Trigger mode: 0
Integration Time (sec): 4.000000E-1
Scans to average: 1
Nonlinearity correction enabled: false
Boxcar width: 0
Storing dark spectrum: false
XAxis mode: Wavelengths
Number of Pixels in Spectrum: 1024
>>>>>Begin Spectral Data<<<<<
801.071	7997
801.214	8005
801.356	7852
801.499	7856
801.641	7780
801.783	7845
801.926	7989
802.068	7913
802.211	7944
802.353	8050
802.496	7852
802.638	7955
802.78	7940
802.923	7967
803.065	7864
803.208	7879
803.35	7974
803.492	8054
803.635	8168
803.777	8046
803.919	8149
804.061	8454
804.204	8180
804.346	8077
804.488	7925
804.63	8180
804.773	8001
804.915	8126
805.057	8267
805.199	8130
805.341	8240
805.483	8324
805.626	8195
805.768	8119
805.91	8164
806.052	8183
806.194	8119
806.336	8263
806.478	8123
806.62	8142
806.762	8183
806.904	8240
807.046	8434
807.188	8301
807.33	8313
807.472	8339
807.614	8145
807.756	8126
807.898	7955
808.04	7875
808.182	7944
808.324	7830
808.465	7921
808.607	8103
808.749	8176
808.891	8180
809.033	8320
809.174	8267
809.316	8084
809.458	8035
809.6	8005
809.741	8035
809.883	8035
810.025	8214
810.166	8077
810.308	8031
810.45	8008
810.591	7928
810.733	7693
810.875	7639
811.016	7544
811.158	7499
811.299	7674
811.441	7731
811.582	7666
811.724	7616
811.865	7537
812.007	7677
812.148	7616
812.29	7647
812.431	7807
812.573	7894
812.714	7944
812.855	8168
812.997	8237
813.138	8279
813.279	8172
813.421	8134
813.562	7936
813.703	7852
813.845	7738
813.986	7430
814.127	7259
814.268	7198
814.41	7259
814.551	7179
814.692	7164
814.833	7072
814.974	7076
815.115	7118
815.256	7027
815.397	6928
815.539	6928
815.68	6787
815.821	6764
815.962	6890
816.103	6779
816.244	6753
816.385	6578
816.526	6635
816.666	6521
816.807	6289
816.948	6399
817.089	6517
817.23	6437
817.371	6350
817.512	6308
817.653	6384
817.793	6365
817.934	6433
818.075	6506
818.216	6426
818.356	6353
818.497	6285
818.638	6136
818.778	6152
818.919	6106
819.06	6144
819.2	6315
819.341	6262
819.481	6410
819.622	6513
819.762	6745
819.903	6654
820.043	6578
820.184	6574
820.324	6555
820.465	6734
820.605	6639
820.746	6707
820.886	6528
821.026	6673
821.167	6719
821.307	6734
821.447	6768
821.588	6642
821.728	6589
821.868	6498
822.008	6323
822.149	6372
822.289	6350
822.429	6136
822.569	6076
822.709	6133
822.849	5920
822.99	5863
823.13	5855
823.27	5969
823.41	5748
823.55	5767
823.69	5790
823.83	5786
823.97	5665
824.11	5577
824.25	5535
824.389	5558
824.529	5630
824.669	5520
824.809	5634
824.949	5676
825.089	5619
825.228	5528
825.368	5387
825.508	5357
825.648	5349
825.787	5406
825.927	5345
826.067	5223
826.206	5254
826.346	5376
826.485	5410
826.625	5383
826.765	5558
826.904	5535
827.044	5227
827.183	5178
827.323	5140
827.462	5239
827.601	5170
827.741	5178
827.88	5208
828.02	5033
828.159	5246
828.298	5250
828.437	5357
828.577	5235
828.716	5493
828.855	5322
828.994	5181
829.134	5170
829.273	5201
829.412	5132
829.551	5178
829.69	5147
829.829	5231
829.968	5398
830.107	5239
830.246	5288
830.385	5216
830.524	5132
830.663	5064
830.802	4976
830.941	4892
831.08	4881
831.219	4938
831.357	4934
831.496	5181
831.635	4942
831.774	4839
831.913	4866
832.051	4721
832.19	4729
832.329	4820
832.467	4672
832.606	4622
832.744	4782
832.883	4717
833.022	4687
833.16	4797
833.299	4820
833.437	4831
833.576	4801
833.714	4801
833.852	4831
833.991	4881
834.129	4957
834.267	4942
834.406	4896
834.544	5025
834.682	4957
834.821	4980
834.959	5174
835.097	4968
835.235	5109
835.373	5083
835.511	5071
835.65	5029
835.788	5025
835.926	4835
836.064	4831
836.202	4946
836.34	5170
836.478	5216
836.615	5136
836.753	5181
836.891	5235
837.029	5242
837.167	5174
837.305	5109
837.443	5155
837.58	5025
837.718	5242
837.856	5162
837.993	5181
838.131	5189
838.269	5227
838.406	5193
838.544	5117
838.681	5010
838.819	4980
838.956	4877
839.094	4904
839.231	4946
839.369	5064
839.506	5433
839.643	5242
839.781	5075
839.918	5033
840.055	5079
840.193	5113
840.33	5147
840.467	5155
840.604	5151
840.742	5402
840.879	5052
841.016	5083
841.153	5136
841.29	5376
841.427	5315
841.564	5284
841.701	5353
841.838	5277
841.975	5216
842.112	5220
842.249	5083
842.385	5105
842.522	5299
842.659	5159
842.796	5128
842.933	5212
843.069	5193
843.206	5128
843.343	5307
843.479	5242
843.616	5311
843.752	5056
843.889	5029
844.025	5235
844.162	5033
844.298	5204
844.435	5128
844.571	5086
844.708	5181
844.844	5334
844.98	5299
845.117	5261
845.253	5117
845.389	5083
845.525	5170
845.661	5105
845.798	5018
845.934	5162
846.07	5041
846.206	5140
846.342	5311
846.478	5185
846.614	5022
846.75	4946
846.886	4911
847.022	5117
847.158	5045
847.294	5018
847.429	5105
847.565	5079
847.701	5311
847.837	4831
847.972	4790
848.108	4919
848.244	4938
848.379	4797
848.515	4710
848.65	4729
848.786	4759
848.921	4771
849.057	4858
849.192	4896
849.328	4847
849.463	4816
849.598	4774
849.734	4744
849.869	4691
850.004	4607
850.14	4668
850.275	4603
850.41	4523
850.545	4535
850.68	4618
850.815	4649
850.95	4649
851.085	4820
851.22	4759
851.355	4641
851.49	4611
851.625	4618
851.76	4618
851.895	4554
852.03	4546
852.165	4656
852.299	4729
852.434	4767
852.569	4771
852.703	4744
852.838	4843
852.973	4930
853.107	4892
853.242	4736
853.376	4637
853.511	4592
853.645	4660
853.78	4831
853.914	4672
854.048	4691
854.183	4596
854.317	4691
854.451	4812
854.585	4675
854.72	4637
854.854	4744
854.988	4592
855.122	4641
855.256	4512
855.39	4675
855.524	4733
855.658	4729
855.792	4683
855.926	4683
856.06	4740
856.194	4790
856.327	4721
856.461	4577
856.595	4630
856.729	4645
856.862	4778
856.996	4710
857.13	4702
857.263	4752
857.397	4839
857.53	4630
857.664	4755
857.797	4744
857.931	4767
858.064	4660
858.197	4771
858.331	4683
858.464	4565
858.597	4584
858.731	4626
858.864	4611
858.997	4607
859.13	4687
859.263	4664
859.396	4675
859.529	4565
859.662	4546
859.795	4538
859.928	4569
860.061	4763
860.194	4790
860.327	4634
860.46	4542
860.592	4691
860.725	4767
860.858	4694
860.99	4577
861.123	4580
861.256	4516
861.388	4615
861.521	5265
861.653	4519
861.786	4421
861.918	4455
862.05	4516
862.183	4550
862.315	4558
862.447	4637
862.58	4542
862.712	4383
862.844	4329
862.976	4512
863.108	4451
863.24	4774
863.372	4348
863.504	4451
863.636	4421
863.768	4447
863.9	4432
864.032	4386
864.164	4432
864.296	4485
864.428	4550
864.559	4546
864.691	4603
864.823	4516
864.954	4485
865.086	4535
865.217	4436
865.349	4443
865.48	4481
865.612	4500
865.743	4618
865.875	4527
866.006	4428
866.137	4497
866.269	4421
866.4	4417
866.531	4474
866.662	4398
866.793	4405
866.924	4459
867.055	4489
867.186	4447
867.317	4462
867.448	4402
867.579	4398
867.71	4417
867.841	4352
867.972	4451
868.103	4383
868.233	4443
868.364	4500
868.495	4455
868.625	4626
868.756	4763
868.886	4584
869.017	4637
869.147	4774
869.278	4763
869.408	4687
869.539	4615
869.669	4675
869.799	4668
869.929	4740
870.06	4702
870.19	4949
870.32	4908
870.45	4911
870.58	5025
870.71	5102
870.84	5113
870.97	4972
871.1	4919
871.23	5105
871.36	5140
871.489	4949
871.619	5075
871.749	5124
871.879	5128
872.008	5159
872.138	5052
872.267	4984
872.397	4850
872.526	4782
872.656	4763
872.785	4786
872.915	4942
873.044	4984
873.173	4961
873.303	4957
873.432	4858
873.561	5006
873.69	4828
873.819	4828
873.948	4877
874.077	4816
874.206	4748
874.335	4828
874.464	4911
874.593	5067
874.722	4930
874.851	5105
874.979	5079
875.108	5048
875.237	4923
875.365	4858
875.494	4911
875.623	4961
875.751	4816
875.88	4877
876.008	4957
876.136	5037
876.265	5246
876.393	5296
876.521	5204
876.65	5265
876.778	5170
876.906	5102
877.034	5018
877.162	5064
877.29	4965
877.418	5052
877.546	5109
877.674	5048
877.802	5029
877.93	5010
878.058	4915
878.185	4904
878.313	4949
878.441	4949
878.568	4793
878.696	4820
878.824	4965
878.951	4980
879.079	5140
879.206	5318
879.333	5105
879.461	5041
879.588	4957
879.715	5128
879.842	5212
879.97	5006
880.097	4759
880.224	4759
880.351	4752
880.478	4816
880.605	4763
880.732	4809
880.859	5075
880.986	4889
881.112	4942
881.239	4771
881.366	4649
881.493	4596
881.619	4565
881.746	4645
881.872	4611
881.999	4672
882.125	4683
882.252	4790
882.378	4816
882.505	4968
882.631	4820
882.757	4687
882.883	4706
883.01	4740
883.136	4683
883.262	4618
883.388	4649
883.514	4812
883.64	4904
883.766	4790
883.892	4679
884.018	4725
884.143	4923
884.269	5029
884.395	4687
884.52	4649
884.646	4679
884.772	4603
884.897	4561
885.023	4618
885.148	4778
885.274	4828
885.399	4790
885.524	4717
885.65	4668
885.775	4717
885.9	4714
886.025	4858
886.15	4793
886.275	4706
886.4	4649
886.525	4771
886.65	4721
886.775	4710
886.9	4896
887.025	5010
887.149	4797
887.274	4668
887.399	4554
887.523	4615
887.648	4500
887.773	4580
887.897	4801
888.021	4755
888.146	4668
888.27	4809
888.395	4892
888.519	4740
888.643	4858
888.767	4805
888.891	4668
889.015	4580
889.139	4675
889.263	4611
889.387	4763
889.511	4839
889.635	4786
889.759	4615
889.883	4618
890.006	4721
890.13	4801
890.254	4637
890.377	4653
890.501	4550
890.624	4489
890.748	4611
890.871	4523
890.995	4443
891.118	4398
891.241	4497
891.364	4504
891.488	4611
891.611	4489
891.734	4538
891.857	4599
891.98	4546
892.103	4641
892.226	4535
892.349	4523
892.471	4443
892.594	4535
892.717	4622
892.839	4573
892.962	4577
893.085	4656
893.207	4599
893.33	4405
893.452	4542
893.575	4645
893.697	4588
893.819	4763
893.941	4847
894.064	4763
894.186	4592
894.308	4573
894.43	4729
894.552	4801
894.674	4771
894.796	4535
894.918	4592
895.04	4542
895.161	4672
895.283	4611
895.405	4573
895.526	4637
895.648	4691
895.769	4645
895.891	4736
896.012	4717
896.134	4729
896.255	4675
896.376	4634
896.498	4577
896.619	4672
896.74	4599
896.861	4611
896.982	4911
897.103	5064
897.224	4820
897.345	4706
897.466	4668
897.587	4717
897.708	4904
897.828	4752
897.949	4668
898.07	4531
898.19	4645
898.311	4839
898.431	4656
898.552	4736
898.672	4805
898.792	4744
898.913	4706
899.033	4618
899.153	4478
899.273	4424
899.393	4504
899.513	4508
899.633	4531
899.753	4519
899.873	4538
899.993	4569
900.113	4546
900.232	4565
900.352	4542
900.472	4489
900.591	4405
900.711	4447
900.83	4421
900.95	4592
901.069	4687
901.189	4558
901.308	4383
901.427	4325
901.546	4371
901.665	4459
901.784	4500
901.904	4402
902.023	4344
902.141	4158
902.26	4207
902.379	4325
902.498	4253
902.617	4185
902.735	4394
902.854	4329
902.973	4367
903.091	4181
903.21	4219
903.328	4287
903.446	4246
903.565	4253
903.683	4417
903.801	4287
903.919	4386
904.038	4405
904.156	4337
904.274	4421
904.392	4398
904.51	4417
904.627	4440
904.745	4596
904.863	4656
904.981	4402
905.098	4333
905.216	4352
905.334	4421
905.451	4428
905.569	4432
905.686	4504
905.803	4596
905.921	4485
906.038	4565
906.155	4531
906.272	4398
906.389	4451
906.506	4367
906.623	4405
906.74	4371
906.857	4329
906.974	4325
907.091	4577
907.208	4691
907.324	4550
907.441	4493
907.557	4337
907.674	4356
907.79	4295
907.907	4386
908.023	4455
908.139	4455
908.256	4413
908.372	4512
908.488	4493
908.604	4310
908.72	4322
908.836	4390
908.952	4371
909.068	4432
909.184	4512
909.3	4497
909.415	4558
909.531	4546
909.647	4394
909.762	4371
909.878	4306
909.993	4474
910.108	4394
910.224	4428
910.339	4436
910.454	4394
910.57	4367
910.685	4306
910.8	4656
910.915	4577
911.03	4493
911.145	4303
911.259	4257
911.374	4356
911.489	4310
911.604	4272
911.718	4204
911.833	4166
911.947	4067
912.062	4025
912.176	4219
912.291	4276
912.405	4219
912.519	4440
912.633	4516
912.748	4363
912.862	4299
912.976	4173
913.09	4097
913.204	4154
913.318	4234
913.431	4356
913.545	4371
913.659	4466
913.772	4367
913.886	4196
914	4246
914.113	4363
914.226	4447
914.34	4405
914.453	4238
914.566	4424
914.68	4337
914.793	4276
914.906	4177
915.019	4128
915.132	4071
915.245	4158
915.358	4177
915.47	4207
915.583	4268
915.696	4276
915.809	4367
915.921	4440
916.034	4265
916.146	4219
916.259	4211
916.371	4367
916.483	4348
916.595	4219
916.708	4303
916.82	4314
916.932	4344
917.044	4276
917.156	4325
917.268	4227
917.38	4284
917.491	4261
917.603	4337
917.715	4402
917.826	4432
917.938	4325
918.049	4227
918.161	4394
918.272	4550
918.384	4550
918.495	4421
918.606	4261
918.717	4211
918.828	4344
918.939	4360
919.05	4211
919.161	4318
919.272	4162
919.383	4181
919.494	4428
919.604	4580
919.715	4398
919.826	4379
919.936	4402
920.047	4481
920.157	4523
920.267	4668
920.378	4538
920.488	4527
920.598	4736
920.708	4923
920.818	4752
920.928	4744
921.038	4946
921.148	4873
921.258	4687
921.368	4611
921.477	4519
921.587	4493
921.697	4379
921.806	4542
921.916	4478
922.025	4333
922.134	4284
922.244	4238
922.353	4310
922.462	4173
922.571	4162
922.68	4044
922.789	4017
922.898	4025
923.007	4021
923.116	4158
923.224	4131
923.333	4135
923.442	4032
923.55	3987
923.659	4071
923.767	4143
923.876	4067
923.984	4188
924.092	4025
924.201	4116
924.309	4139
924.417	4158
924.525	4051
924.633	4154
924.741	4892
924.849	4002
924.956	4181
925.064	3953
925.172	3915
925.279	3968
925.387	4090
925.494	4120
925.602	4284
925.709	4211
925.816	4093
925.924	4234
926.031	4238
926.138	4227
926.245	4276
926.352	4074
926.459	4287
926.566	4344
926.673	4238
926.779	4150
926.886	4105
926.993	3983
927.099	3975
927.206	3934
927.312	3964
927.419	4090
927.525	4135
927.631	4124
927.737	4021
927.843	4002
927.95	3857
928.056	3930
928.162	4013
928.267	4071
928.373	4706
928.479	4177
928.585	3964
928.69	4029
928.796	4082
928.901	4002
929.007	3899
929.112	4002
929.218	4006
929.323	3994
929.428	3964
929.533	4124
929.638	3918
929.743	3979
929.848	4078
929.953	4071
930.058	3998
930.163	3827
930.267	3880
930.372	3983
930.477	3842
930.581	4162
930.685	3949
930.79	3838
930.894	3956
930.998	3884
931.103	4082
931.207	3740
931.311	3717
931.415	3713
931.519	3591
931.623	3584
