Data from test_V78500241_2348.txt Node
Date: Fri Mar 25 17:05:19 CST 2022
User: usil
Spectrometer: V785-0024
Trigger mode: 0
Integration Time (sec): 4.000000E-1
Scans to average: 1
Nonlinearity correction enabled: false
Boxcar width: 0
Storing dark spectrum: false
XAxis mode: Wavelengths
Number of Pixels in Spectrum: 1024
>>>>>Begin Spectral Data<<<<<
801.071	8020
801.214	7951
801.356	7814
801.499	7803
801.641	7746
801.783	7811
801.926	8001
802.068	7944
802.211	7940
802.353	7940
802.496	7871
802.638	7826
802.78	7951
802.923	7963
803.065	7792
803.208	7932
803.35	7963
803.492	8039
803.635	8126
803.777	8001
803.919	8115
804.061	8400
804.204	8107
804.346	8043
804.488	7932
804.63	8092
804.773	7951
804.915	8035
805.057	8252
805.199	8145
805.341	8161
805.483	8263
805.626	8199
805.768	8161
805.91	8153
806.052	8126
806.194	8039
806.336	8225
806.478	8065
806.62	8088
806.762	8130
806.904	8271
807.046	8442
807.188	8336
807.33	8313
807.472	8252
807.614	8180
807.756	8176
807.898	8035
808.04	7856
808.182	7860
808.324	7894
808.465	7928
808.607	8039
808.749	8161
808.891	8206
809.033	8240
809.174	8225
809.316	8039
809.458	7989
809.6	7974
809.741	8001
809.883	8024
810.025	8111
810.166	7967
810.308	8024
810.45	7986
810.591	7814
810.733	7719
810.875	7647
811.016	7548
811.158	7445
811.299	7525
811.441	7719
811.582	7677
811.724	7559
811.865	7472
812.007	7586
812.148	7491
812.29	7605
812.431	7723
812.573	7818
812.714	7967
812.855	8130
812.997	8187
813.138	8328
813.279	8084
813.421	8084
813.562	7993
813.703	7803
813.845	7719
813.986	7457
814.127	7278
814.268	7152
814.41	7225
814.551	7171
814.692	7251
814.833	7027
814.974	6966
815.115	7122
815.256	7000
815.397	6920
815.539	6973
815.68	6814
815.821	6741
815.962	6897
816.103	6833
816.244	6783
816.385	6604
816.526	6582
816.666	6517
816.807	6376
816.948	6422
817.089	6441
817.23	6452
817.371	6372
817.512	6342
817.653	6384
817.793	6422
817.934	6418
818.075	6475
818.216	6376
818.356	6414
818.497	6243
818.638	6083
818.778	6163
818.919	6129
819.06	6175
819.2	6350
819.341	6342
819.481	6399
819.622	6525
819.762	6745
819.903	6673
820.043	6597
820.184	6620
820.324	6608
820.465	6715
820.605	6677
820.746	6692
820.886	6528
821.026	6692
821.167	6665
821.307	6798
821.447	6779
821.588	6684
821.728	6566
821.868	6433
822.008	6285
822.149	6388
822.289	6350
822.429	6152
822.569	6041
822.709	6068
822.849	5912
822.99	5863
823.13	5870
823.27	5984
823.41	5775
823.55	5794
823.69	5722
823.83	5741
823.97	5657
824.11	5501
824.25	5471
824.389	5520
824.529	5535
824.669	5520
824.809	5619
824.949	5638
825.089	5604
825.228	5547
825.368	5387
825.508	5322
825.648	5322
825.787	5315
825.927	5398
826.067	5273
826.206	5288
826.346	5364
826.485	5357
826.625	5360
826.765	5596
826.904	5490
827.044	5261
827.183	5181
827.323	5147
827.462	5235
827.601	5162
827.741	5231
827.88	5235
828.02	5109
828.159	5284
828.298	5334
828.437	5387
828.577	5311
828.716	5528
828.855	5349
828.994	5197
829.134	5166
829.273	5220
829.412	5162
829.551	5159
829.69	5098
829.829	5303
829.968	5417
830.107	5296
830.246	5280
830.385	5246
830.524	5162
830.663	5102
830.802	4991
830.941	4972
831.08	4946
831.219	4999
831.357	5022
831.496	5208
831.635	5006
831.774	4892
831.913	4968
832.051	4782
832.19	4793
832.329	4839
832.467	4736
832.606	4702
832.744	4759
832.883	4759
833.022	4759
833.16	4843
833.299	4843
833.437	4835
833.576	4881
833.714	4850
833.852	4911
833.991	4927
834.129	5041
834.267	4953
834.406	4991
834.544	4953
834.682	4984
834.821	5003
834.959	5189
835.097	5033
835.235	5140
835.373	5124
835.511	5105
835.65	5102
835.788	5048
835.926	4881
836.064	4919
836.202	4965
836.34	5212
836.478	5261
836.615	5143
836.753	5208
836.891	5330
837.029	5299
837.167	5258
837.305	5178
837.443	5227
837.58	5155
837.718	5284
837.856	5239
837.993	5189
838.131	5239
838.269	5239
838.406	5204
838.544	5201
838.681	5109
838.819	5048
838.956	4942
839.094	4927
839.231	5025
839.369	5136
839.506	5467
839.643	5273
839.781	5079
839.918	5052
840.055	5113
840.193	5140
840.33	5155
840.467	5159
840.604	5242
840.742	5467
840.879	5064
841.016	5189
841.153	5193
841.29	5421
841.427	5398
841.564	5357
841.701	5421
841.838	5258
841.975	5311
842.112	5322
842.249	5178
842.385	5109
842.522	5357
842.659	5204
842.796	5166
842.933	5269
843.069	5147
843.206	5223
843.343	5307
843.479	5231
843.616	5341
843.752	5067
843.889	5090
844.025	5258
844.162	5056
844.298	5277
844.435	5117
844.571	5094
844.708	5261
844.844	5311
844.98	5360
845.117	5395
845.253	5143
845.389	5124
845.525	5181
845.661	5181
845.798	5094
845.934	5170
846.07	5064
846.206	5216
846.342	5372
846.478	5201
846.614	5079
846.75	5003
846.886	4949
847.022	5162
847.158	5079
847.294	5098
847.429	5113
847.565	5029
847.701	5337
847.837	4850
847.972	4828
848.108	4984
848.244	4911
848.379	4828
848.515	4809
848.65	4759
848.786	4816
848.921	4778
849.057	4930
849.192	4904
849.328	4850
849.463	4862
849.598	4828
849.734	4767
849.869	4748
850.004	4653
850.14	4679
850.275	4645
850.41	4561
850.545	4573
850.68	4611
850.815	4649
850.95	4656
851.085	4843
851.22	4778
851.355	4702
851.49	4603
851.625	4687
851.76	4653
851.895	4580
852.03	4615
852.165	4630
852.299	4748
852.434	4793
852.569	4759
852.703	4820
852.838	4873
852.973	4957
853.107	4911
853.242	4793
853.376	4714
853.511	4603
853.645	4611
853.78	4881
853.914	4725
854.048	4706
854.183	4641
854.317	4717
854.451	4881
854.585	4675
854.72	4672
854.854	4820
854.988	4630
855.122	4653
855.256	4535
855.39	4649
855.524	4782
855.658	4706
855.792	4672
855.926	4729
856.06	4733
856.194	4866
856.327	4721
856.461	4672
856.595	4641
856.729	4717
856.862	4786
856.996	4736
857.13	4733
857.263	4797
857.397	4877
857.53	4645
857.664	4752
857.797	4831
857.931	4820
858.064	4687
858.197	4778
858.331	4683
858.464	4656
858.597	4516
858.731	4668
858.864	4691
858.997	4637
859.13	4630
859.263	4649
859.396	4714
859.529	4637
859.662	4615
859.795	4565
859.928	4675
860.061	4793
860.194	4805
860.327	4622
860.46	4565
860.592	4725
860.725	4763
860.858	4752
860.99	4641
861.123	4504
861.256	4550
861.388	4641
861.521	5269
861.653	4554
861.786	4455
861.918	4451
862.05	4580
862.183	4573
862.315	4626
862.447	4691
862.58	4577
862.712	4455
862.844	4352
862.976	4508
863.108	4512
863.24	4881
863.372	4318
863.504	4466
863.636	4402
863.768	4512
863.9	4493
864.032	4386
864.164	4432
864.296	4481
864.428	4603
864.559	4599
864.691	4508
864.823	4580
864.954	4516
865.086	4500
865.217	4481
865.349	4417
865.48	4497
865.612	4519
865.743	4645
865.875	4527
866.006	4459
866.137	4500
866.269	4485
866.4	4474
866.531	4421
866.662	4390
866.793	4466
866.924	4443
867.055	4516
867.186	4481
867.317	4481
867.448	4417
867.579	4432
867.71	4405
867.841	4413
867.972	4535
868.103	4485
868.233	4417
868.364	4440
868.495	4523
868.625	4694
868.756	4793
868.886	4546
869.017	4622
869.147	4763
869.278	4763
869.408	4698
869.539	4694
869.669	4729
869.799	4706
869.929	4782
870.06	4755
870.19	4934
870.32	4930
870.45	4892
870.58	5075
870.71	5155
870.84	5151
870.97	4999
871.1	4870
871.23	5128
871.36	5155
871.489	5052
871.619	5117
871.749	5086
871.879	5159
872.008	5239
872.138	5124
872.267	5041
872.397	4828
872.526	4847
872.656	4740
872.785	4858
872.915	4915
873.044	5041
873.173	5003
873.303	5022
873.432	4961
873.561	4930
873.69	4904
873.819	4873
873.948	4968
874.077	4854
874.206	4759
874.335	4835
874.464	4968
874.593	5090
874.722	5033
874.851	5159
874.979	5064
875.108	5045
875.237	4927
875.365	4900
875.494	4904
875.623	4999
875.751	4835
875.88	4915
876.008	5025
876.136	5079
876.265	5223
876.393	5387
876.521	5231
876.65	5239
876.778	5185
876.906	5075
877.034	5033
877.162	5094
877.29	5056
877.418	5102
877.546	5045
877.674	5060
877.802	5098
877.93	5056
878.058	4991
878.185	4892
878.313	5022
878.441	4968
878.568	4790
878.696	4896
878.824	4976
878.951	5071
879.079	5159
879.206	5292
879.333	5128
879.461	5109
879.588	4987
879.715	5162
879.842	5277
879.97	4987
880.097	4790
880.224	4786
880.351	4839
880.478	4881
880.605	4854
880.732	4790
880.859	5147
880.986	4896
881.112	4927
881.239	4854
881.366	4691
881.493	4618
881.619	4618
881.746	4637
881.872	4611
881.999	4687
882.125	4782
882.252	4858
882.378	4866
882.505	5014
882.631	4816
882.757	4649
882.883	4752
883.01	4725
883.136	4683
883.262	4599
883.388	4626
883.514	4824
883.64	4870
883.766	4812
883.892	4714
884.018	4755
884.143	4934
884.269	4980
884.395	4717
884.52	4626
884.646	4675
884.772	4611
884.897	4622
885.023	4645
885.148	4835
885.274	4896
885.399	4862
885.524	4698
885.65	4733
885.775	4763
885.9	4782
886.025	4919
886.15	4774
886.275	4725
886.4	4634
886.525	4774
886.65	4752
886.775	4683
886.9	4942
887.025	5098
887.149	4790
887.274	4687
887.399	4630
887.523	4630
887.648	4607
887.773	4649
887.897	4759
888.021	4854
888.146	4717
888.27	4835
888.395	4953
888.519	4839
888.643	4854
888.767	4877
888.891	4672
889.015	4603
889.139	4679
889.263	4626
889.387	4748
889.511	4866
889.635	4790
889.759	4637
889.883	4698
890.006	4778
890.13	4797
890.254	4645
890.377	4675
890.501	4580
890.624	4565
890.748	4668
890.871	4519
890.995	4474
891.118	4428
891.241	4542
891.364	4519
891.488	4672
891.611	4497
891.734	4554
891.857	4634
891.98	4599
892.103	4679
892.226	4599
892.349	4508
892.471	4440
892.594	4538
892.717	4603
892.839	4588
892.962	4618
893.085	4668
893.207	4626
893.33	4455
893.452	4569
893.575	4641
893.697	4641
893.819	4843
893.941	4862
894.064	4801
894.186	4607
894.308	4584
894.43	4733
894.552	4858
894.674	4740
894.796	4485
894.918	4607
895.04	4577
895.161	4740
895.283	4694
895.405	4615
895.526	4687
895.648	4740
895.769	4706
895.891	4759
896.012	4736
896.134	4763
896.255	4672
896.376	4664
896.498	4607
896.619	4691
896.74	4672
896.861	4649
896.982	4896
897.103	5052
897.224	4797
897.345	4763
897.466	4649
897.587	4725
897.708	4854
897.828	4801
897.949	4717
898.07	4561
898.19	4660
898.311	4809
898.431	4683
898.552	4744
898.672	4835
898.792	4786
898.913	4736
899.033	4656
899.153	4558
899.273	4481
899.393	4516
899.513	4485
899.633	4519
899.753	4546
899.873	4462
899.993	4599
900.113	4561
900.232	4603
900.352	4565
900.472	4512
900.591	4443
900.711	4519
900.83	4413
900.95	4596
901.069	4672
901.189	4592
901.308	4352
901.427	4333
901.546	4375
901.665	4519
901.784	4538
901.904	4428
902.023	4322
902.141	4219
902.26	4234
902.379	4284
902.498	4280
902.617	4227
902.735	4360
902.854	4348
902.973	4363
903.091	4242
903.21	4177
903.328	4276
903.446	4325
903.565	4303
903.683	4375
903.801	4246
903.919	4375
904.038	4417
904.156	4295
904.274	4451
904.392	4455
904.51	4466
904.627	4508
904.745	4584
904.863	4672
904.981	4402
905.098	4268
905.216	4352
905.334	4421
905.451	4428
905.569	4428
905.686	4596
905.803	4538
905.921	4383
906.038	4592
906.155	4519
906.272	4402
906.389	4474
906.506	4329
906.623	4348
906.74	4428
906.857	4306
906.974	4394
907.091	4592
907.208	4672
907.324	4584
907.441	4493
907.557	4318
907.674	4341
907.79	4352
907.907	4398
908.023	4440
908.139	4478
908.256	4447
908.372	4481
908.488	4447
908.604	4398
908.72	4322
908.836	4344
908.952	4383
909.068	4440
909.184	4561
909.3	4500
909.415	4596
909.531	4554
909.647	4371
909.762	4360
909.878	4325
909.993	4436
910.108	4424
910.224	4424
910.339	4462
910.454	4459
910.57	4379
910.685	4310
910.8	4683
910.915	4592
911.03	4485
911.145	4337
911.259	4363
911.374	4363
911.489	4303
911.604	4287
911.718	4177
911.833	4188
911.947	4093
912.062	4044
912.176	4227
912.291	4257
912.405	4306
912.519	4470
912.633	4470
912.748	4405
912.862	4295
912.976	4230
913.09	4105
913.204	4185
913.318	4280
913.431	4367
913.545	4379
913.659	4474
913.772	4371
913.886	4268
914	4238
914.113	4371
914.226	4447
914.34	4409
914.453	4249
914.566	4447
914.68	4329
914.793	4287
914.906	4177
915.019	4112
915.132	4097
915.245	4204
915.358	4177
915.47	4234
915.583	4284
915.696	4299
915.809	4409
915.921	4413
916.034	4253
916.146	4200
916.259	4246
916.371	4402
916.483	4379
916.595	4223
916.708	4333
916.82	4314
916.932	4322
917.044	4303
917.156	4329
917.268	4207
917.38	4257
917.491	4299
917.603	4341
917.715	4421
917.826	4417
917.938	4409
918.049	4253
918.161	4398
918.272	4523
918.384	4573
918.495	4516
918.606	4299
918.717	4238
918.828	4356
918.939	4367
919.05	4287
919.161	4337
919.272	4109
919.383	4211
919.494	4424
919.604	4626
919.715	4413
919.826	4394
919.936	4417
920.047	4516
920.157	4527
920.267	4721
920.378	4569
920.488	4508
920.598	4675
920.708	4915
920.818	4755
920.928	4771
921.038	4911
921.148	4908
921.258	4645
921.368	4550
921.477	4455
921.587	4569
921.697	4386
921.806	4542
921.916	4440
922.025	4246
922.134	4257
922.244	4276
922.353	4322
922.462	4150
922.571	4090
922.68	4021
922.789	3983
922.898	4032
923.007	3987
923.116	4109
923.224	4051
923.333	4090
923.442	4036
923.55	4017
923.659	4036
923.767	4093
923.876	3975
923.984	4154
924.092	3994
924.201	4082
924.309	4051
924.417	4120
924.525	4044
924.633	4082
924.741	5067
924.849	3956
924.956	4112
925.064	3979
925.172	3880
925.279	3960
925.387	4071
925.494	4059
925.602	4200
925.709	4207
925.816	4059
925.924	4131
926.031	4211
926.138	4143
926.245	4185
926.352	4128
926.459	4249
926.566	4284
926.673	4105
926.779	4071
926.886	4074
926.993	3991
927.099	3960
927.206	3964
927.312	3964
927.419	4059
927.525	4006
927.631	4078
927.737	3964
927.843	3960
927.95	3823
928.056	3998
928.162	3972
928.267	4051
928.373	4588
928.479	4150
928.585	3876
928.69	4010
928.796	4109
928.901	3987
929.007	3789
929.112	3983
929.218	4006
929.323	3972
929.428	3945
929.533	4139
929.638	3960
929.743	3945
929.848	4036
929.953	3983
930.058	3903
930.163	3812
930.267	3823
930.372	3956
930.477	3808
930.581	4090
930.685	3983
930.79	3835
930.894	3835
930.998	3869
931.103	4029
931.207	3709
931.311	3701
931.415	3709
931.519	3515
931.623	3515
