Data from test_V78500241_2680.txt Node
Date: Fri Mar 25 17:07:38 CST 2022
User: usil
Spectrometer: V785-0024
Trigger mode: 0
Integration Time (sec): 4.000000E-1
Scans to average: 1
Nonlinearity correction enabled: false
Boxcar width: 0
Storing dark spectrum: false
XAxis mode: Wavelengths
Number of Pixels in Spectrum: 1024
>>>>>Begin Spectral Data<<<<<
801.071	8058
801.214	7993
801.356	7871
801.499	7845
801.641	7769
801.783	7845
801.926	8005
802.068	7947
802.211	7986
802.353	7940
802.496	7902
802.638	7883
802.78	7890
802.923	7906
803.065	7894
803.208	7864
803.35	7963
803.492	8100
803.635	8191
803.777	8005
803.919	8161
804.061	8442
804.204	8153
804.346	8062
804.488	7989
804.63	8123
804.773	7963
804.915	8107
805.057	8305
805.199	8134
805.341	8123
805.483	8267
805.626	8176
805.768	8161
805.91	8210
806.052	8157
806.194	8077
806.336	8279
806.478	8100
806.62	8016
806.762	8126
806.904	8214
807.046	8454
807.188	8336
807.33	8309
807.472	8282
807.614	8172
807.756	8107
807.898	8012
808.04	7909
808.182	7841
808.324	7822
808.465	7879
808.607	8119
808.749	8088
808.891	8301
809.033	8191
809.174	8218
809.316	8062
809.458	8024
809.6	7997
809.741	8005
809.883	8031
810.025	8065
810.166	8065
810.308	7989
810.45	8012
810.591	7875
810.733	7712
810.875	7689
811.016	7457
811.158	7449
811.299	7506
811.441	7658
811.582	7639
811.724	7548
811.865	7506
812.007	7586
812.148	7647
812.29	7624
812.431	7734
812.573	7830
812.714	7963
812.855	8130
812.997	8233
813.138	8244
813.279	8180
813.421	8145
813.562	8008
813.703	7852
813.845	7803
813.986	7377
814.127	7270
814.268	7236
814.41	7213
814.551	7160
814.692	7221
814.833	7050
814.974	7084
815.115	7076
815.256	6901
815.397	6962
815.539	6958
815.68	6829
815.821	6760
815.962	6856
816.103	6856
816.244	6722
816.385	6612
816.526	6585
816.666	6532
816.807	6342
816.948	6403
817.089	6502
817.23	6494
817.371	6369
817.512	6445
817.653	6338
817.793	6410
817.934	6467
818.075	6471
818.216	6464
818.356	6353
818.497	6273
818.638	6152
818.778	6205
818.919	6167
819.06	6197
819.2	6300
819.341	6346
819.481	6357
819.622	6563
819.762	6772
819.903	6692
820.043	6665
820.184	6646
820.324	6593
820.465	6730
820.605	6730
820.746	6749
820.886	6589
821.026	6703
821.167	6764
821.307	6814
821.447	6783
821.588	6688
821.728	6616
821.868	6483
822.008	6372
822.149	6410
822.289	6403
822.429	6258
822.569	6140
822.709	6106
822.849	5927
822.99	5931
823.13	6003
823.27	5950
823.41	5851
823.55	5840
823.69	5786
823.83	5870
823.97	5756
824.11	5547
824.25	5608
824.389	5570
824.529	5623
824.669	5585
824.809	5703
824.949	5714
825.089	5661
825.228	5547
825.368	5440
825.508	5436
825.648	5398
825.787	5364
825.927	5376
826.067	5360
826.206	5318
826.346	5436
826.485	5421
826.625	5463
826.765	5657
826.904	5493
827.044	5337
827.183	5250
827.323	5140
827.462	5277
827.601	5155
827.741	5193
827.88	5322
828.02	5159
828.159	5280
828.298	5292
828.437	5425
828.577	5296
828.716	5520
828.855	5307
828.994	5178
829.134	5193
829.273	5227
829.412	5201
829.551	5193
829.69	5166
829.829	5303
829.968	5387
830.107	5311
830.246	5357
830.385	5204
830.524	5204
830.663	5109
830.802	4976
830.941	4923
831.08	4892
831.219	5071
831.357	5018
831.496	5212
831.635	5006
831.774	4866
831.913	4877
832.051	4771
832.19	4778
832.329	4892
832.467	4748
832.606	4706
832.744	4748
832.883	4778
833.022	4752
833.16	4862
833.299	4801
833.437	4870
833.576	4854
833.714	4858
833.852	4889
833.991	4911
834.129	4980
834.267	5029
834.406	4934
834.544	5056
834.682	4999
834.821	4953
834.959	5178
835.097	5048
835.235	5128
835.373	5155
835.511	5151
835.65	5041
835.788	5067
835.926	4927
836.064	4885
836.202	4953
836.34	5178
836.478	5261
836.615	5174
836.753	5197
836.891	5284
837.029	5269
837.167	5273
837.305	5143
837.443	5140
837.58	5117
837.718	5258
837.856	5242
837.993	5208
838.131	5185
838.269	5269
838.406	5223
838.544	5242
838.681	5060
838.819	5037
838.956	4892
839.094	4976
839.231	5075
839.369	5109
839.506	5436
839.643	5280
839.781	5132
839.918	5037
840.055	5159
840.193	5094
840.33	5086
840.467	5140
840.604	5174
840.742	5478
840.879	5067
841.016	5147
841.153	5162
841.29	5452
841.427	5376
841.564	5372
841.701	5360
841.838	5349
841.975	5231
842.112	5296
842.249	5159
842.385	5113
842.522	5345
842.659	5178
842.796	5216
842.933	5220
843.069	5159
843.206	5155
843.343	5341
843.479	5284
843.616	5292
843.752	5086
843.889	5029
844.025	5220
844.162	5029
844.298	5220
844.435	5109
844.571	5060
844.708	5155
844.844	5277
844.98	5364
845.117	5315
845.253	5143
845.389	5140
845.525	5181
845.661	5178
845.798	5056
845.934	5143
846.07	5086
846.206	5189
846.342	5299
846.478	5227
846.614	5010
846.75	5067
846.886	4957
847.022	5136
847.158	4976
847.294	5064
847.429	5162
847.565	5086
847.701	5296
847.837	4873
847.972	4885
848.108	4968
848.244	4957
848.379	4767
848.515	4752
848.65	4736
848.786	4786
848.921	4820
849.057	4862
849.192	4885
849.328	4778
849.463	4896
849.598	4839
849.734	4767
849.869	4759
850.004	4683
850.14	4660
850.275	4679
850.41	4565
850.545	4588
850.68	4668
850.815	4641
850.95	4634
851.085	4831
851.22	4782
851.355	4687
851.49	4649
851.625	4596
851.76	4645
851.895	4622
852.03	4558
852.165	4683
852.299	4755
852.434	4835
852.569	4771
852.703	4820
852.838	4854
852.973	4984
853.107	4930
853.242	4752
853.376	4683
853.511	4599
853.645	4653
853.78	4797
853.914	4755
854.048	4721
854.183	4660
854.317	4759
854.451	4919
854.585	4721
854.72	4637
854.854	4786
854.988	4653
855.122	4664
855.256	4573
855.39	4714
855.524	4755
855.658	4767
855.792	4694
855.926	4763
856.06	4801
856.194	4763
856.327	4683
856.461	4588
856.595	4588
856.729	4653
856.862	4824
856.996	4721
857.13	4763
857.263	4786
857.397	4843
857.53	4656
857.664	4793
857.797	4786
857.931	4805
858.064	4736
858.197	4759
858.331	4706
858.464	4618
858.597	4607
858.731	4649
858.864	4660
858.997	4596
859.13	4683
859.263	4710
859.396	4714
859.529	4607
859.662	4558
859.795	4558
859.928	4687
860.061	4771
860.194	4778
860.327	4675
860.46	4611
860.592	4714
860.725	4744
860.858	4725
860.99	4611
861.123	4561
861.256	4550
861.388	4626
861.521	5379
861.653	4508
861.786	4516
861.918	4478
862.05	4561
862.183	4519
862.315	4626
862.447	4634
862.58	4611
862.712	4443
862.844	4348
862.976	4447
863.108	4489
863.24	4793
863.372	4341
863.504	4470
863.636	4440
863.768	4466
863.9	4474
864.032	4386
864.164	4432
864.296	4478
864.428	4599
864.559	4592
864.691	4565
864.823	4512
864.954	4504
865.086	4516
865.217	4474
865.349	4436
865.48	4466
865.612	4485
865.743	4653
865.875	4508
866.006	4451
866.137	4519
866.269	4485
866.4	4409
866.531	4447
866.662	4417
866.793	4459
866.924	4428
867.055	4516
867.186	4428
867.317	4462
867.448	4451
867.579	4474
867.71	4447
867.841	4356
867.972	4466
868.103	4493
868.233	4447
868.364	4455
868.495	4542
868.625	4717
868.756	4752
868.886	4622
869.017	4660
869.147	4759
869.278	4774
869.408	4679
869.539	4675
869.669	4748
869.799	4637
869.929	4774
870.06	4717
870.19	4980
870.32	4892
870.45	5003
870.58	4972
870.71	5094
870.84	5102
870.97	4942
871.1	4858
871.23	5159
871.36	5174
871.489	5041
871.619	5060
871.749	5098
871.879	5136
872.008	5185
872.138	5075
872.267	5003
872.397	4873
872.526	4805
872.656	4744
872.785	4839
872.915	4995
873.044	5102
873.173	4919
873.303	5029
873.432	4968
873.561	5010
873.69	4900
873.819	4885
873.948	4946
874.077	4820
874.206	4778
874.335	4782
874.464	4949
874.593	5090
874.722	4946
874.851	5098
874.979	5045
875.108	5022
875.237	4942
875.365	4949
875.494	4915
875.623	4976
875.751	4850
875.88	4900
876.008	4968
876.136	5105
876.265	5239
876.393	5379
876.521	5212
876.65	5208
876.778	5170
876.906	5094
877.034	5060
877.162	5090
877.29	4976
877.418	5071
877.546	5022
877.674	5075
877.802	5098
877.93	5003
878.058	4972
878.185	4896
878.313	4965
878.441	4938
878.568	4816
878.696	4839
878.824	4942
878.951	4999
879.079	5170
879.206	5357
879.333	5117
879.461	5018
879.588	5033
879.715	5124
879.842	5193
879.97	5018
880.097	4831
880.224	4752
880.351	4793
880.478	4881
880.605	4858
880.732	4809
880.859	5071
880.986	4904
881.112	4904
881.239	4820
881.366	4664
881.493	4630
881.619	4622
881.746	4596
881.872	4683
881.999	4683
882.125	4679
882.252	4847
882.378	4854
882.505	4934
882.631	4790
882.757	4664
882.883	4729
883.01	4725
883.136	4668
883.262	4630
883.388	4706
883.514	4847
883.64	4885
883.766	4828
883.892	4725
884.018	4698
884.143	4904
884.269	5041
884.395	4740
884.52	4706
884.646	4615
884.772	4588
884.897	4546
885.023	4649
885.148	4850
885.274	4839
885.399	4782
885.524	4740
885.65	4736
885.775	4801
885.9	4679
886.025	4850
886.15	4755
886.275	4714
886.4	4656
886.525	4748
886.65	4714
886.775	4755
886.9	4892
887.025	5045
887.149	4797
887.274	4656
887.399	4599
887.523	4584
887.648	4607
887.773	4569
887.897	4786
888.021	4809
888.146	4706
888.27	4771
888.395	4904
888.519	4854
888.643	4831
888.767	4797
888.891	4736
889.015	4622
889.139	4675
889.263	4626
889.387	4740
889.511	4908
889.635	4763
889.759	4641
889.883	4603
890.006	4748
890.13	4835
890.254	4649
890.377	4691
890.501	4561
890.624	4554
890.748	4634
890.871	4527
890.995	4447
891.118	4428
891.241	4519
891.364	4542
891.488	4641
891.611	4546
891.734	4535
891.857	4561
891.98	4626
892.103	4649
892.226	4569
892.349	4474
892.471	4375
892.594	4569
892.717	4599
892.839	4626
892.962	4565
893.085	4660
893.207	4588
893.33	4455
893.452	4577
893.575	4596
893.697	4592
893.819	4786
893.941	4835
894.064	4793
894.186	4626
894.308	4588
894.43	4752
894.552	4771
894.674	4759
894.796	4573
894.918	4641
895.04	4664
895.161	4733
895.283	4656
895.405	4588
895.526	4645
895.648	4714
895.769	4744
895.891	4736
896.012	4736
896.134	4744
896.255	4675
896.376	4622
896.498	4637
896.619	4717
896.74	4649
896.861	4626
896.982	4938
897.103	5052
897.224	4805
897.345	4744
897.466	4675
897.587	4706
897.708	4889
897.828	4793
897.949	4714
898.07	4611
898.19	4618
898.311	4809
898.431	4679
898.552	4759
898.672	4801
898.792	4847
898.913	4752
899.033	4683
899.153	4535
899.273	4428
899.393	4493
899.513	4561
899.633	4538
899.753	4546
899.873	4531
899.993	4565
900.113	4512
900.232	4618
900.352	4558
900.472	4466
900.591	4386
900.711	4508
900.83	4421
900.95	4653
901.069	4626
901.189	4561
901.308	4375
901.427	4390
901.546	4386
901.665	4485
901.784	4531
901.904	4424
902.023	4329
902.141	4219
902.26	4196
902.379	4295
902.498	4265
902.617	4234
902.735	4421
902.854	4394
902.973	4356
903.091	4211
903.21	4211
903.328	4265
903.446	4253
903.565	4249
903.683	4379
903.801	4295
903.919	4405
904.038	4443
904.156	4356
904.274	4447
904.392	4386
904.51	4447
904.627	4462
904.745	4577
904.863	4656
904.981	4394
905.098	4314
905.216	4371
905.334	4436
905.451	4413
905.569	4409
905.686	4523
905.803	4592
905.921	4417
906.038	4558
906.155	4489
906.272	4390
906.389	4447
906.506	4325
906.623	4379
906.74	4417
906.857	4318
906.974	4424
907.091	4573
907.208	4653
907.324	4599
907.441	4542
907.557	4341
907.674	4367
907.79	4291
907.907	4421
908.023	4489
908.139	4493
908.256	4394
908.372	4542
908.488	4421
908.604	4363
908.72	4280
908.836	4375
908.952	4329
909.068	4462
909.184	4569
909.3	4504
909.415	4588
909.531	4558
909.647	4333
909.762	4390
909.878	4325
909.993	4413
910.108	4440
910.224	4413
910.339	4497
910.454	4421
910.57	4352
910.685	4287
910.8	4649
910.915	4588
911.03	4512
911.145	4344
911.259	4352
911.374	4398
911.489	4329
911.604	4261
911.718	4112
911.833	4204
911.947	4109
912.062	4044
912.176	4249
912.291	4238
912.405	4211
912.519	4413
912.633	4550
912.748	4371
912.862	4329
912.976	4215
913.09	4090
913.204	4139
913.318	4227
913.431	4405
913.545	4383
913.659	4440
913.772	4337
913.886	4280
914	4207
914.113	4356
914.226	4436
914.34	4409
914.453	4242
914.566	4386
914.68	4318
914.793	4322
914.906	4185
915.019	4143
915.132	4074
915.245	4196
915.358	4246
915.47	4246
915.583	4268
915.696	4268
915.809	4421
915.921	4421
916.034	4280
916.146	4287
916.259	4257
916.371	4428
916.483	4337
916.595	4276
916.708	4344
916.82	4379
916.932	4284
917.044	4341
917.156	4379
917.268	4242
917.38	4287
917.491	4261
917.603	4402
917.715	4405
917.826	4405
917.938	4341
918.049	4249
918.161	4386
918.272	4554
918.384	4554
918.495	4459
918.606	4310
918.717	4246
918.828	4402
918.939	4379
919.05	4257
919.161	4325
919.272	4147
919.383	4227
919.494	4447
919.604	4615
919.715	4428
919.826	4337
919.936	4375
920.047	4519
920.157	4523
920.267	4698
920.378	4550
920.488	4580
920.598	4668
920.708	4911
920.818	4771
920.928	4759
921.038	4968
921.148	4953
921.258	4683
921.368	4516
921.477	4500
921.587	4485
921.697	4371
921.806	4538
921.916	4459
922.025	4242
922.134	4223
922.244	4207
922.353	4363
922.462	4169
922.571	4105
922.68	4032
922.789	3983
922.898	4036
923.007	3991
923.116	4082
923.224	4051
923.333	4078
923.442	3975
923.55	3972
923.659	4078
923.767	4105
923.876	3979
923.984	4097
924.092	4040
924.201	4135
924.309	4093
924.417	4097
924.525	4063
924.633	4135
924.741	5033
924.849	3922
924.956	4082
925.064	3972
925.172	3922
925.279	3934
925.387	4051
925.494	4044
925.602	4185
925.709	4177
925.816	4059
925.924	4109
926.031	4215
926.138	4173
926.245	4230
926.352	4067
926.459	4268
926.566	4261
926.673	4173
926.779	4090
926.886	4116
926.993	3968
927.099	3994
927.206	3964
927.312	3888
927.419	4067
927.525	4029
927.631	4116
927.737	3949
927.843	4013
927.95	3857
928.056	3941
928.162	4036
928.267	4040
928.373	4603
928.479	4097
928.585	3869
928.69	3987
928.796	4055
928.901	3964
929.007	3880
929.112	3979
929.218	3964
929.323	3880
929.428	3960
929.533	4090
929.638	3918
929.743	3953
929.848	4048
929.953	4002
930.058	3975
930.163	3781
930.267	3800
930.372	4010
930.477	3842
930.581	4082
930.685	3930
930.79	3823
930.894	3899
930.998	3835
931.103	4048
931.207	3736
931.311	3671
931.415	3660
931.519	3553
931.623	3538
