Data from test_V78500241_1865.txt Node
Date: Fri Mar 25 17:01:58 CST 2022
User: usil
Spectrometer: V785-0024
Trigger mode: 0
Integration Time (sec): 4.000000E-1
Scans to average: 1
Nonlinearity correction enabled: false
Boxcar width: 0
Storing dark spectrum: false
XAxis mode: Wavelengths
Number of Pixels in Spectrum: 1024
>>>>>Begin Spectral Data<<<<<
801.071	8016
801.214	8016
801.356	7921
801.499	7860
801.641	7818
801.783	7833
801.926	7993
802.068	7906
802.211	7989
802.353	8008
802.496	7860
802.638	7856
802.78	7868
802.923	7967
803.065	7928
803.208	7830
803.35	7959
803.492	8084
803.635	8187
803.777	8005
803.919	8107
804.061	8480
804.204	8210
804.346	8050
804.488	8001
804.63	8142
804.773	7944
804.915	8130
805.057	8320
805.199	8180
805.341	8187
805.483	8282
805.626	8191
805.768	8138
805.91	8183
806.052	8240
806.194	8164
806.336	8290
806.478	8103
806.62	8020
806.762	8092
806.904	8237
807.046	8545
807.188	8374
807.33	8347
807.472	8328
807.614	8123
807.756	8111
807.898	7993
808.04	7993
808.182	7967
808.324	7860
808.465	7940
808.607	8111
808.749	8126
808.891	8221
809.033	8336
809.174	8202
809.316	8119
809.458	8054
809.6	7955
809.741	8081
809.883	8016
810.025	8115
810.166	8096
810.308	8058
810.45	7978
810.591	7837
810.733	7788
810.875	7693
811.016	7460
811.158	7464
811.299	7556
811.441	7727
811.582	7681
811.724	7624
811.865	7578
812.007	7632
812.148	7628
812.29	7685
812.431	7811
812.573	7986
812.714	8008
812.855	8123
812.997	8286
813.138	8343
813.279	8229
813.421	8062
813.562	7989
813.703	7772
813.845	7769
813.986	7422
814.127	7240
814.268	7198
814.41	7247
814.551	7198
814.692	7285
814.833	7065
814.974	7129
815.115	7042
815.256	6996
815.397	6939
815.539	6951
815.68	6741
815.821	6798
815.962	6840
816.103	6848
816.244	6688
816.385	6623
816.526	6635
816.666	6486
816.807	6319
816.948	6460
817.089	6445
817.23	6426
817.371	6429
817.512	6407
817.653	6384
817.793	6369
817.934	6460
818.075	6429
818.216	6414
818.356	6380
818.497	6273
818.638	6121
818.778	6163
818.919	6152
819.06	6205
819.2	6281
819.341	6350
819.481	6327
819.622	6551
819.762	6757
819.903	6692
820.043	6574
820.184	6551
820.324	6574
820.465	6707
820.605	6715
820.746	6677
820.886	6547
821.026	6665
821.167	6681
821.307	6787
821.447	6772
821.588	6650
821.728	6555
821.868	6502
822.008	6296
822.149	6399
822.289	6357
822.429	6194
822.569	6072
822.709	6117
822.849	5904
822.99	5889
823.13	5908
823.27	5889
823.41	5771
823.55	5802
823.69	5764
823.83	5824
823.97	5680
824.11	5585
824.25	5474
824.389	5524
824.529	5539
824.669	5509
824.809	5638
824.949	5684
825.089	5554
825.228	5566
825.368	5395
825.508	5315
825.648	5395
825.787	5330
825.927	5391
826.067	5288
826.206	5258
826.346	5368
826.485	5353
826.625	5417
826.765	5512
826.904	5497
827.044	5280
827.183	5246
827.323	5086
827.462	5239
827.601	5204
827.741	5220
827.88	5208
828.02	5075
828.159	5246
828.298	5311
828.437	5357
828.577	5330
828.716	5490
828.855	5345
828.994	5155
829.134	5132
829.273	5235
829.412	5124
829.551	5185
829.69	5166
829.829	5258
829.968	5360
830.107	5261
830.246	5284
830.385	5189
830.524	5079
830.663	5102
830.802	4984
830.941	4896
831.08	4873
831.219	5014
831.357	4995
831.496	5143
831.635	4972
831.774	4889
831.913	4847
832.051	4714
832.19	4816
832.329	4870
832.467	4672
832.606	4675
832.744	4736
832.883	4763
833.022	4694
833.16	4721
833.299	4828
833.437	4828
833.576	4847
833.714	4847
833.852	4881
833.991	4889
834.129	4934
834.267	4946
834.406	4911
834.544	4976
834.682	4957
834.821	4995
834.959	5140
835.097	5037
835.235	5159
835.373	5075
835.511	5143
835.65	5029
835.788	5003
835.926	4908
836.064	4873
836.202	4915
836.34	5128
836.478	5269
836.615	5147
836.753	5197
836.891	5258
837.029	5246
837.167	5193
837.305	5117
837.443	5155
837.58	5056
837.718	5284
837.856	5178
837.993	5151
838.131	5227
838.269	5220
838.406	5242
838.544	5212
838.681	5041
838.819	4991
838.956	4915
839.094	4908
839.231	5018
839.369	5064
839.506	5429
839.643	5269
839.781	5022
839.918	4995
840.055	5041
840.193	5090
840.33	5079
840.467	5121
840.604	5189
840.742	5402
840.879	5128
841.016	5102
841.153	5124
841.29	5360
841.427	5326
841.564	5330
841.701	5349
841.838	5261
841.975	5273
842.112	5250
842.249	5162
842.385	5117
842.522	5337
842.659	5162
842.796	5079
842.933	5193
843.069	5143
843.206	5178
843.343	5288
843.479	5216
843.616	5208
843.752	5048
843.889	4984
844.025	5212
844.162	4995
844.298	5246
844.435	5105
844.571	5029
844.708	5159
844.844	5277
844.98	5360
845.117	5242
845.253	5170
845.389	5094
845.525	5151
845.661	5117
845.798	5022
845.934	5155
846.07	5056
846.206	5197
846.342	5315
846.478	5155
846.614	4999
846.75	5014
846.886	4904
847.022	5086
847.158	5010
847.294	5056
847.429	5155
847.565	5029
847.701	5322
847.837	4858
847.972	4793
848.108	4961
848.244	4923
848.379	4790
848.515	4767
848.65	4679
848.786	4744
848.921	4778
849.057	4889
849.192	4862
849.328	4790
849.463	4828
849.598	4790
849.734	4759
849.869	4691
850.004	4637
850.14	4710
850.275	4596
850.41	4508
850.545	4535
850.68	4599
850.815	4641
850.95	4634
851.085	4870
851.22	4702
851.355	4626
851.49	4615
851.625	4672
851.76	4603
851.895	4569
852.03	4535
852.165	4687
852.299	4721
852.434	4774
852.569	4752
852.703	4755
852.838	4915
852.973	4972
853.107	4949
853.242	4736
853.376	4649
853.511	4535
853.645	4596
853.78	4774
853.914	4660
854.048	4672
854.183	4634
854.317	4702
854.451	4839
854.585	4660
854.72	4626
854.854	4744
854.988	4611
855.122	4645
855.256	4538
855.39	4698
855.524	4812
855.658	4725
855.792	4733
855.926	4744
856.06	4797
856.194	4763
856.327	4698
856.461	4603
856.595	4634
856.729	4630
856.862	4736
856.996	4664
857.13	4714
857.263	4755
857.397	4771
857.53	4679
857.664	4687
857.797	4714
857.931	4790
858.064	4691
858.197	4790
858.331	4630
858.464	4618
858.597	4546
858.731	4637
858.864	4706
858.997	4592
859.13	4626
859.263	4698
859.396	4710
859.529	4561
859.662	4618
859.795	4565
859.928	4634
860.061	4736
860.194	4759
860.327	4618
860.46	4527
860.592	4714
860.725	4653
860.858	4740
860.99	4611
861.123	4561
861.256	4538
861.388	4637
861.521	5330
861.653	4443
861.786	4398
861.918	4402
862.05	4512
862.183	4497
862.315	4630
862.447	4660
862.58	4554
862.712	4371
862.844	4295
862.976	4519
863.108	4451
863.24	4870
863.372	4333
863.504	4390
863.636	4383
863.768	4459
863.9	4424
864.032	4402
864.164	4405
864.296	4417
864.428	4554
864.559	4561
864.691	4527
864.823	4489
864.954	4497
865.086	4478
865.217	4432
865.349	4405
865.48	4462
865.612	4474
865.743	4634
865.875	4519
866.006	4447
866.137	4413
866.269	4447
866.4	4402
866.531	4462
866.662	4386
866.793	4402
866.924	4379
867.055	4432
867.186	4455
867.317	4421
867.448	4356
867.579	4375
867.71	4390
867.841	4360
867.972	4470
868.103	4443
868.233	4455
868.364	4417
868.495	4474
868.625	4672
868.756	4759
868.886	4554
869.017	4637
869.147	4717
869.278	4767
869.408	4660
869.539	4622
869.669	4710
869.799	4687
869.929	4744
870.06	4778
870.19	4984
870.32	4908
870.45	4923
870.58	5018
870.71	5041
870.84	5102
870.97	4968
871.1	4847
871.23	5140
871.36	5121
871.489	5086
871.619	5045
871.749	5071
871.879	5090
872.008	5174
872.138	5041
872.267	4968
872.397	4824
872.526	4805
872.656	4717
872.785	4824
872.915	4938
873.044	5006
873.173	4957
873.303	4949
873.432	4957
873.561	4976
873.69	4870
873.819	4854
873.948	4896
874.077	4839
874.206	4752
874.335	4797
874.464	4946
874.593	5064
874.722	4923
874.851	5086
874.979	5056
875.108	4965
875.237	4877
875.365	4866
875.494	4866
875.623	4946
875.751	4870
875.88	4847
876.008	4949
876.136	5022
876.265	5201
876.393	5303
876.521	5197
876.65	5185
876.778	5162
876.906	5090
877.034	5060
877.162	5018
877.29	5010
877.418	5052
877.546	5052
877.674	5052
877.802	5075
877.93	5014
878.058	4949
878.185	4839
878.313	4919
878.441	4957
878.568	4793
878.696	4816
878.824	4934
878.951	5025
879.079	5124
879.206	5258
879.333	5105
879.461	4980
879.588	5014
879.715	5098
879.842	5231
879.97	5018
880.097	4771
880.224	4793
880.351	4839
880.478	4831
880.605	4831
880.732	4767
880.859	5113
880.986	4889
881.112	4896
881.239	4782
881.366	4675
881.493	4641
881.619	4596
881.746	4573
881.872	4683
881.999	4634
882.125	4660
882.252	4786
882.378	4820
882.505	4919
882.631	4793
882.757	4672
882.883	4733
883.01	4740
883.136	4664
883.262	4538
883.388	4615
883.514	4763
883.64	4824
883.766	4812
883.892	4706
884.018	4710
884.143	4873
884.269	5022
884.395	4694
884.52	4641
884.646	4630
884.772	4546
884.897	4580
885.023	4645
885.148	4801
885.274	4843
885.399	4812
885.524	4733
885.65	4736
885.775	4759
885.9	4714
886.025	4854
886.15	4759
886.275	4740
886.4	4656
886.525	4752
886.65	4694
886.775	4664
886.9	4892
887.025	5018
887.149	4774
887.274	4687
887.399	4554
887.523	4626
887.648	4588
887.773	4660
887.897	4744
888.021	4805
888.146	4641
888.27	4797
888.395	4896
888.519	4786
888.643	4835
888.767	4812
888.891	4717
889.015	4596
889.139	4599
889.263	4584
889.387	4771
889.511	4828
889.635	4831
889.759	4622
889.883	4675
890.006	4736
890.13	4812
890.254	4607
890.377	4645
890.501	4478
890.624	4531
890.748	4615
890.871	4546
890.995	4489
891.118	4409
891.241	4504
891.364	4500
891.488	4626
891.611	4519
891.734	4519
891.857	4569
891.98	4554
892.103	4596
892.226	4607
892.349	4519
892.471	4440
892.594	4542
892.717	4599
892.839	4577
892.962	4615
893.085	4679
893.207	4554
893.33	4485
893.452	4554
893.575	4641
893.697	4508
893.819	4774
893.941	4850
894.064	4706
894.186	4607
894.308	4561
894.43	4771
894.552	4790
894.674	4752
894.796	4546
894.918	4538
895.04	4584
895.161	4645
895.283	4641
895.405	4573
895.526	4649
895.648	4710
895.769	4668
895.891	4645
896.012	4710
896.134	4729
896.255	4653
896.376	4622
896.498	4618
896.619	4672
896.74	4626
896.861	4668
896.982	4870
897.103	5037
897.224	4786
897.345	4744
897.466	4683
897.587	4778
897.708	4828
897.828	4797
897.949	4660
898.07	4550
898.19	4618
898.311	4797
898.431	4637
898.552	4714
898.672	4790
898.792	4812
898.913	4755
899.033	4660
899.153	4485
899.273	4443
899.393	4497
899.513	4516
899.633	4554
899.753	4573
899.873	4531
899.993	4565
900.113	4512
900.232	4592
900.352	4542
900.472	4459
900.591	4409
900.711	4497
900.83	4409
900.95	4611
901.069	4694
901.189	4565
901.308	4379
901.427	4306
901.546	4367
901.665	4455
901.784	4455
901.904	4379
902.023	4295
902.141	4169
902.26	4169
902.379	4314
902.498	4227
902.617	4261
902.735	4390
902.854	4398
902.973	4394
903.091	4154
903.21	4242
903.328	4341
903.446	4287
903.565	4329
903.683	4299
903.801	4268
903.919	4386
904.038	4459
904.156	4322
904.274	4405
904.392	4413
904.51	4413
904.627	4459
904.745	4565
904.863	4607
904.981	4436
905.098	4261
905.216	4383
905.334	4394
905.451	4421
905.569	4405
905.686	4542
905.803	4535
905.921	4402
906.038	4516
906.155	4466
906.272	4421
906.389	4500
906.506	4379
906.623	4413
906.74	4394
906.857	4287
906.974	4363
907.091	4535
907.208	4675
907.324	4607
907.441	4485
907.557	4371
907.674	4318
907.79	4284
907.907	4329
908.023	4462
908.139	4451
908.256	4447
908.372	4455
908.488	4440
908.604	4348
908.72	4329
908.836	4367
908.952	4390
909.068	4470
909.184	4558
909.3	4478
909.415	4569
909.531	4603
909.647	4352
909.762	4432
909.878	4318
909.993	4421
910.108	4440
910.224	4386
910.339	4451
910.454	4386
910.57	4348
910.685	4322
910.8	4626
910.915	4599
911.03	4527
911.145	4348
911.259	4379
911.374	4333
911.489	4318
911.604	4253
911.718	4166
911.833	4230
911.947	4082
912.062	4040
912.176	4207
912.291	4268
912.405	4261
912.519	4428
912.633	4519
912.748	4360
912.862	4303
912.976	4207
913.09	4082
913.204	4211
913.318	4230
913.431	4352
913.545	4367
913.659	4402
913.772	4383
913.886	4253
914	4215
914.113	4379
914.226	4470
914.34	4325
914.453	4249
914.566	4432
914.68	4356
914.793	4310
914.906	4143
915.019	4128
915.132	4032
915.245	4192
915.358	4215
915.47	4230
915.583	4291
915.696	4276
915.809	4383
915.921	4379
916.034	4230
916.146	4238
916.259	4227
916.371	4367
916.483	4409
916.595	4284
916.708	4303
916.82	4280
916.932	4344
917.044	4344
917.156	4329
917.268	4211
917.38	4253
917.491	4257
917.603	4303
917.715	4428
917.826	4424
917.938	4356
918.049	4204
918.161	4360
918.272	4531
918.384	4512
918.495	4455
918.606	4242
918.717	4249
918.828	4352
918.939	4341
919.05	4200
919.161	4356
919.272	4166
919.383	4204
919.494	4440
919.604	4611
919.715	4470
919.826	4341
919.936	4356
920.047	4504
920.157	4512
920.267	4683
920.378	4531
920.488	4500
920.598	4748
920.708	4915
920.818	4786
920.928	4774
921.038	4911
921.148	4889
921.258	4664
921.368	4554
921.477	4500
921.587	4462
921.697	4322
921.806	4584
921.916	4436
922.025	4287
922.134	4261
922.244	4227
922.353	4303
922.462	4154
922.571	4128
922.68	4006
922.789	3987
922.898	4071
923.007	3994
923.116	4051
923.224	4105
923.333	4067
923.442	3987
923.55	3945
923.659	4032
923.767	4059
923.876	4010
923.984	4112
924.092	3998
924.201	4139
924.309	4063
924.417	4135
924.525	4032
924.633	4082
924.741	5022
924.849	3945
924.956	4135
925.064	3918
925.172	3922
925.279	3941
925.387	4071
925.494	4063
925.602	4227
925.709	4204
925.816	4067
925.924	4112
926.031	4261
926.138	4196
926.245	4223
926.352	4082
926.459	4234
926.566	4333
926.673	4173
926.779	4051
926.886	4105
926.993	3953
927.099	3975
927.206	3953
927.312	3979
927.419	4017
927.525	3979
927.631	4097
927.737	3968
927.843	3949
927.95	3797
928.056	3941
928.162	3983
928.267	4071
928.373	4558
928.479	4101
928.585	3869
928.69	4051
928.796	4090
928.901	3956
929.007	3846
929.112	3994
929.218	3983
929.323	3968
929.428	3922
929.533	4093
929.638	3907
929.743	3972
929.848	4036
929.953	4002
930.058	3941
930.163	3766
930.267	3831
930.372	3964
930.477	3800
930.581	4059
930.685	3915
930.79	3800
930.894	3892
930.998	3888
931.103	4048
931.207	3740
931.311	3690
931.415	3656
931.519	3492
931.623	3515
