Data from test_V78500241_2656.txt Node
Date: Fri Mar 25 17:07:28 CST 2022
User: usil
Spectrometer: V785-0024
Trigger mode: 0
Integration Time (sec): 4.000000E-1
Scans to average: 1
Nonlinearity correction enabled: false
Boxcar width: 0
Storing dark spectrum: false
XAxis mode: Wavelengths
Number of Pixels in Spectrum: 1024
>>>>>Begin Spectral Data<<<<<
801.071	8020
801.214	8054
801.356	7833
801.499	7864
801.641	7753
801.783	7807
801.926	7913
802.068	7906
802.211	7909
802.353	7963
802.496	7856
802.638	7887
802.78	7928
802.923	7925
803.065	7902
803.208	7776
803.35	7951
803.492	8130
803.635	8130
803.777	7974
803.919	8153
804.061	8377
804.204	8164
804.346	7997
804.488	7887
804.63	8062
804.773	7925
804.915	8100
805.057	8324
805.199	8065
805.341	8214
805.483	8271
805.626	8263
805.768	8172
805.91	8233
806.052	8176
806.194	8046
806.336	8328
806.478	8058
806.62	8058
806.762	8077
806.904	8279
807.046	8465
807.188	8347
807.33	8324
807.472	8282
807.614	8111
807.756	8103
807.898	7989
808.04	7875
808.182	7890
808.324	7799
808.465	7928
808.607	8107
808.749	8062
808.891	8195
809.033	8279
809.174	8195
809.316	8084
809.458	8039
809.6	7974
809.741	8050
809.883	7997
810.025	8039
810.166	8073
810.308	7932
810.45	7963
810.591	7856
810.733	7658
810.875	7628
811.016	7544
811.158	7449
811.299	7586
811.441	7765
811.582	7681
811.724	7609
811.865	7480
812.007	7620
812.148	7639
812.29	7651
812.431	7723
812.573	7849
812.714	7925
812.855	8161
812.997	8183
813.138	8275
813.279	8240
813.421	8039
813.562	8020
813.703	7875
813.845	7723
813.986	7419
814.127	7285
814.268	7247
814.41	7149
814.551	7118
814.692	7198
814.833	7107
814.974	7129
815.115	7114
815.256	6962
815.397	6970
815.539	6947
815.68	6818
815.821	6802
815.962	6905
816.103	6795
816.244	6631
816.385	6620
816.526	6616
816.666	6483
816.807	6342
816.948	6441
817.089	6441
817.23	6426
817.371	6414
817.512	6395
817.653	6403
817.793	6353
817.934	6418
818.075	6467
818.216	6350
818.356	6399
818.497	6228
818.638	6106
818.778	6148
818.919	6182
819.06	6133
819.2	6350
819.341	6350
819.481	6456
819.622	6578
819.762	6757
819.903	6745
820.043	6623
820.184	6540
820.324	6623
820.465	6692
820.605	6585
820.746	6662
820.886	6509
821.026	6673
821.167	6711
821.307	6802
821.447	6783
821.588	6681
821.728	6601
821.868	6460
822.008	6327
822.149	6319
822.289	6380
822.429	6148
822.569	6083
822.709	6125
822.849	5927
822.99	5901
823.13	5958
823.27	5923
823.41	5764
823.55	5783
823.69	5779
823.83	5771
823.97	5695
824.11	5490
824.25	5516
824.389	5532
824.529	5592
824.669	5532
824.809	5630
824.949	5680
825.089	5630
825.228	5562
825.368	5364
825.508	5372
825.648	5360
825.787	5326
825.927	5330
826.067	5296
826.206	5277
826.346	5379
826.485	5417
826.625	5383
826.765	5505
826.904	5459
827.044	5250
827.183	5174
827.323	5117
827.462	5299
827.601	5170
827.741	5227
827.88	5223
828.02	5067
828.159	5246
828.298	5322
828.437	5368
828.577	5273
828.716	5482
828.855	5303
828.994	5204
829.134	5124
829.273	5216
829.412	5147
829.551	5121
829.69	5155
829.829	5235
829.968	5387
830.107	5299
830.246	5318
830.385	5201
830.524	5170
830.663	5136
830.802	4995
830.941	4942
831.08	4873
831.219	4980
831.357	4946
831.496	5185
831.635	4968
831.774	4850
831.913	4904
832.051	4793
832.19	4786
832.329	4850
832.467	4740
832.606	4664
832.744	4736
832.883	4809
833.022	4733
833.16	4835
833.299	4850
833.437	4858
833.576	4896
833.714	4930
833.852	4881
833.991	4923
834.129	4923
834.267	5003
834.406	4892
834.544	5041
834.682	5048
834.821	5033
834.959	5155
835.097	5037
835.235	5159
835.373	5136
835.511	5117
835.65	5067
835.788	5048
835.926	4953
836.064	4934
836.202	4976
836.34	5254
836.478	5299
836.615	5140
836.753	5254
836.891	5330
837.029	5288
837.167	5242
837.305	5208
837.443	5185
837.58	5170
837.718	5239
837.856	5181
837.993	5155
838.131	5220
838.269	5231
838.406	5185
838.544	5231
838.681	5041
838.819	5109
838.956	4965
839.094	4957
839.231	5037
839.369	5094
839.506	5429
839.643	5273
839.781	5086
839.918	5037
840.055	5105
840.193	5178
840.33	5143
840.467	5166
840.604	5212
840.742	5467
840.879	5132
841.016	5128
841.153	5193
841.29	5440
841.427	5357
841.564	5357
841.701	5368
841.838	5280
841.975	5269
842.112	5269
842.249	5147
842.385	5117
842.522	5364
842.659	5231
842.796	5212
842.933	5216
843.069	5155
843.206	5151
843.343	5391
843.479	5326
843.616	5303
843.752	5079
843.889	5060
844.025	5280
844.162	5018
844.298	5235
844.435	5060
844.571	5094
844.708	5201
844.844	5334
844.98	5414
845.117	5357
845.253	5216
845.389	5086
845.525	5216
845.661	5185
845.798	5060
845.934	5193
846.07	5094
846.206	5254
846.342	5318
846.478	5250
846.614	5083
846.75	5067
846.886	4953
847.022	5246
847.158	5098
847.294	5113
847.429	5079
847.565	5056
847.701	5345
847.837	4858
847.972	4809
848.108	4934
848.244	4934
848.379	4809
848.515	4771
848.65	4736
848.786	4714
848.921	4797
849.057	4927
849.192	4919
849.328	4835
849.463	4847
849.598	4816
849.734	4778
849.869	4755
850.004	4668
850.14	4687
850.275	4641
850.41	4554
850.545	4554
850.68	4653
850.815	4660
850.95	4637
851.085	4870
851.22	4774
851.355	4702
851.49	4641
851.625	4626
851.76	4668
851.895	4615
852.03	4573
852.165	4698
852.299	4797
852.434	4843
852.569	4786
852.703	4828
852.838	4850
852.973	4953
853.107	4953
853.242	4733
853.376	4736
853.511	4592
853.645	4679
853.78	4831
853.914	4687
854.048	4717
854.183	4660
854.317	4714
854.451	4866
854.585	4736
854.72	4672
854.854	4839
854.988	4634
855.122	4653
855.256	4561
855.39	4729
855.524	4862
855.658	4740
855.792	4729
855.926	4729
856.06	4782
856.194	4870
856.327	4706
856.461	4660
856.595	4668
856.729	4702
856.862	4809
856.996	4736
857.13	4759
857.263	4809
857.397	4801
857.53	4626
857.664	4778
857.797	4755
857.931	4786
858.064	4755
858.197	4801
858.331	4691
858.464	4649
858.597	4561
858.731	4641
858.864	4641
858.997	4592
859.13	4691
859.263	4660
859.396	4729
859.529	4603
859.662	4558
859.795	4611
859.928	4683
860.061	4763
860.194	4809
860.327	4649
860.46	4542
860.592	4752
860.725	4740
860.858	4721
860.99	4588
861.123	4565
861.256	4531
861.388	4641
861.521	5497
861.653	4512
861.786	4470
861.918	4500
862.05	4535
862.183	4550
862.315	4607
862.447	4641
862.58	4584
862.712	4398
862.844	4341
862.976	4516
863.108	4466
863.24	4797
863.372	4443
863.504	4436
863.636	4440
863.768	4535
863.9	4440
864.032	4383
864.164	4428
864.296	4474
864.428	4592
864.559	4565
864.691	4493
864.823	4527
864.954	4523
865.086	4527
865.217	4443
865.349	4466
865.48	4523
865.612	4527
865.743	4679
865.875	4504
866.006	4474
866.137	4504
866.269	4504
866.4	4512
866.531	4413
866.662	4409
866.793	4459
866.924	4459
867.055	4542
867.186	4474
867.317	4432
867.448	4440
867.579	4443
867.71	4398
867.841	4443
867.972	4535
868.103	4504
868.233	4459
868.364	4443
868.495	4512
868.625	4679
868.756	4793
868.886	4603
869.017	4653
869.147	4824
869.278	4839
869.408	4710
869.539	4698
869.669	4736
869.799	4653
869.929	4801
870.06	4797
870.19	5006
870.32	4942
870.45	5018
870.58	5083
870.71	5140
870.84	5159
870.97	5033
871.1	4927
871.23	5170
871.36	5193
871.489	5045
871.619	5121
871.749	5075
871.879	5159
872.008	5216
872.138	5109
872.267	5010
872.397	4911
872.526	4831
872.656	4771
872.785	4816
872.915	5018
873.044	5094
873.173	4999
873.303	4961
873.432	4961
873.561	4961
873.69	4889
873.819	4850
873.948	4968
874.077	4831
874.206	4755
874.335	4782
874.464	4889
874.593	5083
874.722	4965
874.851	5124
874.979	5079
875.108	5067
875.237	4961
875.365	4896
875.494	4900
875.623	4965
875.751	4850
875.88	4900
876.008	5018
876.136	5109
876.265	5220
876.393	5379
876.521	5284
876.65	5258
876.778	5189
876.906	5083
877.034	5079
877.162	5083
877.29	4976
877.418	5071
877.546	5075
877.674	5037
877.802	5079
877.93	5029
878.058	4980
878.185	4911
878.313	5033
878.441	4934
878.568	4873
878.696	4946
878.824	4987
878.951	5029
879.079	5162
879.206	5299
879.333	5166
879.461	5018
879.588	5037
879.715	5132
879.842	5235
879.97	5064
880.097	4828
880.224	4828
880.351	4828
880.478	4854
880.605	4782
880.732	4801
880.859	5090
880.986	4957
881.112	4881
881.239	4805
881.366	4679
881.493	4668
881.619	4656
881.746	4668
881.872	4653
881.999	4698
882.125	4725
882.252	4839
882.378	4885
882.505	5029
882.631	4816
882.757	4706
882.883	4736
883.01	4714
883.136	4683
883.262	4618
883.388	4672
883.514	4835
883.64	4953
883.766	4812
883.892	4645
884.018	4755
884.143	4919
884.269	5003
884.395	4691
884.52	4603
884.646	4668
884.772	4599
884.897	4573
885.023	4733
885.148	4839
885.274	4896
885.399	4801
885.524	4752
885.65	4774
885.775	4755
885.9	4740
886.025	4854
886.15	4812
886.275	4771
886.4	4675
886.525	4691
886.65	4691
886.775	4744
886.9	4908
887.025	5025
887.149	4835
887.274	4683
887.399	4565
887.523	4630
887.648	4596
887.773	4611
887.897	4782
888.021	4809
888.146	4687
888.27	4862
888.395	4915
888.519	4831
888.643	4850
888.767	4809
888.891	4710
889.015	4656
889.139	4637
889.263	4641
889.387	4744
889.511	4908
889.635	4782
889.759	4660
889.883	4649
890.006	4771
890.13	4862
890.254	4691
890.377	4691
890.501	4580
890.624	4584
890.748	4656
890.871	4565
890.995	4443
891.118	4413
891.241	4538
891.364	4500
891.488	4645
891.611	4508
891.734	4531
891.857	4611
891.98	4580
892.103	4675
892.226	4645
892.349	4554
892.471	4432
892.594	4580
892.717	4599
892.839	4588
892.962	4634
893.085	4702
893.207	4630
893.33	4516
893.452	4577
893.575	4687
893.697	4599
893.819	4790
893.941	4866
894.064	4824
894.186	4634
894.308	4542
894.43	4706
894.552	4866
894.674	4763
894.796	4603
894.918	4615
895.04	4611
895.161	4740
895.283	4683
895.405	4554
895.526	4668
895.648	4664
895.769	4656
895.891	4675
896.012	4744
896.134	4698
896.255	4634
896.376	4668
896.498	4717
896.619	4714
896.74	4630
896.861	4656
896.982	4923
897.103	5037
897.224	4870
897.345	4793
897.466	4656
897.587	4755
897.708	4892
897.828	4805
897.949	4672
898.07	4592
898.19	4656
898.311	4831
898.431	4637
898.552	4797
898.672	4797
898.792	4774
898.913	4820
899.033	4615
899.153	4535
899.273	4443
899.393	4523
899.513	4561
899.633	4519
899.753	4538
899.873	4508
899.993	4607
900.113	4558
900.232	4622
900.352	4565
900.472	4565
900.591	4386
900.711	4512
900.83	4512
900.95	4565
901.069	4687
901.189	4531
901.308	4417
901.427	4360
901.546	4402
901.665	4504
901.784	4519
901.904	4432
902.023	4356
902.141	4238
902.26	4227
902.379	4325
902.498	4272
902.617	4215
902.735	4360
902.854	4398
902.973	4375
903.091	4211
903.21	4211
903.328	4329
903.446	4325
903.565	4276
903.683	4402
903.801	4249
903.919	4413
904.038	4489
904.156	4356
904.274	4462
904.392	4375
904.51	4405
904.627	4504
904.745	4630
904.863	4691
904.981	4417
905.098	4310
905.216	4405
905.334	4466
905.451	4421
905.569	4443
905.686	4580
905.803	4611
905.921	4375
906.038	4554
906.155	4531
906.272	4447
906.389	4455
906.506	4402
906.623	4398
906.74	4398
906.857	4310
906.974	4405
907.091	4561
907.208	4687
907.324	4599
907.441	4531
907.557	4341
907.674	4341
907.79	4325
907.907	4383
908.023	4478
908.139	4493
908.256	4466
908.372	4478
908.488	4481
908.604	4375
908.72	4310
908.836	4417
908.952	4360
909.068	4421
909.184	4561
909.3	4493
909.415	4592
909.531	4550
909.647	4341
909.762	4360
909.878	4303
909.993	4379
910.108	4398
910.224	4451
910.339	4466
910.454	4398
910.57	4375
910.685	4299
910.8	4641
910.915	4592
911.03	4523
911.145	4394
911.259	4291
911.374	4363
911.489	4314
911.604	4314
911.718	4204
911.833	4215
911.947	4086
912.062	4040
912.176	4215
912.291	4268
912.405	4261
912.519	4489
912.633	4527
912.748	4394
912.862	4310
912.976	4196
913.09	4109
913.204	4177
913.318	4261
913.431	4344
913.545	4379
913.659	4455
913.772	4402
913.886	4276
914	4230
914.113	4436
914.226	4421
914.34	4398
914.453	4314
914.566	4470
914.68	4306
914.793	4337
914.906	4147
915.019	4128
915.132	4071
915.245	4219
915.358	4223
915.47	4207
915.583	4253
915.696	4299
915.809	4459
915.921	4428
916.034	4268
916.146	4268
916.259	4215
916.371	4417
916.483	4386
916.595	4261
916.708	4360
916.82	4363
916.932	4318
917.044	4352
917.156	4333
917.268	4234
917.38	4280
917.491	4291
917.603	4344
917.715	4466
917.826	4413
917.938	4375
918.049	4257
918.161	4379
918.272	4546
918.384	4531
918.495	4478
918.606	4299
918.717	4227
918.828	4356
918.939	4341
919.05	4253
919.161	4329
919.272	4135
919.383	4219
919.494	4474
919.604	4630
919.715	4417
919.826	4333
919.936	4424
920.047	4523
920.157	4421
920.267	4698
920.378	4588
920.488	4523
920.598	4725
920.708	4892
920.818	4710
920.928	4767
921.038	4942
921.148	4987
921.258	4603
921.368	4561
921.477	4497
921.587	4474
921.697	4390
921.806	4538
921.916	4398
922.025	4276
922.134	4276
922.244	4211
922.353	4318
922.462	4135
922.571	4154
922.68	3979
922.789	3987
922.898	4055
923.007	3983
923.116	4101
923.224	4101
923.333	4093
923.442	4002
923.55	3998
923.659	4074
923.767	4093
923.876	4010
923.984	4154
924.092	4002
924.201	4051
924.309	4086
924.417	4135
924.525	4051
924.633	4082
924.741	5083
924.849	3930
924.956	4150
925.064	3964
925.172	3941
925.279	3922
925.387	4051
925.494	4071
925.602	4207
925.709	4192
925.816	4025
925.924	4124
926.031	4257
926.138	4211
926.245	4204
926.352	4093
926.459	4227
926.566	4295
926.673	4147
926.779	4093
926.886	4090
926.993	4002
927.099	3945
927.206	3953
927.312	3968
927.419	4055
927.525	4025
927.631	4120
927.737	3972
927.843	3911
927.95	3876
928.056	3937
928.162	4013
928.267	4086
928.373	4618
928.479	4109
928.585	3880
928.69	4021
928.796	4067
928.901	3953
929.007	3827
929.112	3998
929.218	3972
929.323	3941
929.428	3926
929.533	4109
929.638	3930
929.743	3975
929.848	4055
929.953	4010
930.058	3918
930.163	3762
930.267	3823
930.372	3941
930.477	3823
930.581	4101
930.685	3945
930.79	3842
930.894	3903
930.998	3865
931.103	3994
931.207	3720
931.311	3736
931.415	3682
931.519	3553
931.623	3561
