Data from test_V78500241_40.txt Node
Date: Fri Mar 25 16:49:16 CST 2022
User: usil
Spectrometer: V785-0024
Trigger mode: 0
Integration Time (sec): 4.000000E-1
Scans to average: 1
Nonlinearity correction enabled: false
Boxcar width: 0
Storing dark spectrum: false
XAxis mode: Wavelengths
Number of Pixels in Spectrum: 1024
>>>>>Begin Spectral Data<<<<<
801.071	8027
801.214	8008
801.356	7925
801.499	7921
801.641	7852
801.783	7883
801.926	8016
802.068	8065
802.211	8065
802.353	8119
802.496	7940
802.638	7925
802.78	7986
802.923	8016
803.065	7890
803.208	7875
803.35	8043
803.492	8187
803.635	8161
803.777	7993
803.919	8065
804.061	8438
804.204	8183
804.346	8084
804.488	7967
804.63	8183
804.773	8016
804.915	8138
805.057	8259
805.199	8168
805.341	8248
805.483	8317
805.626	8294
805.768	8180
805.91	8259
806.052	8328
806.194	8161
806.336	8336
806.478	8123
806.62	8100
806.762	8161
806.904	8301
807.046	8484
807.188	8400
807.33	8393
807.472	8415
807.614	8206
807.756	8172
807.898	8084
808.04	7894
808.182	8008
808.324	7921
808.465	7909
808.607	8164
808.749	8084
808.891	8191
809.033	8282
809.174	8180
809.316	8012
809.458	8062
809.6	7940
809.741	8031
809.883	7993
810.025	8119
810.166	8054
810.308	8058
810.45	8096
810.591	7947
810.733	7765
810.875	7723
811.016	7590
811.158	7533
811.299	7677
811.441	7814
811.582	7776
811.724	7624
811.865	7575
812.007	7658
812.148	7639
812.29	7677
812.431	7811
812.573	7917
812.714	7997
812.855	8237
812.997	8225
813.138	8366
813.279	8233
813.421	8202
813.562	8050
813.703	7944
813.845	7769
813.986	7457
814.127	7285
814.268	7221
814.41	7251
814.551	7282
814.692	7236
814.833	7065
814.974	7088
815.115	7152
815.256	7076
815.397	6913
815.539	7012
815.68	6810
815.821	6844
815.962	6859
816.103	6810
816.244	6757
816.385	6646
816.526	6642
816.666	6525
816.807	6426
816.948	6521
817.089	6528
817.23	6448
817.371	6437
817.512	6407
817.653	6399
817.793	6369
817.934	6422
818.075	6540
818.216	6433
818.356	6422
818.497	6334
818.638	6144
818.778	6140
818.919	6239
819.06	6175
819.2	6350
819.341	6327
819.481	6376
819.622	6623
819.762	6787
819.903	6783
820.043	6688
820.184	6597
820.324	6707
820.465	6795
820.605	6719
820.746	6688
820.886	6604
821.026	6703
821.167	6703
821.307	6878
821.447	6821
821.588	6684
821.728	6608
821.868	6525
822.008	6380
822.149	6369
822.289	6365
822.429	6197
822.569	6133
822.709	6167
822.849	5912
822.99	5908
823.13	6007
823.27	5984
823.41	5859
823.55	5878
823.69	5817
823.83	5851
823.97	5691
824.11	5589
824.25	5516
824.389	5585
824.529	5634
824.669	5604
824.809	5688
824.949	5691
825.089	5615
825.228	5611
825.368	5440
825.508	5463
825.648	5376
825.787	5417
825.927	5372
826.067	5307
826.206	5292
826.346	5459
826.485	5425
826.625	5417
826.765	5623
826.904	5516
827.044	5265
827.183	5254
827.323	5166
827.462	5220
827.601	5246
827.741	5261
827.88	5254
828.02	5166
828.159	5261
828.298	5337
828.437	5417
828.577	5334
828.716	5486
828.855	5406
828.994	5159
829.134	5178
829.273	5265
829.412	5204
829.551	5170
829.69	5220
829.829	5292
829.968	5452
830.107	5280
830.246	5280
830.385	5242
830.524	5094
830.663	5102
830.802	5029
830.941	4908
831.08	4934
831.219	4999
831.357	5006
831.496	5250
831.635	4980
831.774	4908
831.913	4946
832.051	4831
832.19	4778
832.329	4847
832.467	4694
832.606	4675
832.744	4774
832.883	4729
833.022	4782
833.16	4782
833.299	4809
833.437	4850
833.576	4850
833.714	4889
833.852	4942
833.991	4919
834.129	5033
834.267	4999
834.406	4987
834.544	5037
834.682	5052
834.821	4984
834.959	5162
835.097	5022
835.235	5185
835.373	5181
835.511	5140
835.65	5060
835.788	5071
835.926	4953
836.064	4847
836.202	4908
836.34	5197
836.478	5273
836.615	5162
836.753	5220
836.891	5341
837.029	5292
837.167	5216
837.305	5170
837.443	5181
837.58	5159
837.718	5280
837.856	5242
837.993	5136
838.131	5277
838.269	5254
838.406	5208
838.544	5197
838.681	5128
838.819	5045
838.956	4866
839.094	4927
839.231	4976
839.369	5159
839.506	5452
839.643	5311
839.781	5102
839.918	5079
840.055	5105
840.193	5128
840.33	5128
840.467	5136
840.604	5258
840.742	5482
840.879	5147
841.016	5132
841.153	5181
841.29	5414
841.427	5368
841.564	5353
841.701	5341
841.838	5303
841.975	5254
842.112	5318
842.249	5178
842.385	5151
842.522	5368
842.659	5166
842.796	5159
842.933	5288
843.069	5197
843.206	5216
843.343	5337
843.479	5212
843.616	5296
843.752	5018
843.889	5071
844.025	5254
844.162	5029
844.298	5277
844.435	5098
844.571	5075
844.708	5216
844.844	5368
844.98	5398
845.117	5322
845.253	5181
845.389	5117
845.525	5197
845.661	5159
845.798	5071
845.934	5174
846.07	5083
846.206	5208
846.342	5307
846.478	5242
846.614	5022
846.75	4999
846.886	4995
847.022	5181
847.158	5037
847.294	5064
847.429	5136
847.565	5083
847.701	5402
847.837	4847
847.972	4831
848.108	4991
848.244	5018
848.379	4911
848.515	4763
848.65	4748
848.786	4797
848.921	4805
849.057	4812
849.192	4957
849.328	4858
849.463	4862
849.598	4858
849.734	4786
849.869	4706
850.004	4660
850.14	4672
850.275	4618
850.41	4527
850.545	4584
850.68	4656
850.815	4626
850.95	4683
851.085	4889
851.22	4740
851.355	4698
851.49	4653
851.625	4744
851.76	4637
851.895	4569
852.03	4577
852.165	4687
852.299	4755
852.434	4873
852.569	4805
852.703	4790
852.838	4892
852.973	4961
853.107	4965
853.242	4748
853.376	4691
853.511	4607
853.645	4645
853.78	4877
853.914	4763
854.048	4748
854.183	4675
854.317	4752
854.451	4839
854.585	4694
854.72	4668
854.854	4793
854.988	4615
855.122	4691
855.256	4558
855.39	4653
855.524	4816
855.658	4774
855.792	4736
855.926	4752
856.06	4793
856.194	4839
856.327	4702
856.461	4675
856.595	4611
856.729	4683
856.862	4847
856.996	4740
857.13	4767
857.263	4759
857.397	4805
857.53	4702
857.664	4729
857.797	4774
857.931	4809
858.064	4744
858.197	4805
858.331	4649
858.464	4653
858.597	4550
858.731	4687
858.864	4683
858.997	4668
859.13	4691
859.263	4675
859.396	4752
859.529	4603
859.662	4615
859.795	4577
859.928	4656
860.061	4763
860.194	4824
860.327	4588
860.46	4637
860.592	4736
860.725	4748
860.858	4759
860.99	4596
861.123	4538
861.256	4569
861.388	4615
861.521	5315
861.653	4531
861.786	4481
861.918	4497
862.05	4531
862.183	4626
862.315	4653
862.447	4702
862.58	4577
862.712	4432
862.844	4356
862.976	4474
863.108	4470
863.24	4930
863.372	4356
863.504	4443
863.636	4462
863.768	4489
863.9	4478
864.032	4424
864.164	4386
864.296	4512
864.428	4558
864.559	4573
864.691	4554
864.823	4573
864.954	4519
865.086	4558
865.217	4474
865.349	4432
865.48	4497
865.612	4493
865.743	4637
865.875	4497
866.006	4512
866.137	4485
866.269	4504
866.4	4466
866.531	4432
866.662	4462
866.793	4459
866.924	4436
867.055	4542
867.186	4508
867.317	4443
867.448	4394
867.579	4424
867.71	4443
867.841	4379
867.972	4504
868.103	4531
868.233	4451
868.364	4466
868.495	4519
868.625	4717
868.756	4801
868.886	4561
869.017	4653
869.147	4744
869.278	4797
869.408	4683
869.539	4649
869.669	4721
869.799	4706
869.929	4805
870.06	4740
870.19	4999
870.32	4984
870.45	4923
870.58	5094
870.71	5136
870.84	5136
870.97	4972
871.1	4919
871.23	5124
871.36	5151
871.489	5056
871.619	5189
871.749	5140
871.879	5151
872.008	5223
872.138	5029
872.267	5052
872.397	4870
872.526	4847
872.656	4740
872.785	4835
872.915	4991
873.044	5060
873.173	4930
873.303	5003
873.432	4961
873.561	5029
873.69	4889
873.819	4847
873.948	4930
874.077	4839
874.206	4774
874.335	4854
874.464	4946
874.593	5094
874.722	4980
874.851	5109
874.979	5117
875.108	5090
875.237	4961
875.365	4870
875.494	4900
875.623	5006
875.751	4889
875.88	4923
876.008	5029
876.136	5098
876.265	5220
876.393	5376
876.521	5284
876.65	5330
876.778	5227
876.906	5147
877.034	5113
877.162	5121
877.29	5056
877.418	5151
877.546	5136
877.674	5105
877.802	5098
877.93	5113
878.058	4968
878.185	4949
878.313	5010
878.441	5014
878.568	4843
878.696	4915
878.824	5029
878.951	5052
879.079	5193
879.206	5406
879.333	5155
879.461	5056
879.588	5083
879.715	5181
879.842	5299
879.97	5071
880.097	4873
880.224	4850
880.351	4900
880.478	4915
880.605	4885
880.732	4881
880.859	5189
880.986	4961
881.112	5029
881.239	4850
881.366	4744
881.493	4649
881.619	4706
881.746	4668
881.872	4744
881.999	4729
882.125	4805
882.252	4881
882.378	4870
882.505	5052
882.631	4911
882.757	4771
882.883	4790
883.01	4786
883.136	4782
883.262	4675
883.388	4691
883.514	4908
883.64	4987
883.766	4911
883.892	4786
884.018	4797
884.143	4972
884.269	5124
884.395	4755
884.52	4714
884.646	4698
884.772	4664
884.897	4679
885.023	4767
885.148	4862
885.274	4930
885.399	4908
885.524	4824
885.65	4790
885.775	4820
885.9	4809
886.025	4900
886.15	4896
886.275	4793
886.4	4767
886.525	4854
886.65	4782
886.775	4725
886.9	5052
887.025	5113
887.149	4816
887.274	4744
887.399	4634
887.523	4679
887.648	4656
887.773	4736
887.897	4858
888.021	4904
888.146	4774
888.27	4858
888.395	4976
888.519	4870
888.643	4858
888.767	4942
888.891	4733
889.015	4721
889.139	4714
889.263	4683
889.387	4866
889.511	4934
889.635	4904
889.759	4687
889.883	4744
890.006	4797
890.13	4927
890.254	4668
890.377	4786
890.501	4599
890.624	4603
890.748	4717
890.871	4588
890.995	4481
891.118	4500
891.241	4618
891.364	4615
891.488	4714
891.611	4565
891.734	4634
891.857	4714
891.98	4588
892.103	4744
892.226	4656
892.349	4622
892.471	4519
892.594	4596
892.717	4664
892.839	4736
892.962	4653
893.085	4706
893.207	4634
893.33	4546
893.452	4588
893.575	4729
893.697	4630
893.819	4892
893.941	4919
894.064	4873
894.186	4641
894.308	4656
894.43	4820
894.552	4892
894.674	4824
894.796	4607
894.918	4664
895.04	4641
895.161	4721
895.283	4706
895.405	4668
895.526	4691
895.648	4740
895.769	4729
895.891	4782
896.012	4824
896.134	4763
896.255	4767
896.376	4714
896.498	4656
896.619	4801
896.74	4672
896.861	4755
896.982	5010
897.103	5151
897.224	4930
897.345	4858
897.466	4710
897.587	4809
897.708	4896
897.828	4873
897.949	4786
898.07	4656
898.19	4698
898.311	4892
898.431	4755
898.552	4828
898.672	4892
898.792	4881
898.913	4828
899.033	4706
899.153	4592
899.273	4481
899.393	4542
899.513	4561
899.633	4561
899.753	4637
899.873	4523
899.993	4649
900.113	4618
900.232	4691
900.352	4599
900.472	4577
900.591	4436
900.711	4519
900.83	4504
900.95	4687
901.069	4748
901.189	4653
901.308	4451
901.427	4390
901.546	4436
901.665	4538
901.784	4626
901.904	4432
902.023	4428
902.141	4268
902.26	4242
902.379	4379
902.498	4314
902.617	4314
902.735	4383
902.854	4481
902.973	4379
903.091	4291
903.21	4287
903.328	4337
903.446	4329
903.565	4363
903.683	4413
903.801	4341
903.919	4462
904.038	4485
904.156	4413
904.274	4538
904.392	4474
904.51	4535
904.627	4538
904.745	4630
904.863	4740
904.981	4466
905.098	4303
905.216	4421
905.334	4474
905.451	4489
905.569	4538
905.686	4641
905.803	4653
905.921	4485
906.038	4645
906.155	4546
906.272	4443
906.389	4527
906.506	4447
906.623	4436
906.74	4455
906.857	4367
906.974	4459
907.091	4637
907.208	4748
907.324	4672
907.441	4550
907.557	4402
907.674	4398
907.79	4417
907.907	4504
908.023	4531
908.139	4519
908.256	4512
908.372	4538
908.488	4519
908.604	4390
908.72	4417
908.836	4428
908.952	4447
909.068	4577
909.184	4691
909.3	4550
909.415	4694
909.531	4626
909.647	4383
909.762	4417
909.878	4428
909.993	4470
910.108	4470
910.224	4535
910.339	4561
910.454	4474
910.57	4478
910.685	4367
910.8	4683
910.915	4691
911.03	4535
911.145	4352
911.259	4402
911.374	4455
911.489	4360
911.604	4344
911.718	4276
911.833	4322
911.947	4177
912.062	4143
912.176	4261
912.291	4337
912.405	4360
912.519	4565
912.633	4599
912.748	4424
912.862	4371
912.976	4242
913.09	4166
913.204	4215
913.318	4348
913.431	4421
913.545	4447
913.659	4481
913.772	4436
913.886	4310
914	4291
914.113	4432
914.226	4523
914.34	4470
914.453	4303
914.566	4485
914.68	4360
914.793	4432
914.906	4173
915.019	4204
915.132	4192
915.245	4246
915.358	4295
915.47	4249
915.583	4398
915.696	4352
915.809	4504
915.921	4504
916.034	4360
916.146	4265
916.259	4310
916.371	4447
916.483	4413
916.595	4333
916.708	4436
916.82	4432
916.932	4360
917.044	4386
917.156	4413
917.268	4268
917.38	4348
917.491	4337
917.603	4436
917.715	4508
917.826	4561
917.938	4443
918.049	4322
918.161	4466
918.272	4618
918.384	4588
918.495	4523
918.606	4344
918.717	4310
918.828	4421
918.939	4432
919.05	4337
919.161	4386
919.272	4215
919.383	4299
919.494	4523
919.604	4672
919.715	4493
919.826	4417
919.936	4485
920.047	4592
920.157	4565
920.267	4752
920.378	4656
920.488	4611
920.598	4767
920.708	4953
920.818	4831
920.928	4847
921.038	5025
921.148	5025
921.258	4694
921.368	4637
921.477	4550
921.587	4527
921.697	4474
921.806	4592
921.916	4508
922.025	4306
922.134	4291
922.244	4291
922.353	4360
922.462	4215
922.571	4177
922.68	4074
922.789	4029
922.898	4086
923.007	4067
923.116	4128
923.224	4097
923.333	4105
923.442	4025
923.55	4029
923.659	4086
923.767	4139
923.876	4036
923.984	4181
924.092	4029
924.201	4128
924.309	4143
924.417	4181
924.525	4124
924.633	4177
924.741	5083
924.849	3991
924.956	4211
925.064	4036
925.172	3983
925.279	4029
925.387	4135
925.494	4131
925.602	4287
925.709	4249
925.816	4105
925.924	4185
926.031	4318
926.138	4230
926.245	4253
926.352	4204
926.459	4325
926.566	4383
926.673	4173
926.779	4131
926.886	4112
926.993	4010
927.099	3987
927.206	4021
927.312	3987
927.419	4120
927.525	4105
927.631	4154
927.737	4032
927.843	4025
927.95	3918
928.056	4010
928.162	4044
928.267	4143
928.373	4637
928.479	4188
928.585	3907
928.69	4044
928.796	4097
928.901	4074
929.007	3892
929.112	4067
929.218	4021
929.323	3979
929.428	3979
929.533	4169
929.638	4013
929.743	4048
929.848	4093
929.953	4082
930.058	3960
930.163	3816
930.267	3861
930.372	4036
930.477	3835
930.581	4154
930.685	4055
930.79	3846
930.894	3956
930.998	3907
931.103	4074
931.207	3720
931.311	3724
931.415	3717
931.519	3568
931.623	3622
