Data from test_V78500241_122.txt Node
Date: Fri Mar 25 16:49:51 CST 2022
User: usil
Spectrometer: V785-0024
Trigger mode: 0
Integration Time (sec): 4.000000E-1
Scans to average: 1
Nonlinearity correction enabled: false
Boxcar width: 0
Storing dark spectrum: false
XAxis mode: Wavelengths
Number of Pixels in Spectrum: 1024
>>>>>Begin Spectral Data<<<<<
801.071	8077
801.214	8035
801.356	7883
801.499	7879
801.641	7780
801.783	7856
801.926	8058
802.068	7963
802.211	8016
802.353	8035
802.496	7868
802.638	7898
802.78	7936
802.923	7940
803.065	7898
803.208	7879
803.35	7955
803.492	8050
803.635	8130
803.777	7989
803.919	8103
804.061	8332
804.204	8123
804.346	8001
804.488	7928
804.63	7997
804.773	7982
804.915	8065
805.057	8263
805.199	8134
805.341	8225
805.483	8290
805.626	8138
805.768	8050
805.91	8134
806.052	8218
806.194	8115
806.336	8343
806.478	8111
806.62	8145
806.762	8202
806.904	8267
807.046	8389
807.188	8374
807.33	8259
807.472	8343
807.614	8103
807.756	8111
807.898	7982
808.04	7909
808.182	7871
808.324	7913
808.465	7944
808.607	8039
808.749	8123
808.891	8180
809.033	8343
809.174	8202
809.316	8050
809.458	8065
809.6	8027
809.741	8016
809.883	8096
810.025	8157
810.166	8100
810.308	8065
810.45	8054
810.591	7894
810.733	7795
810.875	7727
811.016	7548
811.158	7529
811.299	7586
811.441	7803
811.582	7742
811.724	7616
811.865	7639
812.007	7662
812.148	7609
812.29	7620
812.431	7845
812.573	7898
812.714	8046
812.855	8164
812.997	8279
813.138	8427
813.279	8240
813.421	8172
813.562	8016
813.703	7860
813.845	7860
813.986	7495
814.127	7305
814.268	7266
814.41	7255
814.551	7255
814.692	7217
814.833	7141
814.974	7225
815.115	7129
815.256	6981
815.397	6989
815.539	6951
815.68	6829
815.821	6776
815.962	6932
816.103	6844
816.244	6760
816.385	6711
816.526	6665
816.666	6540
816.807	6380
816.948	6494
817.089	6536
817.23	6486
817.371	6407
817.512	6376
817.653	6414
817.793	6422
817.934	6388
818.075	6418
818.216	6475
818.356	6338
818.497	6243
818.638	6106
818.778	6178
818.919	6106
819.06	6140
819.2	6323
819.341	6338
819.481	6429
819.622	6540
819.762	6738
819.903	6757
820.043	6642
820.184	6623
820.324	6593
820.465	6703
820.605	6665
820.746	6681
820.886	6521
821.026	6681
821.167	6764
821.307	6867
821.447	6798
821.588	6772
821.728	6646
821.868	6509
822.008	6304
822.149	6418
822.289	6445
822.429	6190
822.569	6079
822.709	6140
822.849	5965
822.99	5935
823.13	5923
823.27	5931
823.41	5817
823.55	5805
823.69	5764
823.83	5836
823.97	5707
824.11	5547
824.25	5558
824.389	5585
824.529	5611
824.669	5573
824.809	5638
824.949	5604
825.089	5634
825.228	5585
825.368	5421
825.508	5337
825.648	5337
825.787	5417
825.927	5376
826.067	5315
826.206	5337
826.346	5410
826.485	5448
826.625	5440
826.765	5577
826.904	5512
827.044	5280
827.183	5204
827.323	5102
827.462	5273
827.601	5162
827.741	5159
827.88	5216
828.02	5124
828.159	5258
828.298	5311
828.437	5334
828.577	5315
828.716	5444
828.855	5311
828.994	5212
829.134	5227
829.273	5189
829.412	5181
829.551	5204
829.69	5170
829.829	5250
829.968	5357
830.107	5254
830.246	5326
830.385	5181
830.524	5181
830.663	5086
830.802	5045
830.941	4934
831.08	4892
831.219	5003
831.357	5018
831.496	5136
831.635	4930
831.774	4938
831.913	4843
832.051	4763
832.19	4790
832.329	4816
832.467	4649
832.606	4611
832.744	4683
832.883	4706
833.022	4721
833.16	4820
833.299	4881
833.437	4831
833.576	4889
833.714	4904
833.852	4828
833.991	4942
834.129	4991
834.267	5010
834.406	4915
834.544	4980
834.682	5029
834.821	4984
834.959	5204
835.097	5003
835.235	5136
835.373	5056
835.511	5136
835.65	5041
835.788	5018
835.926	4843
836.064	4862
836.202	4991
836.34	5117
836.478	5212
836.615	5105
836.753	5220
836.891	5299
837.029	5254
837.167	5181
837.305	5162
837.443	5121
837.58	5121
837.718	5269
837.856	5178
837.993	5155
838.131	5223
838.269	5212
838.406	5204
838.544	5216
838.681	5102
838.819	5033
838.956	4965
839.094	4877
839.231	5029
839.369	5075
839.506	5421
839.643	5330
839.781	5102
839.918	5045
840.055	5086
840.193	5105
840.33	5170
840.467	5174
840.604	5254
840.742	5459
840.879	5048
841.016	5147
841.153	5151
841.29	5395
841.427	5357
841.564	5349
841.701	5417
841.838	5303
841.975	5227
842.112	5303
842.249	5102
842.385	5102
842.522	5398
842.659	5201
842.796	5121
842.933	5181
843.069	5216
843.206	5174
843.343	5299
843.479	5254
843.616	5277
843.752	5029
843.889	5048
844.025	5227
844.162	5014
844.298	5250
844.435	5128
844.571	5064
844.708	5162
844.844	5345
844.98	5345
845.117	5280
845.253	5121
845.389	5132
845.525	5166
845.661	5121
845.798	5060
845.934	5143
846.07	5010
846.206	5189
846.342	5280
846.478	5193
846.614	5033
846.75	5022
846.886	4946
847.022	5143
847.158	5029
847.294	5086
847.429	5143
847.565	5090
847.701	5322
847.837	4877
847.972	4862
848.108	4987
848.244	5025
848.379	4805
848.515	4721
848.65	4714
848.786	4759
848.921	4790
849.057	4881
849.192	4915
849.328	4858
849.463	4816
849.598	4805
849.734	4847
849.869	4687
850.004	4668
850.14	4649
850.275	4649
850.41	4527
850.545	4542
850.68	4660
850.815	4637
850.95	4656
851.085	4824
851.22	4793
851.355	4687
851.49	4626
851.625	4660
851.76	4615
851.895	4565
852.03	4512
852.165	4672
852.299	4729
852.434	4786
852.569	4774
852.703	4725
852.838	4919
852.973	4934
853.107	4949
853.242	4767
853.376	4668
853.511	4596
853.645	4653
853.78	4812
853.914	4694
854.048	4637
854.183	4660
854.317	4702
854.451	4858
854.585	4721
854.72	4637
854.854	4744
854.988	4626
855.122	4626
855.256	4535
855.39	4672
855.524	4771
855.658	4729
855.792	4687
855.926	4717
856.06	4744
856.194	4816
856.327	4702
856.461	4596
856.595	4641
856.729	4634
856.862	4729
856.996	4733
857.13	4759
857.263	4721
857.397	4771
857.53	4622
857.664	4706
857.797	4759
857.931	4812
858.064	4710
858.197	4748
858.331	4660
858.464	4630
858.597	4523
858.731	4653
858.864	4660
858.997	4637
859.13	4691
859.263	4679
859.396	4771
859.529	4596
859.662	4558
859.795	4599
859.928	4588
860.061	4771
860.194	4797
860.327	4637
860.46	4588
860.592	4748
860.725	4774
860.858	4748
860.99	4634
861.123	4588
861.256	4493
861.388	4649
861.521	5482
861.653	4508
861.786	4466
861.918	4455
862.05	4588
862.183	4611
862.315	4615
862.447	4687
862.58	4561
862.712	4402
862.844	4390
862.976	4523
863.108	4504
863.24	4915
863.372	4367
863.504	4474
863.636	4413
863.768	4516
863.9	4516
864.032	4405
864.164	4451
864.296	4535
864.428	4599
864.559	4668
864.691	4569
864.823	4580
864.954	4550
865.086	4558
865.217	4497
865.349	4375
865.48	4497
865.612	4523
865.743	4664
865.875	4554
866.006	4504
866.137	4550
866.269	4481
866.4	4508
866.531	4493
866.662	4462
866.793	4474
866.924	4470
867.055	4546
867.186	4493
867.317	4474
867.448	4443
867.579	4466
867.71	4485
867.841	4428
867.972	4504
868.103	4527
868.233	4561
868.364	4485
868.495	4550
868.625	4694
868.756	4824
868.886	4615
869.017	4721
869.147	4828
869.278	4843
869.408	4687
869.539	4714
869.669	4763
869.799	4706
869.929	4793
870.06	4831
870.19	4972
870.32	4946
870.45	5003
870.58	5147
870.71	5174
870.84	5147
870.97	4972
871.1	4911
871.23	5178
871.36	5162
871.489	5105
871.619	5174
871.749	5155
871.879	5227
872.008	5220
872.138	5098
872.267	5056
872.397	4896
872.526	4885
872.656	4797
872.785	4896
872.915	4987
873.044	5083
873.173	4991
873.303	5060
873.432	4987
873.561	4968
873.69	4927
873.819	4915
873.948	4965
874.077	4889
874.206	4812
874.335	4881
874.464	4980
874.593	5071
874.722	5014
874.851	5147
874.979	5136
875.108	5083
875.237	5033
875.365	4938
875.494	4949
875.623	5045
875.751	4930
875.88	4927
876.008	5025
876.136	5064
876.265	5292
876.393	5402
876.521	5265
876.65	5277
876.778	5220
876.906	5128
877.034	5094
877.162	5117
877.29	5075
877.418	5136
877.546	5102
877.674	5083
877.802	5094
877.93	5052
878.058	5022
878.185	4919
878.313	4991
878.441	4961
878.568	4854
878.696	4934
878.824	4976
878.951	5090
879.079	5174
879.206	5337
879.333	5159
879.461	4999
879.588	5071
879.715	5181
879.842	5311
879.97	5067
880.097	4820
880.224	4828
880.351	4816
880.478	4847
880.605	4831
880.732	4862
880.859	5117
880.986	4968
881.112	4987
881.239	4850
881.366	4755
881.493	4679
881.619	4618
881.746	4660
881.872	4691
881.999	4694
882.125	4752
882.252	4877
882.378	4908
882.505	5029
882.631	4885
882.757	4717
882.883	4786
883.01	4778
883.136	4740
883.262	4637
883.388	4622
883.514	4877
883.64	4900
883.766	4885
883.892	4736
884.018	4790
884.143	4927
884.269	5075
884.395	4771
884.52	4691
884.646	4683
884.772	4622
884.897	4649
885.023	4714
885.148	4870
885.274	4896
885.399	4892
885.524	4797
885.65	4767
885.775	4801
885.9	4786
886.025	4911
886.15	4786
886.275	4774
886.4	4702
886.525	4755
886.65	4721
886.775	4771
886.9	4995
887.025	5151
887.149	4850
887.274	4683
887.399	4634
887.523	4653
887.648	4649
887.773	4634
887.897	4767
888.021	4877
888.146	4767
888.27	4911
888.395	4942
888.519	4870
888.643	4892
888.767	4877
888.891	4714
889.015	4637
889.139	4698
889.263	4607
889.387	4816
889.511	4892
889.635	4858
889.759	4717
889.883	4736
890.006	4793
890.13	4870
890.254	4641
890.377	4767
890.501	4641
890.624	4592
890.748	4698
890.871	4554
890.995	4489
891.118	4447
891.241	4573
891.364	4588
891.488	4702
891.611	4508
891.734	4580
891.857	4656
891.98	4611
892.103	4744
892.226	4675
892.349	4588
892.471	4474
892.594	4611
892.717	4637
892.839	4656
892.962	4634
893.085	4725
893.207	4630
893.33	4489
893.452	4588
893.575	4668
893.697	4645
893.819	4835
893.941	4858
894.064	4862
894.186	4615
894.308	4577
894.43	4816
894.552	4850
894.674	4801
894.796	4607
894.918	4607
895.04	4622
895.161	4771
895.283	4736
895.405	4588
895.526	4694
895.648	4714
895.769	4714
895.891	4797
896.012	4774
896.134	4820
896.255	4714
896.376	4653
896.498	4675
896.619	4721
896.74	4630
896.861	4637
896.982	5003
897.103	5075
897.224	4889
897.345	4786
897.466	4694
897.587	4771
897.708	4908
897.828	4809
897.949	4679
898.07	4603
898.19	4710
898.311	4896
898.431	4721
898.552	4767
898.672	4930
898.792	4847
898.913	4736
899.033	4706
899.153	4558
899.273	4455
899.393	4519
899.513	4588
899.633	4550
899.753	4618
899.873	4535
899.993	4660
900.113	4599
900.232	4630
900.352	4588
900.472	4531
900.591	4459
900.711	4584
900.83	4470
900.95	4634
901.069	4744
901.189	4637
901.308	4424
901.427	4421
901.546	4447
901.665	4554
901.784	4538
901.904	4428
902.023	4367
902.141	4196
902.26	4215
902.379	4371
902.498	4303
902.617	4261
902.735	4409
902.854	4436
902.973	4379
903.091	4181
903.21	4234
903.328	4356
903.446	4325
903.565	4333
903.683	4413
903.801	4344
903.919	4462
904.038	4455
904.156	4402
904.274	4485
904.392	4451
904.51	4489
904.627	4474
904.745	4637
904.863	4683
904.981	4455
905.098	4371
905.216	4356
905.334	4451
905.451	4485
905.569	4493
905.686	4607
905.803	4660
905.921	4466
906.038	4542
906.155	4554
906.272	4455
906.389	4546
906.506	4409
906.623	4398
906.74	4462
906.857	4310
906.974	4390
907.091	4592
907.208	4679
907.324	4618
907.441	4508
907.557	4337
907.674	4352
907.79	4333
907.907	4417
908.023	4561
908.139	4569
908.256	4508
908.372	4504
908.488	4500
908.604	4405
908.72	4344
908.836	4436
908.952	4436
909.068	4489
909.184	4603
909.3	4531
909.415	4637
909.531	4618
909.647	4383
909.762	4451
909.878	4386
909.993	4459
910.108	4489
910.224	4489
910.339	4527
910.454	4443
910.57	4325
910.685	4363
910.8	4645
910.915	4615
911.03	4542
911.145	4383
911.259	4341
911.374	4405
911.489	4325
911.604	4325
911.718	4223
911.833	4265
911.947	4143
912.062	4093
912.176	4276
912.291	4272
912.405	4272
912.519	4504
912.633	4603
912.748	4459
912.862	4371
912.976	4261
913.09	4147
913.204	4223
913.318	4318
913.431	4459
913.545	4405
913.659	4447
913.772	4405
913.886	4261
914	4272
914.113	4421
914.226	4489
914.34	4398
914.453	4272
914.566	4459
914.68	4363
914.793	4386
914.906	4169
915.019	4154
915.132	4131
915.245	4261
915.358	4329
915.47	4299
915.583	4314
915.696	4337
915.809	4432
915.921	4455
916.034	4299
916.146	4287
916.259	4280
916.371	4371
916.483	4424
916.595	4265
916.708	4356
916.82	4383
916.932	4367
917.044	4329
917.156	4337
917.268	4246
917.38	4284
917.491	4337
917.603	4371
917.715	4451
917.826	4474
917.938	4386
918.049	4272
918.161	4409
918.272	4584
918.384	4546
918.495	4478
918.606	4314
918.717	4242
918.828	4363
918.939	4386
919.05	4280
919.161	4383
919.272	4196
919.383	4227
919.494	4493
919.604	4656
919.715	4493
919.826	4402
919.936	4443
920.047	4615
920.157	4474
920.267	4744
920.378	4561
920.488	4558
920.598	4740
920.708	4946
920.818	4786
920.928	4774
921.038	4972
921.148	4965
921.258	4706
921.368	4569
921.477	4523
921.587	4504
921.697	4421
921.806	4561
921.916	4474
922.025	4291
922.134	4329
922.244	4261
922.353	4417
922.462	4204
922.571	4173
922.68	4051
922.789	4025
922.898	4063
923.007	4032
923.116	4131
923.224	4093
923.333	4135
923.442	4017
923.55	4002
923.659	4078
923.767	4131
923.876	4051
923.984	4112
924.092	4013
924.201	4109
924.309	4128
924.417	4196
924.525	4082
924.633	4120
924.741	4911
924.849	3949
924.956	4158
925.064	3987
925.172	3983
925.279	4017
925.387	4082
925.494	4109
925.602	4215
925.709	4204
925.816	4059
925.924	4192
926.031	4265
926.138	4207
926.245	4253
926.352	4120
926.459	4265
926.566	4333
926.673	4181
926.779	4101
926.886	4120
926.993	4002
927.099	4017
927.206	3975
927.312	3975
927.419	4082
927.525	4090
927.631	4147
927.737	4059
927.843	3975
927.95	3896
928.056	4029
928.162	3991
928.267	4105
928.373	4649
928.479	4185
928.585	3892
928.69	4090
928.796	4101
928.901	3975
929.007	3842
929.112	4013
929.218	4040
929.323	3975
929.428	4002
929.533	4147
929.638	3960
929.743	4013
929.848	4116
929.953	4025
930.058	3960
930.163	3838
930.267	3892
930.372	4063
930.477	3865
930.581	4158
930.685	3998
930.79	3880
930.894	3937
930.998	3972
931.103	4086
931.207	3762
931.311	3759
931.415	3732
931.519	3587
931.623	3603
