Data from test_V78500241_2286.txt Node
Date: Fri Mar 25 17:04:53 CST 2022
User: usil
Spectrometer: V785-0024
Trigger mode: 0
Integration Time (sec): 4.000000E-1
Scans to average: 1
Nonlinearity correction enabled: false
Boxcar width: 0
Storing dark spectrum: false
XAxis mode: Wavelengths
Number of Pixels in Spectrum: 1024
>>>>>Begin Spectral Data<<<<<
801.071	7967
801.214	7963
801.356	7890
801.499	7856
801.641	7788
801.783	7776
801.926	7936
802.068	7963
802.211	7986
802.353	7997
802.496	7811
802.638	7856
802.78	7841
802.923	7890
803.065	7826
803.208	7864
803.35	7963
803.492	8153
803.635	8153
803.777	7978
803.919	8161
804.061	8415
804.204	8123
804.346	8168
804.488	7974
804.63	8096
804.773	7967
804.915	8062
805.057	8313
805.199	8164
805.341	8138
805.483	8275
805.626	8229
805.768	8176
805.91	8214
806.052	8210
806.194	8134
806.336	8252
806.478	8111
806.62	8065
806.762	8172
806.904	8214
807.046	8469
807.188	8313
807.33	8328
807.472	8332
807.614	8172
807.756	8153
807.898	7993
808.04	7917
808.182	7879
808.324	7902
808.465	7925
808.607	8031
808.749	8107
808.891	8218
809.033	8290
809.174	8164
809.316	8123
809.458	8092
809.6	8012
809.741	8024
809.883	8039
810.025	8100
810.166	8050
810.308	7978
810.45	7982
810.591	7833
810.733	7658
810.875	7628
811.016	7567
811.158	7544
811.299	7578
811.441	7666
811.582	7643
811.724	7578
811.865	7506
812.007	7521
812.148	7613
812.29	7643
812.431	7727
812.573	7875
812.714	7978
812.855	8092
812.997	8206
813.138	8259
813.279	8199
813.421	8062
813.562	7928
813.703	7890
813.845	7750
813.986	7415
814.127	7263
814.268	7225
814.41	7137
814.551	7244
814.692	7285
814.833	7084
814.974	7126
815.115	7160
815.256	7000
815.397	6966
815.539	6939
815.68	6802
815.821	6779
815.962	6760
816.103	6818
816.244	6665
816.385	6627
816.526	6612
816.666	6486
816.807	6277
816.948	6422
817.089	6414
817.23	6506
817.371	6361
817.512	6376
817.653	6350
817.793	6384
817.934	6467
818.075	6410
818.216	6456
818.356	6403
818.497	6251
818.638	6125
818.778	6178
818.919	6121
819.06	6171
819.2	6334
819.341	6319
819.481	6365
819.622	6566
819.762	6730
819.903	6646
820.043	6486
820.184	6563
820.324	6616
820.465	6677
820.605	6692
820.746	6677
820.886	6486
821.026	6650
821.167	6726
821.307	6783
821.447	6734
821.588	6726
821.728	6654
821.868	6479
822.008	6338
822.149	6311
822.289	6350
822.429	6140
822.569	6159
822.709	6152
822.849	5904
822.99	5893
823.13	5931
823.27	5931
823.41	5851
823.55	5783
823.69	5745
823.83	5809
823.97	5688
824.11	5505
824.25	5459
824.389	5528
824.529	5619
824.669	5486
824.809	5630
824.949	5638
825.089	5604
825.228	5547
825.368	5372
825.508	5307
825.648	5322
825.787	5357
825.927	5353
826.067	5303
826.206	5261
826.346	5345
826.485	5364
826.625	5410
826.765	5554
826.904	5497
827.044	5227
827.183	5189
827.323	5136
827.462	5254
827.601	5143
827.741	5147
827.88	5201
828.02	5113
828.159	5261
828.298	5303
828.437	5307
828.577	5284
828.716	5493
828.855	5364
828.994	5121
829.134	5143
829.273	5185
829.412	5201
829.551	5136
829.69	5170
829.829	5216
829.968	5387
830.107	5242
830.246	5284
830.385	5178
830.524	5117
830.663	5083
830.802	4972
830.941	4873
831.08	4831
831.219	5018
831.357	4942
831.496	5166
831.635	4934
831.774	4820
831.913	4839
832.051	4725
832.19	4763
832.329	4839
832.467	4656
832.606	4615
832.744	4755
832.883	4736
833.022	4714
833.16	4797
833.299	4782
833.437	4797
833.576	4805
833.714	4862
833.852	4866
833.991	4927
834.129	4961
834.267	4957
834.406	4858
834.544	4949
834.682	4972
834.821	4965
834.959	5124
835.097	4957
835.235	5151
835.373	5067
835.511	5105
835.65	5010
835.788	5045
835.926	4896
836.064	4892
836.202	4927
836.34	5121
836.478	5246
836.615	5102
836.753	5174
836.891	5280
837.029	5189
837.167	5185
837.305	5113
837.443	5083
837.58	5075
837.718	5242
837.856	5220
837.993	5174
838.131	5220
838.269	5204
838.406	5269
838.544	5174
838.681	5003
838.819	5022
838.956	4881
839.094	4881
839.231	4972
839.369	5060
839.506	5436
839.643	5315
839.781	5102
839.918	4946
840.055	5102
840.193	5064
840.33	5143
840.467	5181
840.604	5155
840.742	5455
840.879	5056
841.016	5071
841.153	5113
841.29	5326
841.427	5299
841.564	5303
841.701	5337
841.838	5299
841.975	5284
842.112	5288
842.249	5143
842.385	5128
842.522	5330
842.659	5204
842.796	5181
842.933	5170
843.069	5109
843.206	5140
843.343	5242
843.479	5258
843.616	5280
843.752	5006
843.889	5022
844.025	5189
844.162	5048
844.298	5166
844.435	5025
844.571	5018
844.708	5143
844.844	5280
844.98	5345
845.117	5261
845.253	5159
845.389	5067
845.525	5132
845.661	5132
845.798	5010
845.934	5086
846.07	5067
846.206	5197
846.342	5239
846.478	5189
846.614	4976
846.75	4949
846.886	4938
847.022	5117
847.158	4995
847.294	5037
847.429	5094
847.565	5022
847.701	5277
847.837	4820
847.972	4797
848.108	4915
848.244	4938
848.379	4793
848.515	4778
848.65	4702
848.786	4714
848.921	4820
849.057	4835
849.192	4904
849.328	4831
849.463	4812
849.598	4831
849.734	4759
849.869	4698
850.004	4653
850.14	4706
850.275	4603
850.41	4512
850.545	4573
850.68	4596
850.815	4618
850.95	4641
851.085	4831
851.22	4755
851.355	4630
851.49	4615
851.625	4603
851.76	4622
851.895	4546
852.03	4516
852.165	4615
852.299	4679
852.434	4778
852.569	4744
852.703	4786
852.838	4835
852.973	4930
853.107	4889
853.242	4740
853.376	4668
853.511	4519
853.645	4607
853.78	4847
853.914	4687
854.048	4668
854.183	4584
854.317	4702
854.451	4816
854.585	4710
854.72	4626
854.854	4748
854.988	4588
855.122	4611
855.256	4459
855.39	4641
855.524	4752
855.658	4725
855.792	4717
855.926	4736
856.06	4725
856.194	4767
856.327	4721
856.461	4603
856.595	4599
856.729	4611
856.862	4744
856.996	4733
857.13	4733
857.263	4710
857.397	4809
857.53	4668
857.664	4706
857.797	4729
857.931	4790
858.064	4733
858.197	4744
858.331	4622
858.464	4584
858.597	4550
858.731	4645
858.864	4634
858.997	4618
859.13	4615
859.263	4679
859.396	4675
859.529	4580
859.662	4577
859.795	4527
859.928	4611
860.061	4736
860.194	4801
860.327	4592
860.46	4565
860.592	4717
860.725	4694
860.858	4729
860.99	4607
861.123	4535
861.256	4508
861.388	4611
861.521	5261
861.653	4478
861.786	4455
861.918	4485
862.05	4497
862.183	4546
862.315	4565
862.447	4641
862.58	4538
862.712	4383
862.844	4360
862.976	4466
863.108	4478
863.24	4896
863.372	4341
863.504	4405
863.636	4367
863.768	4478
863.9	4436
864.032	4383
864.164	4409
864.296	4478
864.428	4535
864.559	4558
864.691	4538
864.823	4531
864.954	4527
865.086	4527
865.217	4451
865.349	4436
865.48	4440
865.612	4489
865.743	4599
865.875	4428
866.006	4383
866.137	4432
866.269	4443
866.4	4409
866.531	4428
866.662	4371
866.793	4394
866.924	4383
867.055	4474
867.186	4462
867.317	4436
867.448	4390
867.579	4367
867.71	4367
867.841	4318
867.972	4489
868.103	4417
868.233	4440
868.364	4390
868.495	4478
868.625	4660
868.756	4771
868.886	4546
869.017	4618
869.147	4778
869.278	4752
869.408	4649
869.539	4660
869.669	4694
869.799	4607
869.929	4771
870.06	4782
870.19	5014
870.32	4885
870.45	4953
870.58	5018
870.71	5067
870.84	5098
870.97	4953
871.1	4919
871.23	5166
871.36	5113
871.489	5029
871.619	5090
871.749	5041
871.879	5090
872.008	5166
872.138	5060
872.267	4938
872.397	4862
872.526	4828
872.656	4714
872.785	4801
872.915	4987
873.044	5022
873.173	4968
873.303	4957
873.432	4927
873.561	4938
873.69	4862
873.819	4850
873.948	4976
874.077	4828
874.206	4774
874.335	4816
874.464	4911
874.593	5033
874.722	4984
874.851	5060
874.979	5029
875.108	5075
875.237	4873
875.365	4843
875.494	4900
875.623	5003
875.751	4816
875.88	4862
876.008	4976
876.136	5064
876.265	5189
876.393	5311
876.521	5223
876.65	5284
876.778	5159
876.906	5109
877.034	5029
877.162	5037
877.29	4976
877.418	5079
877.546	5048
877.674	5029
877.802	5056
877.93	4999
878.058	4923
878.185	4889
878.313	4965
878.441	4946
878.568	4805
878.696	4839
878.824	4972
878.951	4991
879.079	5090
879.206	5250
879.333	5102
879.461	5003
879.588	4972
879.715	5124
879.842	5246
879.97	5048
880.097	4786
880.224	4774
880.351	4786
880.478	4839
880.605	4767
880.732	4793
880.859	5128
880.986	4835
881.112	4896
881.239	4805
881.366	4656
881.493	4607
881.619	4588
881.746	4607
881.872	4634
881.999	4649
882.125	4637
882.252	4816
882.378	4801
882.505	4972
882.631	4793
882.757	4653
882.883	4729
883.01	4717
883.136	4664
883.262	4603
883.388	4634
883.514	4835
883.64	4896
883.766	4812
883.892	4687
884.018	4675
884.143	4900
884.269	4968
884.395	4664
884.52	4580
884.646	4649
884.772	4577
884.897	4519
885.023	4634
885.148	4805
885.274	4828
885.399	4801
885.524	4721
885.65	4752
885.775	4736
885.9	4744
886.025	4824
886.15	4786
886.275	4706
886.4	4702
886.525	4763
886.65	4710
886.775	4615
886.9	4942
887.025	5052
887.149	4786
887.274	4672
887.399	4554
887.523	4554
887.648	4592
887.773	4615
887.897	4767
888.021	4778
888.146	4694
888.27	4778
888.395	4908
888.519	4801
888.643	4786
888.767	4801
888.891	4694
889.015	4611
889.139	4668
889.263	4626
889.387	4778
889.511	4820
889.635	4793
889.759	4615
889.883	4664
890.006	4706
890.13	4839
890.254	4584
890.377	4668
890.501	4500
890.624	4516
890.748	4584
890.871	4489
890.995	4417
891.118	4402
891.241	4478
891.364	4508
891.488	4588
891.611	4493
891.734	4558
891.857	4641
891.98	4554
892.103	4675
892.226	4584
892.349	4504
892.471	4390
892.594	4538
892.717	4607
892.839	4554
892.962	4561
893.085	4675
893.207	4634
893.33	4474
893.452	4523
893.575	4656
893.697	4550
893.819	4839
893.941	4820
894.064	4778
894.186	4615
894.308	4599
894.43	4694
894.552	4812
894.674	4683
894.796	4538
894.918	4596
895.04	4558
895.161	4721
895.283	4710
895.405	4531
895.526	4618
895.648	4641
895.769	4675
895.891	4687
896.012	4740
896.134	4706
896.255	4683
896.376	4615
896.498	4596
896.619	4706
896.74	4561
896.861	4679
896.982	4923
897.103	5105
897.224	4835
897.345	4729
897.466	4649
897.587	4714
897.708	4843
897.828	4733
897.949	4637
898.07	4580
898.19	4694
898.311	4828
898.431	4710
898.552	4702
898.672	4782
898.792	4782
898.913	4793
899.033	4649
899.153	4474
899.273	4390
899.393	4474
899.513	4523
899.633	4474
899.753	4523
899.873	4512
899.993	4584
900.113	4497
900.232	4599
900.352	4546
900.472	4489
900.591	4440
900.711	4481
900.83	4432
900.95	4596
901.069	4668
901.189	4512
901.308	4367
901.427	4303
901.546	4409
901.665	4527
901.784	4508
901.904	4390
902.023	4337
902.141	4185
902.26	4207
902.379	4314
902.498	4192
902.617	4196
902.735	4424
902.854	4379
902.973	4371
903.091	4192
903.21	4230
903.328	4314
903.446	4246
903.565	4295
903.683	4348
903.801	4291
903.919	4405
904.038	4413
904.156	4287
904.274	4432
904.392	4402
904.51	4455
904.627	4443
904.745	4615
904.863	4622
904.981	4398
905.098	4329
905.216	4325
905.334	4455
905.451	4405
905.569	4428
905.686	4573
905.803	4500
905.921	4421
906.038	4497
906.155	4462
906.272	4356
906.389	4447
906.506	4367
906.623	4371
906.74	4402
906.857	4276
906.974	4375
907.091	4512
907.208	4675
907.324	4607
907.441	4489
907.557	4341
907.674	4325
907.79	4322
907.907	4390
908.023	4455
908.139	4474
908.256	4451
908.372	4455
908.488	4447
908.604	4356
908.72	4291
908.836	4371
908.952	4367
909.068	4478
909.184	4519
909.3	4455
909.415	4531
909.531	4523
909.647	4409
909.762	4329
909.878	4360
909.993	4421
910.108	4390
910.224	4440
910.339	4523
910.454	4421
910.57	4390
910.685	4329
910.8	4683
910.915	4592
911.03	4481
911.145	4322
911.259	4314
911.374	4405
911.489	4303
911.604	4268
911.718	4188
911.833	4185
911.947	4048
912.062	3983
912.176	4249
912.291	4253
912.405	4238
912.519	4451
912.633	4538
912.748	4363
912.862	4280
912.976	4238
913.09	4147
913.204	4181
913.318	4257
913.431	4375
913.545	4394
913.659	4417
913.772	4329
913.886	4280
914	4223
914.113	4394
914.226	4436
914.34	4337
914.453	4230
914.566	4413
914.68	4314
914.793	4352
914.906	4196
915.019	4120
915.132	4051
915.245	4204
915.358	4185
915.47	4246
915.583	4272
915.696	4261
915.809	4428
915.921	4443
916.034	4223
916.146	4284
916.259	4223
916.371	4363
916.483	4371
916.595	4253
916.708	4310
916.82	4322
916.932	4325
917.044	4329
917.156	4325
917.268	4227
917.38	4295
917.491	4291
917.603	4322
917.715	4375
917.826	4424
917.938	4367
918.049	4230
918.161	4413
918.272	4523
918.384	4554
918.495	4451
918.606	4265
918.717	4219
918.828	4322
918.939	4375
919.05	4219
919.161	4280
919.272	4139
919.383	4238
919.494	4451
919.604	4599
919.715	4436
919.826	4356
919.936	4352
920.047	4493
920.157	4455
920.267	4664
920.378	4542
920.488	4527
920.598	4721
920.708	4854
920.818	4698
920.928	4771
921.038	5003
921.148	4953
921.258	4596
921.368	4519
921.477	4500
921.587	4394
921.697	4371
921.806	4584
921.916	4409
922.025	4219
922.134	4291
922.244	4219
922.353	4341
922.462	4166
922.571	4112
922.68	4044
922.789	3994
922.898	3998
923.007	3945
923.116	4124
923.224	4074
923.333	4109
923.442	3987
923.55	3979
923.659	4021
923.767	4071
923.876	3998
923.984	4078
924.092	3972
924.201	4082
924.309	4074
924.417	4150
924.525	4086
924.633	4105
924.741	5060
924.849	3911
924.956	4147
925.064	3964
925.172	3880
925.279	3960
925.387	4040
925.494	4078
925.602	4204
925.709	4185
925.816	4051
925.924	4116
926.031	4188
926.138	4169
926.245	4158
926.352	4101
926.459	4253
926.566	4295
926.673	4120
926.779	4067
926.886	4063
926.993	3956
927.099	3979
927.206	3915
927.312	3964
927.419	4059
927.525	4048
927.631	4040
927.737	3975
927.843	3949
927.95	3857
928.056	3922
928.162	3991
928.267	4055
928.373	4668
928.479	4090
928.585	3918
928.69	4006
928.796	4074
928.901	3960
929.007	3857
929.112	3983
929.218	3937
929.323	3930
929.428	3960
929.533	4036
929.638	3907
929.743	3949
929.848	4032
929.953	3983
930.058	3945
930.163	3835
930.267	3861
930.372	3964
930.477	3823
930.581	4097
930.685	3937
930.79	3808
930.894	3876
930.998	3854
931.103	4055
931.207	3694
931.311	3667
931.415	3637
931.519	3530
931.623	3549
