Data from test_V78500241_1640.txt Node
Date: Fri Mar 25 17:00:24 CST 2022
User: usil
Spectrometer: V785-0024
Trigger mode: 0
Integration Time (sec): 4.000000E-1
Scans to average: 1
Nonlinearity correction enabled: false
Boxcar width: 0
Storing dark spectrum: false
XAxis mode: Wavelengths
Number of Pixels in Spectrum: 1024
>>>>>Begin Spectral Data<<<<<
801.071	7959
801.214	7967
801.356	7818
801.499	7837
801.641	7734
801.783	7792
801.926	7955
802.068	7917
802.211	7963
802.353	7978
802.496	7750
802.638	7856
802.78	7860
802.923	7963
803.065	7894
803.208	7769
803.35	8012
803.492	8050
803.635	8248
803.777	8012
803.919	8096
804.061	8438
804.204	8199
804.346	8103
804.488	7986
804.63	8100
804.773	7989
804.915	8107
805.057	8290
805.199	8149
805.341	8149
805.483	8225
805.626	8180
805.768	8172
805.91	8214
806.052	8271
806.194	8050
806.336	8271
806.478	8111
806.62	8123
806.762	8161
806.904	8267
807.046	8434
807.188	8415
807.33	8267
807.472	8320
807.614	8153
807.756	8073
807.898	7925
808.04	7826
808.182	7925
808.324	7864
808.465	7932
808.607	8073
808.749	8092
808.891	8183
809.033	8332
809.174	8126
809.316	8081
809.458	8039
809.6	7982
809.741	7947
809.883	8031
810.025	8119
810.166	8065
810.308	7970
810.45	8001
810.591	7890
810.733	7681
810.875	7647
811.016	7521
811.158	7449
811.299	7571
811.441	7639
811.582	7643
811.724	7559
811.865	7525
812.007	7567
812.148	7518
812.29	7586
812.431	7700
812.573	7898
812.714	8005
812.855	8100
812.997	8218
813.138	8298
813.279	8088
813.421	8100
813.562	7982
813.703	7807
813.845	7715
813.986	7441
814.127	7213
814.268	7202
814.41	7179
814.551	7168
814.692	7247
814.833	7084
814.974	7107
815.115	7114
815.256	6958
815.397	6871
815.539	6886
815.68	6844
815.821	6734
815.962	6764
816.103	6753
816.244	6753
816.385	6635
816.526	6601
816.666	6502
816.807	6273
816.948	6498
817.089	6399
817.23	6418
817.371	6414
817.512	6334
817.653	6380
817.793	6418
817.934	6395
818.075	6448
818.216	6441
818.356	6452
818.497	6266
818.638	6079
818.778	6152
818.919	6182
819.06	6171
819.2	6285
819.341	6300
819.481	6380
819.622	6467
819.762	6719
819.903	6764
820.043	6574
820.184	6620
820.324	6570
820.465	6673
820.605	6688
820.746	6677
820.886	6490
821.026	6673
821.167	6700
821.307	6818
821.447	6764
821.588	6669
821.728	6525
821.868	6528
822.008	6346
822.149	6399
822.289	6311
822.429	6182
822.569	6041
822.709	6133
822.849	5992
822.99	5916
823.13	5965
823.27	5882
823.41	5809
823.55	5764
823.69	5691
823.83	5752
823.97	5642
824.11	5463
824.25	5528
824.389	5520
824.529	5547
824.669	5493
824.809	5611
824.949	5627
825.089	5608
825.228	5512
825.368	5391
825.508	5288
825.648	5379
825.787	5368
825.927	5334
826.067	5303
826.206	5265
826.346	5349
826.485	5417
826.625	5425
826.765	5554
826.904	5463
827.044	5235
827.183	5189
827.323	5113
827.462	5231
827.601	5140
827.741	5162
827.88	5208
828.02	5113
828.159	5223
828.298	5265
828.437	5383
828.577	5254
828.716	5501
828.855	5311
828.994	5136
829.134	5121
829.273	5201
829.412	5113
829.551	5033
829.69	5143
829.829	5269
829.968	5364
830.107	5254
830.246	5250
830.385	5197
830.524	5128
830.663	5086
830.802	4961
830.941	4858
831.08	4919
831.219	4965
831.357	4999
831.496	5128
831.635	4923
831.774	4850
831.913	4820
832.051	4744
832.19	4740
832.329	4831
832.467	4698
832.606	4611
832.744	4672
832.883	4702
833.022	4691
833.16	4782
833.299	4828
833.437	4774
833.576	4763
833.714	4812
833.852	4828
833.991	4885
834.129	4968
834.267	4946
834.406	4877
834.544	4984
834.682	4991
834.821	4930
834.959	5109
835.097	4961
835.235	5132
835.373	5056
835.511	5079
835.65	5022
835.788	4987
835.926	4828
836.064	4881
836.202	4896
836.34	5159
836.478	5193
836.615	5143
836.753	5170
836.891	5265
837.029	5265
837.167	5193
837.305	5170
837.443	5132
837.58	5083
837.718	5220
837.856	5189
837.993	5124
838.131	5235
838.269	5204
838.406	5197
838.544	5166
838.681	4972
838.819	4949
838.956	4896
839.094	4892
839.231	4953
839.369	5064
839.506	5455
839.643	5277
839.781	5060
839.918	5056
840.055	5060
840.193	5094
840.33	5067
840.467	5147
840.604	5143
840.742	5398
840.879	5056
841.016	5052
841.153	5124
841.29	5311
841.427	5334
841.564	5280
841.701	5318
841.838	5284
841.975	5212
842.112	5269
842.249	5136
842.385	5048
842.522	5318
842.659	5208
842.796	5083
842.933	5216
843.069	5193
843.206	5128
843.343	5315
843.479	5227
843.616	5258
843.752	5014
843.889	5003
844.025	5204
844.162	5037
844.298	5189
844.435	5045
844.571	5056
844.708	5155
844.844	5292
844.98	5364
845.117	5322
845.253	5159
845.389	5037
845.525	5189
845.661	5143
845.798	5033
845.934	5083
846.07	5029
846.206	5181
846.342	5326
846.478	5170
846.614	4991
846.75	4930
846.886	4919
847.022	5079
847.158	4995
847.294	5045
847.429	5033
847.565	5075
847.701	5315
847.837	4820
847.972	4831
848.108	4938
848.244	4877
848.379	4752
848.515	4774
848.65	4744
848.786	4748
848.921	4771
849.057	4828
849.192	4847
849.328	4801
849.463	4847
849.598	4771
849.734	4763
849.869	4672
850.004	4603
850.14	4656
850.275	4618
850.41	4561
850.545	4561
850.68	4596
850.815	4554
850.95	4611
851.085	4767
851.22	4721
851.355	4637
851.49	4592
851.625	4641
851.76	4649
851.895	4626
852.03	4451
852.165	4660
852.299	4763
852.434	4820
852.569	4717
852.703	4740
852.838	4820
852.973	4870
853.107	4946
853.242	4710
853.376	4675
853.511	4508
853.645	4630
853.78	4824
853.914	4672
854.048	4668
854.183	4615
854.317	4694
854.451	4839
854.585	4706
854.72	4641
854.854	4755
854.988	4580
855.122	4565
855.256	4558
855.39	4649
855.524	4782
855.658	4714
855.792	4698
855.926	4736
856.06	4774
856.194	4831
856.327	4664
856.461	4596
856.595	4618
856.729	4573
856.862	4706
856.996	4721
857.13	4740
857.263	4755
857.397	4759
857.53	4645
857.664	4694
857.797	4755
857.931	4774
858.064	4748
858.197	4729
858.331	4641
858.464	4596
858.597	4504
858.731	4630
858.864	4645
858.997	4573
859.13	4622
859.263	4664
859.396	4668
859.529	4573
859.662	4558
859.795	4523
859.928	4637
860.061	4759
860.194	4828
860.327	4558
860.46	4569
860.592	4710
860.725	4736
860.858	4721
860.99	4577
861.123	4531
861.256	4474
861.388	4634
861.521	5223
861.653	4443
861.786	4451
861.918	4497
862.05	4512
862.183	4535
862.315	4599
862.447	4653
862.58	4580
862.712	4421
862.844	4337
862.976	4451
863.108	4424
863.24	4752
863.372	4306
863.504	4466
863.636	4398
863.768	4508
863.9	4409
864.032	4398
864.164	4394
864.296	4451
864.428	4497
864.559	4577
864.691	4535
864.823	4500
864.954	4436
865.086	4519
865.217	4462
865.349	4413
865.48	4459
865.612	4497
865.743	4596
865.875	4443
866.006	4424
866.137	4478
866.269	4409
866.4	4424
866.531	4409
866.662	4398
866.793	4375
866.924	4386
867.055	4451
867.186	4436
867.317	4421
867.448	4390
867.579	4371
867.71	4436
867.841	4394
867.972	4428
868.103	4481
868.233	4455
868.364	4424
868.495	4470
868.625	4714
868.756	4763
868.886	4569
869.017	4573
869.147	4790
869.278	4782
869.408	4626
869.539	4634
869.669	4679
869.799	4641
869.929	4744
870.06	4725
870.19	4987
870.32	4896
870.45	4892
870.58	4999
870.71	5094
870.84	5117
870.97	4938
871.1	4889
871.23	5151
871.36	5143
871.489	4987
871.619	5018
871.749	5086
871.879	5109
872.008	5231
872.138	5029
872.267	4965
872.397	4847
872.526	4801
872.656	4698
872.785	4793
872.915	4923
873.044	4984
873.173	4900
873.303	4938
873.432	4965
873.561	4968
873.69	4889
873.819	4889
873.948	4965
874.077	4771
874.206	4759
874.335	4771
874.464	4900
874.593	5006
874.722	4938
874.851	5151
874.979	5052
875.108	5014
875.237	4889
875.365	4889
875.494	4915
875.623	4991
875.751	4824
875.88	4862
876.008	5014
876.136	4999
876.265	5212
876.393	5376
876.521	5220
876.65	5212
876.778	5132
876.906	5090
877.034	5003
877.162	5029
877.29	5003
877.418	5064
877.546	5010
877.674	5045
877.802	5033
877.93	5045
878.058	4885
878.185	4870
878.313	4995
878.441	4919
878.568	4816
878.696	4873
878.824	5010
878.951	4980
879.079	5105
879.206	5273
879.333	5121
879.461	4942
879.588	4949
879.715	5124
879.842	5227
879.97	5022
880.097	4820
880.224	4706
880.351	4816
880.478	4828
880.605	4793
880.732	4790
880.859	5060
880.986	4885
881.112	4847
881.239	4755
881.366	4694
881.493	4596
881.619	4596
881.746	4630
881.872	4668
881.999	4603
882.125	4645
882.252	4767
882.378	4828
882.505	4972
882.631	4793
882.757	4687
882.883	4763
883.01	4725
883.136	4641
883.262	4599
883.388	4584
883.514	4812
883.64	4847
883.766	4801
883.892	4634
884.018	4679
884.143	4892
884.269	5010
884.395	4698
884.52	4618
884.646	4702
884.772	4558
884.897	4531
885.023	4630
885.148	4805
885.274	4858
885.399	4812
885.524	4675
885.65	4729
885.775	4744
885.9	4698
886.025	4900
886.15	4748
886.275	4736
886.4	4618
886.525	4714
886.65	4687
886.775	4706
886.9	4919
887.025	5033
887.149	4809
887.274	4656
887.399	4577
887.523	4603
887.648	4565
887.773	4535
887.897	4702
888.021	4801
888.146	4729
888.27	4828
888.395	4900
888.519	4809
888.643	4744
888.767	4820
888.891	4702
889.015	4626
889.139	4653
889.263	4596
889.387	4782
889.511	4854
889.635	4805
889.759	4626
889.883	4645
890.006	4702
890.13	4797
890.254	4611
890.377	4694
890.501	4493
890.624	4546
890.748	4599
890.871	4462
890.995	4428
891.118	4421
891.241	4504
891.364	4516
891.488	4664
891.611	4500
891.734	4546
891.857	4611
891.98	4546
892.103	4634
892.226	4554
892.349	4504
892.471	4424
892.594	4565
892.717	4630
892.839	4607
892.962	4550
893.085	4630
893.207	4527
893.33	4432
893.452	4489
893.575	4626
893.697	4592
893.819	4752
893.941	4824
894.064	4733
894.186	4599
894.308	4558
894.43	4683
894.552	4816
894.674	4740
894.796	4550
894.918	4603
895.04	4558
895.161	4714
895.283	4626
895.405	4531
895.526	4611
895.648	4752
895.769	4679
895.891	4698
896.012	4729
896.134	4683
896.255	4664
896.376	4618
896.498	4607
896.619	4672
896.74	4592
896.861	4645
896.982	4896
897.103	5105
897.224	4805
897.345	4759
897.466	4675
897.587	4714
897.708	4847
897.828	4793
897.949	4656
898.07	4481
898.19	4668
898.311	4797
898.431	4702
898.552	4736
898.672	4805
898.792	4843
898.913	4698
899.033	4637
899.153	4512
899.273	4398
899.393	4500
899.513	4519
899.633	4523
899.753	4535
899.873	4523
899.993	4588
900.113	4596
900.232	4584
900.352	4573
900.472	4504
900.591	4394
900.711	4478
900.83	4424
900.95	4672
901.069	4649
901.189	4542
901.308	4367
901.427	4299
901.546	4402
901.665	4485
901.784	4493
901.904	4348
902.023	4287
902.141	4150
902.26	4143
902.379	4272
902.498	4227
902.617	4234
902.735	4428
902.854	4333
902.973	4367
903.091	4188
903.21	4196
903.328	4295
903.446	4268
903.565	4234
903.683	4356
903.801	4276
903.919	4386
904.038	4417
904.156	4265
904.274	4417
904.392	4363
904.51	4459
904.627	4443
904.745	4535
904.863	4645
904.981	4386
905.098	4333
905.216	4386
905.334	4409
905.451	4451
905.569	4451
905.686	4508
905.803	4554
905.921	4413
906.038	4546
906.155	4440
906.272	4383
906.389	4478
906.506	4371
906.623	4363
906.74	4363
906.857	4318
906.974	4394
907.091	4519
907.208	4641
907.324	4531
907.441	4527
907.557	4310
907.674	4325
907.79	4291
907.907	4402
908.023	4516
908.139	4455
908.256	4421
908.372	4481
908.488	4474
908.604	4303
908.72	4337
908.836	4394
908.952	4303
909.068	4443
909.184	4584
909.3	4500
909.415	4592
909.531	4554
909.647	4371
909.762	4375
909.878	4348
909.993	4436
910.108	4371
910.224	4440
910.339	4474
910.454	4402
910.57	4386
910.685	4303
910.8	4618
910.915	4573
911.03	4474
911.145	4333
911.259	4325
911.374	4356
911.489	4268
911.604	4253
911.718	4158
911.833	4204
911.947	4109
912.062	4029
912.176	4204
912.291	4215
912.405	4280
912.519	4474
912.633	4493
912.748	4337
912.862	4299
912.976	4185
913.09	4078
913.204	4192
913.318	4246
913.431	4375
913.545	4375
913.659	4417
913.772	4344
913.886	4299
914	4204
914.113	4402
914.226	4443
914.34	4348
914.453	4238
914.566	4413
914.68	4287
914.793	4329
914.906	4147
915.019	4112
915.132	4139
915.245	4154
915.358	4181
915.47	4276
915.583	4306
915.696	4284
915.809	4390
915.921	4466
916.034	4272
916.146	4227
916.259	4215
916.371	4367
916.483	4379
916.595	4253
916.708	4337
916.82	4306
916.932	4329
917.044	4318
917.156	4295
917.268	4242
917.38	4280
917.491	4272
917.603	4333
917.715	4402
917.826	4451
917.938	4360
918.049	4234
918.161	4367
918.272	4512
918.384	4519
918.495	4466
918.606	4276
918.717	4200
918.828	4341
918.939	4306
919.05	4230
919.161	4314
919.272	4131
919.383	4227
919.494	4375
919.604	4584
919.715	4459
919.826	4303
919.936	4363
920.047	4512
920.157	4527
920.267	4702
920.378	4542
920.488	4542
920.598	4698
920.708	4850
920.818	4729
920.928	4767
921.038	4942
921.148	4870
921.258	4596
921.368	4554
921.477	4542
921.587	4462
921.697	4363
921.806	4523
921.916	4424
922.025	4188
922.134	4276
922.244	4215
922.353	4348
922.462	4173
922.571	4120
922.68	4021
922.789	3983
922.898	4021
923.007	3941
923.116	4116
923.224	4071
923.333	4078
923.442	3979
923.55	3953
923.659	4032
923.767	4090
923.876	3975
923.984	4131
924.092	3956
924.201	4036
924.309	4128
924.417	4105
924.525	4048
924.633	4078
924.741	4854
924.849	3937
924.956	4116
925.064	3922
925.172	3911
925.279	3930
925.387	4051
925.494	4032
925.602	4238
925.709	4204
925.816	4036
925.924	4105
926.031	4238
926.138	4158
926.245	4215
926.352	4071
926.459	4268
926.566	4268
926.673	4162
926.779	4116
926.886	4082
926.993	3964
927.099	3949
927.206	3941
927.312	3930
927.419	4059
927.525	4071
927.631	4086
927.737	4010
927.843	3934
927.95	3850
928.056	3918
928.162	3983
928.267	4082
928.373	4584
928.479	4154
928.585	3888
928.69	4013
928.796	4048
928.901	3975
929.007	3850
929.112	3998
929.218	3983
929.323	3983
929.428	3918
929.533	4071
929.638	3918
929.743	3949
929.848	3979
929.953	3991
930.058	3896
930.163	3781
930.267	3827
930.372	3934
930.477	3804
930.581	4105
930.685	3926
930.79	3850
930.894	3861
930.998	3876
931.103	4051
931.207	3732
931.311	3690
931.415	3694
931.519	3515
931.623	3515
