Data from test_V78500241_595.txt Node
Date: Fri Mar 25 16:53:08 CST 2022
User: usil
Spectrometer: V785-0024
Trigger mode: 0
Integration Time (sec): 4.000000E-1
Scans to average: 1
Nonlinearity correction enabled: false
Boxcar width: 0
Storing dark spectrum: false
XAxis mode: Wavelengths
Number of Pixels in Spectrum: 1024
>>>>>Begin Spectral Data<<<<<
801.071	8024
801.214	7989
801.356	7875
801.499	7909
801.641	7845
801.783	7822
801.926	7978
802.068	8027
802.211	8069
802.353	8031
802.496	7932
802.638	7917
802.78	7928
802.923	7947
803.065	7871
803.208	7883
803.35	7894
803.492	8111
803.635	8225
803.777	8043
803.919	8134
804.061	8438
804.204	8058
804.346	8058
804.488	7986
804.63	8092
804.773	8065
804.915	8020
805.057	8290
805.199	8176
805.341	8214
805.483	8317
805.626	8263
805.768	8149
805.91	8161
806.052	8248
806.194	8088
806.336	8328
806.478	8062
806.62	8073
806.762	8138
806.904	8259
807.046	8457
807.188	8381
807.33	8347
807.472	8244
807.614	8168
807.756	8092
807.898	7986
808.04	7833
808.182	7871
808.324	7871
808.465	7913
808.607	8027
808.749	8088
808.891	8259
809.033	8332
809.174	8149
809.316	8027
809.458	8100
809.6	7959
809.741	7970
809.883	8054
810.025	8035
810.166	8035
810.308	8005
810.45	7978
810.591	7875
810.733	7765
810.875	7727
811.016	7533
811.158	7597
811.299	7628
811.441	7769
811.582	7765
811.724	7609
811.865	7540
812.007	7601
812.148	7616
812.29	7636
812.431	7807
812.573	7841
812.714	8012
812.855	8176
812.997	8233
813.138	8461
813.279	8229
813.421	8142
813.562	8035
813.703	7913
813.845	7807
813.986	7537
814.127	7350
814.268	7335
814.41	7236
814.551	7152
814.692	7206
814.833	7099
814.974	7095
815.115	7118
815.256	6958
815.397	6916
815.539	6943
815.68	6852
815.821	6821
815.962	6920
816.103	6818
816.244	6764
816.385	6631
816.526	6646
816.666	6467
816.807	6266
816.948	6486
817.089	6517
817.23	6414
817.371	6384
817.512	6357
817.653	6414
817.793	6395
817.934	6426
818.075	6494
818.216	6433
818.356	6357
818.497	6220
818.638	6133
818.778	6201
818.919	6163
819.06	6159
819.2	6334
819.341	6350
819.481	6376
819.622	6540
819.762	6760
819.903	6730
820.043	6582
820.184	6597
820.324	6525
820.465	6673
820.605	6730
820.746	6559
820.886	6502
821.026	6681
821.167	6677
821.307	6810
821.447	6749
821.588	6631
821.728	6528
821.868	6452
822.008	6289
822.149	6369
822.289	6353
822.429	6087
822.569	6102
822.709	6076
822.849	5916
822.99	5889
823.13	5809
823.27	5889
823.41	5802
823.55	5790
823.69	5745
823.83	5794
823.97	5688
824.11	5577
824.25	5539
824.389	5554
824.529	5638
824.669	5501
824.809	5688
824.949	5710
825.089	5623
825.228	5520
825.368	5383
825.508	5357
825.648	5318
825.787	5429
825.927	5364
826.067	5315
826.206	5379
826.346	5429
826.485	5429
826.625	5433
826.765	5562
826.904	5459
827.044	5292
827.183	5166
827.323	5094
827.462	5277
827.601	5151
827.741	5204
827.88	5223
828.02	5140
828.159	5265
828.298	5296
828.437	5337
828.577	5318
828.716	5478
828.855	5391
828.994	5178
829.134	5162
829.273	5250
829.412	5117
829.551	5159
829.69	5197
829.829	5250
829.968	5364
830.107	5307
830.246	5280
830.385	5216
830.524	5155
830.663	5064
830.802	4999
830.941	4946
831.08	4900
831.219	5003
831.357	4946
831.496	5170
831.635	4991
831.774	4870
831.913	4862
832.051	4752
832.19	4733
832.329	4824
832.467	4706
832.606	4645
832.744	4691
832.883	4733
833.022	4706
833.16	4786
833.299	4820
833.437	4873
833.576	4843
833.714	4892
833.852	4896
833.991	4892
834.129	4953
834.267	4953
834.406	4938
834.544	4968
834.682	4930
834.821	4995
834.959	5197
835.097	4976
835.235	5132
835.373	5029
835.511	5079
835.65	5090
835.788	5003
835.926	4877
836.064	4881
836.202	4942
836.34	5189
836.478	5208
836.615	5117
836.753	5227
836.891	5258
837.029	5235
837.167	5208
837.305	5147
837.443	5159
837.58	5071
837.718	5284
837.856	5220
837.993	5170
838.131	5265
838.269	5204
838.406	5216
838.544	5174
838.681	4984
838.819	5064
838.956	4862
839.094	4923
839.231	4938
839.369	5060
839.506	5444
839.643	5273
839.781	5071
839.918	5052
840.055	5033
840.193	5052
840.33	5102
840.467	5124
840.604	5159
840.742	5440
840.879	5064
841.016	5064
841.153	5128
841.29	5398
841.427	5387
841.564	5368
841.701	5345
841.838	5269
841.975	5231
842.112	5307
842.249	5128
842.385	5094
842.522	5315
842.659	5197
842.796	5128
842.933	5220
843.069	5117
843.206	5136
843.343	5299
843.479	5197
843.616	5250
843.752	5010
843.889	5037
844.025	5250
844.162	5003
844.298	5288
844.435	5094
844.571	5075
844.708	5166
844.844	5288
844.98	5349
845.117	5227
845.253	5109
845.389	5090
845.525	5105
845.661	5143
845.798	5064
845.934	5159
846.07	5006
846.206	5201
846.342	5265
846.478	5204
846.614	5018
846.75	4968
846.886	4957
847.022	5121
847.158	5041
847.294	5033
847.429	5117
847.565	5079
847.701	5353
847.837	4847
847.972	4809
848.108	4938
848.244	4942
848.379	4809
848.515	4721
848.65	4721
848.786	4714
848.921	4736
849.057	4866
849.192	4923
849.328	4790
849.463	4782
849.598	4824
849.734	4729
849.869	4622
850.004	4630
850.14	4656
850.275	4580
850.41	4508
850.545	4573
850.68	4573
850.815	4577
850.95	4607
851.085	4831
851.22	4733
851.355	4698
851.49	4668
851.625	4634
851.76	4679
851.895	4592
852.03	4538
852.165	4679
852.299	4736
852.434	4820
852.569	4733
852.703	4782
852.838	4828
852.973	4946
853.107	4915
853.242	4733
853.376	4675
853.511	4573
853.645	4573
853.78	4790
853.914	4675
854.048	4649
854.183	4641
854.317	4733
854.451	4828
854.585	4664
854.72	4664
854.854	4812
854.988	4618
855.122	4637
855.256	4546
855.39	4683
855.524	4763
855.658	4698
855.792	4672
855.926	4759
856.06	4786
856.194	4816
856.327	4714
856.461	4603
856.595	4607
856.729	4607
856.862	4736
856.996	4698
857.13	4736
857.263	4763
857.397	4809
857.53	4729
857.664	4778
857.797	4725
857.931	4778
858.064	4675
858.197	4755
858.331	4679
858.464	4626
858.597	4512
858.731	4622
858.864	4694
858.997	4615
859.13	4691
859.263	4653
859.396	4698
859.529	4588
859.662	4599
859.795	4504
859.928	4634
860.061	4748
860.194	4774
860.327	4599
860.46	4550
860.592	4706
860.725	4755
860.858	4752
860.99	4580
861.123	4531
861.256	4527
861.388	4664
861.521	5398
861.653	4481
861.786	4447
861.918	4447
862.05	4504
862.183	4611
862.315	4611
862.447	4645
862.58	4588
862.712	4440
862.844	4329
862.976	4436
863.108	4428
863.24	4850
863.372	4325
863.504	4466
863.636	4413
863.768	4500
863.9	4470
864.032	4383
864.164	4405
864.296	4459
864.428	4489
864.559	4538
864.691	4569
864.823	4550
864.954	4519
865.086	4500
865.217	4447
865.349	4394
865.48	4421
865.612	4470
865.743	4561
865.875	4485
866.006	4459
866.137	4447
866.269	4481
866.4	4443
866.531	4398
866.662	4367
866.793	4360
866.924	4394
867.055	4519
867.186	4455
867.317	4371
867.448	4352
867.579	4367
867.71	4383
867.841	4348
867.972	4500
868.103	4443
868.233	4474
868.364	4462
868.495	4493
868.625	4687
868.756	4774
868.886	4580
869.017	4634
869.147	4755
869.278	4793
869.408	4607
869.539	4660
869.669	4675
869.799	4660
869.929	4755
870.06	4702
870.19	4987
870.32	4911
870.45	4889
870.58	5003
870.71	5109
870.84	5075
870.97	4965
871.1	4892
871.23	5159
871.36	5086
871.489	4968
871.619	5109
871.749	5117
871.879	5170
872.008	5189
872.138	5041
872.267	4968
872.397	4820
872.526	4778
872.656	4725
872.785	4866
872.915	4972
873.044	5045
873.173	4919
873.303	5003
873.432	4915
873.561	4984
873.69	4858
873.819	4854
873.948	4915
874.077	4812
874.206	4721
874.335	4778
874.464	4911
874.593	5025
874.722	4965
874.851	5067
874.979	5064
875.108	5025
875.237	4889
875.365	4862
875.494	4911
875.623	4942
875.751	4828
875.88	4850
876.008	5029
876.136	5022
876.265	5216
876.393	5288
876.521	5280
876.65	5223
876.778	5140
876.906	5079
877.034	5045
877.162	5071
877.29	5010
877.418	5029
877.546	5105
877.674	5018
877.802	5067
877.93	5018
878.058	4942
878.185	4915
878.313	4938
878.441	4957
878.568	4782
878.696	4858
878.824	4911
878.951	4976
879.079	5102
879.206	5311
879.333	5064
879.461	4946
879.588	5018
879.715	5113
879.842	5235
879.97	4949
880.097	4824
880.224	4706
880.351	4801
880.478	4828
880.605	4839
880.732	4812
880.859	5041
880.986	4870
881.112	4911
881.239	4767
881.366	4679
881.493	4622
881.619	4588
881.746	4630
881.872	4637
881.999	4706
882.125	4725
882.252	4809
882.378	4793
882.505	5003
882.631	4740
882.757	4698
882.883	4721
883.01	4706
883.136	4618
883.262	4580
883.388	4611
883.514	4850
883.64	4881
883.766	4759
883.892	4687
884.018	4710
884.143	4915
884.269	5029
884.395	4683
884.52	4641
884.646	4679
884.772	4523
884.897	4569
885.023	4683
885.148	4774
885.274	4877
885.399	4752
885.524	4774
885.65	4721
885.775	4710
885.9	4702
886.025	4820
886.15	4782
886.275	4668
886.4	4615
886.525	4725
886.65	4653
886.775	4622
886.9	4946
887.025	5018
887.149	4812
887.274	4618
887.399	4607
887.523	4618
887.648	4603
887.773	4592
887.897	4786
888.021	4744
888.146	4702
888.27	4809
888.395	4900
888.519	4801
888.643	4809
888.767	4801
888.891	4740
889.015	4596
889.139	4656
889.263	4618
889.387	4771
889.511	4866
889.635	4793
889.759	4691
889.883	4634
890.006	4714
890.13	4835
890.254	4599
890.377	4675
890.501	4516
890.624	4523
890.748	4634
890.871	4527
890.995	4451
891.118	4367
891.241	4497
891.364	4497
891.488	4626
891.611	4550
891.734	4584
891.857	4588
891.98	4588
892.103	4630
892.226	4531
892.349	4531
892.471	4466
892.594	4577
892.717	4588
892.839	4596
892.962	4626
893.085	4660
893.207	4637
893.33	4485
893.452	4512
893.575	4649
893.697	4565
893.819	4774
893.941	4843
894.064	4755
894.186	4554
894.308	4565
894.43	4759
894.552	4809
894.674	4733
894.796	4546
894.918	4599
895.04	4584
895.161	4706
895.283	4706
895.405	4615
895.526	4634
895.648	4736
895.769	4672
895.891	4687
896.012	4710
896.134	4744
896.255	4694
896.376	4641
896.498	4626
896.619	4664
896.74	4599
896.861	4664
896.982	4930
897.103	5071
897.224	4847
897.345	4786
897.466	4694
897.587	4752
897.708	4866
897.828	4812
897.949	4721
898.07	4588
898.19	4641
898.311	4828
898.431	4675
898.552	4755
898.672	4809
898.792	4793
898.913	4767
899.033	4592
899.153	4500
899.273	4451
899.393	4481
899.513	4443
899.633	4497
899.753	4577
899.873	4527
899.993	4611
900.113	4535
900.232	4599
900.352	4546
900.472	4474
900.591	4390
900.711	4508
900.83	4436
900.95	4618
901.069	4641
901.189	4527
901.308	4371
901.427	4356
901.546	4398
901.665	4470
901.784	4512
901.904	4398
902.023	4295
902.141	4177
902.26	4173
902.379	4310
902.498	4204
902.617	4207
902.735	4344
902.854	4432
902.973	4341
903.091	4215
903.21	4265
903.328	4287
903.446	4272
903.565	4265
903.683	4383
903.801	4303
903.919	4451
904.038	4409
904.156	4367
904.274	4451
904.392	4409
904.51	4394
904.627	4485
904.745	4561
904.863	4641
904.981	4383
905.098	4276
905.216	4363
905.334	4379
905.451	4432
905.569	4386
905.686	4554
905.803	4561
905.921	4390
906.038	4527
906.155	4470
906.272	4409
906.389	4485
906.506	4310
906.623	4413
906.74	4333
906.857	4284
906.974	4390
907.091	4535
907.208	4702
907.324	4592
907.441	4481
907.557	4375
907.674	4322
907.79	4314
907.907	4394
908.023	4413
908.139	4466
908.256	4390
908.372	4478
908.488	4519
908.604	4344
908.72	4333
908.836	4386
908.952	4360
909.068	4386
909.184	4489
909.3	4497
909.415	4607
909.531	4546
909.647	4348
909.762	4341
909.878	4344
909.993	4432
910.108	4371
910.224	4402
910.339	4489
910.454	4447
910.57	4352
910.685	4325
910.8	4641
910.915	4550
911.03	4459
911.145	4348
911.259	4329
911.374	4371
911.489	4306
911.604	4295
911.718	4154
911.833	4185
911.947	4048
912.062	4017
912.176	4287
912.291	4265
912.405	4238
912.519	4462
912.633	4504
912.748	4333
912.862	4333
912.976	4169
913.09	4112
913.204	4177
913.318	4261
913.431	4333
913.545	4405
913.659	4459
913.772	4360
913.886	4234
914	4219
914.113	4383
914.226	4470
914.34	4402
914.453	4207
914.566	4451
914.68	4284
914.793	4306
914.906	4177
915.019	4101
915.132	4071
915.245	4200
915.358	4227
915.47	4192
915.583	4276
915.696	4322
915.809	4421
915.921	4428
916.034	4265
916.146	4234
916.259	4204
916.371	4375
916.483	4352
916.595	4257
916.708	4322
916.82	4371
916.932	4337
917.044	4329
917.156	4333
917.268	4246
917.38	4299
917.491	4287
917.603	4337
917.715	4459
917.826	4443
917.938	4329
918.049	4280
918.161	4432
918.272	4519
918.384	4584
918.495	4466
918.606	4341
918.717	4223
918.828	4272
918.939	4360
919.05	4303
919.161	4314
919.272	4105
919.383	4215
919.494	4432
919.604	4607
919.715	4462
919.826	4337
919.936	4436
920.047	4531
920.157	4504
920.267	4702
920.378	4519
920.488	4470
920.598	4710
920.708	4881
920.818	4717
920.928	4748
921.038	4923
921.148	4923
921.258	4607
921.368	4527
921.477	4519
921.587	4481
921.697	4360
921.806	4436
921.916	4440
922.025	4291
922.134	4265
922.244	4246
922.353	4318
922.462	4166
922.571	4120
922.68	4029
922.789	4059
922.898	4025
923.007	3987
923.116	4112
923.224	4101
923.333	4082
923.442	3987
923.55	3991
923.659	4002
923.767	4063
923.876	4010
923.984	4086
924.092	3987
924.201	4082
924.309	4071
924.417	4112
924.525	4044
924.633	4112
924.741	5029
924.849	3911
924.956	4150
925.064	3968
925.172	3892
925.279	3941
925.387	4093
925.494	4017
925.602	4207
925.709	4135
925.816	4090
925.924	4055
926.031	4192
926.138	4147
926.245	4207
926.352	4135
926.459	4257
926.566	4352
926.673	4090
926.779	4090
926.886	4101
926.993	3953
927.099	3968
927.206	3926
927.312	3975
927.419	4112
927.525	4078
927.631	4124
927.737	3949
927.843	3945
927.95	3846
928.056	3937
928.162	4002
928.267	4105
928.373	4679
928.479	4116
928.585	3861
928.69	4002
928.796	4105
928.901	3994
929.007	3823
929.112	3956
929.218	3953
929.323	3975
929.428	3960
929.533	4097
929.638	3884
929.743	3941
929.848	4002
929.953	3991
930.058	3884
930.163	3781
930.267	3869
930.372	3983
930.477	3823
930.581	4067
930.685	3972
930.79	3846
930.894	3876
930.998	3865
931.103	4074
931.207	3690
931.311	3652
931.415	3663
931.519	3564
931.623	3557
