Data from test_V78500241_1321.txt Node
Date: Fri Mar 25 16:58:11 CST 2022
User: usil
Spectrometer: V785-0024
Trigger mode: 0
Integration Time (sec): 4.000000E-1
Scans to average: 1
Nonlinearity correction enabled: false
Boxcar width: 0
Storing dark spectrum: false
XAxis mode: Wavelengths
Number of Pixels in Spectrum: 1024
>>>>>Begin Spectral Data<<<<<
801.071	7936
801.214	8050
801.356	7849
801.499	7864
801.641	7757
801.783	7788
801.926	7925
802.068	7879
802.211	7967
802.353	7993
802.496	7852
802.638	7868
802.78	7906
802.923	7925
803.065	7902
803.208	7811
803.35	7997
803.492	8123
803.635	8134
803.777	8058
803.919	8096
804.061	8438
804.204	8202
804.346	8043
804.488	7982
804.63	8065
804.773	8077
804.915	8035
805.057	8347
805.199	8119
805.341	8248
805.483	8279
805.626	8240
805.768	8050
805.91	8244
806.052	8225
806.194	8138
806.336	8244
806.478	8088
806.62	7951
806.762	8145
806.904	8301
807.046	8473
807.188	8381
807.33	8305
807.472	8309
807.614	8084
807.756	8142
807.898	8024
808.04	7875
808.182	7913
808.324	7917
808.465	7909
808.607	8164
808.749	8084
808.891	8191
809.033	8248
809.174	8176
809.316	8119
809.458	8077
809.6	7921
809.741	8039
809.883	8054
810.025	8084
810.166	8103
810.308	8069
810.45	7970
810.591	7894
810.733	7700
810.875	7719
811.016	7464
811.158	7605
811.299	7594
811.441	7712
811.582	7704
811.724	7575
811.865	7567
812.007	7616
812.148	7597
812.29	7594
812.431	7712
812.573	7928
812.714	8016
812.855	8092
812.997	8206
813.138	8324
813.279	8191
813.421	8096
813.562	7970
813.703	7830
813.845	7738
813.986	7460
814.127	7236
814.268	7289
814.41	7164
814.551	7145
814.692	7179
814.833	7126
814.974	7088
815.115	7084
815.256	6985
815.397	6924
815.539	6916
815.68	6791
815.821	6734
815.962	6859
816.103	6837
816.244	6795
816.385	6639
816.526	6627
816.666	6506
816.807	6331
816.948	6407
817.089	6551
817.23	6467
817.371	6407
817.512	6388
817.653	6369
817.793	6346
817.934	6433
818.075	6429
818.216	6403
818.356	6380
818.497	6285
818.638	6091
818.778	6106
818.919	6144
819.06	6152
819.2	6258
819.341	6289
819.481	6357
819.622	6494
819.762	6745
819.903	6688
820.043	6593
820.184	6521
820.324	6517
820.465	6654
820.605	6658
820.746	6711
820.886	6528
821.026	6631
821.167	6764
821.307	6745
821.447	6757
821.588	6692
821.728	6483
821.868	6528
822.008	6277
822.149	6395
822.289	6327
822.429	6175
822.569	6095
822.709	6102
822.849	5927
822.99	5912
823.13	5954
823.27	5904
823.41	5790
823.55	5726
823.69	5760
823.83	5745
823.97	5665
824.11	5463
824.25	5421
824.389	5512
824.529	5589
824.669	5467
824.809	5615
824.949	5649
825.089	5604
825.228	5577
825.368	5360
825.508	5337
825.648	5299
825.787	5334
825.927	5318
826.067	5311
826.206	5284
826.346	5315
826.485	5406
826.625	5395
826.765	5535
826.904	5493
827.044	5292
827.183	5178
827.323	5105
827.462	5220
827.601	5147
827.741	5216
827.88	5201
828.02	5128
828.159	5204
828.298	5265
828.437	5341
828.577	5288
828.716	5467
828.855	5345
828.994	5155
829.134	5174
829.273	5162
829.412	5147
829.551	5094
829.69	5223
829.829	5208
829.968	5376
830.107	5258
830.246	5273
830.385	5178
830.524	5121
830.663	5014
830.802	5037
830.941	4850
831.08	4885
831.219	4987
831.357	4915
831.496	5174
831.635	4961
831.774	4858
831.913	4877
832.051	4698
832.19	4778
832.329	4824
832.467	4729
832.606	4599
832.744	4717
832.883	4698
833.022	4721
833.16	4771
833.299	4816
833.437	4790
833.576	4835
833.714	4862
833.852	4847
833.991	4847
834.129	4968
834.267	4946
834.406	4835
834.544	5010
834.682	4915
834.821	4968
834.959	5109
835.097	5003
835.235	5136
835.373	5094
835.511	5121
835.65	5045
835.788	5006
835.926	4854
836.064	4835
836.202	4904
836.34	5124
836.478	5254
836.615	5124
836.753	5208
836.891	5250
837.029	5258
837.167	5189
837.305	5181
837.443	5170
837.58	5075
837.718	5254
837.856	5151
837.993	5140
838.131	5242
838.269	5178
838.406	5155
838.544	5121
838.681	5048
838.819	4972
838.956	4889
839.094	4862
839.231	4980
839.369	5121
839.506	5406
839.643	5273
839.781	5083
839.918	5003
840.055	5105
840.193	5094
840.33	5117
840.467	5159
840.604	5174
840.742	5436
840.879	5060
841.016	5136
841.153	5117
841.29	5349
841.427	5326
841.564	5288
841.701	5357
841.838	5258
841.975	5185
842.112	5223
842.249	5105
842.385	5083
842.522	5284
842.659	5185
842.796	5151
842.933	5197
843.069	5162
843.206	5113
843.343	5296
843.479	5216
843.616	5223
843.752	5048
843.889	4953
844.025	5204
844.162	4972
844.298	5208
844.435	5041
844.571	5052
844.708	5181
844.844	5284
844.98	5322
845.117	5223
845.253	5132
845.389	5048
845.525	5098
845.661	5105
845.798	5022
845.934	5128
846.07	5056
846.206	5201
846.342	5193
846.478	5098
846.614	5018
846.75	4984
846.886	4938
847.022	5117
847.158	4984
847.294	5037
847.429	5060
847.565	5075
847.701	5288
847.837	4866
847.972	4782
848.108	4968
848.244	4889
848.379	4767
848.515	4748
848.65	4694
848.786	4725
848.921	4755
849.057	4820
849.192	4866
849.328	4828
849.463	4835
849.598	4797
849.734	4774
849.869	4725
850.004	4630
850.14	4691
850.275	4622
850.41	4478
850.545	4516
850.68	4573
850.815	4573
850.95	4634
851.085	4828
851.22	4733
851.355	4714
851.49	4622
851.625	4584
851.76	4538
851.895	4580
852.03	4527
852.165	4672
852.299	4702
852.434	4809
852.569	4733
852.703	4725
852.838	4812
852.973	4938
853.107	4961
853.242	4710
853.376	4679
853.511	4542
853.645	4538
853.78	4733
853.914	4622
854.048	4649
854.183	4603
854.317	4664
854.451	4816
854.585	4660
854.72	4599
854.854	4725
854.988	4599
855.122	4592
855.256	4516
855.39	4664
855.524	4740
855.658	4733
855.792	4634
855.926	4710
856.06	4755
856.194	4778
856.327	4618
856.461	4588
856.595	4645
856.729	4622
856.862	4702
856.996	4641
857.13	4725
857.263	4714
857.397	4752
857.53	4626
857.664	4725
857.797	4729
857.931	4767
858.064	4660
858.197	4725
858.331	4603
858.464	4599
858.597	4516
858.731	4615
858.864	4603
858.997	4573
859.13	4630
859.263	4679
859.396	4706
859.529	4558
859.662	4565
859.795	4542
859.928	4626
860.061	4763
860.194	4748
860.327	4599
860.46	4588
860.592	4702
860.725	4740
860.858	4706
860.99	4577
861.123	4516
861.256	4519
861.388	4592
861.521	5189
861.653	4478
861.786	4432
861.918	4421
862.05	4516
862.183	4550
862.315	4577
862.447	4584
862.58	4550
862.712	4379
862.844	4303
862.976	4459
863.108	4413
863.24	4847
863.372	4306
863.504	4436
863.636	4394
863.768	4508
863.9	4413
864.032	4337
864.164	4383
864.296	4447
864.428	4550
864.559	4546
864.691	4512
864.823	4459
864.954	4428
865.086	4478
865.217	4447
865.349	4390
865.48	4455
865.612	4485
865.743	4599
865.875	4428
866.006	4424
866.137	4470
866.269	4421
866.4	4375
866.531	4417
866.662	4413
866.793	4394
866.924	4413
867.055	4470
867.186	4428
867.317	4424
867.448	4383
867.579	4371
867.71	4394
867.841	4360
867.972	4504
868.103	4440
868.233	4413
868.364	4428
868.495	4481
868.625	4660
868.756	4759
868.886	4565
869.017	4584
869.147	4767
869.278	4721
869.408	4630
869.539	4679
869.669	4725
869.799	4649
869.929	4714
870.06	4702
870.19	4919
870.32	4919
870.45	4946
870.58	4987
870.71	5079
870.84	5052
870.97	4911
871.1	4915
871.23	5140
871.36	5124
871.489	5060
871.619	5071
871.749	5022
871.879	5136
872.008	5162
872.138	5025
872.267	4972
872.397	4843
872.526	4805
872.656	4733
872.785	4801
872.915	4930
873.044	5048
873.173	4881
873.303	4972
873.432	4908
873.561	4953
873.69	4858
873.819	4828
873.948	4877
874.077	4824
874.206	4733
874.335	4725
874.464	4904
874.593	4968
874.722	4942
874.851	5075
874.979	5086
875.108	5018
875.237	4900
875.365	4847
875.494	4847
875.623	4987
875.751	4824
875.88	4835
876.008	4908
876.136	4972
876.265	5162
876.393	5303
876.521	5254
876.65	5231
876.778	5166
876.906	5052
877.034	5025
877.162	5048
877.29	4957
877.418	5029
877.546	5006
877.674	4984
877.802	4999
877.93	5041
878.058	4892
878.185	4854
878.313	4961
878.441	4949
878.568	4793
878.696	4828
878.824	4972
878.951	4987
879.079	5071
879.206	5239
879.333	5102
879.461	4930
879.588	4957
879.715	5060
879.842	5166
879.97	4946
880.097	4763
880.224	4706
880.351	4740
880.478	4793
880.605	4774
880.732	4736
880.859	5037
880.986	4885
881.112	4911
881.239	4759
881.366	4675
881.493	4535
881.619	4580
881.746	4637
881.872	4637
881.999	4588
882.125	4653
882.252	4725
882.378	4809
882.505	4930
882.631	4759
882.757	4626
882.883	4679
883.01	4656
883.136	4626
883.262	4607
883.388	4588
883.514	4771
883.64	4812
883.766	4771
883.892	4611
884.018	4714
884.143	4858
884.269	4999
884.395	4668
884.52	4599
884.646	4599
884.772	4577
884.897	4558
885.023	4603
885.148	4759
885.274	4850
885.399	4797
885.524	4698
885.65	4694
885.775	4767
885.9	4710
886.025	4900
886.15	4835
886.275	4668
886.4	4649
886.525	4759
886.65	4672
886.775	4729
886.9	4915
887.025	5037
887.149	4778
887.274	4649
887.399	4603
887.523	4649
887.648	4622
887.773	4596
887.897	4767
888.021	4805
888.146	4672
888.27	4824
888.395	4911
888.519	4759
888.643	4858
888.767	4892
888.891	4656
889.015	4660
889.139	4683
889.263	4645
889.387	4763
889.511	4927
889.635	4835
889.759	4691
889.883	4668
890.006	4752
890.13	4831
890.254	4622
890.377	4679
890.501	4500
890.624	4565
890.748	4694
890.871	4542
890.995	4447
891.118	4409
891.241	4508
891.364	4554
891.488	4679
891.611	4599
891.734	4569
891.857	4637
891.98	4577
892.103	4653
892.226	4622
892.349	4580
892.471	4497
892.594	4660
892.717	4653
892.839	4573
892.962	4656
893.085	4687
893.207	4615
893.33	4478
893.452	4569
893.575	4683
893.697	4653
893.819	4847
893.941	4915
894.064	4797
894.186	4603
894.308	4599
894.43	4759
894.552	4847
894.674	4755
894.796	4584
894.918	4577
895.04	4607
895.161	4752
895.283	4702
895.405	4596
895.526	4653
895.648	4725
895.769	4733
895.891	4725
896.012	4782
896.134	4812
896.255	4717
896.376	4698
896.498	4622
896.619	4706
896.74	4653
896.861	4683
896.982	4965
897.103	5086
897.224	4885
897.345	4786
897.466	4687
897.587	4755
897.708	4919
897.828	4786
897.949	4725
898.07	4618
898.19	4637
898.311	4866
898.431	4668
898.552	4763
898.672	4839
898.792	4831
898.913	4774
899.033	4691
899.153	4531
899.273	4481
899.393	4561
899.513	4516
899.633	4519
899.753	4599
899.873	4519
899.993	4637
900.113	4565
900.232	4664
900.352	4523
900.472	4519
900.591	4440
900.711	4493
900.83	4424
900.95	4653
901.069	4717
901.189	4527
901.308	4375
901.427	4341
901.546	4405
901.665	4512
901.784	4489
901.904	4466
902.023	4375
902.141	4169
902.26	4200
902.379	4344
902.498	4230
902.617	4219
902.735	4398
902.854	4409
902.973	4421
903.091	4223
903.21	4295
903.328	4287
903.446	4291
903.565	4280
903.683	4409
903.801	4303
903.919	4451
904.038	4443
904.156	4318
904.274	4497
904.392	4394
904.51	4470
904.627	4504
904.745	4626
904.863	4687
904.981	4394
905.098	4341
905.216	4440
905.334	4500
905.451	4432
905.569	4421
905.686	4584
905.803	4573
905.921	4409
906.038	4569
906.155	4470
906.272	4409
906.389	4462
906.506	4344
906.623	4402
906.74	4466
906.857	4371
906.974	4398
907.091	4626
907.208	4694
907.324	4634
907.441	4504
907.557	4375
907.674	4413
907.79	4379
907.907	4413
908.023	4523
908.139	4478
908.256	4481
908.372	4497
908.488	4516
908.604	4356
908.72	4333
908.836	4398
908.952	4383
909.068	4459
909.184	4584
909.3	4527
909.415	4611
909.531	4565
909.647	4402
909.762	4390
909.878	4337
909.993	4459
910.108	4459
910.224	4462
910.339	4535
910.454	4402
910.57	4356
910.685	4344
910.8	4683
910.915	4550
911.03	4546
911.145	4318
911.259	4386
911.374	4379
911.489	4295
911.604	4333
911.718	4173
911.833	4246
911.947	4131
912.062	4063
912.176	4223
912.291	4276
912.405	4287
912.519	4470
912.633	4535
912.748	4413
912.862	4348
912.976	4253
913.09	4097
913.204	4219
913.318	4299
913.431	4367
913.545	4394
913.659	4504
913.772	4341
913.886	4310
914	4246
914.113	4383
914.226	4428
914.34	4421
914.453	4268
914.566	4481
914.68	4344
914.793	4341
914.906	4211
915.019	4124
915.132	4105
915.245	4192
915.358	4211
915.47	4242
915.583	4306
915.696	4280
915.809	4436
915.921	4424
916.034	4280
916.146	4272
916.259	4249
916.371	4383
916.483	4367
916.595	4329
916.708	4375
916.82	4379
916.932	4306
917.044	4322
917.156	4341
917.268	4234
917.38	4341
917.491	4306
917.603	4383
917.715	4424
917.826	4459
917.938	4363
918.049	4276
918.161	4440
918.272	4558
918.384	4535
918.495	4455
918.606	4325
918.717	4268
918.828	4379
918.939	4344
919.05	4261
919.161	4325
919.272	4192
919.383	4306
919.494	4459
919.604	4622
919.715	4451
919.826	4375
919.936	4409
920.047	4527
920.157	4500
920.267	4733
920.378	4554
920.488	4523
920.598	4664
920.708	4927
920.818	4763
920.928	4767
921.038	4938
921.148	4938
921.258	4687
921.368	4584
921.477	4523
921.587	4474
921.697	4409
921.806	4596
921.916	4493
922.025	4284
922.134	4284
922.244	4234
922.353	4352
922.462	4196
922.571	4124
922.68	4029
922.789	4021
922.898	4059
923.007	3960
923.116	4116
923.224	4093
923.333	4082
923.442	3991
923.55	4044
923.659	4059
923.767	4158
923.876	4029
923.984	4128
924.092	4006
924.201	4097
924.309	4078
924.417	4185
924.525	4101
924.633	4143
924.741	5060
924.849	3899
924.956	4158
925.064	4006
925.172	3892
925.279	3949
925.387	4090
925.494	4067
925.602	4211
925.709	4173
925.816	4093
925.924	4192
926.031	4268
926.138	4215
926.245	4242
926.352	4097
926.459	4234
926.566	4352
926.673	4215
926.779	4162
926.886	4105
926.993	3979
927.099	3979
927.206	3975
927.312	3987
927.419	4109
927.525	4040
927.631	4105
927.737	3953
927.843	3937
927.95	3903
928.056	3975
928.162	3964
928.267	4109
928.373	4660
928.479	4158
928.585	3846
928.69	4051
928.796	4063
928.901	3953
929.007	3865
929.112	4017
929.218	3983
929.323	3941
929.428	3960
929.533	4112
929.638	3907
929.743	3998
929.848	4078
929.953	3994
930.058	3972
930.163	3831
930.267	3842
930.372	4006
930.477	3816
930.581	4067
930.685	3960
930.79	3823
930.894	3888
930.998	3899
931.103	4071
931.207	3717
931.311	3701
931.415	3671
931.519	3545
931.623	3557
