Data from test_V78500241_2647.txt Node
Date: Fri Mar 25 17:07:24 CST 2022
User: usil
Spectrometer: V785-0024
Trigger mode: 0
Integration Time (sec): 4.000000E-1
Scans to average: 1
Nonlinearity correction enabled: false
Boxcar width: 0
Storing dark spectrum: false
XAxis mode: Wavelengths
Number of Pixels in Spectrum: 1024
>>>>>Begin Spectral Data<<<<<
801.071	8027
801.214	7944
801.356	7875
801.499	7845
801.641	7788
801.783	7822
801.926	7944
802.068	7940
802.211	7967
802.353	7993
802.496	7849
802.638	7871
802.78	7887
802.923	7978
803.065	7959
803.208	7826
803.35	7955
803.492	8138
803.635	8145
803.777	7982
803.919	8176
804.061	8473
804.204	8103
804.346	8062
804.488	7993
804.63	8142
804.773	8054
804.915	8126
805.057	8225
805.199	8172
805.341	8263
805.483	8317
805.626	8279
805.768	8206
805.91	8164
806.052	8256
806.194	8142
806.336	8225
806.478	8088
806.62	8054
806.762	8096
806.904	8324
807.046	8480
807.188	8370
807.33	8332
807.472	8385
807.614	8202
807.756	8161
807.898	8081
808.04	7921
808.182	7913
808.324	7856
808.465	7955
808.607	8100
808.749	8103
808.891	8214
809.033	8343
809.174	8195
809.316	8111
809.458	8054
809.6	7986
809.741	8073
809.883	8016
810.025	8077
810.166	8077
810.308	8046
810.45	8077
810.591	7932
810.733	7765
810.875	7715
811.016	7556
811.158	7506
811.299	7578
811.441	7731
811.582	7658
811.724	7590
811.865	7624
812.007	7636
812.148	7662
812.29	7658
812.431	7727
812.573	7925
812.714	8031
812.855	8084
812.997	8191
813.138	8317
813.279	8119
813.421	8096
813.562	8024
813.703	7890
813.845	7734
813.986	7415
814.127	7221
814.268	7255
814.41	7259
814.551	7282
814.692	7194
814.833	7114
814.974	7118
815.115	7183
815.256	6993
815.397	6928
815.539	6996
815.68	6825
815.821	6814
815.962	6863
816.103	6844
816.244	6757
816.385	6559
816.526	6681
816.666	6536
816.807	6448
816.948	6429
817.089	6528
817.23	6460
817.371	6429
817.512	6410
817.653	6376
817.793	6380
817.934	6448
818.075	6517
818.216	6437
818.356	6460
818.497	6273
818.638	6182
818.778	6182
818.919	6140
819.06	6201
819.2	6369
819.341	6350
819.481	6365
819.622	6513
819.762	6768
819.903	6711
820.043	6665
820.184	6589
820.324	6623
820.465	6734
820.605	6692
820.746	6753
820.886	6589
821.026	6715
821.167	6795
821.307	6783
821.447	6825
821.588	6703
821.728	6559
821.868	6578
822.008	6319
822.149	6418
822.289	6407
822.429	6144
822.569	6125
822.709	6182
822.849	5942
822.99	5950
823.13	5935
823.27	5973
823.41	5794
823.55	5794
823.69	5779
823.83	5779
823.97	5729
824.11	5558
824.25	5581
824.389	5600
824.529	5634
824.669	5532
824.809	5623
824.949	5672
825.089	5684
825.228	5604
825.368	5421
825.508	5387
825.648	5395
825.787	5387
825.927	5436
826.067	5334
826.206	5307
826.346	5414
826.485	5436
826.625	5433
826.765	5577
826.904	5520
827.044	5299
827.183	5159
827.323	5204
827.462	5273
827.601	5181
827.741	5220
827.88	5231
828.02	5143
828.159	5261
828.298	5326
828.437	5398
828.577	5345
828.716	5512
828.855	5353
828.994	5231
829.134	5208
829.273	5151
829.412	5143
829.551	5151
829.69	5231
829.829	5277
829.968	5353
830.107	5261
830.246	5349
830.385	5216
830.524	5181
830.663	5075
830.802	5029
830.941	4953
831.08	4942
831.219	5029
831.357	5018
831.496	5124
831.635	5006
831.774	4870
831.913	4934
832.051	4790
832.19	4752
832.329	4896
832.467	4694
832.606	4649
832.744	4786
832.883	4740
833.022	4710
833.16	4782
833.299	4881
833.437	4816
833.576	4873
833.714	4915
833.852	4900
833.991	4995
834.129	4995
834.267	4919
834.406	4927
834.544	4938
834.682	4965
834.821	4995
834.959	5189
835.097	5025
835.235	5181
835.373	5094
835.511	5113
835.65	5094
835.788	5018
835.926	4923
836.064	4881
836.202	4957
836.34	5204
836.478	5258
836.615	5124
836.753	5265
836.891	5292
837.029	5246
837.167	5181
837.305	5185
837.443	5174
837.58	5105
837.718	5334
837.856	5201
837.993	5155
838.131	5216
838.269	5231
838.406	5246
838.544	5178
838.681	5018
838.819	5022
838.956	4896
839.094	4911
839.231	5041
839.369	5121
839.506	5478
839.643	5307
839.781	5124
839.918	5029
840.055	5132
840.193	5136
840.33	5132
840.467	5197
840.604	5223
840.742	5387
840.879	5083
841.016	5098
841.153	5166
841.29	5379
841.427	5284
841.564	5341
841.701	5326
841.838	5269
841.975	5254
842.112	5341
842.249	5170
842.385	5208
842.522	5345
842.659	5220
842.796	5193
842.933	5208
843.069	5201
843.206	5170
843.343	5311
843.479	5277
843.616	5303
843.752	5109
843.889	5022
844.025	5250
844.162	5064
844.298	5197
844.435	5136
844.571	5079
844.708	5273
844.844	5357
844.98	5364
845.117	5284
845.253	5181
845.389	5159
845.525	5204
845.661	5121
845.798	5067
845.934	5174
846.07	5079
846.206	5185
846.342	5307
846.478	5170
846.614	5025
846.75	4991
846.886	4995
847.022	5155
847.158	5056
847.294	5094
847.429	5181
847.565	5098
847.701	5311
847.837	4900
847.972	4873
848.108	4999
848.244	4919
848.379	4812
848.515	4763
848.65	4725
848.786	4748
848.921	4786
849.057	4900
849.192	4915
849.328	4828
849.463	4828
849.598	4801
849.734	4809
849.869	4717
850.004	4626
850.14	4656
850.275	4675
850.41	4573
850.545	4565
850.68	4607
850.815	4618
850.95	4611
851.085	4858
851.22	4774
851.355	4675
851.49	4569
851.625	4634
851.76	4675
851.895	4550
852.03	4573
852.165	4645
852.299	4771
852.434	4839
852.569	4752
852.703	4812
852.838	4858
852.973	4980
853.107	4965
853.242	4721
853.376	4698
853.511	4569
853.645	4618
853.78	4820
853.914	4714
854.048	4694
854.183	4660
854.317	4740
854.451	4885
854.585	4729
854.72	4668
854.854	4759
854.988	4611
855.122	4622
855.256	4561
855.39	4649
855.524	4786
855.658	4736
855.792	4675
855.926	4752
856.06	4774
856.194	4752
856.327	4694
856.461	4672
856.595	4664
856.729	4660
856.862	4729
856.996	4683
857.13	4729
857.263	4755
857.397	4854
857.53	4645
857.664	4721
857.797	4774
857.931	4740
858.064	4656
858.197	4805
858.331	4675
858.464	4622
858.597	4577
858.731	4630
858.864	4672
858.997	4580
859.13	4672
859.263	4694
859.396	4759
859.529	4580
859.662	4611
859.795	4535
859.928	4649
860.061	4763
860.194	4790
860.327	4588
860.46	4584
860.592	4752
860.725	4755
860.858	4744
860.99	4588
861.123	4512
861.256	4512
861.388	4634
861.521	5474
861.653	4497
861.786	4455
861.918	4489
862.05	4519
862.183	4607
862.315	4592
862.447	4649
862.58	4554
862.712	4398
862.844	4337
862.976	4432
863.108	4443
863.24	4733
863.372	4348
863.504	4443
863.636	4405
863.768	4478
863.9	4417
864.032	4333
864.164	4409
864.296	4481
864.428	4554
864.559	4558
864.691	4546
864.823	4565
864.954	4516
865.086	4565
865.217	4535
865.349	4405
865.48	4462
865.612	4523
865.743	4675
865.875	4440
866.006	4402
866.137	4500
866.269	4466
866.4	4474
866.531	4443
866.662	4409
866.793	4432
866.924	4398
867.055	4516
867.186	4485
867.317	4466
867.448	4383
867.579	4363
867.71	4394
867.841	4421
867.972	4500
868.103	4497
868.233	4470
868.364	4447
868.495	4535
868.625	4679
868.756	4767
868.886	4584
869.017	4675
869.147	4835
869.278	4771
869.408	4710
869.539	4656
869.669	4782
869.799	4672
869.929	4763
870.06	4759
870.19	4927
870.32	4927
870.45	4953
870.58	5045
870.71	5105
870.84	5102
870.97	4949
871.1	4938
871.23	5140
871.36	5174
871.489	5033
871.619	5064
871.749	5162
871.879	5159
872.008	5185
872.138	5098
872.267	4987
872.397	4885
872.526	4828
872.656	4752
872.785	4812
872.915	4980
873.044	5018
873.173	4980
873.303	5003
873.432	5025
873.561	4949
873.69	4885
873.819	4870
873.948	4927
874.077	4805
874.206	4790
874.335	4816
874.464	4946
874.593	5090
874.722	5037
874.851	5121
874.979	5060
875.108	5037
875.237	4911
875.365	4927
875.494	4904
875.623	4976
875.751	4881
875.88	4881
876.008	4995
876.136	5060
876.265	5216
876.393	5311
876.521	5254
876.65	5189
876.778	5193
876.906	5079
877.034	5067
877.162	5006
877.29	4999
877.418	4999
877.546	5094
877.674	5048
877.802	5079
877.93	5014
878.058	4957
878.185	4892
878.313	5006
878.441	4999
878.568	4843
878.696	4908
878.824	4999
878.951	5014
879.079	5143
879.206	5349
879.333	5090
879.461	5025
879.588	5014
879.715	5105
879.842	5292
879.97	5094
880.097	4778
880.224	4805
880.351	4824
880.478	4862
880.605	4881
880.732	4839
880.859	5121
880.986	4923
881.112	4953
881.239	4824
881.366	4672
881.493	4645
881.619	4672
881.746	4641
881.872	4675
881.999	4679
882.125	4778
882.252	4843
882.378	4831
882.505	4984
882.631	4873
882.757	4744
882.883	4797
883.01	4755
883.136	4683
883.262	4653
883.388	4683
883.514	4850
883.64	4930
883.766	4850
883.892	4744
884.018	4748
884.143	4927
884.269	5022
884.395	4729
884.52	4717
884.646	4694
884.772	4649
884.897	4626
885.023	4725
885.148	4793
885.274	4900
885.399	4862
885.524	4774
885.65	4733
885.775	4790
885.9	4771
886.025	4923
886.15	4858
886.275	4733
886.4	4691
886.525	4778
886.65	4755
886.775	4759
886.9	4938
887.025	5056
887.149	4881
887.274	4664
887.399	4637
887.523	4656
887.648	4656
887.773	4599
887.897	4824
888.021	4805
888.146	4721
888.27	4911
888.395	4915
888.519	4923
888.643	4854
888.767	4892
888.891	4725
889.015	4675
889.139	4714
889.263	4672
889.387	4812
889.511	4942
889.635	4839
889.759	4656
889.883	4668
890.006	4759
890.13	4873
890.254	4672
890.377	4744
890.501	4618
890.624	4546
890.748	4714
890.871	4558
890.995	4478
891.118	4447
891.241	4592
891.364	4588
891.488	4687
891.611	4588
891.734	4561
891.857	4675
891.98	4672
892.103	4717
892.226	4637
892.349	4542
892.471	4432
892.594	4558
892.717	4683
892.839	4664
892.962	4672
893.085	4694
893.207	4645
893.33	4481
893.452	4546
893.575	4733
893.697	4599
893.819	4782
893.941	4877
894.064	4877
894.186	4615
894.308	4607
894.43	4740
894.552	4873
894.674	4778
894.796	4588
894.918	4577
895.04	4634
895.161	4790
895.283	4710
895.405	4630
895.526	4660
895.648	4687
895.769	4698
895.891	4767
896.012	4774
896.134	4759
896.255	4694
896.376	4649
896.498	4679
896.619	4687
896.74	4664
896.861	4664
896.982	4968
897.103	5166
897.224	4889
897.345	4740
897.466	4698
897.587	4744
897.708	4923
897.828	4790
897.949	4725
898.07	4637
898.19	4710
898.311	4908
898.431	4729
898.552	4771
898.672	4831
898.792	4831
898.913	4778
899.033	4641
899.153	4523
899.273	4455
899.393	4558
899.513	4569
899.633	4580
899.753	4580
899.873	4519
899.993	4637
900.113	4527
900.232	4653
900.352	4596
900.472	4512
900.591	4455
900.711	4546
900.83	4474
900.95	4664
901.069	4714
901.189	4554
901.308	4413
901.427	4325
901.546	4409
901.665	4504
901.784	4569
901.904	4409
902.023	4371
902.141	4215
902.26	4272
902.379	4379
902.498	4238
902.617	4249
902.735	4383
902.854	4432
902.973	4379
903.091	4238
903.21	4268
903.328	4322
903.446	4287
903.565	4291
903.683	4356
903.801	4333
903.919	4413
904.038	4474
904.156	4356
904.274	4462
904.392	4455
904.51	4424
904.627	4542
904.745	4592
904.863	4668
904.981	4440
905.098	4322
905.216	4405
905.334	4466
905.451	4474
905.569	4432
905.686	4580
905.803	4592
905.921	4508
906.038	4596
906.155	4462
906.272	4409
906.389	4470
906.506	4398
906.623	4417
906.74	4390
906.857	4344
906.974	4371
907.091	4569
907.208	4744
907.324	4580
907.441	4527
907.557	4363
907.674	4383
907.79	4352
907.907	4413
908.023	4519
908.139	4493
908.256	4470
908.372	4470
908.488	4485
908.604	4352
908.72	4390
908.836	4409
908.952	4398
909.068	4455
909.184	4615
909.3	4478
909.415	4622
909.531	4645
909.647	4386
909.762	4390
909.878	4371
909.993	4440
910.108	4417
910.224	4424
910.339	4504
910.454	4367
910.57	4367
910.685	4337
910.8	4679
910.915	4672
911.03	4512
911.145	4341
911.259	4360
911.374	4402
911.489	4333
911.604	4318
911.718	4249
911.833	4249
911.947	4074
912.062	4017
912.176	4207
912.291	4268
912.405	4337
912.519	4538
912.633	4481
912.748	4405
912.862	4318
912.976	4287
913.09	4112
913.204	4196
913.318	4272
913.431	4451
913.545	4451
913.659	4497
913.772	4375
913.886	4246
914	4223
914.113	4344
914.226	4440
914.34	4474
914.453	4238
914.566	4424
914.68	4337
914.793	4348
914.906	4207
915.019	4166
915.132	4116
915.245	4219
915.358	4230
915.47	4287
915.583	4261
915.696	4333
915.809	4421
915.921	4436
916.034	4280
916.146	4291
916.259	4249
916.371	4394
916.483	4375
916.595	4295
916.708	4348
916.82	4363
916.932	4344
917.044	4356
917.156	4352
917.268	4276
917.38	4276
917.491	4306
917.603	4383
917.715	4459
917.826	4489
917.938	4398
918.049	4261
918.161	4413
918.272	4626
918.384	4573
918.495	4436
918.606	4333
918.717	4268
918.828	4383
918.939	4352
919.05	4238
919.161	4363
919.272	4154
919.383	4253
919.494	4421
919.604	4622
919.715	4447
919.826	4356
919.936	4440
920.047	4603
920.157	4508
920.267	4755
920.378	4531
920.488	4523
920.598	4752
920.708	4877
920.818	4790
920.928	4805
921.038	4965
921.148	4957
921.258	4687
921.368	4527
921.477	4497
921.587	4508
921.697	4386
921.806	4565
921.916	4451
922.025	4272
922.134	4287
922.244	4246
922.353	4375
922.462	4219
922.571	4116
922.68	4006
922.789	4032
922.898	4029
923.007	4036
923.116	4120
923.224	4055
923.333	4128
923.442	4006
923.55	3964
923.659	4032
923.767	4090
923.876	3998
923.984	4207
924.092	4013
924.201	4135
924.309	4128
924.417	4147
924.525	4059
924.633	4105
924.741	5056
924.849	3941
924.956	4150
925.064	4048
925.172	3907
925.279	3994
925.387	4048
925.494	4112
925.602	4211
925.709	4223
925.816	4097
925.924	4192
926.031	4211
926.138	4177
926.245	4207
926.352	4093
926.459	4230
926.566	4356
926.673	4131
926.779	4135
926.886	4135
926.993	4002
927.099	4029
927.206	3956
927.312	3964
927.419	4074
927.525	4017
927.631	4109
927.737	4002
927.843	3956
927.95	3842
928.056	3994
928.162	3998
928.267	4097
928.373	4615
928.479	4131
928.585	3888
928.69	3987
928.796	4086
928.901	4006
929.007	3899
929.112	4017
929.218	3972
929.323	3941
929.428	3987
929.533	4135
929.638	3937
929.743	3998
929.848	4063
929.953	4051
930.058	3903
930.163	3804
930.267	3857
930.372	4048
930.477	3838
930.581	4173
930.685	4013
930.79	3842
930.894	3930
930.998	3896
931.103	4036
931.207	3717
931.311	3701
931.415	3686
931.519	3553
931.623	3610
