Data from test_V78500241_1369.txt Node
Date: Fri Mar 25 16:58:31 CST 2022
User: usil
Spectrometer: V785-0024
Trigger mode: 0
Integration Time (sec): 4.000000E-1
Scans to average: 1
Nonlinearity correction enabled: false
Boxcar width: 0
Storing dark spectrum: false
XAxis mode: Wavelengths
Number of Pixels in Spectrum: 1024
>>>>>Begin Spectral Data<<<<<
801.071	8100
801.214	8008
801.356	7811
801.499	7925
801.641	7864
801.783	7807
801.926	7989
802.068	7906
802.211	8005
802.353	8043
802.496	7921
802.638	7830
802.78	7898
802.923	7986
803.065	7868
803.208	7864
803.35	7951
803.492	8100
803.635	8229
803.777	8081
803.919	8161
804.061	8450
804.204	8092
804.346	8062
804.488	8001
804.63	8142
804.773	8008
804.915	8138
805.057	8343
805.199	8240
805.341	8240
805.483	8263
805.626	8214
805.768	8195
805.91	8229
806.052	8183
806.194	8073
806.336	8305
806.478	8084
806.62	8069
806.762	8168
806.904	8286
807.046	8385
807.188	8381
807.33	8343
807.472	8324
807.614	8206
807.756	8157
807.898	7982
808.04	7894
808.182	7871
808.324	7921
808.465	7993
808.607	8100
808.749	8180
808.891	8229
809.033	8339
809.174	8225
809.316	8084
809.458	8119
809.6	8005
809.741	8039
809.883	8065
810.025	8088
810.166	8092
810.308	8111
810.45	8046
810.591	7936
810.733	7696
810.875	7620
811.016	7540
811.158	7537
811.299	7601
811.441	7784
811.582	7609
811.724	7628
811.865	7537
812.007	7662
812.148	7628
812.29	7636
812.431	7776
812.573	7864
812.714	7947
812.855	8142
812.997	8176
813.138	8290
813.279	8248
813.421	8065
813.562	8035
813.703	7845
813.845	7757
813.986	7457
814.127	7293
814.268	7251
814.41	7251
814.551	7107
814.692	7183
814.833	7031
814.974	7133
815.115	7034
815.256	6973
815.397	6962
815.539	6962
815.68	6833
815.821	6783
815.962	6867
816.103	6833
816.244	6711
816.385	6597
816.526	6631
816.666	6559
816.807	6300
816.948	6399
817.089	6498
817.23	6448
817.371	6346
817.512	6391
817.653	6372
817.793	6327
817.934	6422
818.075	6418
818.216	6426
818.356	6433
818.497	6182
818.638	6083
818.778	6152
818.919	6117
819.06	6121
819.2	6361
819.341	6350
819.481	6414
819.622	6498
819.762	6741
819.903	6654
820.043	6585
820.184	6582
820.324	6585
820.465	6730
820.605	6646
820.746	6654
820.886	6490
821.026	6635
821.167	6764
821.307	6764
821.447	6760
821.588	6673
821.728	6578
821.868	6448
822.008	6327
822.149	6384
822.289	6369
822.429	6178
822.569	6083
822.709	6140
822.849	5920
822.99	5904
823.13	5874
823.27	5912
823.41	5752
823.55	5764
823.69	5771
823.83	5802
823.97	5642
824.11	5490
824.25	5520
824.389	5558
824.529	5653
824.669	5619
824.809	5680
824.949	5691
825.089	5615
825.228	5566
825.368	5379
825.508	5368
825.648	5318
825.787	5406
825.927	5391
826.067	5307
826.206	5288
826.346	5372
826.485	5395
826.625	5448
826.765	5562
826.904	5520
827.044	5227
827.183	5227
827.323	5113
827.462	5292
827.601	5178
827.741	5223
827.88	5265
828.02	5128
828.159	5273
828.298	5326
828.437	5368
828.577	5235
828.716	5482
828.855	5315
828.994	5166
829.134	5159
829.273	5185
829.412	5151
829.551	5132
829.69	5143
829.829	5208
829.968	5398
830.107	5273
830.246	5288
830.385	5109
830.524	5201
830.663	5086
830.802	4961
830.941	4911
831.08	4866
831.219	4984
831.357	4999
831.496	5098
831.635	4923
831.774	4873
831.913	4805
832.051	4721
832.19	4740
832.329	4828
832.467	4664
832.606	4645
832.744	4752
832.883	4721
833.022	4721
833.16	4752
833.299	4793
833.437	4831
833.576	4843
833.714	4839
833.852	4828
833.991	4889
834.129	4995
834.267	4930
834.406	4938
834.544	4946
834.682	4987
834.821	4934
834.959	5147
835.097	5006
835.235	5124
835.373	5124
835.511	5094
835.65	5006
835.788	5067
835.926	4904
836.064	4930
836.202	4968
836.34	5178
836.478	5181
836.615	5124
836.753	5204
836.891	5265
837.029	5227
837.167	5216
837.305	5136
837.443	5136
837.58	5143
837.718	5242
837.856	5216
837.993	5132
838.131	5258
838.269	5204
838.406	5151
838.544	5193
838.681	5029
838.819	5010
838.956	4904
839.094	4930
839.231	5033
839.369	5090
839.506	5398
839.643	5250
839.781	5064
839.918	5079
840.055	5113
840.193	5075
840.33	5041
840.467	5162
840.604	5121
840.742	5414
840.879	5094
841.016	5121
841.153	5113
841.29	5345
841.427	5341
841.564	5368
841.701	5353
841.838	5208
841.975	5204
842.112	5284
842.249	5136
842.385	5117
842.522	5357
842.659	5124
842.796	5132
842.933	5193
843.069	5147
843.206	5151
843.343	5261
843.479	5261
843.616	5269
843.752	5045
843.889	5029
844.025	5197
844.162	5003
844.298	5185
844.435	5079
844.571	5064
844.708	5258
844.844	5330
844.98	5337
845.117	5296
845.253	5117
845.389	5064
845.525	5193
845.661	5151
845.798	5029
845.934	5136
846.07	4991
846.206	5227
846.342	5261
846.478	5155
846.614	4987
846.75	4995
846.886	4946
847.022	5143
847.158	5022
847.294	5025
847.429	5105
847.565	5048
847.701	5261
847.837	4904
847.972	4793
848.108	4930
848.244	4942
848.379	4778
848.515	4729
848.65	4721
848.786	4752
848.921	4812
849.057	4870
849.192	4889
849.328	4782
849.463	4835
849.598	4866
849.734	4759
849.869	4721
850.004	4634
850.14	4649
850.275	4592
850.41	4504
850.545	4584
850.68	4580
850.815	4630
850.95	4668
851.085	4801
851.22	4755
851.355	4672
851.49	4622
851.625	4664
851.76	4656
851.895	4573
852.03	4531
852.165	4668
852.299	4706
852.434	4801
852.569	4736
852.703	4771
852.838	4850
852.973	4930
853.107	4927
853.242	4706
853.376	4634
853.511	4554
853.645	4592
853.78	4755
853.914	4679
854.048	4698
854.183	4641
854.317	4679
854.451	4771
854.585	4687
854.72	4626
854.854	4736
854.988	4588
855.122	4611
855.256	4561
855.39	4698
855.524	4771
855.658	4698
855.792	4679
855.926	4717
856.06	4801
856.194	4797
856.327	4675
856.461	4618
856.595	4664
856.729	4615
856.862	4752
856.996	4706
857.13	4744
857.263	4774
857.397	4809
857.53	4660
857.664	4717
857.797	4809
857.931	4778
858.064	4725
858.197	4759
858.331	4653
858.464	4615
858.597	4462
858.731	4675
858.864	4634
858.997	4615
859.13	4630
859.263	4672
859.396	4706
859.529	4538
859.662	4561
859.795	4508
859.928	4634
860.061	4710
860.194	4740
860.327	4588
860.46	4580
860.592	4725
860.725	4717
860.858	4717
860.99	4561
861.123	4538
861.256	4531
861.388	4607
861.521	5391
861.653	4527
861.786	4436
861.918	4478
862.05	4508
862.183	4546
862.315	4641
862.447	4596
862.58	4542
862.712	4375
862.844	4344
862.976	4474
863.108	4440
863.24	4889
863.372	4352
863.504	4424
863.636	4447
863.768	4466
863.9	4390
864.032	4337
864.164	4375
864.296	4466
864.428	4523
864.559	4519
864.691	4577
864.823	4554
864.954	4512
865.086	4535
865.217	4519
865.349	4432
865.48	4413
865.612	4493
865.743	4626
865.875	4485
866.006	4478
866.137	4428
866.269	4409
866.4	4455
866.531	4478
866.662	4398
866.793	4417
866.924	4417
867.055	4497
867.186	4432
867.317	4451
867.448	4333
867.579	4371
867.71	4394
867.841	4322
867.972	4470
868.103	4447
868.233	4447
868.364	4413
868.495	4447
868.625	4615
868.756	4763
868.886	4588
869.017	4660
869.147	4801
869.278	4782
869.408	4622
869.539	4622
869.669	4687
869.799	4710
869.929	4740
870.06	4687
870.19	4930
870.32	4915
870.45	4957
870.58	4980
870.71	5079
870.84	5041
870.97	4953
871.1	4854
871.23	5140
871.36	5117
871.489	5003
871.619	5102
871.749	5045
871.879	5117
872.008	5140
872.138	5033
872.267	4980
872.397	4831
872.526	4759
872.656	4698
872.785	4805
872.915	4946
873.044	5048
873.173	4934
873.303	4961
873.432	4915
873.561	4889
873.69	4923
873.819	4870
873.948	4900
874.077	4801
874.206	4767
874.335	4755
874.464	4919
874.593	5052
874.722	4953
874.851	5109
874.979	5045
875.108	5029
875.237	4885
875.365	4847
875.494	4854
875.623	4961
875.751	4835
875.88	4843
876.008	4957
876.136	5006
876.265	5155
876.393	5357
876.521	5254
876.65	5265
876.778	5189
876.906	5045
877.034	5048
877.162	5064
877.29	4949
877.418	5022
877.546	5071
877.674	5083
877.802	4980
877.93	5041
878.058	4877
878.185	4881
878.313	4995
878.441	4980
878.568	4793
878.696	4892
878.824	4900
878.951	5014
879.079	5136
879.206	5280
879.333	5079
879.461	4961
879.588	4984
879.715	5102
879.842	5235
879.97	4972
880.097	4793
880.224	4706
880.351	4801
880.478	4862
880.605	4759
880.732	4782
880.859	5128
880.986	4870
881.112	4915
881.239	4725
881.366	4721
881.493	4599
881.619	4561
881.746	4637
881.872	4626
881.999	4615
882.125	4691
882.252	4805
882.378	4782
882.505	4927
882.631	4771
882.757	4664
882.883	4733
883.01	4725
883.136	4641
883.262	4577
883.388	4607
883.514	4755
883.64	4831
883.766	4763
883.892	4672
884.018	4710
884.143	4862
884.269	4946
884.395	4687
884.52	4679
884.646	4599
884.772	4580
884.897	4558
885.023	4626
885.148	4752
885.274	4805
885.399	4801
885.524	4702
885.65	4660
885.775	4717
885.9	4729
886.025	4843
886.15	4733
886.275	4698
886.4	4683
886.525	4725
886.65	4698
886.775	4679
886.9	4854
887.025	5010
887.149	4812
887.274	4634
887.399	4603
887.523	4573
887.648	4550
887.773	4538
887.897	4767
888.021	4752
888.146	4656
888.27	4797
888.395	4873
888.519	4828
888.643	4831
888.767	4820
888.891	4660
889.015	4588
889.139	4645
889.263	4577
889.387	4733
889.511	4854
889.635	4793
889.759	4668
889.883	4630
890.006	4691
890.13	4801
890.254	4596
890.377	4653
890.501	4569
890.624	4451
890.748	4607
890.871	4497
890.995	4432
891.118	4363
891.241	4500
891.364	4527
891.488	4603
891.611	4512
891.734	4474
891.857	4607
891.98	4489
892.103	4588
892.226	4584
892.349	4577
892.471	4413
892.594	4508
892.717	4584
892.839	4565
892.962	4565
893.085	4664
893.207	4580
893.33	4481
893.452	4508
893.575	4649
893.697	4558
893.819	4816
893.941	4786
894.064	4752
894.186	4588
894.308	4546
894.43	4725
894.552	4812
894.674	4721
894.796	4558
894.918	4592
895.04	4592
895.161	4683
895.283	4630
895.405	4599
895.526	4641
895.648	4656
895.769	4641
895.891	4698
896.012	4725
896.134	4691
896.255	4653
896.376	4634
896.498	4622
896.619	4687
896.74	4607
896.861	4653
896.982	4892
897.103	5075
897.224	4866
897.345	4748
897.466	4637
897.587	4710
897.708	4862
897.828	4790
897.949	4668
898.07	4599
898.19	4634
898.311	4854
898.431	4668
898.552	4706
898.672	4782
898.792	4763
898.913	4698
899.033	4618
899.153	4500
899.273	4360
899.393	4508
899.513	4485
899.633	4497
899.753	4573
899.873	4538
899.993	4527
900.113	4516
900.232	4577
900.352	4538
900.472	4462
900.591	4398
900.711	4497
900.83	4379
900.95	4592
901.069	4653
901.189	4493
901.308	4360
901.427	4265
901.546	4375
901.665	4470
901.784	4470
901.904	4360
902.023	4344
902.141	4185
902.26	4177
902.379	4284
902.498	4253
902.617	4261
902.735	4390
902.854	4394
902.973	4325
903.091	4192
903.21	4223
903.328	4242
903.446	4215
903.565	4234
903.683	4322
903.801	4276
903.919	4383
904.038	4436
904.156	4322
904.274	4409
904.392	4417
904.51	4451
904.627	4462
904.745	4626
904.863	4679
904.981	4379
905.098	4306
905.216	4386
905.334	4409
905.451	4440
905.569	4428
905.686	4531
905.803	4615
905.921	4440
906.038	4546
906.155	4443
906.272	4417
906.389	4417
906.506	4322
906.623	4322
906.74	4386
906.857	4272
906.974	4405
907.091	4584
907.208	4641
907.324	4630
907.441	4516
907.557	4299
907.674	4348
907.79	4341
907.907	4367
908.023	4447
908.139	4481
908.256	4447
908.372	4436
908.488	4451
908.604	4318
908.72	4341
908.836	4337
908.952	4348
909.068	4390
909.184	4596
909.3	4481
909.415	4641
909.531	4523
909.647	4333
909.762	4394
909.878	4363
909.993	4455
910.108	4405
910.224	4417
910.339	4485
910.454	4371
910.57	4310
910.685	4333
910.8	4653
910.915	4535
911.03	4447
911.145	4299
911.259	4337
911.374	4333
911.489	4284
911.604	4325
911.718	4143
911.833	4204
911.947	4059
912.062	4017
912.176	4211
912.291	4188
912.405	4276
912.519	4424
912.633	4523
912.748	4390
912.862	4287
912.976	4169
913.09	4093
913.204	4166
913.318	4238
913.431	4360
913.545	4348
913.659	4447
913.772	4337
913.886	4223
914	4192
914.113	4371
914.226	4405
914.34	4405
914.453	4234
914.566	4413
914.68	4299
914.793	4310
914.906	4154
915.019	4128
915.132	4059
915.245	4177
915.358	4207
915.47	4219
915.583	4238
915.696	4257
915.809	4417
915.921	4413
916.034	4265
916.146	4268
916.259	4234
916.371	4379
916.483	4318
916.595	4257
916.708	4268
916.82	4310
916.932	4287
917.044	4348
917.156	4318
917.268	4238
917.38	4257
917.491	4249
917.603	4329
917.715	4383
917.826	4462
917.938	4348
918.049	4196
918.161	4386
918.272	4500
918.384	4542
918.495	4432
918.606	4337
918.717	4249
918.828	4314
918.939	4375
919.05	4265
919.161	4272
919.272	4158
919.383	4265
919.494	4440
919.604	4634
919.715	4413
919.826	4318
919.936	4390
920.047	4523
920.157	4481
920.267	4675
920.378	4516
920.488	4516
920.598	4706
920.708	4858
920.818	4744
920.928	4755
921.038	4896
921.148	4904
921.258	4618
921.368	4580
921.477	4485
921.587	4436
921.697	4360
921.806	4527
921.916	4428
922.025	4242
922.134	4257
922.244	4211
922.353	4337
922.462	4139
922.571	4143
922.68	3979
922.789	3968
922.898	4021
923.007	3979
923.116	4109
923.224	4090
923.333	4021
923.442	4032
923.55	3998
923.659	4040
923.767	4078
923.876	4010
923.984	4124
924.092	3991
924.201	4090
924.309	4074
924.417	4101
924.525	4040
924.633	4086
924.741	4946
924.849	3937
924.956	4063
925.064	3918
925.172	3915
925.279	3964
925.387	4025
925.494	4032
925.602	4188
925.709	4185
925.816	4017
925.924	4124
926.031	4204
926.138	4169
926.245	4280
926.352	4071
926.459	4200
926.566	4306
926.673	4131
926.779	4082
926.886	4048
926.993	3979
927.099	3975
927.206	3949
927.312	3930
927.419	4040
927.525	4071
927.631	4124
927.737	3945
927.843	3956
927.95	3816
928.056	3979
928.162	4010
928.267	4063
928.373	4637
928.479	4112
928.585	3842
928.69	3994
928.796	4067
928.901	3934
929.007	3827
929.112	3975
929.218	3972
929.323	3937
929.428	3934
929.533	4139
929.638	3911
929.743	3934
929.848	4025
929.953	3987
930.058	3911
930.163	3816
930.267	3804
930.372	3998
930.477	3793
930.581	4059
930.685	3964
930.79	3819
930.894	3880
930.998	3835
931.103	4013
931.207	3724
931.311	3698
931.415	3614
931.519	3485
931.623	3580
