Data from test_V78500241_2707.txt Node
Date: Fri Mar 25 17:07:49 CST 2022
User: usil
Spectrometer: V785-0024
Trigger mode: 0
Integration Time (sec): 4.000000E-1
Scans to average: 1
Nonlinearity correction enabled: false
Boxcar width: 0
Storing dark spectrum: false
XAxis mode: Wavelengths
Number of Pixels in Spectrum: 1024
>>>>>Begin Spectral Data<<<<<
801.071	7936
801.214	8016
801.356	7913
801.499	7917
801.641	7856
801.783	7792
801.926	8027
802.068	7932
802.211	7982
802.353	7986
802.496	7887
802.638	7932
802.78	7951
802.923	7913
803.065	7860
803.208	7803
803.35	7936
803.492	8138
803.635	8199
803.777	8050
803.919	8199
804.061	8404
804.204	8187
804.346	8024
804.488	7913
804.63	8103
804.773	8001
804.915	8134
805.057	8332
805.199	8164
805.341	8168
805.483	8252
805.626	8218
805.768	8172
805.91	8225
806.052	8237
806.194	8161
806.336	8347
806.478	8153
806.62	8107
806.762	8126
806.904	8191
807.046	8423
807.188	8324
807.33	8324
807.472	8320
807.614	8237
807.756	8176
807.898	8069
808.04	7894
808.182	7906
808.324	7856
808.465	7963
808.607	8126
808.749	8123
808.891	8206
809.033	8309
809.174	8153
809.316	8024
809.458	8054
809.6	7993
809.741	8046
809.883	8062
810.025	8180
810.166	8100
810.308	7989
810.45	7997
810.591	7898
810.733	7731
810.875	7674
811.016	7544
811.158	7468
811.299	7647
811.441	7708
811.582	7681
811.724	7578
811.865	7651
812.007	7586
812.148	7628
812.29	7643
812.431	7765
812.573	7883
812.714	7993
812.855	8142
812.997	8221
813.138	8294
813.279	8130
813.421	8115
813.562	8020
813.703	7841
813.845	7757
813.986	7457
814.127	7251
814.268	7225
814.41	7228
814.551	7213
814.692	7221
814.833	7046
814.974	7057
815.115	7046
815.256	6973
815.397	6935
815.539	6878
815.68	6821
815.821	6802
815.962	6856
816.103	6833
816.244	6688
816.385	6662
816.526	6620
816.666	6490
816.807	6353
816.948	6433
817.089	6547
817.23	6494
817.371	6388
817.512	6384
817.653	6372
817.793	6388
817.934	6452
818.075	6471
818.216	6372
818.356	6395
818.497	6251
818.638	6163
818.778	6178
818.919	6148
819.06	6167
819.2	6315
819.341	6327
819.481	6384
819.622	6589
819.762	6760
819.903	6681
820.043	6642
820.184	6544
820.324	6623
820.465	6719
820.605	6696
820.746	6601
820.886	6502
821.026	6662
821.167	6688
821.307	6757
821.447	6753
821.588	6688
821.728	6547
821.868	6452
822.008	6327
822.149	6422
822.289	6361
822.429	6190
822.569	6083
822.709	6121
822.849	5916
822.99	5923
823.13	5923
823.27	5897
823.41	5767
823.55	5805
823.69	5783
823.83	5798
823.97	5707
824.11	5509
824.25	5512
824.389	5539
824.529	5604
824.669	5509
824.809	5649
824.949	5695
825.089	5608
825.228	5577
825.368	5410
825.508	5315
825.648	5296
825.787	5391
825.927	5387
826.067	5330
826.206	5360
826.346	5391
826.485	5372
826.625	5379
826.765	5554
826.904	5448
827.044	5254
827.183	5170
827.323	5185
827.462	5227
827.601	5143
827.741	5193
827.88	5212
828.02	5140
828.159	5227
828.298	5288
828.437	5330
828.577	5284
828.716	5482
828.855	5322
828.994	5151
829.134	5185
829.273	5208
829.412	5181
829.551	5105
829.69	5128
829.829	5223
829.968	5364
830.107	5254
830.246	5239
830.385	5231
830.524	5117
830.663	5060
830.802	5006
830.941	4885
831.08	4858
831.219	5003
831.357	5018
831.496	5155
831.635	4965
831.774	4828
831.913	4831
832.051	4706
832.19	4717
832.329	4854
832.467	4702
832.606	4615
832.744	4694
832.883	4782
833.022	4744
833.16	4763
833.299	4843
833.437	4831
833.576	4820
833.714	4820
833.852	4831
833.991	4877
834.129	4892
834.267	4919
834.406	4942
834.544	5006
834.682	4976
834.821	4965
834.959	5162
835.097	4976
835.235	5159
835.373	5025
835.511	5143
835.65	5048
835.788	5048
835.926	4919
836.064	4896
836.202	4949
836.34	5117
836.478	5269
836.615	5075
836.753	5239
836.891	5261
837.029	5239
837.167	5181
837.305	5159
837.443	5128
837.58	5083
837.718	5223
837.856	5189
837.993	5166
838.131	5220
838.269	5189
838.406	5216
838.544	5197
838.681	4999
838.819	4949
838.956	4892
839.094	4854
839.231	4980
839.369	5075
839.506	5421
839.643	5261
839.781	5029
839.918	5041
840.055	5140
840.193	5071
840.33	5117
840.467	5124
840.604	5208
840.742	5474
840.879	5048
841.016	5098
841.153	5136
841.29	5383
841.427	5315
841.564	5296
841.701	5341
841.838	5292
841.975	5246
842.112	5246
842.249	5143
842.385	5056
842.522	5322
842.659	5170
842.796	5124
842.933	5185
843.069	5155
843.206	5143
843.343	5303
843.479	5250
843.616	5315
843.752	5006
843.889	5014
844.025	5189
844.162	5033
844.298	5178
844.435	5071
844.571	5079
844.708	5204
844.844	5273
844.98	5349
845.117	5292
845.253	5102
845.389	5071
845.525	5162
845.661	5147
845.798	5048
845.934	5147
846.07	5022
846.206	5242
846.342	5250
846.478	5162
846.614	5071
846.75	4953
846.886	4938
847.022	5105
847.158	5052
847.294	5003
847.429	5124
847.565	4991
847.701	5326
847.837	4839
847.972	4725
848.108	4976
848.244	4961
848.379	4755
848.515	4694
848.65	4710
848.786	4759
848.921	4771
849.057	4854
849.192	4892
849.328	4786
849.463	4835
849.598	4786
849.734	4725
849.869	4717
850.004	4653
850.14	4664
850.275	4607
850.41	4565
850.545	4542
850.68	4622
850.815	4618
850.95	4660
851.085	4850
851.22	4736
851.355	4683
851.49	4592
851.625	4683
851.76	4596
851.895	4573
852.03	4531
852.165	4645
852.299	4721
852.434	4828
852.569	4744
852.703	4786
852.838	4809
852.973	4957
853.107	4942
853.242	4717
853.376	4736
853.511	4542
853.645	4615
853.78	4816
853.914	4691
854.048	4683
854.183	4634
854.317	4702
854.451	4847
854.585	4653
854.72	4649
854.854	4717
854.988	4656
855.122	4641
855.256	4535
855.39	4641
855.524	4812
855.658	4710
855.792	4706
855.926	4675
856.06	4736
856.194	4797
856.327	4706
856.461	4615
856.595	4584
856.729	4630
856.862	4755
856.996	4668
857.13	4759
857.263	4748
857.397	4824
857.53	4702
857.664	4717
857.797	4759
857.931	4759
858.064	4672
858.197	4771
858.331	4649
858.464	4577
858.597	4535
858.731	4615
858.864	4637
858.997	4580
859.13	4653
859.263	4653
859.396	4664
859.529	4596
859.662	4565
859.795	4478
859.928	4615
860.061	4752
860.194	4752
860.327	4599
860.46	4565
860.592	4710
860.725	4740
860.858	4744
860.99	4554
861.123	4569
861.256	4516
861.388	4611
861.521	5311
861.653	4497
861.786	4474
861.918	4447
862.05	4538
862.183	4565
862.315	4554
862.447	4656
862.58	4550
862.712	4405
862.844	4360
862.976	4466
863.108	4432
863.24	4778
863.372	4341
863.504	4451
863.636	4459
863.768	4508
863.9	4409
864.032	4360
864.164	4409
864.296	4470
864.428	4542
864.559	4550
864.691	4519
864.823	4550
864.954	4504
865.086	4493
865.217	4481
865.349	4398
865.48	4432
865.612	4462
865.743	4622
865.875	4500
866.006	4440
866.137	4474
866.269	4417
866.4	4447
866.531	4424
866.662	4451
866.793	4440
866.924	4447
867.055	4538
867.186	4462
867.317	4466
867.448	4390
867.579	4409
867.71	4436
867.841	4371
867.972	4421
868.103	4432
868.233	4440
868.364	4421
868.495	4478
868.625	4641
868.756	4774
868.886	4596
869.017	4592
869.147	4767
869.278	4763
869.408	4675
869.539	4630
869.669	4744
869.799	4630
869.929	4759
870.06	4786
870.19	4927
870.32	4885
870.45	4961
870.58	4991
870.71	5086
870.84	5056
870.97	4930
871.1	4915
871.23	5147
871.36	5136
871.489	5018
871.619	5105
871.749	5052
871.879	5090
872.008	5208
872.138	5121
872.267	4972
872.397	4862
872.526	4790
872.656	4733
872.785	4809
872.915	4965
873.044	5033
873.173	4942
873.303	4938
873.432	4919
873.561	4972
873.69	4908
873.819	4885
873.948	4919
874.077	4824
874.206	4755
874.335	4850
874.464	4908
874.593	5105
874.722	5022
874.851	5147
874.979	5098
875.108	5029
875.237	4904
875.365	4911
875.494	4900
875.623	4980
875.751	4847
875.88	4870
876.008	4942
876.136	5052
876.265	5185
876.393	5330
876.521	5246
876.65	5223
876.778	5162
876.906	5083
877.034	5006
877.162	5041
877.29	5006
877.418	5037
877.546	5022
877.674	5025
877.802	5045
877.93	5025
878.058	4942
878.185	4885
878.313	4930
878.441	4942
878.568	4774
878.696	4900
878.824	4976
878.951	5014
879.079	5166
879.206	5280
879.333	5105
879.461	4968
879.588	5014
879.715	5140
879.842	5250
879.97	4995
880.097	4736
880.224	4740
880.351	4774
880.478	4797
880.605	4801
880.732	4847
880.859	5079
880.986	4870
881.112	4946
881.239	4759
881.366	4683
881.493	4637
881.619	4538
881.746	4630
881.872	4679
881.999	4660
882.125	4687
882.252	4767
882.378	4839
882.505	4961
882.631	4793
882.757	4694
882.883	4805
883.01	4740
883.136	4679
883.262	4592
883.388	4607
883.514	4774
883.64	4900
883.766	4835
883.892	4668
884.018	4694
884.143	4908
884.269	5037
884.395	4668
884.52	4622
884.646	4592
884.772	4565
884.897	4546
885.023	4672
885.148	4782
885.274	4923
885.399	4831
885.524	4660
885.65	4702
885.775	4755
885.9	4683
886.025	4812
886.15	4824
886.275	4736
886.4	4664
886.525	4744
886.65	4736
886.775	4679
886.9	4877
887.025	5056
887.149	4778
887.274	4641
887.399	4561
887.523	4634
887.648	4596
887.773	4596
887.897	4774
888.021	4752
888.146	4698
888.27	4790
888.395	4915
888.519	4801
888.643	4839
888.767	4828
888.891	4622
889.015	4592
889.139	4660
889.263	4607
889.387	4763
889.511	4885
889.635	4797
889.759	4656
889.883	4592
890.006	4733
890.13	4835
890.254	4626
890.377	4694
890.501	4527
890.624	4527
890.748	4607
890.871	4535
890.995	4398
891.118	4417
891.241	4512
891.364	4546
891.488	4641
891.611	4500
891.734	4523
891.857	4603
891.98	4512
892.103	4637
892.226	4592
892.349	4527
892.471	4424
892.594	4577
892.717	4580
892.839	4573
892.962	4588
893.085	4687
893.207	4542
893.33	4413
893.452	4485
893.575	4672
893.697	4577
893.819	4778
893.941	4831
894.064	4771
894.186	4546
894.308	4535
894.43	4752
894.552	4824
894.674	4786
894.796	4569
894.918	4634
895.04	4584
895.161	4694
895.283	4668
895.405	4626
895.526	4630
895.648	4615
895.769	4675
895.891	4744
896.012	4744
896.134	4687
896.255	4702
896.376	4588
896.498	4573
896.619	4668
896.74	4580
896.861	4679
896.982	4911
897.103	5048
897.224	4839
897.345	4740
897.466	4649
897.587	4706
897.708	4877
897.828	4809
897.949	4721
898.07	4588
898.19	4618
898.311	4828
898.431	4675
898.552	4736
898.672	4797
898.792	4778
898.913	4755
899.033	4660
899.153	4470
899.273	4428
899.393	4493
899.513	4493
899.633	4535
899.753	4550
899.873	4489
899.993	4584
900.113	4531
900.232	4634
900.352	4527
900.472	4459
900.591	4367
900.711	4519
900.83	4417
900.95	4611
901.069	4714
901.189	4542
901.308	4379
901.427	4303
901.546	4383
901.665	4459
901.784	4481
901.904	4383
902.023	4322
902.141	4177
902.26	4192
902.379	4314
902.498	4265
902.617	4169
902.735	4379
902.854	4402
902.973	4318
903.091	4207
903.21	4238
903.328	4268
903.446	4246
903.565	4253
903.683	4337
903.801	4265
903.919	4390
904.038	4474
904.156	4299
904.274	4409
904.392	4398
904.51	4421
904.627	4523
904.745	4592
904.863	4626
904.981	4409
905.098	4322
905.216	4318
905.334	4417
905.451	4398
905.569	4398
905.686	4523
905.803	4577
905.921	4402
906.038	4569
906.155	4516
906.272	4409
906.389	4436
906.506	4341
906.623	4367
906.74	4432
906.857	4306
906.974	4360
907.091	4584
907.208	4637
907.324	4569
907.441	4538
907.557	4303
907.674	4352
907.79	4303
907.907	4344
908.023	4462
908.139	4459
908.256	4432
908.372	4466
908.488	4428
908.604	4344
908.72	4360
908.836	4363
908.952	4341
909.068	4409
909.184	4546
909.3	4470
909.415	4599
909.531	4558
909.647	4367
909.762	4367
909.878	4367
909.993	4428
910.108	4440
910.224	4394
910.339	4493
910.454	4398
910.57	4371
910.685	4303
910.8	4645
910.915	4641
911.03	4538
911.145	4265
911.259	4295
911.374	4402
911.489	4325
911.604	4276
911.718	4169
911.833	4200
911.947	4078
912.062	4017
912.176	4181
912.291	4234
912.405	4246
912.519	4443
912.633	4485
912.748	4367
912.862	4287
912.976	4181
913.09	4112
913.204	4166
913.318	4257
913.431	4367
913.545	4394
913.659	4375
913.772	4337
913.886	4257
914	4246
914.113	4413
914.226	4421
914.34	4383
914.453	4242
914.566	4428
914.68	4329
914.793	4325
914.906	4204
915.019	4131
915.132	4048
915.245	4181
915.358	4204
915.47	4287
915.583	4287
915.696	4276
915.809	4451
915.921	4402
916.034	4287
916.146	4249
916.259	4230
916.371	4390
916.483	4379
916.595	4276
916.708	4287
916.82	4322
916.932	4344
917.044	4344
917.156	4383
917.268	4211
917.38	4253
917.491	4272
917.603	4287
917.715	4409
917.826	4451
917.938	4352
918.049	4234
918.161	4379
918.272	4497
918.384	4519
918.495	4462
918.606	4295
918.717	4287
918.828	4299
918.939	4390
919.05	4268
919.161	4314
919.272	4131
919.383	4215
919.494	4455
919.604	4618
919.715	4424
919.826	4348
919.936	4443
920.047	4474
920.157	4512
920.267	4698
920.378	4504
920.488	4478
920.598	4687
920.708	4927
920.818	4797
920.928	4752
921.038	4911
921.148	4961
921.258	4664
921.368	4527
921.477	4512
921.587	4413
921.697	4333
921.806	4512
921.916	4462
922.025	4287
922.134	4219
922.244	4268
922.353	4325
922.462	4181
922.571	4086
922.68	4021
922.789	3968
922.898	3998
923.007	3968
923.116	4105
923.224	4067
923.333	4059
923.442	3964
923.55	4010
923.659	4021
923.767	4101
923.876	3979
923.984	4090
924.092	3949
924.201	4082
924.309	4090
924.417	4139
924.525	4048
924.633	4112
924.741	5041
924.849	3869
924.956	4112
925.064	3922
925.172	3892
925.279	3987
925.387	4055
925.494	4048
925.602	4188
925.709	4196
925.816	4040
925.924	4101
926.031	4238
926.138	4162
926.245	4150
926.352	4059
926.459	4253
926.566	4291
926.673	4139
926.779	4074
926.886	4067
926.993	3991
927.099	3972
927.206	3949
927.312	3926
927.419	4048
927.525	4013
927.631	4074
927.737	3945
927.843	3896
927.95	3850
928.056	3934
928.162	4010
928.267	4059
928.373	4573
928.479	4082
928.585	3850
928.69	4006
928.796	4090
928.901	3937
929.007	3861
929.112	3994
929.218	3926
929.323	3983
929.428	3922
929.533	4147
929.638	3892
929.743	3968
929.848	4029
929.953	3956
930.058	3945
930.163	3785
930.267	3793
930.372	3960
930.477	3755
930.581	4082
930.685	3918
930.79	3827
930.894	3915
930.998	3865
931.103	4036
931.207	3717
931.311	3720
931.415	3637
931.519	3526
931.623	3572
