Data from test_V78500241_1266.txt Node
Date: Fri Mar 25 16:57:48 CST 2022
User: usil
Spectrometer: V785-0024
Trigger mode: 0
Integration Time (sec): 4.000000E-1
Scans to average: 1
Nonlinearity correction enabled: false
Boxcar width: 0
Storing dark spectrum: false
XAxis mode: Wavelengths
Number of Pixels in Spectrum: 1024
>>>>>Begin Spectral Data<<<<<
801.071	8062
801.214	7982
801.356	7856
801.499	7792
801.641	7761
801.783	7734
801.926	8005
802.068	7879
802.211	7913
802.353	7890
802.496	7818
802.638	7826
802.78	7894
802.923	7963
803.065	7879
803.208	7883
803.35	7997
803.492	8016
803.635	8111
803.777	8050
803.919	8176
804.061	8454
804.204	8218
804.346	8043
804.488	8008
804.63	8008
804.773	8054
804.915	8111
805.057	8347
805.199	8153
805.341	8275
805.483	8290
805.626	8229
805.768	8142
805.91	8313
806.052	8107
806.194	8069
806.336	8233
806.478	8043
806.62	8084
806.762	8149
806.904	8317
807.046	8446
807.188	8343
807.33	8271
807.472	8282
807.614	8168
807.756	8153
807.898	7974
808.04	7932
808.182	7909
808.324	7864
808.465	7898
808.607	8123
808.749	8058
808.891	8202
809.033	8282
809.174	8218
809.316	8024
809.458	8020
809.6	7993
809.741	8103
809.883	8119
810.025	8092
810.166	8031
810.308	8024
810.45	8043
810.591	7906
810.733	7833
810.875	7689
811.016	7556
811.158	7495
811.299	7601
811.441	7727
811.582	7693
811.724	7586
811.865	7525
812.007	7548
812.148	7590
812.29	7639
812.431	7734
812.573	7917
812.714	7997
812.855	8126
812.997	8145
813.138	8358
813.279	8271
813.421	8138
813.562	7959
813.703	7849
813.845	7795
813.986	7438
814.127	7236
814.268	7156
814.41	7190
814.551	7187
814.692	7126
814.833	7107
814.974	7084
815.115	7084
815.256	6966
815.397	6973
815.539	6924
815.68	6833
815.821	6818
815.962	6859
816.103	6859
816.244	6738
816.385	6658
816.526	6642
816.666	6521
816.807	6319
816.948	6441
817.089	6479
817.23	6338
817.371	6372
817.512	6380
817.653	6433
817.793	6327
817.934	6372
818.075	6448
818.216	6418
818.356	6414
818.497	6228
818.638	6125
818.778	6163
818.919	6148
819.06	6213
819.2	6262
819.341	6323
819.481	6369
819.622	6547
819.762	6722
819.903	6711
820.043	6551
820.184	6570
820.324	6559
820.465	6669
820.605	6700
820.746	6612
820.886	6475
821.026	6684
821.167	6684
821.307	6821
821.447	6764
821.588	6654
821.728	6582
821.868	6467
822.008	6281
822.149	6342
822.289	6331
822.429	6152
822.569	6095
822.709	6117
822.849	5927
822.99	5901
823.13	5912
823.27	5950
823.41	5779
823.55	5745
823.69	5760
823.83	5821
823.97	5733
824.11	5539
824.25	5486
824.389	5543
824.529	5592
824.669	5471
824.809	5638
824.949	5630
825.089	5611
825.228	5482
825.368	5410
825.508	5303
825.648	5368
825.787	5337
825.927	5398
826.067	5269
826.206	5250
826.346	5368
826.485	5376
826.625	5436
826.765	5551
826.904	5520
827.044	5269
827.183	5204
827.323	5136
827.462	5273
827.601	5151
827.741	5220
827.88	5189
828.02	5109
828.159	5239
828.298	5277
828.437	5368
828.577	5201
828.716	5501
828.855	5296
828.994	5189
829.134	5174
829.273	5178
829.412	5193
829.551	5162
829.69	5197
829.829	5261
829.968	5284
830.107	5296
830.246	5258
830.385	5208
830.524	5086
830.663	5094
830.802	5003
830.941	4843
831.08	4839
831.219	4976
831.357	4934
831.496	5151
831.635	4919
831.774	4881
831.913	4889
832.051	4706
832.19	4740
832.329	4835
832.467	4691
832.606	4588
832.744	4702
832.883	4714
833.022	4691
833.16	4820
833.299	4831
833.437	4782
833.576	4858
833.714	4824
833.852	4820
833.991	4885
834.129	4923
834.267	4976
834.406	4877
834.544	4961
834.682	4968
834.821	4957
834.959	5140
835.097	4991
835.235	5143
835.373	5083
835.511	5117
835.65	5048
835.788	4957
835.926	4900
836.064	4870
836.202	4915
836.34	5155
836.478	5254
836.615	5094
836.753	5189
836.891	5311
837.029	5246
837.167	5212
837.305	5124
837.443	5162
837.58	5037
837.718	5242
837.856	5185
837.993	5147
838.131	5185
838.269	5181
838.406	5204
838.544	5197
838.681	5006
838.819	4999
838.956	4919
839.094	4889
839.231	4972
839.369	5117
839.506	5440
839.643	5208
839.781	5037
839.918	4991
840.055	5079
840.193	5102
840.33	5132
840.467	5166
840.604	5201
840.742	5421
840.879	5086
841.016	5056
841.153	5185
841.29	5341
841.427	5315
841.564	5280
841.701	5353
841.838	5227
841.975	5254
842.112	5277
842.249	5090
842.385	5151
842.522	5360
842.659	5159
842.796	5124
842.933	5155
843.069	5178
843.206	5140
843.343	5322
843.479	5227
843.616	5299
843.752	5048
843.889	5018
844.025	5242
844.162	5033
844.298	5159
844.435	5064
844.571	5079
844.708	5242
844.844	5288
844.98	5311
845.117	5273
845.253	5109
845.389	5045
845.525	5162
845.661	5109
845.798	5006
845.934	5086
846.07	5025
846.206	5193
846.342	5258
846.478	5170
846.614	5006
846.75	4923
846.886	4923
847.022	5136
847.158	4991
847.294	5045
847.429	5094
847.565	4968
847.701	5265
847.837	4835
847.972	4820
848.108	4934
848.244	4942
848.379	4790
848.515	4694
848.65	4752
848.786	4694
848.921	4812
849.057	4862
849.192	4885
849.328	4763
849.463	4843
849.598	4778
849.734	4805
849.869	4664
850.004	4649
850.14	4641
850.275	4599
850.41	4569
850.545	4611
850.68	4603
850.815	4668
850.95	4637
851.085	4786
851.22	4729
851.355	4641
851.49	4603
851.625	4584
851.76	4675
851.895	4558
852.03	4508
852.165	4664
852.299	4717
852.434	4778
852.569	4736
852.703	4744
852.838	4862
852.973	4896
853.107	4919
853.242	4733
853.376	4675
853.511	4561
853.645	4615
853.78	4786
853.914	4706
854.048	4687
854.183	4649
854.317	4691
854.451	4828
854.585	4649
854.72	4599
854.854	4740
854.988	4599
855.122	4603
855.256	4497
855.39	4679
855.524	4740
855.658	4706
855.792	4687
855.926	4721
856.06	4774
856.194	4778
856.327	4691
856.461	4596
856.595	4599
856.729	4656
856.862	4755
856.996	4698
857.13	4725
857.263	4733
857.397	4752
857.53	4554
857.664	4759
857.797	4812
857.931	4721
858.064	4714
858.197	4771
858.331	4592
858.464	4550
858.597	4489
858.731	4637
858.864	4611
858.997	4607
859.13	4660
859.263	4645
859.396	4687
859.529	4569
859.662	4516
859.795	4523
859.928	4596
860.061	4797
860.194	4748
860.327	4626
860.46	4538
860.592	4691
860.725	4725
860.858	4672
860.99	4569
861.123	4523
861.256	4497
861.388	4615
861.521	5254
861.653	4508
861.786	4447
861.918	4500
862.05	4489
862.183	4523
862.315	4577
862.447	4653
862.58	4538
862.712	4344
862.844	4306
862.976	4508
863.108	4455
863.24	4824
863.372	4329
863.504	4436
863.636	4398
863.768	4493
863.9	4402
864.032	4352
864.164	4405
864.296	4451
864.428	4538
864.559	4542
864.691	4527
864.823	4481
864.954	4443
865.086	4531
865.217	4459
865.349	4344
865.48	4451
865.612	4538
865.743	4607
865.875	4504
866.006	4424
866.137	4485
866.269	4383
866.4	4432
866.531	4360
866.662	4413
866.793	4390
866.924	4447
867.055	4436
867.186	4402
867.317	4413
867.448	4386
867.579	4375
867.71	4402
867.841	4352
867.972	4474
868.103	4493
868.233	4432
868.364	4459
868.495	4538
868.625	4622
868.756	4771
868.886	4596
869.017	4599
869.147	4740
869.278	4706
869.408	4615
869.539	4618
869.669	4679
869.799	4656
869.929	4721
870.06	4755
870.19	4934
870.32	4942
870.45	4938
870.58	4976
870.71	5075
870.84	5064
870.97	4961
871.1	4896
871.23	5174
871.36	5105
871.489	5010
871.619	5037
871.749	5121
871.879	5117
872.008	5132
872.138	5056
872.267	4972
872.397	4866
872.526	4812
872.656	4687
872.785	4812
872.915	4965
873.044	5010
873.173	4946
873.303	4976
873.432	4961
873.561	4938
873.69	4854
873.819	4847
873.948	4885
874.077	4771
874.206	4752
874.335	4866
874.464	4900
874.593	5041
874.722	4987
874.851	5086
874.979	5014
875.108	5052
875.237	4953
875.365	4930
875.494	4904
875.623	4900
875.751	4816
875.88	4850
876.008	4987
876.136	5048
876.265	5166
876.393	5368
876.521	5277
876.65	5261
876.778	5136
876.906	5056
877.034	4995
877.162	5010
877.29	4976
877.418	5037
877.546	5029
877.674	5025
877.802	4999
877.93	4976
878.058	4930
878.185	4870
878.313	4923
878.441	4904
878.568	4778
878.696	4870
878.824	4934
878.951	4976
879.079	5124
879.206	5242
879.333	5102
879.461	4972
879.588	4938
879.715	5083
879.842	5204
879.97	5003
880.097	4763
880.224	4759
880.351	4797
880.478	4790
880.605	4801
880.732	4805
880.859	5056
880.986	4892
881.112	4847
881.239	4744
881.366	4641
881.493	4588
881.619	4584
881.746	4683
881.872	4668
881.999	4649
882.125	4706
882.252	4786
882.378	4820
882.505	4946
882.631	4790
882.757	4675
882.883	4744
883.01	4714
883.136	4668
883.262	4588
883.388	4588
883.514	4809
883.64	4862
883.766	4839
883.892	4694
884.018	4714
884.143	4896
884.269	4995
884.395	4626
884.52	4599
884.646	4679
884.772	4554
884.897	4569
885.023	4683
885.148	4767
885.274	4843
885.399	4790
885.524	4752
885.65	4641
885.775	4759
885.9	4717
886.025	4858
886.15	4812
886.275	4725
886.4	4618
886.525	4752
886.65	4706
886.775	4687
886.9	4896
887.025	5086
887.149	4790
887.274	4653
887.399	4653
887.523	4641
887.648	4573
887.773	4542
887.897	4748
888.021	4759
888.146	4664
888.27	4763
888.395	4889
888.519	4805
888.643	4774
888.767	4809
888.891	4672
889.015	4599
889.139	4649
889.263	4561
889.387	4790
889.511	4828
889.635	4740
889.759	4641
889.883	4664
890.006	4717
890.13	4786
890.254	4630
890.377	4668
890.501	4535
890.624	4519
890.748	4668
890.871	4489
890.995	4443
891.118	4379
891.241	4470
891.364	4497
891.488	4641
891.611	4478
891.734	4527
891.857	4603
891.98	4558
892.103	4618
892.226	4569
892.349	4580
892.471	4413
892.594	4516
892.717	4588
892.839	4588
892.962	4599
893.085	4649
893.207	4569
893.33	4481
893.452	4500
893.575	4649
893.697	4588
893.819	4793
893.941	4858
894.064	4797
894.186	4577
894.308	4558
894.43	4782
894.552	4828
894.674	4744
894.796	4546
894.918	4611
895.04	4538
895.161	4714
895.283	4668
895.405	4558
895.526	4607
895.648	4679
895.769	4698
895.891	4736
896.012	4649
896.134	4706
896.255	4694
896.376	4618
896.498	4615
896.619	4691
896.74	4622
896.861	4653
896.982	4915
897.103	5067
897.224	4866
897.345	4702
897.466	4664
897.587	4698
897.708	4831
897.828	4721
897.949	4660
898.07	4584
898.19	4656
898.311	4805
898.431	4672
898.552	4687
898.672	4755
898.792	4759
898.913	4733
899.033	4618
899.153	4512
899.273	4398
899.393	4443
899.513	4493
899.633	4546
899.753	4546
899.873	4466
899.993	4538
900.113	4500
900.232	4561
900.352	4504
900.472	4538
900.591	4394
900.711	4478
900.83	4424
900.95	4637
901.069	4698
901.189	4565
901.308	4329
901.427	4314
901.546	4402
901.665	4462
901.784	4527
901.904	4344
902.023	4257
902.141	4215
902.26	4124
902.379	4299
902.498	4242
902.617	4192
902.735	4348
902.854	4405
902.973	4314
903.091	4158
903.21	4291
903.328	4303
903.446	4291
903.565	4238
903.683	4333
903.801	4272
903.919	4386
904.038	4383
904.156	4352
904.274	4440
904.392	4322
904.51	4443
904.627	4470
904.745	4550
904.863	4592
904.981	4386
905.098	4246
905.216	4356
905.334	4451
905.451	4432
905.569	4428
905.686	4546
905.803	4577
905.921	4405
906.038	4558
906.155	4478
906.272	4398
906.389	4455
906.506	4348
906.623	4390
906.74	4424
906.857	4287
906.974	4371
907.091	4535
907.208	4683
907.324	4561
907.441	4451
907.557	4356
907.674	4322
907.79	4268
907.907	4371
908.023	4428
908.139	4459
908.256	4455
908.372	4462
908.488	4436
908.604	4314
908.72	4303
908.836	4394
908.952	4329
909.068	4417
909.184	4603
909.3	4470
909.415	4603
909.531	4565
909.647	4348
909.762	4337
909.878	4325
909.993	4409
910.108	4371
910.224	4440
910.339	4413
910.454	4394
910.57	4352
910.685	4322
910.8	4641
910.915	4615
911.03	4478
911.145	4337
911.259	4337
911.374	4394
911.489	4276
911.604	4257
911.718	4204
911.833	4207
911.947	4078
912.062	3994
912.176	4185
912.291	4265
912.405	4211
912.519	4459
912.633	4527
912.748	4371
912.862	4268
912.976	4215
913.09	4093
913.204	4196
913.318	4234
913.431	4363
913.545	4371
913.659	4402
913.772	4352
913.886	4223
914	4207
914.113	4386
914.226	4451
914.34	4360
914.453	4253
914.566	4390
914.68	4310
914.793	4280
914.906	4124
915.019	4097
915.132	4074
915.245	4139
915.358	4173
915.47	4227
915.583	4257
915.696	4306
915.809	4383
915.921	4428
916.034	4234
916.146	4238
916.259	4207
916.371	4363
916.483	4337
916.595	4261
916.708	4325
916.82	4344
916.932	4325
917.044	4318
917.156	4333
917.268	4242
917.38	4284
917.491	4337
917.603	4325
917.715	4402
917.826	4409
917.938	4337
918.049	4223
918.161	4402
918.272	4588
918.384	4485
918.495	4451
918.606	4276
918.717	4253
918.828	4344
918.939	4337
919.05	4227
919.161	4272
919.272	4139
919.383	4192
919.494	4432
919.604	4626
919.715	4413
919.826	4356
919.936	4398
920.047	4481
920.157	4489
920.267	4675
920.378	4519
920.488	4470
920.598	4698
920.708	4896
920.818	4725
920.928	4740
921.038	4957
921.148	4870
921.258	4596
921.368	4527
921.477	4500
921.587	4470
921.697	4390
921.806	4596
921.916	4436
922.025	4268
922.134	4280
922.244	4173
922.353	4352
922.462	4150
922.571	4090
922.68	4002
922.789	3972
922.898	4025
923.007	4044
923.116	4112
923.224	4086
923.333	4059
923.442	4021
923.55	3964
923.659	4029
923.767	4090
923.876	3994
923.984	4074
924.092	4013
924.201	4078
924.309	4025
924.417	4109
924.525	4021
924.633	4109
924.741	5022
924.849	3857
924.956	4131
925.064	3937
925.172	3876
925.279	3972
925.387	4036
925.494	4051
925.602	4185
925.709	4181
925.816	4036
925.924	4109
926.031	4219
926.138	4116
926.245	4223
926.352	4074
926.459	4268
926.566	4303
926.673	4120
926.779	4063
926.886	4044
926.993	3972
927.099	3949
927.206	3915
927.312	3937
927.419	4063
927.525	4021
927.631	4105
927.737	3968
927.843	3903
927.95	3812
928.056	3884
928.162	3979
928.267	4074
928.373	4721
928.479	4097
928.585	3857
928.69	3987
928.796	4021
928.901	3941
929.007	3846
929.112	3983
929.218	3964
929.323	3934
929.428	3918
929.533	4101
929.638	3850
929.743	3911
929.848	4055
929.953	4025
930.058	3918
930.163	3797
930.267	3789
930.372	3964
930.477	3797
930.581	4139
930.685	3949
930.79	3819
930.894	3903
930.998	3865
931.103	4063
931.207	3705
931.311	3713
931.415	3663
931.519	3511
931.623	3534
