Data from test_V78500241_521.txt Node
Date: Fri Mar 25 16:52:37 CST 2022
User: usil
Spectrometer: V785-0024
Trigger mode: 0
Integration Time (sec): 4.000000E-1
Scans to average: 1
Nonlinearity correction enabled: false
Boxcar width: 0
Storing dark spectrum: false
XAxis mode: Wavelengths
Number of Pixels in Spectrum: 1024
>>>>>Begin Spectral Data<<<<<
801.071	7982
801.214	8043
801.356	7837
801.499	7871
801.641	7750
801.783	7845
801.926	8073
802.068	8016
802.211	8054
802.353	7989
802.496	7860
802.638	7959
802.78	7921
802.923	7868
803.065	7822
803.208	7818
803.35	7928
803.492	8027
803.635	8138
803.777	7963
803.919	8092
804.061	8404
804.204	8123
804.346	7936
804.488	7902
804.63	8050
804.773	7997
804.915	8126
805.057	8301
805.199	8153
805.341	8161
805.483	8267
805.626	8172
805.768	8020
805.91	8096
806.052	8191
806.194	8100
806.336	8294
806.478	8062
806.62	8130
806.762	8100
806.904	8240
807.046	8412
807.188	8305
807.33	8248
807.472	8351
807.614	8077
807.756	8100
807.898	7993
808.04	7795
808.182	7917
808.324	7967
808.465	7932
808.607	7944
808.749	8046
808.891	8164
809.033	8233
809.174	8187
809.316	8039
809.458	8092
809.6	8012
809.741	8035
809.883	8027
810.025	8077
810.166	8008
810.308	8020
810.45	8027
810.591	7864
810.733	7757
810.875	7605
811.016	7529
811.158	7544
811.299	7616
811.441	7712
811.582	7700
811.724	7670
811.865	7533
812.007	7651
812.148	7582
812.29	7613
812.431	7769
812.573	7841
812.714	7947
812.855	8214
812.997	8294
813.138	8328
813.279	8191
813.421	8199
813.562	8024
813.703	7936
813.845	7765
813.986	7453
814.127	7369
814.268	7320
814.41	7285
814.551	7164
814.692	7213
814.833	7046
814.974	7107
815.115	7179
815.256	6890
815.397	6894
815.539	6935
815.68	6882
815.821	6795
815.962	6886
816.103	6859
816.244	6741
816.385	6612
816.526	6608
816.666	6555
816.807	6334
816.948	6441
817.089	6540
817.23	6452
817.371	6388
817.512	6388
817.653	6391
817.793	6353
817.934	6369
818.075	6464
818.216	6464
818.356	6418
818.497	6220
818.638	6121
818.778	6102
818.919	6106
819.06	6163
819.2	6296
819.341	6338
819.481	6338
819.622	6479
819.762	6688
819.903	6665
820.043	6623
820.184	6563
820.324	6563
820.465	6715
820.605	6616
820.746	6593
820.886	6479
821.026	6654
821.167	6688
821.307	6829
821.447	6776
821.588	6692
821.728	6551
821.868	6467
822.008	6254
822.149	6357
822.289	6315
822.429	6159
822.569	6087
822.709	6053
822.849	5885
822.99	5859
823.13	5908
823.27	5874
823.41	5817
823.55	5714
823.69	5760
823.83	5805
823.97	5699
824.11	5528
824.25	5554
824.389	5547
824.529	5509
824.669	5562
824.809	5577
824.949	5619
825.089	5649
825.228	5486
825.368	5391
825.508	5296
825.648	5311
825.787	5357
825.927	5410
826.067	5326
826.206	5239
826.346	5379
826.485	5421
826.625	5372
826.765	5547
826.904	5459
827.044	5273
827.183	5197
827.323	5098
827.462	5265
827.601	5181
827.741	5170
827.88	5151
828.02	5098
828.159	5261
828.298	5307
828.437	5349
828.577	5284
828.716	5509
828.855	5326
828.994	5189
829.134	5151
829.273	5197
829.412	5124
829.551	5113
829.69	5193
829.829	5239
829.968	5334
830.107	5273
830.246	5273
830.385	5136
830.524	5121
830.663	5105
830.802	4976
830.941	4854
831.08	4881
831.219	4999
831.357	4934
831.496	5162
831.635	4892
831.774	4850
831.913	4862
832.051	4736
832.19	4729
832.329	4835
832.467	4653
832.606	4656
832.744	4679
832.883	4691
833.022	4698
833.16	4782
833.299	4831
833.437	4733
833.576	4831
833.714	4854
833.852	4870
833.991	4904
834.129	4972
834.267	4961
834.406	4885
834.544	5010
834.682	4965
834.821	4999
834.959	5143
835.097	5037
835.235	5147
835.373	5086
835.511	5079
835.65	5048
835.788	5018
835.926	4873
836.064	4900
836.202	4904
836.34	5174
836.478	5204
836.615	5143
836.753	5109
836.891	5284
837.029	5288
837.167	5208
837.305	5128
837.443	5189
837.58	5083
837.718	5250
837.856	5178
837.993	5140
838.131	5204
838.269	5143
838.406	5181
838.544	5124
838.681	5018
838.819	4991
838.956	4930
839.094	4900
839.231	5003
839.369	5090
839.506	5433
839.643	5239
839.781	5071
839.918	5041
840.055	5109
840.193	5056
840.33	5140
840.467	5136
840.604	5201
840.742	5410
840.879	5056
841.016	5048
841.153	5185
841.29	5410
841.427	5280
841.564	5326
841.701	5357
841.838	5303
841.975	5220
842.112	5258
842.249	5109
842.385	5132
842.522	5326
842.659	5178
842.796	5159
842.933	5204
843.069	5132
843.206	5151
843.343	5334
843.479	5258
843.616	5284
843.752	5041
843.889	5025
844.025	5258
844.162	5052
844.298	5231
844.435	5083
844.571	4999
844.708	5178
844.844	5269
844.98	5341
845.117	5242
845.253	5174
845.389	5029
845.525	5166
845.661	5136
845.798	5052
845.934	5086
846.07	5045
846.206	5178
846.342	5269
846.478	5185
846.614	4999
846.75	4957
846.886	4915
847.022	5124
847.158	4968
847.294	5022
847.429	5052
847.565	4995
847.701	5307
847.837	4873
847.972	4771
848.108	4911
848.244	4889
848.379	4816
848.515	4755
848.65	4744
848.786	4694
848.921	4790
849.057	4847
849.192	4889
849.328	4809
849.463	4828
849.598	4767
849.734	4736
849.869	4683
850.004	4618
850.14	4660
850.275	4615
850.41	4500
850.545	4561
850.68	4603
850.815	4630
850.95	4645
851.085	4873
851.22	4774
851.355	4626
851.49	4603
851.625	4637
851.76	4618
851.895	4538
852.03	4550
852.165	4626
852.299	4702
852.434	4767
852.569	4733
852.703	4767
852.838	4797
852.973	4885
853.107	4961
853.242	4714
853.376	4660
853.511	4516
853.645	4649
853.78	4778
853.914	4653
854.048	4668
854.183	4596
854.317	4691
854.451	4831
854.585	4668
854.72	4656
854.854	4721
854.988	4603
855.122	4641
855.256	4497
855.39	4660
855.524	4725
855.658	4721
855.792	4706
855.926	4725
856.06	4774
856.194	4771
856.327	4736
856.461	4599
856.595	4599
856.729	4664
856.862	4767
856.996	4717
857.13	4691
857.263	4752
857.397	4850
857.53	4660
857.664	4755
857.797	4763
857.931	4778
858.064	4687
858.197	4729
858.331	4645
858.464	4626
858.597	4493
858.731	4679
858.864	4630
858.997	4596
859.13	4675
859.263	4660
859.396	4683
859.529	4596
859.662	4584
859.795	4561
859.928	4645
860.061	4721
860.194	4733
860.327	4603
860.46	4584
860.592	4702
860.725	4725
860.858	4714
860.99	4607
861.123	4535
861.256	4481
861.388	4596
861.521	5455
861.653	4424
861.786	4474
861.918	4519
862.05	4527
862.183	4519
862.315	4596
862.447	4653
862.58	4577
862.712	4440
862.844	4344
862.976	4470
863.108	4447
863.24	4862
863.372	4348
863.504	4379
863.636	4402
863.768	4493
863.9	4455
864.032	4371
864.164	4428
864.296	4519
864.428	4565
864.559	4554
864.691	4538
864.823	4523
864.954	4531
865.086	4500
865.217	4481
865.349	4409
865.48	4421
865.612	4470
865.743	4656
865.875	4455
866.006	4424
866.137	4470
866.269	4424
866.4	4459
866.531	4440
866.662	4424
866.793	4363
866.924	4421
867.055	4504
867.186	4398
867.317	4421
867.448	4367
867.579	4398
867.71	4424
867.841	4390
867.972	4440
868.103	4478
868.233	4428
868.364	4447
868.495	4481
868.625	4649
868.756	4790
868.886	4618
869.017	4626
869.147	4774
869.278	4740
869.408	4668
869.539	4653
869.669	4702
869.799	4626
869.929	4771
870.06	4729
870.19	4908
870.32	4949
870.45	4957
870.58	4938
870.71	5105
870.84	5109
870.97	4946
871.1	4862
871.23	5159
871.36	5094
871.489	5010
871.619	5056
871.749	5109
871.879	5102
872.008	5181
872.138	5033
872.267	4972
872.397	4816
872.526	4797
872.656	4752
872.785	4771
872.915	4984
873.044	5045
873.173	4911
873.303	4961
873.432	5003
873.561	4919
873.69	4866
873.819	4862
873.948	4946
874.077	4820
874.206	4774
874.335	4790
874.464	4930
874.593	5090
874.722	4991
874.851	5113
874.979	5083
875.108	5086
875.237	4896
875.365	4889
875.494	4873
875.623	4976
875.751	4828
875.88	4824
876.008	5025
876.136	5052
876.265	5204
876.393	5345
876.521	5246
876.65	5231
876.778	5208
876.906	5045
877.034	4965
877.162	5060
877.29	4946
877.418	5025
877.546	5064
877.674	5064
877.802	5048
877.93	5033
878.058	4923
878.185	4877
878.313	4911
878.441	4911
878.568	4778
878.696	4843
878.824	4942
878.951	5003
879.079	5132
879.206	5284
879.333	5079
879.461	5003
879.588	4991
879.715	5151
879.842	5250
879.97	4999
880.097	4805
880.224	4820
880.351	4831
880.478	4850
880.605	4801
880.732	4786
880.859	5067
880.986	4858
881.112	4927
881.239	4820
881.366	4645
881.493	4626
881.619	4554
881.746	4687
881.872	4664
881.999	4637
882.125	4653
882.252	4763
882.378	4824
882.505	4961
882.631	4843
882.757	4679
882.883	4740
883.01	4683
883.136	4706
883.262	4611
883.388	4622
883.514	4782
883.64	4839
883.766	4786
883.892	4683
884.018	4687
884.143	4919
884.269	5037
884.395	4694
884.52	4645
884.646	4675
884.772	4599
884.897	4531
885.023	4656
885.148	4755
885.274	4885
885.399	4733
885.524	4778
885.65	4691
885.775	4801
885.9	4668
886.025	4885
886.15	4801
886.275	4672
886.4	4656
886.525	4744
886.65	4694
886.775	4694
886.9	4930
887.025	5025
887.149	4809
887.274	4626
887.399	4584
887.523	4611
887.648	4626
887.773	4554
887.897	4778
888.021	4774
888.146	4634
888.27	4809
888.395	4938
888.519	4786
888.643	4801
888.767	4786
888.891	4691
889.015	4607
889.139	4641
889.263	4611
889.387	4759
889.511	4850
889.635	4778
889.759	4626
889.883	4626
890.006	4710
890.13	4816
890.254	4592
890.377	4622
890.501	4531
890.624	4535
890.748	4649
890.871	4519
890.995	4455
891.118	4390
891.241	4478
891.364	4558
891.488	4603
891.611	4478
891.734	4538
891.857	4634
891.98	4527
892.103	4679
892.226	4569
892.349	4554
892.471	4417
892.594	4554
892.717	4584
892.839	4542
892.962	4630
893.085	4645
893.207	4561
893.33	4478
893.452	4535
893.575	4660
893.697	4569
893.819	4763
893.941	4843
894.064	4774
894.186	4561
894.308	4561
894.43	4755
894.552	4824
894.674	4793
894.796	4561
894.918	4599
895.04	4596
895.161	4672
895.283	4626
895.405	4596
895.526	4634
895.648	4653
895.769	4664
895.891	4706
896.012	4702
896.134	4729
896.255	4645
896.376	4622
896.498	4660
896.619	4672
896.74	4618
896.861	4599
896.982	4904
897.103	5022
897.224	4828
897.345	4774
897.466	4691
897.587	4740
897.708	4843
897.828	4782
897.949	4656
898.07	4558
898.19	4618
898.311	4858
898.431	4641
898.552	4740
898.672	4797
898.792	4820
898.913	4744
899.033	4637
899.153	4512
899.273	4402
899.393	4489
899.513	4546
899.633	4512
899.753	4535
899.873	4493
899.993	4550
900.113	4523
900.232	4565
900.352	4577
900.472	4443
900.591	4428
900.711	4470
900.83	4409
900.95	4611
901.069	4668
901.189	4531
901.308	4390
901.427	4344
901.546	4375
901.665	4459
901.784	4558
901.904	4356
902.023	4291
902.141	4192
902.26	4128
902.379	4295
902.498	4185
902.617	4230
902.735	4413
902.854	4405
902.973	4375
903.091	4192
903.21	4230
903.328	4280
903.446	4257
903.565	4303
903.683	4329
903.801	4337
903.919	4394
904.038	4440
904.156	4291
904.274	4481
904.392	4390
904.51	4424
904.627	4485
904.745	4622
904.863	4622
904.981	4375
905.098	4284
905.216	4344
905.334	4424
905.451	4447
905.569	4459
905.686	4550
905.803	4554
905.921	4394
906.038	4527
906.155	4500
906.272	4436
906.389	4474
906.506	4322
906.623	4367
906.74	4375
906.857	4341
906.974	4363
907.091	4596
907.208	4683
907.324	4573
907.441	4493
907.557	4367
907.674	4333
907.79	4337
907.907	4428
908.023	4485
908.139	4485
908.256	4428
908.372	4470
908.488	4481
908.604	4371
908.72	4341
908.836	4417
908.952	4375
909.068	4360
909.184	4615
909.3	4512
909.415	4554
909.531	4542
909.647	4322
909.762	4402
909.878	4322
909.993	4409
910.108	4455
910.224	4405
910.339	4485
910.454	4398
910.57	4341
910.685	4306
910.8	4660
910.915	4622
911.03	4470
911.145	4295
911.259	4299
911.374	4405
911.489	4333
911.604	4272
911.718	4219
911.833	4192
911.947	4090
912.062	4051
912.176	4192
912.291	4238
912.405	4242
912.519	4481
912.633	4485
912.748	4402
912.862	4318
912.976	4185
913.09	4086
913.204	4173
913.318	4249
913.431	4402
913.545	4322
913.659	4455
913.772	4375
913.886	4234
914	4265
914.113	4325
914.226	4405
914.34	4375
914.453	4265
914.566	4428
914.68	4287
914.793	4337
914.906	4166
915.019	4192
915.132	4101
915.245	4211
915.358	4188
915.47	4234
915.583	4268
915.696	4284
915.809	4375
915.921	4440
916.034	4333
916.146	4280
916.259	4211
916.371	4386
916.483	4337
916.595	4272
916.708	4333
916.82	4265
916.932	4341
917.044	4272
917.156	4348
917.268	4204
917.38	4265
917.491	4265
917.603	4352
917.715	4413
917.826	4500
917.938	4383
918.049	4242
918.161	4413
918.272	4565
918.384	4546
918.495	4500
918.606	4287
918.717	4223
918.828	4314
918.939	4356
919.05	4234
919.161	4299
919.272	4131
919.383	4246
919.494	4421
919.604	4641
919.715	4466
919.826	4348
919.936	4436
920.047	4531
920.157	4497
920.267	4687
920.378	4577
920.488	4512
920.598	4721
920.708	4873
920.818	4763
920.928	4755
921.038	4919
921.148	4908
921.258	4637
921.368	4535
921.477	4519
921.587	4459
921.697	4394
921.806	4554
921.916	4428
922.025	4257
922.134	4253
922.244	4207
922.353	4333
922.462	4181
922.571	4143
922.68	4017
922.789	4044
922.898	4032
923.007	4002
923.116	4074
923.224	4082
923.333	4051
923.442	4017
923.55	3994
923.659	3987
923.767	4059
923.876	3975
923.984	4090
924.092	3979
924.201	4086
924.309	4078
924.417	4154
924.525	4086
924.633	4116
924.741	5025
924.849	3922
924.956	4067
925.064	3953
925.172	3892
925.279	3975
925.387	4097
925.494	4071
925.602	4192
925.709	4154
925.816	4071
925.924	4135
926.031	4200
926.138	4150
926.245	4238
926.352	4116
926.459	4238
926.566	4272
926.673	4158
926.779	4090
926.886	4074
926.993	3964
927.099	3945
927.206	3960
927.312	3930
927.419	4006
927.525	4025
927.631	4090
927.737	3968
927.843	3911
927.95	3854
928.056	3934
928.162	4032
928.267	4036
928.373	4637
928.479	4131
928.585	3884
928.69	4025
928.796	4109
928.901	3960
929.007	3827
929.112	3991
929.218	3975
929.323	3926
929.428	3998
929.533	4139
929.638	3907
929.743	3960
929.848	4128
929.953	3972
930.058	3899
930.163	3816
930.267	3850
930.372	3983
930.477	3842
930.581	4044
930.685	3945
930.79	3861
930.894	3896
930.998	3831
931.103	4040
931.207	3740
931.311	3698
931.415	3713
931.519	3511
931.623	3557
