Data from test_V78500241_1309.txt Node
Date: Fri Mar 25 16:58:06 CST 2022
User: usil
Spectrometer: V785-0024
Trigger mode: 0
Integration Time (sec): 4.000000E-1
Scans to average: 1
Nonlinearity correction enabled: false
Boxcar width: 0
Storing dark spectrum: false
XAxis mode: Wavelengths
Number of Pixels in Spectrum: 1024
>>>>>Begin Spectral Data<<<<<
801.071	8024
801.214	8043
801.356	7871
801.499	7822
801.641	7750
801.783	7856
801.926	7928
802.068	7925
802.211	7989
802.353	7955
802.496	7788
802.638	7913
802.78	7906
802.923	7959
803.065	7921
803.208	7890
803.35	7978
803.492	8153
803.635	8176
803.777	7944
803.919	8130
804.061	8408
804.204	8130
804.346	8100
804.488	7986
804.63	8069
804.773	8031
804.915	8168
805.057	8339
805.199	8191
805.341	8240
805.483	8210
805.626	8225
805.768	8168
805.91	8263
806.052	8149
806.194	8202
806.336	8267
806.478	8119
806.62	8058
806.762	8168
806.904	8282
807.046	8522
807.188	8366
807.33	8298
807.472	8362
807.614	8180
807.756	8149
807.898	7982
808.04	7871
808.182	7894
808.324	7849
808.465	7970
808.607	8119
808.749	8111
808.891	8123
809.033	8225
809.174	8202
809.316	8096
809.458	8088
809.6	7974
809.741	8027
809.883	8050
810.025	8039
810.166	8103
810.308	8065
810.45	7986
810.591	7887
810.733	7799
810.875	7674
811.016	7571
811.158	7472
811.299	7609
811.441	7712
811.582	7685
811.724	7575
811.865	7487
812.007	7548
812.148	7639
812.29	7639
812.431	7719
812.573	7906
812.714	8039
812.855	8062
812.997	8206
813.138	8301
813.279	8240
813.421	8100
813.562	7982
813.703	7814
813.845	7761
813.986	7445
814.127	7164
814.268	7187
814.41	7266
814.551	7213
814.692	7247
814.833	7053
814.974	7023
815.115	7156
815.256	6985
815.397	6905
815.539	6939
815.68	6859
815.821	6825
815.962	6825
816.103	6867
816.244	6711
816.385	6593
816.526	6608
816.666	6506
816.807	6258
816.948	6464
817.089	6441
817.23	6410
817.371	6376
817.512	6384
817.653	6391
817.793	6365
817.934	6384
818.075	6490
818.216	6418
818.356	6414
818.497	6197
818.638	6114
818.778	6167
818.919	6144
819.06	6125
819.2	6292
819.341	6350
819.481	6361
819.622	6544
819.762	6745
819.903	6692
820.043	6593
820.184	6506
820.324	6582
820.465	6722
820.605	6646
820.746	6650
820.886	6540
821.026	6654
821.167	6684
821.307	6764
821.447	6787
821.588	6715
821.728	6597
821.868	6544
822.008	6262
822.149	6323
822.289	6369
822.429	6117
822.569	6045
822.709	6136
822.849	5908
822.99	5942
823.13	5916
823.27	5931
823.41	5802
823.55	5794
823.69	5741
823.83	5775
823.97	5691
824.11	5516
824.25	5493
824.389	5528
824.529	5566
824.669	5596
824.809	5668
824.949	5634
825.089	5649
825.228	5532
825.368	5383
825.508	5326
825.648	5349
825.787	5379
825.927	5337
826.067	5315
826.206	5273
826.346	5391
826.485	5376
826.625	5379
826.765	5524
826.904	5448
827.044	5185
827.183	5201
827.323	5151
827.462	5261
827.601	5155
827.741	5216
827.88	5159
828.02	5109
828.159	5189
828.298	5307
828.437	5334
828.577	5242
828.716	5459
828.855	5235
828.994	5105
829.134	5143
829.273	5117
829.412	5124
829.551	5132
829.69	5086
829.829	5246
829.968	5345
830.107	5303
830.246	5235
830.385	5140
830.524	5151
830.663	5048
830.802	4968
830.941	4858
831.08	4908
831.219	4938
831.357	4949
831.496	5178
831.635	4873
831.774	4805
831.913	4820
832.051	4717
832.19	4725
832.329	4843
832.467	4698
832.606	4599
832.744	4702
832.883	4714
833.022	4717
833.16	4797
833.299	4839
833.437	4828
833.576	4797
833.714	4870
833.852	4885
833.991	4839
834.129	4953
834.267	4915
834.406	4938
834.544	4953
834.682	4976
834.821	4957
834.959	5178
835.097	4927
835.235	5159
835.373	5098
835.511	5086
835.65	5018
835.788	5025
835.926	4854
836.064	4885
836.202	4854
836.34	5151
836.478	5189
836.615	5113
836.753	5159
836.891	5299
837.029	5197
837.167	5174
837.305	5204
837.443	5071
837.58	5025
837.718	5254
837.856	5143
837.993	5086
838.131	5193
838.269	5189
838.406	5185
838.544	5189
838.681	5029
838.819	4968
838.956	4908
839.094	4896
839.231	4995
839.369	5045
839.506	5417
839.643	5250
839.781	5003
839.918	4991
840.055	5124
840.193	5037
840.33	5102
840.467	5155
840.604	5136
840.742	5482
840.879	5071
841.016	5056
841.153	5143
841.29	5303
841.427	5337
841.564	5261
841.701	5357
841.838	5254
841.975	5208
842.112	5265
842.249	5166
842.385	5064
842.522	5311
842.659	5189
842.796	5094
842.933	5204
843.069	5121
843.206	5117
843.343	5280
843.479	5280
843.616	5261
843.752	5056
843.889	4987
844.025	5178
844.162	5010
844.298	5181
844.435	5102
844.571	5041
844.708	5155
844.844	5292
844.98	5277
845.117	5269
845.253	5136
845.389	5067
845.525	5174
845.661	5151
845.798	5003
845.934	5147
846.07	5075
846.206	5147
846.342	5280
846.478	5166
846.614	5006
846.75	4930
846.886	4889
847.022	5109
847.158	5037
847.294	5010
847.429	5162
847.565	5018
847.701	5330
847.837	4828
847.972	4786
848.108	4961
848.244	4919
848.379	4752
848.515	4710
848.65	4733
848.786	4748
848.921	4820
849.057	4889
849.192	4930
849.328	4831
849.463	4816
849.598	4805
849.734	4744
849.869	4653
850.004	4615
850.14	4653
850.275	4607
850.41	4538
850.545	4577
850.68	4622
850.815	4634
850.95	4622
851.085	4862
851.22	4763
851.355	4660
851.49	4664
851.625	4618
851.76	4626
851.895	4512
852.03	4497
852.165	4660
852.299	4710
852.434	4824
852.569	4774
852.703	4771
852.838	4870
852.973	4915
853.107	4877
853.242	4736
853.376	4611
853.511	4512
853.645	4596
853.78	4793
853.914	4615
854.048	4626
854.183	4668
854.317	4679
854.451	4835
854.585	4679
854.72	4641
854.854	4763
854.988	4554
855.122	4653
855.256	4550
855.39	4691
855.524	4778
855.658	4698
855.792	4660
855.926	4755
856.06	4691
856.194	4725
856.327	4660
856.461	4622
856.595	4596
856.729	4580
856.862	4752
856.996	4660
857.13	4698
857.263	4755
857.397	4793
857.53	4603
857.664	4740
857.797	4786
857.931	4767
858.064	4618
858.197	4702
858.331	4607
858.464	4588
858.597	4554
858.731	4634
858.864	4596
858.997	4637
859.13	4637
859.263	4626
859.396	4645
859.529	4630
859.662	4523
859.795	4550
859.928	4615
860.061	4767
860.194	4778
860.327	4618
860.46	4535
860.592	4691
860.725	4702
860.858	4660
860.99	4546
861.123	4466
861.256	4546
861.388	4611
861.521	5113
861.653	4481
861.786	4489
861.918	4462
862.05	4504
862.183	4527
862.315	4622
862.447	4634
862.58	4592
862.712	4405
862.844	4310
862.976	4478
863.108	4421
863.24	4885
863.372	4299
863.504	4394
863.636	4375
863.768	4493
863.9	4390
864.032	4356
864.164	4432
864.296	4436
864.428	4531
864.559	4516
864.691	4523
864.823	4569
864.954	4504
865.086	4508
865.217	4451
865.349	4379
865.48	4417
865.612	4485
865.743	4626
865.875	4455
866.006	4421
866.137	4481
866.269	4432
866.4	4440
866.531	4379
866.662	4371
866.793	4405
866.924	4424
867.055	4493
867.186	4432
867.317	4375
867.448	4405
867.579	4402
867.71	4409
867.841	4322
867.972	4409
868.103	4500
868.233	4432
868.364	4417
868.495	4504
868.625	4672
868.756	4748
868.886	4554
869.017	4584
869.147	4771
869.278	4755
869.408	4634
869.539	4569
869.669	4698
869.799	4634
869.929	4729
870.06	4717
870.19	4930
870.32	4892
870.45	4892
870.58	5003
870.71	5079
870.84	5102
870.97	4946
871.1	4938
871.23	5121
871.36	5086
871.489	4957
871.619	5056
871.749	5079
871.879	5113
872.008	5178
872.138	5022
872.267	4889
872.397	4889
872.526	4778
872.656	4740
872.785	4748
872.915	4923
873.044	4934
873.173	4923
873.303	4877
873.432	4919
873.561	4873
873.69	4881
873.819	4862
873.948	4892
874.077	4828
874.206	4721
874.335	4767
874.464	4900
874.593	5006
874.722	4965
874.851	5079
874.979	5014
875.108	5033
875.237	4881
875.365	4938
875.494	4862
875.623	4961
875.751	4824
875.88	4831
876.008	4995
876.136	5048
876.265	5166
876.393	5330
876.521	5220
876.65	5193
876.778	5140
876.906	5098
877.034	4999
877.162	4999
877.29	4961
877.418	5041
877.546	5045
877.674	5048
877.802	5037
877.93	5006
878.058	4968
878.185	4843
878.313	4930
878.441	4961
878.568	4778
878.696	4911
878.824	4923
878.951	4968
879.079	5166
879.206	5254
879.333	5018
879.461	5010
879.588	4980
879.715	5143
879.842	5212
879.97	4976
880.097	4778
880.224	4752
880.351	4763
880.478	4809
880.605	4790
880.732	4786
880.859	5117
880.986	4870
881.112	4885
881.239	4748
881.366	4675
881.493	4596
881.619	4596
881.746	4603
881.872	4626
881.999	4618
882.125	4668
882.252	4774
882.378	4812
882.505	4965
882.631	4801
882.757	4706
882.883	4714
883.01	4710
883.136	4607
883.262	4626
883.388	4607
883.514	4812
883.64	4831
883.766	4748
883.892	4618
884.018	4687
884.143	4930
884.269	5037
884.395	4694
884.52	4649
884.646	4660
884.772	4573
884.897	4550
885.023	4687
885.148	4793
885.274	4881
885.399	4786
885.524	4721
885.65	4637
885.775	4744
885.9	4675
886.025	4831
886.15	4759
886.275	4706
886.4	4634
886.525	4694
886.65	4653
886.775	4660
886.9	4889
887.025	4995
887.149	4782
887.274	4626
887.399	4596
887.523	4618
887.648	4580
887.773	4546
887.897	4767
888.021	4767
888.146	4668
888.27	4805
888.395	4885
888.519	4786
888.643	4755
888.767	4858
888.891	4710
889.015	4580
889.139	4653
889.263	4554
889.387	4748
889.511	4873
889.635	4744
889.759	4630
889.883	4653
890.006	4748
890.13	4816
890.254	4645
890.377	4672
890.501	4596
890.624	4531
890.748	4641
890.871	4489
890.995	4394
891.118	4352
891.241	4558
891.364	4550
891.488	4596
891.611	4493
891.734	4561
891.857	4577
891.98	4523
892.103	4615
892.226	4577
892.349	4516
892.471	4428
892.594	4508
892.717	4592
892.839	4569
892.962	4603
893.085	4664
893.207	4592
893.33	4447
893.452	4500
893.575	4611
893.697	4573
893.819	4771
893.941	4828
894.064	4748
894.186	4588
894.308	4588
894.43	4736
894.552	4763
894.674	4748
894.796	4516
894.918	4607
895.04	4558
895.161	4698
895.283	4664
895.405	4504
895.526	4588
895.648	4736
895.769	4649
895.891	4672
896.012	4744
896.134	4710
896.255	4694
896.376	4653
896.498	4656
896.619	4645
896.74	4649
896.861	4672
896.982	4927
897.103	5067
897.224	4835
897.345	4710
897.466	4656
897.587	4717
897.708	4854
897.828	4786
897.949	4645
898.07	4542
898.19	4630
898.311	4801
898.431	4656
898.552	4725
898.672	4782
898.792	4820
898.913	4755
899.033	4615
899.153	4481
899.273	4413
899.393	4474
899.513	4516
899.633	4508
899.753	4550
899.873	4474
899.993	4565
900.113	4516
900.232	4527
900.352	4573
900.472	4531
900.591	4367
900.711	4447
900.83	4436
900.95	4565
901.069	4679
901.189	4542
901.308	4337
901.427	4325
901.546	4356
901.665	4508
901.784	4531
901.904	4405
902.023	4265
902.141	4192
902.26	4154
902.379	4276
902.498	4246
902.617	4219
902.735	4390
902.854	4386
902.973	4383
903.091	4230
903.21	4246
903.328	4291
903.446	4223
903.565	4265
903.683	4352
903.801	4318
903.919	4363
904.038	4402
904.156	4306
904.274	4417
904.392	4413
904.51	4462
904.627	4508
904.745	4588
904.863	4615
904.981	4394
905.098	4276
905.216	4337
905.334	4417
905.451	4440
905.569	4459
905.686	4512
905.803	4584
905.921	4383
906.038	4523
906.155	4459
906.272	4386
906.389	4440
906.506	4352
906.623	4363
906.74	4352
906.857	4314
906.974	4348
907.091	4565
907.208	4675
907.324	4615
907.441	4481
907.557	4352
907.674	4337
907.79	4268
907.907	4386
908.023	4455
908.139	4481
908.256	4421
908.372	4443
908.488	4417
908.604	4375
908.72	4386
908.836	4337
908.952	4428
909.068	4428
909.184	4599
909.3	4443
909.415	4596
909.531	4550
909.647	4356
909.762	4341
909.878	4352
909.993	4417
910.108	4459
910.224	4402
910.339	4516
910.454	4413
910.57	4356
910.685	4325
910.8	4645
910.915	4618
911.03	4519
911.145	4344
911.259	4344
911.374	4383
911.489	4287
911.604	4272
911.718	4135
911.833	4173
911.947	4093
912.062	4029
912.176	4181
912.291	4257
912.405	4215
912.519	4443
912.633	4516
912.748	4367
912.862	4291
912.976	4188
913.09	4116
913.204	4177
913.318	4230
913.431	4402
913.545	4390
913.659	4440
913.772	4348
913.886	4246
914	4196
914.113	4375
914.226	4432
914.34	4424
914.453	4295
914.566	4459
914.68	4329
914.793	4303
914.906	4177
915.019	4169
915.132	4074
915.245	4128
915.358	4181
915.47	4234
915.583	4291
915.696	4306
915.809	4379
915.921	4413
916.034	4265
916.146	4223
916.259	4230
916.371	4344
916.483	4352
916.595	4257
916.708	4287
916.82	4314
916.932	4360
917.044	4314
917.156	4310
917.268	4196
917.38	4280
917.491	4268
917.603	4295
917.715	4390
917.826	4455
917.938	4363
918.049	4242
918.161	4417
918.272	4481
918.384	4531
918.495	4493
918.606	4268
918.717	4219
918.828	4333
918.939	4325
919.05	4234
919.161	4295
919.272	4109
919.383	4207
919.494	4413
919.604	4577
919.715	4432
919.826	4306
919.936	4360
920.047	4527
920.157	4462
920.267	4710
920.378	4516
920.488	4462
920.598	4721
920.708	4908
920.818	4752
920.928	4790
921.038	4927
921.148	4908
921.258	4596
921.368	4626
921.477	4485
921.587	4462
921.697	4371
921.806	4470
921.916	4417
922.025	4238
922.134	4253
922.244	4227
922.353	4295
922.462	4185
922.571	4158
922.68	4048
922.789	3960
922.898	4082
923.007	3972
923.116	4067
923.224	4048
923.333	4071
923.442	3983
923.55	3975
923.659	3998
923.767	4116
923.876	3998
923.984	4074
924.092	3975
924.201	4086
924.309	4078
924.417	4131
924.525	4063
924.633	4105
924.741	5033
924.849	3945
924.956	4097
925.064	3949
925.172	3857
925.279	3983
925.387	4097
925.494	4063
925.602	4177
925.709	4131
925.816	4036
925.924	4078
926.031	4207
926.138	4185
926.245	4192
926.352	4048
926.459	4265
926.566	4257
926.673	4078
926.779	4078
926.886	4086
926.993	3960
927.099	3945
927.206	3964
927.312	3899
927.419	4051
927.525	3975
927.631	4112
927.737	3968
927.843	3968
927.95	3827
928.056	3937
928.162	4010
928.267	4040
928.373	4691
928.479	4067
928.585	3846
928.69	3987
928.796	4074
928.901	3975
929.007	3819
929.112	3991
929.218	3975
929.323	3941
929.428	3922
929.533	4105
929.638	3896
929.743	3945
929.848	4006
929.953	4010
930.058	3941
930.163	3770
930.267	3857
930.372	3991
930.477	3800
930.581	4036
930.685	3953
930.79	3778
930.894	3861
930.998	3857
931.103	3998
931.207	3743
931.311	3679
931.415	3663
931.519	3538
931.623	3564
