Data from test_V78500241_1632.txt Node
Date: Fri Mar 25 17:00:20 CST 2022
User: usil
Spectrometer: V785-0024
Trigger mode: 0
Integration Time (sec): 4.000000E-1
Scans to average: 1
Nonlinearity correction enabled: false
Boxcar width: 0
Storing dark spectrum: false
XAxis mode: Wavelengths
Number of Pixels in Spectrum: 1024
>>>>>Begin Spectral Data<<<<<
801.071	8027
801.214	8001
801.356	7917
801.499	7860
801.641	7803
801.783	7841
801.926	7940
802.068	7959
802.211	7947
802.353	7932
802.496	7830
802.638	7852
802.78	7909
802.923	7890
803.065	7833
803.208	7818
803.35	7989
803.492	8107
803.635	8126
803.777	8008
803.919	8123
804.061	8412
804.204	8145
804.346	8027
804.488	7902
804.63	8077
804.773	7978
804.915	8081
805.057	8286
805.199	8145
805.341	8259
805.483	8252
805.626	8149
805.768	8103
805.91	8210
806.052	8263
806.194	8020
806.336	8294
806.478	8031
806.62	8081
806.762	8138
806.904	8229
807.046	8507
807.188	8339
807.33	8374
807.472	8317
807.614	8161
807.756	8153
807.898	7982
808.04	7841
808.182	7890
808.324	7959
808.465	8016
808.607	8035
808.749	8119
808.891	8233
809.033	8271
809.174	8202
809.316	8005
809.458	8100
809.6	8024
809.741	8054
809.883	8001
810.025	8111
810.166	8024
810.308	8027
810.45	7940
810.591	7833
810.733	7662
810.875	7616
811.016	7468
811.158	7499
811.299	7578
811.441	7693
811.582	7696
811.724	7594
811.865	7544
812.007	7597
812.148	7590
812.29	7575
812.431	7746
812.573	7947
812.714	7967
812.855	8073
812.997	8233
813.138	8294
813.279	8202
813.421	8081
813.562	7932
813.703	7765
813.845	7731
813.986	7476
814.127	7305
814.268	7236
814.41	7187
814.551	7160
814.692	7152
814.833	7099
814.974	7084
815.115	7103
815.256	6962
815.397	6958
815.539	6958
815.68	6882
815.821	6787
815.962	6871
816.103	6757
816.244	6696
816.385	6604
816.526	6563
816.666	6452
816.807	6300
816.948	6437
817.089	6376
817.23	6388
817.371	6300
817.512	6369
817.653	6418
817.793	6361
817.934	6353
818.075	6460
818.216	6426
818.356	6395
818.497	6247
818.638	6114
818.778	6155
818.919	6106
819.06	6117
819.2	6315
819.341	6304
819.481	6292
819.622	6517
819.762	6734
819.903	6696
820.043	6627
820.184	6585
820.324	6563
820.465	6745
820.605	6684
820.746	6627
820.886	6486
821.026	6715
821.167	6730
821.307	6768
821.447	6787
821.588	6711
821.728	6559
821.868	6460
822.008	6346
822.149	6403
822.289	6372
822.429	6201
822.569	6129
822.709	6136
822.849	5992
822.99	5935
823.13	5927
823.27	5912
823.41	5802
823.55	5821
823.69	5798
823.83	5802
823.97	5741
824.11	5554
824.25	5551
824.389	5608
824.529	5684
824.669	5520
824.809	5665
824.949	5665
825.089	5680
825.228	5604
825.368	5368
825.508	5353
825.648	5406
825.787	5391
825.927	5395
826.067	5330
826.206	5315
826.346	5440
826.485	5425
826.625	5417
826.765	5520
826.904	5524
827.044	5368
827.183	5227
827.323	5147
827.462	5242
827.601	5193
827.741	5242
827.88	5185
828.02	5105
828.159	5269
828.298	5357
828.437	5402
828.577	5334
828.716	5509
828.855	5337
828.994	5174
829.134	5181
829.273	5246
829.412	5159
829.551	5216
829.69	5204
829.829	5307
829.968	5368
830.107	5261
830.246	5337
830.385	5280
830.524	5155
830.663	5105
830.802	4961
830.941	4934
831.08	4965
831.219	4965
831.357	4995
831.496	5140
831.635	4923
831.774	4873
831.913	4854
832.051	4755
832.19	4763
832.329	4866
832.467	4733
832.606	4672
832.744	4740
832.883	4736
833.022	4752
833.16	4831
833.299	4862
833.437	4862
833.576	4881
833.714	4870
833.852	4930
833.991	4949
834.129	4980
834.267	4984
834.406	4885
834.544	4980
834.682	5056
834.821	4946
834.959	5250
835.097	5045
835.235	5204
835.373	5060
835.511	5102
835.65	5083
835.788	5064
835.926	4953
836.064	4881
836.202	4942
836.34	5185
836.478	5261
836.615	5201
836.753	5258
836.891	5357
837.029	5296
837.167	5250
837.305	5193
837.443	5216
837.58	5083
837.718	5284
837.856	5220
837.993	5181
838.131	5296
838.269	5258
838.406	5159
838.544	5189
838.681	5052
838.819	5056
838.956	4965
839.094	4930
839.231	5033
839.369	5159
839.506	5509
839.643	5280
839.781	5045
839.918	5029
840.055	5197
840.193	5170
840.33	5128
840.467	5208
840.604	5254
840.742	5497
840.879	5064
841.016	5102
841.153	5170
841.29	5372
841.427	5364
841.564	5322
841.701	5379
841.838	5269
841.975	5265
842.112	5318
842.249	5166
842.385	5132
842.522	5315
842.659	5189
842.796	5170
842.933	5227
843.069	5170
843.206	5193
843.343	5322
843.479	5288
843.616	5318
843.752	5090
843.889	5048
844.025	5216
844.162	5003
844.298	5201
844.435	5102
844.571	5067
844.708	5227
844.844	5364
844.98	5330
845.117	5364
845.253	5166
845.389	5132
845.525	5143
845.661	5178
845.798	5060
845.934	5174
846.07	5064
846.206	5193
846.342	5315
846.478	5197
846.614	5083
846.75	5006
846.886	5006
847.022	5136
847.158	4972
847.294	5064
847.429	5136
847.565	5090
847.701	5383
847.837	4877
847.972	4854
848.108	4972
848.244	4980
848.379	4786
848.515	4759
848.65	4752
848.786	4736
848.921	4763
849.057	4919
849.192	4961
849.328	4816
849.463	4889
849.598	4797
849.734	4835
849.869	4725
850.004	4611
850.14	4717
850.275	4630
850.41	4531
850.545	4611
850.68	4656
850.815	4641
850.95	4656
851.085	4839
851.22	4820
851.355	4691
851.49	4637
851.625	4660
851.76	4634
851.895	4565
852.03	4535
852.165	4683
852.299	4706
852.434	4831
852.569	4740
852.703	4778
852.838	4873
852.973	4984
853.107	4946
853.242	4782
853.376	4702
853.511	4596
853.645	4584
853.78	4767
853.914	4721
854.048	4694
854.183	4675
854.317	4744
854.451	4862
854.585	4683
854.72	4653
854.854	4786
854.988	4645
855.122	4706
855.256	4573
855.39	4694
855.524	4782
855.658	4767
855.792	4725
855.926	4714
856.06	4752
856.194	4771
856.327	4691
856.461	4611
856.595	4626
856.729	4664
856.862	4752
856.996	4691
857.13	4744
857.263	4782
857.397	4790
857.53	4653
857.664	4771
857.797	4786
857.931	4790
858.064	4691
858.197	4763
858.331	4634
858.464	4634
858.597	4531
858.731	4649
858.864	4736
858.997	4599
859.13	4744
859.263	4691
859.396	4744
859.529	4607
859.662	4641
859.795	4519
859.928	4656
860.061	4793
860.194	4767
860.327	4615
860.46	4577
860.592	4744
860.725	4740
860.858	4755
860.99	4618
861.123	4546
861.256	4550
861.388	4683
861.521	5235
861.653	4542
861.786	4489
861.918	4512
862.05	4523
862.183	4573
862.315	4641
862.447	4687
862.58	4584
862.712	4466
862.844	4371
862.976	4459
863.108	4409
863.24	4797
863.372	4402
863.504	4470
863.636	4405
863.768	4519
863.9	4470
864.032	4344
864.164	4474
864.296	4481
864.428	4561
864.559	4588
864.691	4588
864.823	4500
864.954	4508
865.086	4565
865.217	4497
865.349	4390
865.48	4504
865.612	4508
865.743	4634
865.875	4485
866.006	4451
866.137	4489
866.269	4443
866.4	4451
866.531	4455
866.662	4409
866.793	4443
866.924	4402
867.055	4516
867.186	4459
867.317	4386
867.448	4455
867.579	4405
867.71	4371
867.841	4356
867.972	4504
868.103	4504
868.233	4500
868.364	4500
868.495	4489
868.625	4672
868.756	4767
868.886	4615
869.017	4645
869.147	4782
869.278	4759
869.408	4656
869.539	4611
869.669	4717
869.799	4653
869.929	4774
870.06	4759
870.19	4995
870.32	4927
870.45	4889
870.58	4991
870.71	5136
870.84	5132
870.97	4972
871.1	4911
871.23	5181
871.36	5121
871.489	5022
871.619	5105
871.749	5147
871.879	5121
872.008	5197
872.138	5094
872.267	5010
872.397	4847
872.526	4790
872.656	4721
872.785	4782
872.915	4968
873.044	5045
873.173	4961
873.303	4942
873.432	4972
873.561	4972
873.69	4881
873.819	4885
873.948	4938
874.077	4816
874.206	4729
874.335	4820
874.464	4942
874.593	5052
874.722	4987
874.851	5064
874.979	5098
875.108	5060
875.237	4927
875.365	4892
875.494	4938
875.623	4991
875.751	4831
875.88	4877
876.008	4949
876.136	5064
876.265	5189
876.393	5349
876.521	5288
876.65	5208
876.778	5155
876.906	5071
877.034	5029
877.162	5079
877.29	5022
877.418	5048
877.546	5052
877.674	5060
877.802	4995
877.93	5022
878.058	4923
878.185	4889
878.313	5014
878.441	5003
878.568	4816
878.696	4900
878.824	4995
878.951	5029
879.079	5143
879.206	5299
879.333	5102
879.461	4995
879.588	5022
879.715	5143
879.842	5284
879.97	4938
880.097	4809
880.224	4797
880.351	4839
880.478	4862
880.605	4790
880.732	4763
880.859	5060
880.986	4927
881.112	4919
881.239	4801
881.366	4668
881.493	4622
881.619	4592
881.746	4653
881.872	4664
881.999	4656
882.125	4706
882.252	4778
882.378	4809
882.505	5003
882.631	4812
882.757	4698
882.883	4752
883.01	4736
883.136	4702
883.262	4641
883.388	4649
883.514	4843
883.64	4850
883.766	4847
883.892	4653
884.018	4755
884.143	4877
884.269	5079
884.395	4698
884.52	4618
884.646	4683
884.772	4611
884.897	4573
885.023	4672
885.148	4820
885.274	4881
885.399	4793
885.524	4729
885.65	4694
885.775	4752
885.9	4755
886.025	4854
886.15	4816
886.275	4687
886.4	4683
886.525	4714
886.65	4694
886.775	4687
886.9	4900
887.025	5014
887.149	4812
887.274	4675
887.399	4637
887.523	4558
887.648	4592
887.773	4618
887.897	4755
888.021	4763
888.146	4691
888.27	4816
888.395	4900
888.519	4843
888.643	4839
888.767	4866
888.891	4740
889.015	4565
889.139	4622
889.263	4634
889.387	4778
889.511	4824
889.635	4839
889.759	4679
889.883	4622
890.006	4774
890.13	4801
890.254	4622
890.377	4694
890.501	4584
890.624	4558
890.748	4634
890.871	4504
890.995	4500
891.118	4375
891.241	4542
891.364	4527
891.488	4683
891.611	4497
891.734	4588
891.857	4584
891.98	4573
892.103	4672
892.226	4634
892.349	4542
892.471	4417
892.594	4588
892.717	4577
892.839	4577
892.962	4577
893.085	4691
893.207	4622
893.33	4455
893.452	4508
893.575	4683
893.697	4588
893.819	4786
893.941	4828
894.064	4774
894.186	4599
894.308	4588
894.43	4733
894.552	4820
894.674	4748
894.796	4630
894.918	4592
895.04	4542
895.161	4702
895.283	4679
895.405	4603
895.526	4626
895.648	4725
895.769	4683
895.891	4694
896.012	4729
896.134	4717
896.255	4706
896.376	4615
896.498	4611
896.619	4698
896.74	4603
896.861	4675
896.982	5006
897.103	5105
897.224	4801
897.345	4733
897.466	4679
897.587	4679
897.708	4824
897.828	4774
897.949	4672
898.07	4573
898.19	4626
898.311	4835
898.431	4645
898.552	4706
898.672	4797
898.792	4767
898.913	4736
899.033	4637
899.153	4500
899.273	4428
899.393	4497
899.513	4519
899.633	4523
899.753	4558
899.873	4535
899.993	4565
900.113	4455
900.232	4641
900.352	4554
900.472	4535
900.591	4447
900.711	4535
900.83	4447
900.95	4637
901.069	4668
901.189	4546
901.308	4371
901.427	4314
901.546	4390
901.665	4478
901.784	4489
901.904	4367
902.023	4295
902.141	4192
902.26	4173
902.379	4322
902.498	4257
902.617	4192
902.735	4394
902.854	4367
902.973	4337
903.091	4211
903.21	4238
903.328	4306
903.446	4272
903.565	4227
903.683	4356
903.801	4291
903.919	4360
904.038	4405
904.156	4344
904.274	4394
904.392	4394
904.51	4424
904.627	4500
904.745	4512
904.863	4649
904.981	4360
905.098	4314
905.216	4383
905.334	4432
905.451	4424
905.569	4424
905.686	4531
905.803	4577
905.921	4398
906.038	4542
906.155	4470
906.272	4379
906.389	4466
906.506	4329
906.623	4398
906.74	4405
906.857	4341
906.974	4341
907.091	4561
907.208	4664
907.324	4554
907.441	4512
907.557	4394
907.674	4314
907.79	4352
907.907	4417
908.023	4497
908.139	4451
908.256	4432
908.372	4440
908.488	4466
908.604	4417
908.72	4287
908.836	4344
908.952	4371
909.068	4462
909.184	4550
909.3	4481
909.415	4577
909.531	4611
909.647	4329
909.762	4348
909.878	4337
909.993	4424
910.108	4417
910.224	4398
910.339	4504
910.454	4398
910.57	4344
910.685	4272
910.8	4615
910.915	4603
911.03	4459
911.145	4329
911.259	4318
911.374	4371
911.489	4356
911.604	4253
911.718	4135
911.833	4230
911.947	4078
912.062	4021
912.176	4223
912.291	4219
912.405	4272
912.519	4489
912.633	4497
912.748	4383
912.862	4348
912.976	4192
913.09	4063
913.204	4211
913.318	4242
913.431	4333
913.545	4398
913.659	4436
913.772	4325
913.886	4230
914	4200
914.113	4383
914.226	4413
914.34	4413
914.453	4219
914.566	4455
914.68	4287
914.793	4310
914.906	4150
915.019	4139
915.132	4124
915.245	4150
915.358	4211
915.47	4261
915.583	4272
915.696	4306
915.809	4375
915.921	4428
916.034	4284
916.146	4303
916.259	4219
916.371	4371
916.483	4394
916.595	4272
916.708	4322
916.82	4295
916.932	4341
917.044	4356
917.156	4360
917.268	4276
917.38	4276
917.491	4310
917.603	4337
917.715	4394
917.826	4459
917.938	4379
918.049	4249
918.161	4417
918.272	4542
918.384	4516
918.495	4459
918.606	4268
918.717	4234
918.828	4318
918.939	4363
919.05	4211
919.161	4341
919.272	4173
919.383	4265
919.494	4428
919.604	4626
919.715	4417
919.826	4341
919.936	4398
920.047	4519
920.157	4470
920.267	4668
920.378	4516
920.488	4516
920.598	4717
920.708	4873
920.818	4736
920.928	4729
921.038	4938
921.148	4873
921.258	4584
921.368	4554
921.477	4497
921.587	4413
921.697	4322
921.806	4519
921.916	4466
922.025	4310
922.134	4223
922.244	4265
922.353	4306
922.462	4154
922.571	4120
922.68	3945
922.789	3994
922.898	4109
923.007	4006
923.116	4109
923.224	4055
923.333	4101
923.442	4006
923.55	3972
923.659	4032
923.767	4112
923.876	3994
923.984	4090
924.092	3960
924.201	4048
924.309	4071
924.417	4135
924.525	4086
924.633	4101
924.741	4892
924.849	3930
924.956	4109
925.064	3964
925.172	3892
925.279	3953
925.387	4044
925.494	4101
925.602	4200
925.709	4173
925.816	4025
925.924	4101
926.031	4207
926.138	4177
926.245	4204
926.352	4090
926.459	4265
926.566	4318
926.673	4116
926.779	4086
926.886	4044
926.993	3964
927.099	3994
927.206	3934
927.312	3960
927.419	4017
927.525	4063
927.631	4124
927.737	3998
927.843	3930
927.95	3850
928.056	3937
928.162	3991
928.267	4051
928.373	4580
928.479	4128
928.585	3876
928.69	4040
928.796	4040
928.901	3964
929.007	3812
929.112	4017
929.218	4032
929.323	3953
929.428	3899
929.533	4101
929.638	3880
929.743	3972
929.848	4032
929.953	4006
930.058	3911
930.163	3774
930.267	3808
930.372	3964
930.477	3800
930.581	4093
930.685	3926
930.79	3823
930.894	3888
930.998	3835
931.103	4040
931.207	3728
931.311	3652
931.415	3679
931.519	3534
931.623	3545
