Data from test_V78500241_1794.txt Node
Date: Fri Mar 25 17:01:28 CST 2022
User: usil
Spectrometer: V785-0024
Trigger mode: 0
Integration Time (sec): 4.000000E-1
Scans to average: 1
Nonlinearity correction enabled: false
Boxcar width: 0
Storing dark spectrum: false
XAxis mode: Wavelengths
Number of Pixels in Spectrum: 1024
>>>>>Begin Spectral Data<<<<<
801.071	7982
801.214	8016
801.356	7868
801.499	7890
801.641	7765
801.783	7814
801.926	8031
802.068	7955
802.211	7955
802.353	8001
802.496	7826
802.638	7913
802.78	7951
802.923	7947
803.065	7902
803.208	7826
803.35	8001
803.492	8024
803.635	8119
803.777	8016
803.919	8092
804.061	8476
804.204	8138
804.346	8005
804.488	7887
804.63	8107
804.773	8027
804.915	8149
805.057	8279
805.199	8183
805.341	8142
805.483	8225
805.626	8218
805.768	8145
805.91	8161
806.052	8237
806.194	8077
806.336	8271
806.478	8084
806.62	8088
806.762	8161
806.904	8256
807.046	8480
807.188	8370
807.33	8305
807.472	8362
807.614	8191
807.756	8149
807.898	8043
808.04	7932
808.182	7890
808.324	7921
808.465	7898
808.607	8096
808.749	8145
808.891	8237
809.033	8290
809.174	8164
809.316	8024
809.458	8016
809.6	8081
809.741	8031
809.883	7963
810.025	8138
810.166	8035
810.308	7989
810.45	7932
810.591	7803
810.733	7708
810.875	7693
811.016	7521
811.158	7396
811.299	7586
811.441	7715
811.582	7693
811.724	7487
811.865	7548
812.007	7613
812.148	7567
812.29	7677
812.431	7792
812.573	7890
812.714	7913
812.855	8084
812.997	8225
813.138	8309
813.279	8191
813.421	8043
813.562	7925
813.703	7814
813.845	7731
813.986	7434
814.127	7244
814.268	7225
814.41	7183
814.551	7221
814.692	7225
814.833	7069
814.974	7114
815.115	7164
815.256	6947
815.397	6966
815.539	6909
815.68	6810
815.821	6681
815.962	6875
816.103	6776
816.244	6692
816.385	6566
816.526	6631
816.666	6521
816.807	6281
816.948	6471
817.089	6445
817.23	6456
817.371	6350
817.512	6388
817.653	6399
817.793	6353
817.934	6471
818.075	6475
818.216	6426
818.356	6369
818.497	6232
818.638	6144
818.778	6155
818.919	6152
819.06	6178
819.2	6308
819.341	6327
819.481	6403
819.622	6547
819.762	6722
819.903	6665
820.043	6532
820.184	6574
820.324	6589
820.465	6688
820.605	6726
820.746	6620
820.886	6483
821.026	6681
821.167	6741
821.307	6726
821.447	6768
821.588	6700
821.728	6585
821.868	6467
822.008	6334
822.149	6331
822.289	6273
822.429	6117
822.569	6102
822.709	6076
822.849	5954
822.99	5927
823.13	5950
823.27	5942
823.41	5767
823.55	5703
823.69	5771
823.83	5722
823.97	5600
824.11	5528
824.25	5497
824.389	5551
824.529	5520
824.669	5535
824.809	5627
824.949	5611
825.089	5642
825.228	5543
825.368	5360
825.508	5334
825.648	5330
825.787	5360
825.927	5372
826.067	5322
826.206	5288
826.346	5379
826.485	5398
826.625	5387
826.765	5509
826.904	5436
827.044	5258
827.183	5170
827.323	5124
827.462	5193
827.601	5208
827.741	5162
827.88	5208
828.02	5151
828.159	5181
828.298	5307
828.437	5368
828.577	5296
828.716	5452
828.855	5353
828.994	5143
829.134	5140
829.273	5189
829.412	5136
829.551	5159
829.69	5216
829.829	5246
829.968	5395
830.107	5216
830.246	5258
830.385	5181
830.524	5117
830.663	5014
830.802	4957
830.941	4858
831.08	4866
831.219	4968
831.357	5006
831.496	5102
831.635	4911
831.774	4839
831.913	4843
832.051	4733
832.19	4740
832.329	4843
832.467	4611
832.606	4607
832.744	4698
832.883	4755
833.022	4714
833.16	4801
833.299	4763
833.437	4828
833.576	4797
833.714	4816
833.852	4881
833.991	4835
834.129	4949
834.267	4923
834.406	4877
834.544	4965
834.682	4953
834.821	5006
834.959	5124
835.097	4987
835.235	5159
835.373	5121
835.511	5098
835.65	5025
835.788	5060
835.926	4911
836.064	4828
836.202	4923
836.34	5201
836.478	5185
836.615	5094
836.753	5189
836.891	5284
837.029	5204
837.167	5246
837.305	5143
837.443	5140
837.58	5121
837.718	5231
837.856	5193
837.993	5201
838.131	5197
838.269	5216
838.406	5212
838.544	5147
838.681	5037
838.819	5029
838.956	4862
839.094	4831
839.231	4976
839.369	5075
839.506	5395
839.643	5292
839.781	5067
839.918	4999
840.055	5083
840.193	5086
840.33	5121
840.467	5136
840.604	5143
840.742	5417
840.879	5083
841.016	5033
841.153	5113
841.29	5429
841.427	5349
841.564	5288
841.701	5318
841.838	5307
841.975	5227
842.112	5258
842.249	5155
842.385	5075
842.522	5315
842.659	5140
842.796	5105
842.933	5170
843.069	5147
843.206	5132
843.343	5261
843.479	5258
843.616	5280
843.752	5037
843.889	5014
844.025	5166
844.162	5029
844.298	5258
844.435	5071
844.571	5045
844.708	5159
844.844	5357
844.98	5265
845.117	5277
845.253	5124
845.389	5113
845.525	5121
845.661	5113
845.798	5045
845.934	5140
846.07	5048
846.206	5204
846.342	5299
846.478	5181
846.614	5014
846.75	4961
846.886	4896
847.022	5124
847.158	5010
847.294	5029
847.429	5117
847.565	5067
847.701	5299
847.837	4854
847.972	4835
848.108	4934
848.244	4923
848.379	4831
848.515	4714
848.65	4687
848.786	4752
848.921	4778
849.057	4862
849.192	4877
849.328	4809
849.463	4820
849.598	4744
849.734	4801
849.869	4672
850.004	4603
850.14	4626
850.275	4592
850.41	4508
850.545	4565
850.68	4592
850.815	4603
850.95	4607
851.085	4812
851.22	4721
851.355	4668
851.49	4607
851.625	4577
851.76	4592
851.895	4577
852.03	4500
852.165	4599
852.299	4698
852.434	4812
852.569	4748
852.703	4736
852.838	4839
852.973	4934
853.107	4885
853.242	4744
853.376	4630
853.511	4519
853.645	4603
853.78	4854
853.914	4675
854.048	4675
854.183	4607
854.317	4733
854.451	4858
854.585	4664
854.72	4641
854.854	4744
854.988	4584
855.122	4569
855.256	4512
855.39	4702
855.524	4790
855.658	4702
855.792	4702
855.926	4702
856.06	4786
856.194	4839
856.327	4683
856.461	4618
856.595	4588
856.729	4622
856.862	4797
856.996	4675
857.13	4748
857.263	4729
857.397	4797
857.53	4603
857.664	4706
857.797	4767
857.931	4790
858.064	4675
858.197	4702
858.331	4694
858.464	4573
858.597	4535
858.731	4596
858.864	4649
858.997	4618
859.13	4675
859.263	4649
859.396	4694
859.529	4558
859.662	4527
859.795	4554
859.928	4607
860.061	4774
860.194	4771
860.327	4592
860.46	4535
860.592	4736
860.725	4721
860.858	4668
860.99	4554
861.123	4470
861.256	4481
861.388	4596
861.521	5261
861.653	4500
861.786	4428
861.918	4451
862.05	4474
862.183	4603
862.315	4622
862.447	4634
862.58	4531
862.712	4428
862.844	4310
862.976	4451
863.108	4443
863.24	4881
863.372	4314
863.504	4447
863.636	4409
863.768	4516
863.9	4447
864.032	4344
864.164	4371
864.296	4443
864.428	4577
864.559	4592
864.691	4516
864.823	4481
864.954	4497
865.086	4550
865.217	4455
865.349	4405
865.48	4478
865.612	4481
865.743	4607
865.875	4421
866.006	4398
866.137	4455
866.269	4455
866.4	4390
866.531	4413
866.662	4405
866.793	4379
866.924	4409
867.055	4478
867.186	4497
867.317	4390
867.448	4306
867.579	4348
867.71	4398
867.841	4352
867.972	4474
868.103	4500
868.233	4451
868.364	4462
868.495	4478
868.625	4603
868.756	4797
868.886	4516
869.017	4630
869.147	4767
869.278	4763
869.408	4649
869.539	4630
869.669	4748
869.799	4702
869.929	4744
870.06	4725
870.19	4938
870.32	4927
870.45	4911
870.58	4999
870.71	5064
870.84	5113
870.97	4896
871.1	4915
871.23	5128
871.36	5113
871.489	5025
871.619	5086
871.749	5094
871.879	5102
872.008	5174
872.138	5022
872.267	4999
872.397	4892
872.526	4782
872.656	4698
872.785	4831
872.915	4976
873.044	4965
873.173	4919
873.303	4980
873.432	5006
873.561	4968
873.69	4835
873.819	4854
873.948	4930
874.077	4843
874.206	4793
874.335	4790
874.464	4968
874.593	5033
874.722	5006
874.851	5090
874.979	5079
875.108	5018
875.237	4847
875.365	4858
875.494	4889
875.623	4968
875.751	4854
875.88	4904
876.008	4919
876.136	5037
876.265	5220
876.393	5334
876.521	5246
876.65	5258
876.778	5151
876.906	5086
877.034	5003
877.162	4995
877.29	4972
877.418	5064
877.546	4999
877.674	5014
877.802	5045
877.93	5029
878.058	4915
878.185	4919
878.313	4999
878.441	4984
878.568	4805
878.696	4866
878.824	4987
878.951	4972
879.079	5102
879.206	5273
879.333	5075
879.461	5010
879.588	5018
879.715	5071
879.842	5220
879.97	5018
880.097	4771
880.224	4752
880.351	4839
880.478	4790
880.605	4828
880.732	4862
880.859	5079
880.986	4892
881.112	4900
881.239	4774
881.366	4672
881.493	4599
881.619	4573
881.746	4630
881.872	4687
881.999	4622
882.125	4710
882.252	4881
882.378	4782
882.505	4961
882.631	4774
882.757	4687
882.883	4721
883.01	4740
883.136	4649
883.262	4584
883.388	4615
883.514	4824
883.64	4824
883.766	4763
883.892	4656
884.018	4729
884.143	4847
884.269	5022
884.395	4729
884.52	4580
884.646	4637
884.772	4577
884.897	4546
885.023	4653
885.148	4763
885.274	4904
885.399	4778
885.524	4710
885.65	4611
885.775	4717
885.9	4641
886.025	4862
886.15	4790
886.275	4733
886.4	4580
886.525	4679
886.65	4664
886.775	4653
886.9	4892
887.025	5048
887.149	4793
887.274	4634
887.399	4569
887.523	4599
887.648	4565
887.773	4569
887.897	4767
888.021	4752
888.146	4694
888.27	4847
888.395	4919
888.519	4786
888.643	4801
888.767	4786
888.891	4649
889.015	4588
889.139	4637
889.263	4569
889.387	4729
889.511	4820
889.635	4797
889.759	4611
889.883	4672
890.006	4725
890.13	4812
890.254	4611
890.377	4710
890.501	4573
890.624	4573
890.748	4626
890.871	4489
890.995	4432
891.118	4394
891.241	4546
891.364	4546
891.488	4588
891.611	4504
891.734	4508
891.857	4615
891.98	4519
892.103	4611
892.226	4592
892.349	4523
892.471	4443
892.594	4554
892.717	4580
892.839	4577
892.962	4599
893.085	4675
893.207	4653
893.33	4466
893.452	4538
893.575	4645
893.697	4558
893.819	4771
893.941	4847
894.064	4812
894.186	4542
894.308	4580
894.43	4714
894.552	4854
894.674	4748
894.796	4565
894.918	4573
895.04	4550
895.161	4733
895.283	4664
895.405	4592
895.526	4626
895.648	4714
895.769	4679
895.891	4714
896.012	4752
896.134	4710
896.255	4664
896.376	4611
896.498	4618
896.619	4683
896.74	4596
896.861	4679
896.982	4896
897.103	5064
897.224	4816
897.345	4706
897.466	4672
897.587	4706
897.708	4877
897.828	4809
897.949	4679
898.07	4558
898.19	4660
898.311	4839
898.431	4694
898.552	4725
898.672	4778
898.792	4793
898.913	4752
899.033	4630
899.153	4493
899.273	4417
899.393	4535
899.513	4542
899.633	4523
899.753	4565
899.873	4504
899.993	4577
900.113	4535
900.232	4596
900.352	4546
900.472	4447
900.591	4367
900.711	4497
900.83	4485
900.95	4607
901.069	4672
901.189	4470
901.308	4360
901.427	4303
901.546	4386
901.665	4451
901.784	4519
901.904	4424
902.023	4337
902.141	4185
902.26	4169
902.379	4272
902.498	4185
902.617	4257
902.735	4417
902.854	4348
902.973	4329
903.091	4188
903.21	4196
903.328	4303
903.446	4276
903.565	4287
903.683	4329
903.801	4284
903.919	4386
904.038	4470
904.156	4329
904.274	4428
904.392	4428
904.51	4447
904.627	4474
904.745	4577
904.863	4588
904.981	4394
905.098	4280
905.216	4337
905.334	4436
905.451	4424
905.569	4443
905.686	4596
905.803	4573
905.921	4455
906.038	4516
906.155	4504
906.272	4394
906.389	4466
906.506	4379
906.623	4352
906.74	4390
906.857	4265
906.974	4363
907.091	4599
907.208	4656
907.324	4561
907.441	4436
907.557	4306
907.674	4337
907.79	4295
907.907	4405
908.023	4436
908.139	4535
908.256	4436
908.372	4519
908.488	4440
908.604	4363
908.72	4322
908.836	4402
908.952	4325
909.068	4455
909.184	4577
909.3	4516
909.415	4615
909.531	4508
909.647	4348
909.762	4390
909.878	4344
909.993	4443
910.108	4462
910.224	4440
910.339	4447
910.454	4424
910.57	4405
910.685	4310
910.8	4645
910.915	4615
911.03	4466
911.145	4306
911.259	4333
911.374	4398
911.489	4303
911.604	4322
911.718	4181
911.833	4196
911.947	4093
912.062	4040
912.176	4200
912.291	4181
912.405	4249
912.519	4470
912.633	4459
912.748	4352
912.862	4280
912.976	4242
913.09	4093
913.204	4166
913.318	4207
913.431	4402
913.545	4394
913.659	4447
913.772	4383
913.886	4265
914	4227
914.113	4318
914.226	4386
914.34	4421
914.453	4238
914.566	4386
914.68	4337
914.793	4318
914.906	4143
915.019	4131
915.132	4044
915.245	4177
915.358	4249
915.47	4188
915.583	4234
915.696	4325
915.809	4390
915.921	4424
916.034	4265
916.146	4215
916.259	4242
916.371	4383
916.483	4409
916.595	4230
916.708	4322
916.82	4291
916.932	4341
917.044	4314
917.156	4318
917.268	4253
917.38	4268
917.491	4249
917.603	4344
917.715	4432
917.826	4451
917.938	4360
918.049	4253
918.161	4413
918.272	4519
918.384	4497
918.495	4386
918.606	4284
918.717	4242
918.828	4318
918.939	4367
919.05	4223
919.161	4325
919.272	4109
919.383	4204
919.494	4504
919.604	4592
919.715	4462
919.826	4333
919.936	4428
920.047	4474
920.157	4485
920.267	4634
920.378	4607
920.488	4481
920.598	4717
920.708	4892
920.818	4790
920.928	4752
921.038	4938
921.148	4953
921.258	4637
921.368	4508
921.477	4489
921.587	4440
921.697	4363
921.806	4527
921.916	4481
922.025	4246
922.134	4318
922.244	4173
922.353	4322
922.462	4173
922.571	4147
922.68	4013
922.789	3983
922.898	4044
923.007	3956
923.116	4051
923.224	4093
923.333	4090
923.442	3937
923.55	3975
923.659	4055
923.767	4071
923.876	4059
923.984	4147
924.092	4013
924.201	4074
924.309	4116
924.417	4101
924.525	4032
924.633	4109
924.741	5064
924.849	3903
924.956	4124
925.064	3949
925.172	3930
925.279	3960
925.387	4029
925.494	4086
925.602	4204
925.709	4158
925.816	4051
925.924	4124
926.031	4166
926.138	4207
926.245	4192
926.352	4078
926.459	4246
926.566	4280
926.673	4112
926.779	4051
926.886	4078
926.993	3998
927.099	3953
927.206	3975
927.312	3972
927.419	4051
927.525	4044
927.631	4112
927.737	3937
927.843	3968
927.95	3842
928.056	3899
928.162	4002
928.267	4071
928.373	4611
928.479	4086
928.585	3854
928.69	4010
928.796	4044
928.901	3941
929.007	3812
929.112	4032
929.218	3941
929.323	3953
929.428	3941
929.533	4067
929.638	3892
929.743	3953
929.848	4021
929.953	4010
930.058	3953
930.163	3785
930.267	3793
930.372	3949
930.477	3793
930.581	4086
930.685	3964
930.79	3819
930.894	3857
930.998	3880
931.103	4013
931.207	3728
931.311	3698
931.415	3637
931.519	3542
931.623	3545
