Data from test_V78500241_1742.txt Node
Date: Fri Mar 25 17:01:06 CST 2022
User: usil
Spectrometer: V785-0024
Trigger mode: 0
Integration Time (sec): 4.000000E-1
Scans to average: 1
Nonlinearity correction enabled: false
Boxcar width: 0
Storing dark spectrum: false
XAxis mode: Wavelengths
Number of Pixels in Spectrum: 1024
>>>>>Begin Spectral Data<<<<<
801.071	8012
801.214	7982
801.356	7936
801.499	7917
801.641	7830
801.783	7852
801.926	8001
802.068	7940
802.211	8005
802.353	7978
802.496	7902
802.638	7845
802.78	7879
802.923	7955
803.065	7887
803.208	7799
803.35	7959
803.492	7997
803.635	8191
803.777	8035
803.919	8107
804.061	8389
804.204	8161
804.346	8058
804.488	7967
804.63	8096
804.773	8016
804.915	8100
805.057	8309
805.199	8138
805.341	8195
805.483	8187
805.626	8202
805.768	8062
805.91	8218
806.052	8225
806.194	8142
806.336	8328
806.478	8069
806.62	8001
806.762	8130
806.904	8286
807.046	8488
807.188	8431
807.33	8347
807.472	8286
807.614	8191
807.756	8161
807.898	8005
808.04	7898
808.182	7887
808.324	7936
808.465	8005
808.607	8073
808.749	8134
808.891	8168
809.033	8286
809.174	8214
809.316	8084
809.458	8062
809.6	8012
809.741	7993
809.883	8027
810.025	8092
810.166	8035
810.308	8035
810.45	7993
810.591	7830
810.733	7742
810.875	7662
811.016	7571
811.158	7441
811.299	7582
811.441	7731
811.582	7647
811.724	7590
811.865	7537
812.007	7544
812.148	7609
812.29	7578
812.431	7814
812.573	7944
812.714	7959
812.855	8115
812.997	8259
813.138	8282
813.279	8168
813.421	8073
813.562	7978
813.703	7826
813.845	7772
813.986	7453
814.127	7327
814.268	7175
814.41	7232
814.551	7160
814.692	7202
814.833	7114
814.974	7164
815.115	7091
815.256	6973
815.397	6916
815.539	6989
815.68	6821
815.821	6776
815.962	6833
816.103	6795
816.244	6707
816.385	6635
816.526	6612
816.666	6528
816.807	6289
816.948	6410
817.089	6471
817.23	6445
817.371	6369
817.512	6429
817.653	6331
817.793	6357
817.934	6380
818.075	6464
818.216	6418
818.356	6391
818.497	6350
818.638	6148
818.778	6190
818.919	6175
819.06	6175
819.2	6323
819.341	6308
819.481	6391
819.622	6502
819.762	6814
819.903	6719
820.043	6608
820.184	6608
820.324	6559
820.465	6730
820.605	6673
820.746	6665
820.886	6525
821.026	6665
821.167	6703
821.307	6772
821.447	6837
821.588	6662
821.728	6585
821.868	6521
822.008	6266
822.149	6323
822.289	6369
822.429	6095
822.569	6038
822.709	6133
822.849	5904
822.99	5939
823.13	5973
823.27	5916
823.41	5828
823.55	5802
823.69	5786
823.83	5775
823.97	5653
824.11	5554
824.25	5512
824.389	5551
824.529	5608
824.669	5539
824.809	5680
824.949	5688
825.089	5680
825.228	5589
825.368	5414
825.508	5398
825.648	5326
825.787	5337
825.927	5387
826.067	5318
826.206	5307
826.346	5410
826.485	5398
826.625	5395
826.765	5524
826.904	5459
827.044	5254
827.183	5269
827.323	5166
827.462	5227
827.601	5216
827.741	5193
827.88	5212
828.02	5098
828.159	5212
828.298	5292
828.437	5345
828.577	5296
828.716	5493
828.855	5345
828.994	5216
829.134	5159
829.273	5178
829.412	5136
829.551	5170
829.69	5166
829.829	5216
829.968	5410
830.107	5269
830.246	5318
830.385	5178
830.524	5193
830.663	5102
830.802	4930
830.941	4889
831.08	4896
831.219	5025
831.357	4999
831.496	5159
831.635	4942
831.774	4839
831.913	4816
832.051	4710
832.19	4717
832.329	4866
832.467	4725
832.606	4618
832.744	4694
832.883	4691
833.022	4714
833.16	4786
833.299	4866
833.437	4847
833.576	4820
833.714	4843
833.852	4850
833.991	4900
834.129	4961
834.267	4968
834.406	4976
834.544	4984
834.682	4957
834.821	4968
834.959	5151
835.097	4957
835.235	5159
835.373	5166
835.511	5098
835.65	5067
835.788	5105
835.926	4911
836.064	4862
836.202	4885
836.34	5147
836.478	5265
836.615	5090
836.753	5178
836.891	5299
837.029	5235
837.167	5242
837.305	5208
837.443	5151
837.58	5064
837.718	5181
837.856	5204
837.993	5143
838.131	5220
838.269	5212
838.406	5208
838.544	5178
838.681	5048
838.819	5018
838.956	4862
839.094	4911
839.231	4972
839.369	5121
839.506	5395
839.643	5303
839.781	5086
839.918	4991
840.055	5128
840.193	5067
840.33	5094
840.467	5140
840.604	5159
840.742	5459
840.879	5117
841.016	5064
841.153	5155
841.29	5402
841.427	5376
841.564	5288
841.701	5349
841.838	5315
841.975	5246
842.112	5231
842.249	5155
842.385	5143
842.522	5326
842.659	5136
842.796	5121
842.933	5220
843.069	5185
843.206	5189
843.343	5273
843.479	5299
843.616	5284
843.752	5025
843.889	5045
844.025	5250
844.162	4987
844.298	5235
844.435	5052
844.571	5048
844.708	5174
844.844	5292
844.98	5269
845.117	5299
845.253	5162
845.389	5045
845.525	5143
845.661	5121
845.798	5033
845.934	5140
846.07	5075
846.206	5185
846.342	5246
846.478	5155
846.614	5052
846.75	4949
846.886	4904
847.022	5159
847.158	5056
847.294	5079
847.429	5128
847.565	5064
847.701	5315
847.837	4843
847.972	4778
848.108	4965
848.244	4957
848.379	4759
848.515	4721
848.65	4736
848.786	4729
848.921	4828
849.057	4854
849.192	4877
849.328	4820
849.463	4866
849.598	4755
849.734	4725
849.869	4717
850.004	4592
850.14	4702
850.275	4611
850.41	4538
850.545	4611
850.68	4622
850.815	4618
850.95	4645
851.085	4736
851.22	4710
851.355	4649
851.49	4660
851.625	4615
851.76	4656
851.895	4611
852.03	4607
852.165	4675
852.299	4725
852.434	4824
852.569	4744
852.703	4778
852.838	4854
852.973	4934
853.107	4900
853.242	4771
853.376	4702
853.511	4561
853.645	4649
853.78	4805
853.914	4748
854.048	4660
854.183	4603
854.317	4725
854.451	4839
854.585	4675
854.72	4660
854.854	4740
854.988	4645
855.122	4599
855.256	4478
855.39	4668
855.524	4771
855.658	4656
855.792	4668
855.926	4763
856.06	4714
856.194	4782
856.327	4637
856.461	4607
856.595	4603
856.729	4584
856.862	4752
856.996	4733
857.13	4748
857.263	4752
857.397	4835
857.53	4664
857.664	4694
857.797	4774
857.931	4759
858.064	4679
858.197	4710
858.331	4626
858.464	4550
858.597	4531
858.731	4664
858.864	4641
858.997	4592
859.13	4660
859.263	4649
859.396	4725
859.529	4554
859.662	4554
859.795	4577
859.928	4687
860.061	4790
860.194	4725
860.327	4630
860.46	4542
860.592	4710
860.725	4694
860.858	4725
860.99	4577
861.123	4523
861.256	4546
861.388	4611
861.521	5357
861.653	4424
861.786	4451
861.918	4485
862.05	4523
862.183	4531
862.315	4626
862.447	4607
862.58	4588
862.712	4409
862.844	4299
862.976	4470
863.108	4394
863.24	4835
863.372	4325
863.504	4443
863.636	4390
863.768	4481
863.9	4485
864.032	4390
864.164	4390
864.296	4462
864.428	4531
864.559	4603
864.691	4546
864.823	4573
864.954	4508
865.086	4462
865.217	4462
865.349	4447
865.48	4478
865.612	4474
865.743	4615
865.875	4485
866.006	4363
866.137	4413
866.269	4424
866.4	4478
866.531	4424
866.662	4386
866.793	4363
866.924	4424
867.055	4489
867.186	4451
867.317	4428
867.448	4394
867.579	4398
867.71	4375
867.841	4348
867.972	4462
868.103	4447
868.233	4443
868.364	4443
868.495	4474
868.625	4637
868.756	4744
868.886	4577
869.017	4607
869.147	4706
869.278	4733
869.408	4649
869.539	4611
869.669	4710
869.799	4691
869.929	4733
870.06	4736
870.19	4919
870.32	4938
870.45	4938
870.58	4980
870.71	5060
870.84	5143
870.97	4949
871.1	4870
871.23	5113
871.36	5109
871.489	4999
871.619	5064
871.749	5086
871.879	5140
872.008	5162
872.138	5033
872.267	4995
872.397	4908
872.526	4843
872.656	4702
872.785	4801
872.915	4957
873.044	4961
873.173	4930
873.303	4987
873.432	4957
873.561	4949
873.69	4812
873.819	4854
873.948	4911
874.077	4793
874.206	4698
874.335	4752
874.464	4908
874.593	5052
874.722	4938
874.851	5060
874.979	5109
875.108	5045
875.237	4900
875.365	4911
875.494	4900
875.623	5014
875.751	4771
875.88	4866
876.008	4934
876.136	5045
876.265	5197
876.393	5391
876.521	5235
876.65	5239
876.778	5178
876.906	5102
877.034	5003
877.162	5052
877.29	5037
877.418	5022
877.546	5048
877.674	5029
877.802	5067
877.93	4991
878.058	4938
878.185	4835
878.313	4991
878.441	4911
878.568	4843
878.696	4877
878.824	4957
878.951	5022
879.079	5083
879.206	5318
879.333	5124
879.461	4965
879.588	5025
879.715	5151
879.842	5174
879.97	5041
880.097	4812
880.224	4774
880.351	4759
880.478	4790
880.605	4790
880.732	4793
880.859	5064
880.986	4870
881.112	4927
881.239	4793
881.366	4691
881.493	4580
881.619	4615
881.746	4622
881.872	4645
881.999	4656
882.125	4641
882.252	4805
882.378	4774
882.505	4946
882.631	4820
882.757	4710
882.883	4771
883.01	4733
883.136	4679
883.262	4641
883.388	4599
883.514	4778
883.64	4866
883.766	4778
883.892	4641
884.018	4755
884.143	4877
884.269	4961
884.395	4668
884.52	4584
884.646	4675
884.772	4626
884.897	4538
885.023	4622
885.148	4755
885.274	4828
885.399	4774
885.524	4748
885.65	4675
885.775	4736
885.9	4668
886.025	4866
886.15	4831
886.275	4733
886.4	4637
886.525	4710
886.65	4698
886.775	4694
886.9	4904
887.025	5029
887.149	4797
887.274	4653
887.399	4599
887.523	4580
887.648	4607
887.773	4554
887.897	4767
888.021	4774
888.146	4645
888.27	4805
888.395	4908
888.519	4736
888.643	4828
888.767	4831
888.891	4675
889.015	4641
889.139	4675
889.263	4558
889.387	4740
889.511	4885
889.635	4786
889.759	4664
889.883	4660
890.006	4748
890.13	4816
890.254	4599
890.377	4668
890.501	4565
890.624	4489
890.748	4641
890.871	4478
890.995	4421
891.118	4367
891.241	4455
891.364	4542
891.488	4668
891.611	4538
891.734	4550
891.857	4599
891.98	4527
892.103	4630
892.226	4573
892.349	4546
892.471	4451
892.594	4558
892.717	4626
892.839	4584
892.962	4607
893.085	4641
893.207	4611
893.33	4474
893.452	4500
893.575	4645
893.697	4565
893.819	4843
893.941	4805
894.064	4816
894.186	4558
894.308	4565
894.43	4744
894.552	4820
894.674	4702
894.796	4508
894.918	4618
895.04	4584
895.161	4748
895.283	4626
895.405	4561
895.526	4596
895.648	4706
895.769	4721
895.891	4683
896.012	4733
896.134	4736
896.255	4714
896.376	4653
896.498	4596
896.619	4672
896.74	4577
896.861	4675
896.982	4934
897.103	5045
897.224	4839
897.345	4744
897.466	4694
897.587	4725
897.708	4835
897.828	4717
897.949	4683
898.07	4573
898.19	4634
898.311	4816
898.431	4691
898.552	4736
898.672	4809
898.792	4744
898.913	4774
899.033	4645
899.153	4523
899.273	4443
899.393	4470
899.513	4485
899.633	4527
899.753	4607
899.873	4512
899.993	4622
900.113	4481
900.232	4554
900.352	4546
900.472	4462
900.591	4409
900.711	4481
900.83	4398
900.95	4592
901.069	4679
901.189	4527
901.308	4383
901.427	4371
901.546	4352
901.665	4481
901.784	4493
901.904	4375
902.023	4310
902.141	4219
902.26	4181
902.379	4333
902.498	4211
902.617	4188
902.735	4363
902.854	4371
902.973	4306
903.091	4207
903.21	4211
903.328	4284
903.446	4272
903.565	4234
903.683	4386
903.801	4299
903.919	4348
904.038	4421
904.156	4287
904.274	4409
904.392	4371
904.51	4402
904.627	4497
904.745	4538
904.863	4630
904.981	4405
905.098	4337
905.216	4375
905.334	4409
905.451	4447
905.569	4447
905.686	4535
905.803	4538
905.921	4402
906.038	4538
906.155	4459
906.272	4402
906.389	4432
906.506	4337
906.623	4367
906.74	4390
906.857	4341
906.974	4329
907.091	4565
907.208	4634
907.324	4599
907.441	4443
907.557	4325
907.674	4375
907.79	4360
907.907	4375
908.023	4489
908.139	4447
908.256	4470
908.372	4493
908.488	4447
908.604	4299
908.72	4284
908.836	4409
908.952	4348
909.068	4462
909.184	4558
909.3	4481
909.415	4569
909.531	4546
909.647	4344
909.762	4394
909.878	4348
909.993	4440
910.108	4443
910.224	4383
910.339	4481
910.454	4371
910.57	4371
910.685	4249
910.8	4649
910.915	4599
911.03	4474
911.145	4310
911.259	4333
911.374	4383
911.489	4333
911.604	4314
911.718	4204
911.833	4219
911.947	4147
912.062	4036
912.176	4207
912.291	4272
912.405	4181
912.519	4470
912.633	4512
912.748	4405
912.862	4310
912.976	4215
913.09	4112
913.204	4154
913.318	4261
913.431	4325
913.545	4333
913.659	4451
913.772	4310
913.886	4234
914	4265
914.113	4360
914.226	4421
914.34	4363
914.453	4265
914.566	4424
914.68	4280
914.793	4333
914.906	4185
915.019	4078
915.132	4090
915.245	4177
915.358	4230
915.47	4230
915.583	4246
915.696	4299
915.809	4405
915.921	4402
916.034	4299
916.146	4238
916.259	4207
916.371	4428
916.483	4344
916.595	4253
916.708	4265
916.82	4295
916.932	4291
917.044	4314
917.156	4383
917.268	4246
917.38	4303
917.491	4265
917.603	4325
917.715	4440
917.826	4443
917.938	4356
918.049	4223
918.161	4417
918.272	4538
918.384	4493
918.495	4440
918.606	4314
918.717	4234
918.828	4383
918.939	4371
919.05	4272
919.161	4287
919.272	4112
919.383	4253
919.494	4421
919.604	4656
919.715	4424
919.826	4333
919.936	4424
920.047	4550
920.157	4470
920.267	4710
920.378	4542
920.488	4546
920.598	4740
920.708	4889
920.818	4797
920.928	4805
921.038	4892
921.148	4934
921.258	4634
921.368	4531
921.477	4497
921.587	4462
921.697	4398
921.806	4554
921.916	4447
922.025	4306
922.134	4257
922.244	4249
922.353	4348
922.462	4147
922.571	4147
922.68	4013
922.789	3983
922.898	4021
923.007	4002
923.116	4116
923.224	4063
923.333	4090
923.442	3953
923.55	3956
923.659	4017
923.767	4086
923.876	4017
923.984	4135
924.092	3979
924.201	4109
924.309	4071
924.417	4154
924.525	4051
924.633	4124
924.741	4850
924.849	3956
924.956	4162
925.064	4002
925.172	3922
925.279	3922
925.387	4059
925.494	4093
925.602	4162
925.709	4169
925.816	4021
925.924	4173
926.031	4234
926.138	4177
926.245	4219
926.352	4071
926.459	4238
926.566	4322
926.673	4150
926.779	4082
926.886	4101
926.993	3953
927.099	3934
927.206	3968
927.312	3937
927.419	4048
927.525	4029
927.631	4048
927.737	3953
927.843	3930
927.95	3812
928.056	3915
928.162	3949
928.267	4078
928.373	4668
928.479	4131
928.585	3865
928.69	3960
928.796	4051
928.901	3949
929.007	3835
929.112	3991
929.218	3979
929.323	3945
929.428	3930
929.533	4120
929.638	3892
929.743	3964
929.848	4051
929.953	3972
930.058	3960
930.163	3774
930.267	3842
930.372	3968
930.477	3846
930.581	4090
930.685	3953
930.79	3861
930.894	3907
930.998	3835
931.103	4025
931.207	3728
931.311	3686
931.415	3690
931.519	3488
931.623	3572
