Data from test_V78500241_992.txt Node
Date: Fri Mar 25 16:55:53 CST 2022
User: usil
Spectrometer: V785-0024
Trigger mode: 0
Integration Time (sec): 4.000000E-1
Scans to average: 1
Nonlinearity correction enabled: false
Boxcar width: 0
Storing dark spectrum: false
XAxis mode: Wavelengths
Number of Pixels in Spectrum: 1024
>>>>>Begin Spectral Data<<<<<
801.071	8024
801.214	8062
801.356	7871
801.499	7860
801.641	7753
801.783	7856
801.926	7928
802.068	7833
802.211	7936
802.353	7982
802.496	7772
802.638	7761
802.78	7864
802.923	7921
803.065	7864
803.208	7868
803.35	7963
803.492	8062
803.635	8134
803.777	7986
803.919	8145
804.061	8389
804.204	8119
804.346	8024
804.488	7940
804.63	8119
804.773	8012
804.915	8058
805.057	8229
805.199	8164
805.341	8210
805.483	8244
805.626	8161
805.768	8069
805.91	8180
806.052	8107
806.194	8103
806.336	8328
806.478	8035
806.62	8084
806.762	8081
806.904	8206
807.046	8442
807.188	8347
807.33	8263
807.472	8332
807.614	8065
807.756	8130
807.898	8024
808.04	7879
808.182	7890
808.324	7837
808.465	7856
808.607	7978
808.749	8096
808.891	8145
809.033	8240
809.174	8191
809.316	8073
809.458	8008
809.6	7970
809.741	8031
809.883	8065
810.025	8050
810.166	8081
810.308	7997
810.45	7974
810.591	7909
810.733	7689
810.875	7639
811.016	7518
811.158	7468
811.299	7571
811.441	7708
811.582	7636
811.724	7571
811.865	7567
812.007	7590
812.148	7491
812.29	7597
812.431	7632
812.573	7898
812.714	7967
812.855	8012
812.997	8229
813.138	8195
813.279	8233
813.421	8069
813.562	7917
813.703	7841
813.845	7776
813.986	7510
814.127	7308
814.268	7236
814.41	7160
814.551	7137
814.692	7114
814.833	7008
814.974	7042
815.115	6962
815.256	6920
815.397	6871
815.539	6924
815.68	6779
815.821	6795
815.962	6829
816.103	6787
816.244	6715
816.385	6597
816.526	6623
816.666	6536
816.807	6247
816.948	6361
817.089	6536
817.23	6414
817.371	6353
817.512	6391
817.653	6353
817.793	6357
817.934	6365
818.075	6429
818.216	6422
818.356	6418
818.497	6163
818.638	6091
818.778	6125
818.919	6167
819.06	6159
819.2	6342
819.341	6311
819.481	6311
819.622	6475
819.762	6703
819.903	6707
820.043	6593
820.184	6582
820.324	6559
820.465	6627
820.605	6669
820.746	6585
820.886	6460
821.026	6593
821.167	6681
821.307	6772
821.447	6734
821.588	6654
821.728	6540
821.868	6464
822.008	6296
822.149	6315
822.289	6304
822.429	6114
822.569	6087
822.709	6102
822.849	5912
822.99	5828
823.13	5946
823.27	5866
823.41	5745
823.55	5756
823.69	5745
823.83	5836
823.97	5733
824.11	5520
824.25	5497
824.389	5558
824.529	5558
824.669	5535
824.809	5596
824.949	5611
825.089	5615
825.228	5524
825.368	5345
825.508	5353
825.648	5311
825.787	5391
825.927	5315
826.067	5288
826.206	5250
826.346	5357
826.485	5379
826.625	5383
826.765	5512
826.904	5452
827.044	5208
827.183	5143
827.323	5090
827.462	5246
827.601	5132
827.741	5208
827.88	5170
828.02	5086
828.159	5170
828.298	5254
828.437	5303
828.577	5269
828.716	5474
828.855	5330
828.994	5174
829.134	5136
829.273	5185
829.412	5109
829.551	5143
829.69	5121
829.829	5242
829.968	5337
830.107	5250
830.246	5261
830.385	5159
830.524	5113
830.663	5083
830.802	4953
830.941	4866
831.08	4858
831.219	5006
831.357	4984
831.496	5197
831.635	4919
831.774	4847
831.913	4816
832.051	4698
832.19	4725
832.329	4831
832.467	4664
832.606	4675
832.744	4687
832.883	4683
833.022	4706
833.16	4767
833.299	4828
833.437	4786
833.576	4778
833.714	4854
833.852	4919
833.991	4915
834.129	4976
834.267	4892
834.406	4889
834.544	4953
834.682	4965
834.821	4911
834.959	5124
835.097	4980
835.235	5143
835.373	5098
835.511	5056
835.65	5018
835.788	4987
835.926	4873
836.064	4839
836.202	4889
836.34	5136
836.478	5227
836.615	5204
836.753	5212
836.891	5258
837.029	5269
837.167	5189
837.305	5181
837.443	5140
837.58	5048
837.718	5242
837.856	5181
837.993	5132
838.131	5223
838.269	5201
838.406	5216
838.544	5204
838.681	5022
838.819	5025
838.956	4900
839.094	4881
839.231	4957
839.369	5048
839.506	5452
839.643	5212
839.781	5033
839.918	5029
840.055	5052
840.193	5121
840.33	5033
840.467	5124
840.604	5178
840.742	5444
840.879	5048
841.016	5075
841.153	5098
841.29	5357
841.427	5372
841.564	5254
841.701	5368
841.838	5265
841.975	5178
842.112	5174
842.249	5098
842.385	5094
842.522	5322
842.659	5178
842.796	5102
842.933	5151
843.069	5102
843.206	5140
843.343	5288
843.479	5235
843.616	5239
843.752	5029
843.889	4965
844.025	5220
844.162	5003
844.298	5170
844.435	5075
844.571	5033
844.708	5136
844.844	5303
844.98	5341
845.117	5296
845.253	5109
845.389	5086
845.525	5151
845.661	5098
845.798	5033
845.934	5128
846.07	5033
846.206	5178
846.342	5212
846.478	5136
846.614	4976
846.75	4972
846.886	4949
847.022	5151
847.158	4999
847.294	5079
847.429	5124
847.565	5025
847.701	5242
847.837	4854
847.972	4778
848.108	4896
848.244	4877
848.379	4763
848.515	4687
848.65	4714
848.786	4714
848.921	4759
849.057	4847
849.192	4858
849.328	4854
849.463	4850
849.598	4740
849.734	4752
849.869	4611
850.004	4607
850.14	4691
850.275	4634
850.41	4542
850.545	4546
850.68	4565
850.815	4603
850.95	4561
851.085	4778
851.22	4721
851.355	4675
851.49	4607
851.625	4641
851.76	4649
851.895	4516
852.03	4504
852.165	4618
852.299	4694
852.434	4767
852.569	4691
852.703	4744
852.838	4850
852.973	4927
853.107	4892
853.242	4702
853.376	4645
853.511	4531
853.645	4596
853.78	4790
853.914	4702
854.048	4637
854.183	4603
854.317	4641
854.451	4854
854.585	4645
854.72	4637
854.854	4702
854.988	4550
855.122	4630
855.256	4489
855.39	4660
855.524	4706
855.658	4717
855.792	4656
855.926	4710
856.06	4736
856.194	4763
856.327	4626
856.461	4554
856.595	4577
856.729	4580
856.862	4729
856.996	4641
857.13	4702
857.263	4698
857.397	4755
857.53	4615
857.664	4679
857.797	4736
857.931	4717
858.064	4706
858.197	4679
858.331	4580
858.464	4546
858.597	4516
858.731	4599
858.864	4611
858.997	4603
859.13	4622
859.263	4683
859.396	4698
859.529	4565
859.662	4558
859.795	4527
859.928	4626
860.061	4717
860.194	4710
860.327	4599
860.46	4546
860.592	4759
860.725	4683
860.858	4702
860.99	4535
861.123	4535
861.256	4542
861.388	4611
861.521	5204
861.653	4489
861.786	4440
861.918	4512
862.05	4493
862.183	4561
862.315	4622
862.447	4599
862.58	4565
862.712	4417
862.844	4375
862.976	4424
863.108	4462
863.24	4896
863.372	4367
863.504	4421
863.636	4379
863.768	4538
863.9	4455
864.032	4421
864.164	4451
864.296	4481
864.428	4554
864.559	4607
864.691	4580
864.823	4554
864.954	4508
865.086	4516
865.217	4497
865.349	4440
865.48	4478
865.612	4554
865.743	4675
865.875	4535
866.006	4459
866.137	4512
866.269	4485
866.4	4447
866.531	4443
866.662	4424
866.793	4451
866.924	4440
867.055	4527
867.186	4519
867.317	4478
867.448	4409
867.579	4417
867.71	4451
867.841	4363
867.972	4531
868.103	4478
868.233	4485
868.364	4447
868.495	4508
868.625	4706
868.756	4831
868.886	4577
869.017	4641
869.147	4790
869.278	4790
869.408	4660
869.539	4660
869.669	4759
869.799	4641
869.929	4793
870.06	4717
870.19	4995
870.32	4904
870.45	4908
870.58	5033
870.71	5117
870.84	5105
870.97	4984
871.1	4930
871.23	5136
871.36	5128
871.489	5079
871.619	5094
871.749	5117
871.879	5147
872.008	5220
872.138	5132
872.267	4991
872.397	4858
872.526	4801
872.656	4786
872.785	4828
872.915	4968
873.044	5056
873.173	4987
873.303	4980
873.432	5033
873.561	4972
873.69	4915
873.819	4877
873.948	4885
874.077	4858
874.206	4793
874.335	4828
874.464	4999
874.593	5124
874.722	4984
874.851	5170
874.979	5098
875.108	5003
875.237	4953
875.365	4900
875.494	4904
875.623	4953
875.751	4862
875.88	4896
876.008	4980
876.136	5010
876.265	5121
876.393	5326
876.521	5269
876.65	5223
876.778	5166
876.906	5128
877.034	5052
877.162	5048
877.29	4987
877.418	5113
877.546	5056
877.674	5029
877.802	5025
877.93	5037
878.058	4927
878.185	4915
878.313	4999
878.441	5006
878.568	4835
878.696	4896
878.824	4984
878.951	5029
879.079	5140
879.206	5303
879.333	5113
879.461	4995
879.588	5025
879.715	5117
879.842	5231
879.97	4987
880.097	4843
880.224	4774
880.351	4858
880.478	4805
880.605	4828
880.732	4782
880.859	5067
880.986	4915
881.112	4965
881.239	4809
881.366	4710
881.493	4664
881.619	4584
881.746	4607
881.872	4656
881.999	4649
882.125	4721
882.252	4790
882.378	4816
882.505	5006
882.631	4831
882.757	4702
882.883	4801
883.01	4752
883.136	4630
883.262	4630
883.388	4637
883.514	4824
883.64	4896
883.766	4873
883.892	4748
884.018	4748
884.143	4942
884.269	4999
884.395	4679
884.52	4641
884.646	4668
884.772	4649
884.897	4618
885.023	4721
885.148	4820
885.274	4885
885.399	4862
885.524	4771
885.65	4694
885.775	4763
885.9	4759
886.025	4877
886.15	4854
886.275	4797
886.4	4675
886.525	4717
886.65	4717
886.775	4672
886.9	4919
887.025	5037
887.149	4797
887.274	4702
887.399	4630
887.523	4599
887.648	4565
887.773	4592
887.897	4755
888.021	4790
888.146	4714
888.27	4824
888.395	4938
888.519	4812
888.643	4858
888.767	4870
888.891	4706
889.015	4599
889.139	4630
889.263	4615
889.387	4774
889.511	4854
889.635	4740
889.759	4649
889.883	4675
890.006	4755
890.13	4839
890.254	4641
890.377	4664
890.501	4558
890.624	4531
890.748	4630
890.871	4538
890.995	4428
891.118	4402
891.241	4538
891.364	4542
891.488	4634
891.611	4523
891.734	4561
891.857	4611
891.98	4565
892.103	4675
892.226	4596
892.349	4554
892.471	4428
892.594	4569
892.717	4626
892.839	4599
892.962	4577
893.085	4672
893.207	4588
893.33	4459
893.452	4550
893.575	4672
893.697	4634
893.819	4767
893.941	4885
894.064	4748
894.186	4588
894.308	4592
894.43	4736
894.552	4816
894.674	4763
894.796	4554
894.918	4641
895.04	4599
895.161	4721
895.283	4656
895.405	4577
895.526	4626
895.648	4725
895.769	4672
895.891	4733
896.012	4733
896.134	4759
896.255	4656
896.376	4675
896.498	4649
896.619	4660
896.74	4603
896.861	4675
896.982	5003
897.103	5105
897.224	4847
897.345	4767
897.466	4683
897.587	4778
897.708	4908
897.828	4774
897.949	4664
898.07	4580
898.19	4691
898.311	4839
898.431	4691
898.552	4763
898.672	4828
898.792	4774
898.913	4767
899.033	4645
899.153	4500
899.273	4443
899.393	4542
899.513	4580
899.633	4584
899.753	4554
899.873	4512
899.993	4558
900.113	4554
900.232	4596
900.352	4538
900.472	4523
900.591	4432
900.711	4500
900.83	4432
900.95	4580
901.069	4702
901.189	4550
901.308	4352
901.427	4329
901.546	4390
901.665	4443
901.784	4504
901.904	4436
902.023	4314
902.141	4238
902.26	4215
902.379	4325
902.498	4223
902.617	4227
902.735	4341
902.854	4360
902.973	4386
903.091	4227
903.21	4230
903.328	4306
903.446	4246
903.565	4238
903.683	4371
903.801	4329
903.919	4417
904.038	4447
904.156	4314
904.274	4424
904.392	4405
904.51	4424
904.627	4470
904.745	4550
904.863	4603
904.981	4383
905.098	4287
905.216	4409
905.334	4455
905.451	4459
905.569	4462
905.686	4603
905.803	4561
905.921	4440
906.038	4550
906.155	4459
906.272	4409
906.389	4386
906.506	4367
906.623	4360
906.74	4383
906.857	4318
906.974	4375
907.091	4565
907.208	4706
907.324	4592
907.441	4508
907.557	4375
907.674	4360
907.79	4333
907.907	4363
908.023	4531
908.139	4512
908.256	4466
908.372	4462
908.488	4443
908.604	4348
908.72	4352
908.836	4409
908.952	4390
909.068	4500
909.184	4573
909.3	4493
909.415	4580
909.531	4622
909.647	4356
909.762	4417
909.878	4371
909.993	4459
910.108	4424
910.224	4436
910.339	4474
910.454	4424
910.57	4383
910.685	4310
910.8	4653
910.915	4630
911.03	4470
911.145	4329
911.259	4337
911.374	4363
911.489	4337
911.604	4303
911.718	4192
911.833	4227
911.947	4082
912.062	4067
912.176	4219
912.291	4242
912.405	4234
912.519	4497
912.633	4565
912.748	4413
912.862	4325
912.976	4227
913.09	4051
913.204	4169
913.318	4268
913.431	4371
913.545	4405
913.659	4470
913.772	4409
913.886	4249
914	4230
914.113	4398
914.226	4421
914.34	4417
914.453	4253
914.566	4462
914.68	4341
914.793	4337
914.906	4150
915.019	4131
915.132	4071
915.245	4177
915.358	4230
915.47	4246
915.583	4287
915.696	4295
915.809	4424
915.921	4436
916.034	4257
916.146	4261
916.259	4249
916.371	4383
916.483	4383
916.595	4257
916.708	4371
916.82	4276
916.932	4341
917.044	4306
917.156	4344
917.268	4265
917.38	4306
917.491	4246
917.603	4390
917.715	4424
917.826	4428
917.938	4341
918.049	4249
918.161	4402
918.272	4554
918.384	4558
918.495	4470
918.606	4318
918.717	4265
918.828	4329
918.939	4405
919.05	4265
919.161	4299
919.272	4139
919.383	4242
919.494	4440
919.604	4683
919.715	4447
919.826	4344
919.936	4360
920.047	4550
920.157	4470
920.267	4694
920.378	4550
920.488	4516
920.598	4725
920.708	4866
920.818	4820
920.928	4782
921.038	4953
921.148	4957
921.258	4596
921.368	4542
921.477	4504
921.587	4432
921.697	4409
921.806	4561
921.916	4421
922.025	4192
922.134	4291
922.244	4227
922.353	4341
922.462	4154
922.571	4128
922.68	4029
922.789	4006
922.898	4082
923.007	4017
923.116	4086
923.224	4051
923.333	4090
923.442	3983
923.55	3998
923.659	4029
923.767	4059
923.876	3941
923.984	4158
924.092	3998
924.201	4112
924.309	4055
924.417	4143
924.525	4010
924.633	4097
924.741	5071
924.849	3945
924.956	4128
925.064	3991
925.172	3888
925.279	3945
925.387	4071
925.494	4032
925.602	4181
925.709	4131
925.816	4059
925.924	4086
926.031	4230
926.138	4173
926.245	4265
926.352	4090
926.459	4291
926.566	4276
926.673	4150
926.779	4074
926.886	4112
926.993	3941
927.099	3975
927.206	3953
927.312	3930
927.419	4078
927.525	4021
927.631	4120
927.737	3972
927.843	3964
927.95	3827
928.056	3964
928.162	3983
928.267	4071
928.373	4702
928.479	4109
928.585	3884
928.69	4032
928.796	4082
928.901	4006
929.007	3865
929.112	4051
929.218	4048
929.323	3949
929.428	3975
929.533	4135
929.638	3934
929.743	4029
929.848	4086
929.953	3994
930.058	3922
930.163	3816
930.267	3857
930.372	3991
930.477	3880
930.581	4116
930.685	3979
930.79	3861
930.894	3937
930.998	3880
931.103	4040
931.207	3751
931.311	3717
931.415	3682
931.519	3576
931.623	3584
