Data from test_V78500241_803.txt Node
Date: Fri Mar 25 16:54:35 CST 2022
User: usil
Spectrometer: V785-0024
Trigger mode: 0
Integration Time (sec): 4.000000E-1
Scans to average: 1
Nonlinearity correction enabled: false
Boxcar width: 0
Storing dark spectrum: false
XAxis mode: Wavelengths
Number of Pixels in Spectrum: 1024
>>>>>Begin Spectral Data<<<<<
801.071	8020
801.214	7970
801.356	7841
801.499	7841
801.641	7780
801.783	7761
801.926	7944
802.068	7902
802.211	7970
802.353	7936
802.496	7887
802.638	7898
802.78	7940
802.923	7890
803.065	7845
803.208	7864
803.35	7932
803.492	8096
803.635	8199
803.777	8031
803.919	8081
804.061	8366
804.204	8123
804.346	8020
804.488	8005
804.63	8092
804.773	7982
804.915	8081
805.057	8252
805.199	8069
805.341	8142
805.483	8218
805.626	8202
805.768	8176
805.91	8233
806.052	8206
806.194	8081
806.336	8225
806.478	8134
806.62	8058
806.762	8138
806.904	8279
807.046	8465
807.188	8358
807.33	8271
807.472	8298
807.614	8168
807.756	8111
807.898	7982
808.04	7894
808.182	7902
808.324	7947
808.465	7944
808.607	8088
808.749	8107
808.891	8195
809.033	8320
809.174	8282
809.316	8092
809.458	8107
809.6	7974
809.741	7989
809.883	8115
810.025	8176
810.166	8142
810.308	7997
810.45	8020
810.591	7879
810.733	7868
810.875	7715
811.016	7521
811.158	7502
811.299	7597
811.441	7708
811.582	7696
811.724	7609
811.865	7548
812.007	7605
812.148	7605
812.29	7567
812.431	7780
812.573	7890
812.714	7898
812.855	8142
812.997	8233
813.138	8301
813.279	8202
813.421	8092
813.562	8046
813.703	7852
813.845	7750
813.986	7460
814.127	7343
814.268	7263
814.41	7221
814.551	7202
814.692	7183
814.833	7099
814.974	7091
815.115	7164
815.256	7015
815.397	6939
815.539	6935
815.68	6863
815.821	6806
815.962	6829
816.103	6779
816.244	6749
816.385	6650
816.526	6593
816.666	6536
816.807	6342
816.948	6410
817.089	6452
817.23	6475
817.371	6399
817.512	6433
817.653	6445
817.793	6384
817.934	6365
818.075	6418
818.216	6384
818.356	6376
818.497	6270
818.638	6194
818.778	6159
818.919	6152
819.06	6159
819.2	6327
819.341	6369
819.481	6426
819.622	6547
819.762	6745
819.903	6745
820.043	6631
820.184	6646
820.324	6563
820.465	6673
820.605	6700
820.746	6623
820.886	6563
821.026	6654
821.167	6798
821.307	6859
821.447	6703
821.588	6639
821.728	6593
821.868	6483
822.008	6346
822.149	6403
822.289	6380
822.429	6102
822.569	6133
822.709	6091
822.849	5916
822.99	5946
823.13	5916
823.27	5916
823.41	5832
823.55	5817
823.69	5745
823.83	5828
823.97	5710
824.11	5585
824.25	5566
824.389	5539
824.529	5558
824.669	5611
824.809	5665
824.949	5619
825.089	5611
825.228	5573
825.368	5364
825.508	5353
825.648	5395
825.787	5379
825.927	5398
826.067	5326
826.206	5318
826.346	5402
826.485	5360
826.625	5429
826.765	5547
826.904	5452
827.044	5261
827.183	5261
827.323	5181
827.462	5231
827.601	5185
827.741	5189
827.88	5189
828.02	5143
828.159	5261
828.298	5311
828.437	5357
828.577	5337
828.716	5509
828.855	5360
828.994	5124
829.134	5197
829.273	5235
829.412	5143
829.551	5136
829.69	5136
829.829	5250
829.968	5353
830.107	5284
830.246	5277
830.385	5212
830.524	5121
830.663	5155
830.802	5014
830.941	4942
831.08	4919
831.219	4999
831.357	4980
831.496	5201
831.635	4976
831.774	4873
831.913	4843
832.051	4721
832.19	4778
832.329	4843
832.467	4702
832.606	4649
832.744	4740
832.883	4801
833.022	4767
833.16	4793
833.299	4816
833.437	4858
833.576	4824
833.714	4885
833.852	4900
833.991	4923
834.129	4991
834.267	4972
834.406	4889
834.544	4972
834.682	4972
834.821	4995
834.959	5162
835.097	4995
835.235	5162
835.373	5113
835.511	5121
835.65	5018
835.788	5029
835.926	4923
836.064	4877
836.202	4942
836.34	5185
836.478	5212
836.615	5124
836.753	5223
836.891	5341
837.029	5269
837.167	5265
837.305	5189
837.443	5143
837.58	5075
837.718	5227
837.856	5185
837.993	5170
838.131	5273
838.269	5242
838.406	5212
838.544	5216
838.681	5090
838.819	4968
838.956	4900
839.094	4930
839.231	5022
839.369	5109
839.506	5455
839.643	5296
839.781	5094
839.918	5018
840.055	5117
840.193	5117
840.33	5174
840.467	5151
840.604	5185
840.742	5486
840.879	5060
841.016	5113
841.153	5136
841.29	5357
841.427	5322
841.564	5330
841.701	5334
841.838	5330
841.975	5242
842.112	5261
842.249	5155
842.385	5159
842.522	5410
842.659	5208
842.796	5124
842.933	5239
843.069	5132
843.206	5181
843.343	5292
843.479	5242
843.616	5273
843.752	5086
843.889	5003
844.025	5258
844.162	5018
844.298	5227
844.435	5064
844.571	5025
844.708	5246
844.844	5303
844.98	5379
845.117	5303
845.253	5178
845.389	5067
845.525	5174
845.661	5121
845.798	5083
845.934	5185
846.07	5045
846.206	5197
846.342	5326
846.478	5220
846.614	5025
846.75	4961
846.886	4942
847.022	5151
847.158	5025
847.294	5060
847.429	5109
847.565	5060
847.701	5292
847.837	4877
847.972	4839
848.108	4976
848.244	4942
848.379	4812
848.515	4744
848.65	4748
848.786	4778
848.921	4774
849.057	4850
849.192	4927
849.328	4824
849.463	4831
849.598	4790
849.734	4714
849.869	4736
850.004	4603
850.14	4664
850.275	4611
850.41	4538
850.545	4577
850.68	4550
850.815	4649
850.95	4668
851.085	4820
851.22	4744
851.355	4668
851.49	4634
851.625	4649
851.76	4630
851.895	4569
852.03	4561
852.165	4691
852.299	4714
852.434	4778
852.569	4778
852.703	4828
852.838	4843
852.973	4965
853.107	4927
853.242	4752
853.376	4687
853.511	4554
853.645	4603
853.78	4847
853.914	4721
854.048	4694
854.183	4710
854.317	4710
854.451	4862
854.585	4672
854.72	4660
854.854	4736
854.988	4588
855.122	4611
855.256	4558
855.39	4706
855.524	4752
855.658	4698
855.792	4736
855.926	4767
856.06	4755
856.194	4778
856.327	4736
856.461	4607
856.595	4592
856.729	4630
856.862	4744
856.996	4706
857.13	4725
857.263	4843
857.397	4793
857.53	4656
857.664	4706
857.797	4748
857.931	4778
858.064	4729
858.197	4771
858.331	4630
858.464	4580
858.597	4512
858.731	4611
858.864	4694
858.997	4611
859.13	4626
859.263	4641
859.396	4683
859.529	4611
859.662	4569
859.795	4508
859.928	4607
860.061	4752
860.194	4763
860.327	4607
860.46	4565
860.592	4717
860.725	4710
860.858	4778
860.99	4561
861.123	4485
861.256	4554
861.388	4607
861.521	5239
861.653	4470
861.786	4447
861.918	4470
862.05	4512
862.183	4599
862.315	4637
862.447	4664
862.58	4592
862.712	4436
862.844	4352
862.976	4516
863.108	4451
863.24	4805
863.372	4322
863.504	4402
863.636	4409
863.768	4451
863.9	4409
864.032	4383
864.164	4413
864.296	4462
864.428	4565
864.559	4558
864.691	4565
864.823	4523
864.954	4508
865.086	4535
865.217	4447
865.349	4440
865.48	4451
865.612	4493
865.743	4622
865.875	4493
866.006	4402
866.137	4470
866.269	4455
866.4	4481
866.531	4421
866.662	4379
866.793	4421
866.924	4409
867.055	4538
867.186	4478
867.317	4383
867.448	4405
867.579	4379
867.71	4413
867.841	4344
867.972	4470
868.103	4512
868.233	4451
868.364	4424
868.495	4485
868.625	4675
868.756	4740
868.886	4618
869.017	4615
869.147	4797
869.278	4778
869.408	4672
869.539	4637
869.669	4717
869.799	4637
869.929	4748
870.06	4721
870.19	4938
870.32	4946
870.45	4930
870.58	4999
870.71	5079
870.84	5079
870.97	4995
871.1	4877
871.23	5166
871.36	5193
871.489	5052
871.619	5048
871.749	5060
871.879	5140
872.008	5235
872.138	5052
872.267	5010
872.397	4786
872.526	4748
872.656	4748
872.785	4816
872.915	4957
873.044	5025
873.173	4961
873.303	4957
873.432	4968
873.561	4968
873.69	4908
873.819	4854
873.948	4866
874.077	4805
874.206	4820
874.335	4790
874.464	4938
874.593	5071
874.722	4934
874.851	5128
874.979	5060
875.108	5048
875.237	4930
875.365	4911
875.494	4927
875.623	4995
875.751	4824
875.88	4896
876.008	4957
876.136	5014
876.265	5208
876.393	5326
876.521	5239
876.65	5242
876.778	5094
876.906	5083
877.034	5003
877.162	5056
877.29	5014
877.418	5033
877.546	5022
877.674	4972
877.802	4999
877.93	5003
878.058	4934
878.185	4889
878.313	4923
878.441	4957
878.568	4801
878.696	4831
878.824	4946
878.951	5010
879.079	5121
879.206	5239
879.333	5140
879.461	4927
879.588	4987
879.715	5083
879.842	5204
879.97	4984
880.097	4755
880.224	4797
880.351	4824
880.478	4812
880.605	4759
880.732	4805
880.859	5071
880.986	4885
881.112	4919
881.239	4782
881.366	4679
881.493	4691
881.619	4558
881.746	4656
881.872	4706
881.999	4664
882.125	4664
882.252	4790
882.378	4816
882.505	4953
882.631	4786
882.757	4622
882.883	4740
883.01	4740
883.136	4668
883.262	4626
883.388	4607
883.514	4889
883.64	4820
883.766	4778
883.892	4653
884.018	4702
884.143	4911
884.269	5037
884.395	4672
884.52	4626
884.646	4660
884.772	4603
884.897	4554
885.023	4675
885.148	4820
885.274	4900
885.399	4778
885.524	4683
885.65	4691
885.775	4736
885.9	4710
886.025	4904
886.15	4771
886.275	4721
886.4	4717
886.525	4733
886.65	4679
886.775	4683
886.9	4942
887.025	5006
887.149	4850
887.274	4656
887.399	4592
887.523	4588
887.648	4615
887.773	4584
887.897	4767
888.021	4824
888.146	4706
888.27	4812
888.395	4934
888.519	4763
888.643	4839
888.767	4828
888.891	4729
889.015	4603
889.139	4588
889.263	4637
889.387	4809
889.511	4873
889.635	4793
889.759	4634
889.883	4675
890.006	4740
890.13	4801
890.254	4573
890.377	4641
890.501	4584
890.624	4546
890.748	4645
890.871	4493
890.995	4413
891.118	4383
891.241	4497
891.364	4523
891.488	4637
891.611	4500
891.734	4569
891.857	4611
891.98	4573
892.103	4660
892.226	4584
892.349	4565
892.471	4417
892.594	4558
892.717	4603
892.839	4531
892.962	4580
893.085	4675
893.207	4599
893.33	4478
893.452	4519
893.575	4668
893.697	4596
893.819	4797
893.941	4790
894.064	4774
894.186	4554
894.308	4516
894.43	4736
894.552	4812
894.674	4774
894.796	4603
894.918	4542
895.04	4561
895.161	4721
895.283	4656
895.405	4565
895.526	4645
895.648	4702
895.769	4687
895.891	4717
896.012	4767
896.134	4725
896.255	4664
896.376	4599
896.498	4664
896.619	4626
896.74	4592
896.861	4618
896.982	4904
897.103	5090
897.224	4824
897.345	4748
897.466	4645
897.587	4710
897.708	4870
897.828	4786
897.949	4645
898.07	4550
898.19	4611
898.311	4839
898.431	4683
898.552	4721
898.672	4782
898.792	4782
898.913	4714
899.033	4596
899.153	4519
899.273	4421
899.393	4497
899.513	4516
899.633	4542
899.753	4500
899.873	4504
899.993	4592
900.113	4512
900.232	4561
900.352	4535
900.472	4478
900.591	4363
900.711	4470
900.83	4466
900.95	4618
901.069	4710
901.189	4561
901.308	4344
901.427	4303
901.546	4379
901.665	4535
901.784	4516
901.904	4390
902.023	4306
902.141	4158
902.26	4169
902.379	4303
902.498	4230
902.617	4238
902.735	4352
902.854	4417
902.973	4322
903.091	4196
903.21	4257
903.328	4287
903.446	4303
903.565	4287
903.683	4306
903.801	4280
903.919	4375
904.038	4428
904.156	4325
904.274	4417
904.392	4402
904.51	4428
904.627	4436
904.745	4546
904.863	4649
904.981	4413
905.098	4310
905.216	4390
905.334	4428
905.451	4489
905.569	4470
905.686	4538
905.803	4523
905.921	4409
906.038	4489
906.155	4451
906.272	4383
906.389	4451
906.506	4360
906.623	4352
906.74	4371
906.857	4299
906.974	4371
907.091	4565
907.208	4664
907.324	4584
907.441	4478
907.557	4341
907.674	4348
907.79	4314
907.907	4363
908.023	4470
908.139	4474
908.256	4432
908.372	4493
908.488	4489
908.604	4348
908.72	4352
908.836	4390
908.952	4413
909.068	4462
909.184	4611
909.3	4485
909.415	4580
909.531	4538
909.647	4356
909.762	4363
909.878	4310
909.993	4409
910.108	4417
910.224	4421
910.339	4478
910.454	4379
910.57	4337
910.685	4291
910.8	4675
910.915	4588
911.03	4451
911.145	4344
911.259	4329
911.374	4417
911.489	4310
911.604	4257
911.718	4234
911.833	4162
911.947	4131
912.062	4002
912.176	4242
912.291	4227
912.405	4234
912.519	4470
912.633	4485
912.748	4356
912.862	4329
912.976	4200
913.09	4074
913.204	4192
913.318	4246
913.431	4341
913.545	4379
913.659	4436
913.772	4379
913.886	4242
914	4204
914.113	4409
914.226	4413
914.34	4421
914.453	4219
914.566	4432
914.68	4303
914.793	4333
914.906	4158
915.019	4101
915.132	4105
915.245	4207
915.358	4196
915.47	4204
915.583	4261
915.696	4284
915.809	4451
915.921	4386
916.034	4284
916.146	4230
916.259	4230
916.371	4371
916.483	4337
916.595	4265
916.708	4306
916.82	4413
916.932	4375
917.044	4341
917.156	4329
917.268	4253
917.38	4303
917.491	4280
917.603	4310
917.715	4432
917.826	4409
917.938	4291
918.049	4230
918.161	4363
918.272	4531
918.384	4497
918.495	4485
918.606	4314
918.717	4207
918.828	4337
918.939	4337
919.05	4276
919.161	4333
919.272	4143
919.383	4261
919.494	4402
919.604	4618
919.715	4402
919.826	4379
919.936	4398
920.047	4493
920.157	4500
920.267	4679
920.378	4554
920.488	4470
920.598	4736
920.708	4881
920.818	4771
920.928	4702
921.038	4919
921.148	4911
921.258	4580
921.368	4531
921.477	4466
921.587	4485
921.697	4398
921.806	4546
921.916	4443
922.025	4238
922.134	4303
922.244	4219
922.353	4329
922.462	4169
922.571	4128
922.68	4021
922.789	3945
922.898	4051
923.007	3968
923.116	4059
923.224	4067
923.333	4059
923.442	3983
923.55	3979
923.659	4021
923.767	4082
923.876	3994
923.984	4071
924.092	3968
924.201	4090
924.309	4063
924.417	4135
924.525	4059
924.633	4090
924.741	4881
924.849	3907
924.956	4124
925.064	3945
925.172	3896
925.279	3972
925.387	4017
925.494	4025
925.602	4227
925.709	4181
925.816	3964
925.924	4124
926.031	4223
926.138	4135
926.245	4249
926.352	4116
926.459	4227
926.566	4287
926.673	4150
926.779	4074
926.886	4086
926.993	3964
927.099	3926
927.206	3934
927.312	3941
927.419	4036
927.525	4025
927.631	4109
927.737	3968
927.843	3937
927.95	3869
928.056	3918
928.162	3991
928.267	4032
928.373	4691
928.479	4105
928.585	3869
928.69	4078
928.796	4105
928.901	3937
929.007	3835
929.112	3983
929.218	3949
929.323	3926
929.428	3892
929.533	4078
929.638	3915
929.743	3934
929.848	4055
929.953	4010
930.058	3918
930.163	3717
930.267	3846
930.372	3968
930.477	3819
930.581	4097
930.685	3987
930.79	3838
930.894	3857
930.998	3850
931.103	4010
931.207	3705
931.311	3690
931.415	3675
931.519	3526
931.623	3523
