Data from test_V78500241_860.txt Node
Date: Fri Mar 25 16:54:58 CST 2022
User: usil
Spectrometer: V785-0024
Trigger mode: 0
Integration Time (sec): 4.000000E-1
Scans to average: 1
Nonlinearity correction enabled: false
Boxcar width: 0
Storing dark spectrum: false
XAxis mode: Wavelengths
Number of Pixels in Spectrum: 1024
>>>>>Begin Spectral Data<<<<<
801.071	7978
801.214	8020
801.356	7871
801.499	7845
801.641	7719
801.783	7803
801.926	8005
802.068	7909
802.211	7894
802.353	7936
802.496	7890
802.638	7944
802.78	7894
802.923	7864
803.065	7875
803.208	7830
803.35	8027
803.492	8115
803.635	8161
803.777	7947
803.919	8100
804.061	8408
804.204	8115
804.346	8020
804.488	7913
804.63	8062
804.773	7947
804.915	8016
805.057	8248
805.199	8096
805.341	8206
805.483	8252
805.626	8126
805.768	8005
805.91	8191
806.052	8172
806.194	8054
806.336	8229
806.478	8084
806.62	8027
806.762	8126
806.904	8229
807.046	8499
807.188	8252
807.33	8271
807.472	8301
807.614	8157
807.756	8100
807.898	7951
808.04	7898
808.182	7860
808.324	7818
808.465	7898
808.607	8001
808.749	8024
808.891	8161
809.033	8240
809.174	8172
809.316	8062
809.458	7993
809.6	7921
809.741	7967
809.883	7936
810.025	8107
810.166	8046
810.308	7989
810.45	8027
810.591	7871
810.733	7674
810.875	7700
811.016	7540
811.158	7518
811.299	7575
811.441	7715
811.582	7639
811.724	7556
811.865	7480
812.007	7575
812.148	7525
812.29	7575
812.431	7662
812.573	7887
812.714	7883
812.855	8039
812.997	8153
813.138	8233
813.279	8130
813.421	8058
813.562	7967
813.703	7830
813.845	7769
813.986	7472
814.127	7274
814.268	7259
814.41	7240
814.551	7072
814.692	7141
814.833	7038
814.974	7061
815.115	7031
815.256	7019
815.397	6954
815.539	6954
815.68	6814
815.821	6738
815.962	6859
816.103	6810
816.244	6700
816.385	6585
816.526	6566
816.666	6490
816.807	6300
816.948	6414
817.089	6456
817.23	6384
817.371	6323
817.512	6372
817.653	6395
817.793	6365
817.934	6388
818.075	6433
818.216	6384
818.356	6353
818.497	6220
818.638	6136
818.778	6098
818.919	6140
819.06	6209
819.2	6224
819.341	6270
819.481	6353
819.622	6490
819.762	6688
819.903	6658
820.043	6620
820.184	6601
820.324	6502
820.465	6665
820.605	6623
820.746	6597
820.886	6448
821.026	6738
821.167	6760
821.307	6783
821.447	6696
821.588	6612
821.728	6528
821.868	6445
822.008	6308
822.149	6331
822.289	6361
822.429	6163
822.569	6064
822.709	6079
822.849	5901
822.99	5885
823.13	5954
823.27	5851
823.41	5794
823.55	5775
823.69	5733
823.83	5741
823.97	5668
824.11	5520
824.25	5493
824.389	5630
824.529	5543
824.669	5554
824.809	5592
824.949	5642
825.089	5600
825.228	5577
825.368	5402
825.508	5334
825.648	5383
825.787	5353
825.927	5387
826.067	5326
826.206	5284
826.346	5372
826.485	5398
826.625	5391
826.765	5539
826.904	5459
827.044	5330
827.183	5223
827.323	5174
827.462	5280
827.601	5178
827.741	5201
827.88	5258
828.02	5159
828.159	5231
828.298	5292
828.437	5406
828.577	5284
828.716	5482
828.855	5322
828.994	5181
829.134	5136
829.273	5284
829.412	5136
829.551	5151
829.69	5178
829.829	5204
829.968	5376
830.107	5299
830.246	5284
830.385	5288
830.524	5132
830.663	5143
830.802	5003
830.941	4919
831.08	4908
831.219	4987
831.357	5014
831.496	5166
831.635	5006
831.774	4877
831.913	4862
832.051	4767
832.19	4725
832.329	4885
832.467	4694
832.606	4672
832.744	4755
832.883	4767
833.022	4790
833.16	4820
833.299	4805
833.437	4839
833.576	4885
833.714	4862
833.852	4881
833.991	4854
834.129	5003
834.267	5018
834.406	4976
834.544	4961
834.682	4938
834.821	4999
834.959	5178
835.097	5041
835.235	5162
835.373	5105
835.511	5128
835.65	5025
835.788	5052
835.926	4889
836.064	4942
836.202	4953
836.34	5216
836.478	5223
836.615	5132
836.753	5235
836.891	5353
837.029	5265
837.167	5261
837.305	5189
837.443	5185
837.58	5109
837.718	5284
837.856	5204
837.993	5140
838.131	5231
838.269	5227
838.406	5197
838.544	5197
838.681	5136
838.819	5041
838.956	4908
839.094	4972
839.231	4987
839.369	5121
839.506	5440
839.643	5254
839.781	5048
839.918	5037
840.055	5136
840.193	5128
840.33	5094
840.467	5178
840.604	5178
840.742	5429
840.879	5098
841.016	5098
841.153	5201
841.29	5357
841.427	5364
841.564	5402
841.701	5353
841.838	5299
841.975	5250
842.112	5311
842.249	5193
842.385	5147
842.522	5307
842.659	5216
842.796	5147
842.933	5216
843.069	5181
843.206	5170
843.343	5364
843.479	5242
843.616	5299
843.752	5094
843.889	4961
844.025	5258
844.162	5086
844.298	5204
844.435	5094
844.571	5067
844.708	5216
844.844	5284
844.98	5318
845.117	5334
845.253	5094
845.389	5056
845.525	5147
845.661	5147
845.798	5071
845.934	5181
846.07	5067
846.206	5208
846.342	5311
846.478	5181
846.614	5052
846.75	4968
846.886	4930
847.022	5094
847.158	5048
847.294	5109
847.429	5136
847.565	5094
847.701	5337
847.837	4904
847.972	4839
848.108	4980
848.244	4930
848.379	4824
848.515	4801
848.65	4759
848.786	4782
848.921	4790
849.057	4900
849.192	4892
849.328	4873
849.463	4831
849.598	4831
849.734	4767
849.869	4706
850.004	4694
850.14	4691
850.275	4592
850.41	4580
850.545	4577
850.68	4596
850.815	4660
850.95	4611
851.085	4839
851.22	4733
851.355	4668
851.49	4634
851.625	4592
851.76	4645
851.895	4656
852.03	4558
852.165	4679
852.299	4767
852.434	4752
852.569	4782
852.703	4839
852.838	4858
852.973	4946
853.107	4938
853.242	4740
853.376	4698
853.511	4573
853.645	4664
853.78	4778
853.914	4733
854.048	4694
854.183	4668
854.317	4687
854.451	4854
854.585	4683
854.72	4714
854.854	4752
854.988	4634
855.122	4679
855.256	4542
855.39	4683
855.524	4812
855.658	4752
855.792	4698
855.926	4763
856.06	4744
856.194	4816
856.327	4740
856.461	4622
856.595	4634
856.729	4641
856.862	4763
856.996	4702
857.13	4721
857.263	4812
857.397	4797
857.53	4637
857.664	4687
857.797	4729
857.931	4797
858.064	4721
858.197	4782
858.331	4664
858.464	4603
858.597	4565
858.731	4634
858.864	4630
858.997	4634
859.13	4626
859.263	4691
859.396	4710
859.529	4573
859.662	4611
859.795	4561
859.928	4596
860.061	4805
860.194	4748
860.327	4603
860.46	4542
860.592	4725
860.725	4748
860.858	4752
860.99	4618
861.123	4569
861.256	4535
861.388	4645
861.521	5360
861.653	4489
861.786	4497
861.918	4470
862.05	4542
862.183	4550
862.315	4615
862.447	4660
862.58	4558
862.712	4421
862.844	4341
862.976	4523
863.108	4459
863.24	4805
863.372	4413
863.504	4443
863.636	4421
863.768	4504
863.9	4451
864.032	4363
864.164	4417
864.296	4523
864.428	4531
864.559	4588
864.691	4535
864.823	4531
864.954	4493
865.086	4481
865.217	4535
865.349	4466
865.48	4436
865.612	4500
865.743	4630
865.875	4531
866.006	4459
866.137	4481
866.269	4451
866.4	4428
866.531	4443
866.662	4375
866.793	4428
866.924	4390
867.055	4474
867.186	4504
867.317	4405
867.448	4383
867.579	4421
867.71	4402
867.841	4405
867.972	4519
868.103	4459
868.233	4424
868.364	4440
868.495	4451
868.625	4683
868.756	4736
868.886	4603
869.017	4622
869.147	4797
869.278	4771
869.408	4656
869.539	4630
869.669	4710
869.799	4717
869.929	4778
870.06	4752
870.19	4934
870.32	4919
870.45	4911
870.58	5033
870.71	5147
870.84	5105
870.97	4968
871.1	4942
871.23	5109
871.36	5159
871.489	4995
871.619	5048
871.749	5098
871.879	5124
872.008	5220
872.138	5094
872.267	4957
872.397	4854
872.526	4831
872.656	4748
872.785	4839
872.915	4942
873.044	5033
873.173	4915
873.303	4991
873.432	5010
873.561	4938
873.69	4923
873.819	4858
873.948	4957
874.077	4812
874.206	4778
874.335	4809
874.464	4862
874.593	5098
874.722	4961
874.851	5086
874.979	5079
875.108	5033
875.237	4900
875.365	4881
875.494	4930
875.623	4991
875.751	4816
875.88	4919
876.008	4957
876.136	5018
876.265	5235
876.393	5318
876.521	5239
876.65	5235
876.778	5204
876.906	5113
877.034	5018
877.162	5060
877.29	5018
877.418	5098
877.546	5018
877.674	5045
877.802	5094
877.93	5006
878.058	4927
878.185	4900
878.313	4949
878.441	4942
878.568	4782
878.696	4866
878.824	4987
878.951	5025
879.079	5094
879.206	5318
879.333	5060
879.461	4946
879.588	5075
879.715	5166
879.842	5208
879.97	4999
880.097	4771
880.224	4782
880.351	4812
880.478	4820
880.605	4850
880.732	4839
880.859	5147
880.986	4938
881.112	4949
881.239	4816
881.366	4710
881.493	4645
881.619	4603
881.746	4618
881.872	4672
881.999	4641
882.125	4733
882.252	4755
882.378	4854
882.505	4930
882.631	4790
882.757	4679
882.883	4767
883.01	4702
883.136	4729
883.262	4580
883.388	4611
883.514	4843
883.64	4885
883.766	4790
883.892	4668
884.018	4752
884.143	4885
884.269	5003
884.395	4702
884.52	4649
884.646	4641
884.772	4596
884.897	4607
885.023	4660
885.148	4816
885.274	4870
885.399	4786
885.524	4702
885.65	4679
885.775	4771
885.9	4706
886.025	4847
886.15	4816
886.275	4694
886.4	4675
886.525	4763
886.65	4698
886.775	4679
886.9	4900
887.025	5037
887.149	4793
887.274	4641
887.399	4569
887.523	4603
887.648	4622
887.773	4603
887.897	4774
888.021	4736
888.146	4679
888.27	4797
888.395	4877
888.519	4797
888.643	4847
888.767	4862
888.891	4740
889.015	4653
889.139	4634
889.263	4630
889.387	4763
889.511	4843
889.635	4828
889.759	4664
889.883	4702
890.006	4694
890.13	4843
890.254	4611
890.377	4679
890.501	4538
890.624	4516
890.748	4618
890.871	4497
890.995	4428
891.118	4417
891.241	4489
891.364	4561
891.488	4580
891.611	4436
891.734	4519
891.857	4580
891.98	4550
892.103	4626
892.226	4618
892.349	4497
892.471	4447
892.594	4527
892.717	4607
892.839	4641
892.962	4630
893.085	4649
893.207	4626
893.33	4459
893.452	4527
893.575	4672
893.697	4580
893.819	4733
893.941	4839
894.064	4793
894.186	4561
894.308	4588
894.43	4748
894.552	4809
894.674	4752
894.796	4542
894.918	4626
895.04	4577
895.161	4694
895.283	4683
895.405	4588
895.526	4637
895.648	4725
895.769	4691
895.891	4702
896.012	4717
896.134	4729
896.255	4714
896.376	4599
896.498	4554
896.619	4637
896.74	4603
896.861	4641
896.982	4927
897.103	5098
897.224	4835
897.345	4774
897.466	4645
897.587	4721
897.708	4870
897.828	4778
897.949	4618
898.07	4577
898.19	4599
898.311	4801
898.431	4714
898.552	4740
898.672	4812
898.792	4778
898.913	4736
899.033	4607
899.153	4508
899.273	4402
899.393	4489
899.513	4516
899.633	4554
899.753	4554
899.873	4512
899.993	4584
900.113	4512
900.232	4596
900.352	4558
900.472	4478
900.591	4432
900.711	4497
900.83	4443
900.95	4618
901.069	4672
901.189	4565
901.308	4390
901.427	4341
901.546	4360
901.665	4497
901.784	4516
901.904	4421
902.023	4322
902.141	4196
902.26	4200
902.379	4337
902.498	4261
902.617	4234
902.735	4436
902.854	4402
902.973	4398
903.091	4257
903.21	4223
903.328	4295
903.446	4238
903.565	4280
903.683	4379
903.801	4299
903.919	4409
904.038	4447
904.156	4337
904.274	4481
904.392	4398
904.51	4443
904.627	4497
904.745	4584
904.863	4649
904.981	4394
905.098	4341
905.216	4348
905.334	4451
905.451	4459
905.569	4443
905.686	4626
905.803	4546
905.921	4489
906.038	4626
906.155	4485
906.272	4462
906.389	4508
906.506	4379
906.623	4394
906.74	4424
906.857	4363
906.974	4390
907.091	4546
907.208	4694
907.324	4656
907.441	4554
907.557	4398
907.674	4386
907.79	4322
907.907	4436
908.023	4512
908.139	4527
908.256	4478
908.372	4478
908.488	4497
908.604	4409
908.72	4402
908.836	4474
908.952	4344
909.068	4474
909.184	4542
909.3	4516
909.415	4649
909.531	4615
909.647	4398
909.762	4390
909.878	4413
909.993	4500
910.108	4424
910.224	4432
910.339	4497
910.454	4447
910.57	4413
910.685	4341
910.8	4736
910.915	4645
911.03	4523
911.145	4405
911.259	4394
911.374	4432
911.489	4337
911.604	4303
911.718	4192
911.833	4272
911.947	4154
912.062	4105
912.176	4280
912.291	4253
912.405	4272
912.519	4519
912.633	4523
912.748	4409
912.862	4360
912.976	4207
913.09	4150
913.204	4246
913.318	4261
913.431	4409
913.545	4379
913.659	4470
913.772	4417
913.886	4299
914	4276
914.113	4394
914.226	4474
914.34	4436
914.453	4284
914.566	4455
914.68	4375
914.793	4379
914.906	4211
915.019	4196
915.132	4093
915.245	4234
915.358	4253
915.47	4257
915.583	4341
915.696	4348
915.809	4447
915.921	4451
916.034	4291
916.146	4318
916.259	4291
916.371	4451
916.483	4363
916.595	4303
916.708	4363
916.82	4375
916.932	4367
917.044	4379
917.156	4383
917.268	4276
917.38	4253
917.491	4322
917.603	4386
917.715	4485
917.826	4470
917.938	4318
918.049	4280
918.161	4386
918.272	4577
918.384	4535
918.495	4436
918.606	4325
918.717	4257
918.828	4379
918.939	4379
919.05	4234
919.161	4360
919.272	4128
919.383	4223
919.494	4402
919.604	4660
919.715	4485
919.826	4409
919.936	4428
920.047	4580
920.157	4512
920.267	4702
920.378	4546
920.488	4542
920.598	4733
920.708	4904
920.818	4778
920.928	4805
921.038	5006
921.148	4946
921.258	4641
921.368	4569
921.477	4527
921.587	4489
921.697	4440
921.806	4535
921.916	4470
922.025	4284
922.134	4314
922.244	4287
922.353	4356
922.462	4188
922.571	4162
922.68	4010
922.789	4029
922.898	4078
923.007	3964
923.116	4135
923.224	4097
923.333	4109
923.442	3994
923.55	4055
923.659	4036
923.767	4143
923.876	4048
923.984	4139
924.092	3968
924.201	4101
924.309	4105
924.417	4135
924.525	4116
924.633	4147
924.741	4942
924.849	3975
924.956	4162
925.064	3968
925.172	3892
925.279	3941
925.387	4082
925.494	4055
925.602	4238
925.709	4219
925.816	4082
925.924	4166
926.031	4246
926.138	4249
926.245	4246
926.352	4143
926.459	4249
926.566	4341
926.673	4158
926.779	4082
926.886	4097
926.993	3975
927.099	3987
927.206	3975
927.312	3998
927.419	4112
927.525	4048
927.631	4109
927.737	3968
927.843	3979
927.95	3865
928.056	3945
928.162	4025
928.267	4071
928.373	4599
928.479	4173
928.585	3926
928.69	4029
928.796	4082
928.901	3975
929.007	3876
929.112	4010
929.218	4017
929.323	4002
929.428	3975
929.533	4128
929.638	3949
929.743	4013
929.848	4097
929.953	4017
930.058	3960
930.163	3800
930.267	3876
930.372	3991
930.477	3850
930.581	4055
930.685	3945
930.79	3842
930.894	3884
930.998	3842
931.103	4059
931.207	3728
931.311	3762
931.415	3682
931.519	3572
931.623	3530
