Data from test_V78500241_618.txt Node
Date: Fri Mar 25 16:53:17 CST 2022
User: usil
Spectrometer: V785-0024
Trigger mode: 0
Integration Time (sec): 4.000000E-1
Scans to average: 1
Nonlinearity correction enabled: false
Boxcar width: 0
Storing dark spectrum: false
XAxis mode: Wavelengths
Number of Pixels in Spectrum: 1024
>>>>>Begin Spectral Data<<<<<
801.071	8039
801.214	7963
801.356	7868
801.499	7913
801.641	7799
801.783	7856
801.926	8039
802.068	7963
802.211	7993
802.353	7970
802.496	7932
802.638	7959
802.78	7890
802.923	7928
803.065	7826
803.208	7807
803.35	7909
803.492	8096
803.635	8130
803.777	8016
803.919	8084
804.061	8370
804.204	8115
804.346	8035
804.488	7963
804.63	8119
804.773	8020
804.915	8096
805.057	8259
805.199	8180
805.341	8191
805.483	8313
805.626	8233
805.768	8092
805.91	8225
806.052	8214
806.194	8077
806.336	8259
806.478	8081
806.62	8119
806.762	8210
806.904	8328
807.046	8434
807.188	8431
807.33	8336
807.472	8347
807.614	8183
807.756	8126
807.898	7974
808.04	7917
808.182	7951
808.324	7913
808.465	7887
808.607	8016
808.749	8069
808.891	8229
809.033	8301
809.174	8210
809.316	8001
809.458	8081
809.6	7932
809.741	8012
809.883	7978
810.025	8142
810.166	8103
810.308	8027
810.45	8031
810.591	7883
810.733	7715
810.875	7704
811.016	7506
811.158	7499
811.299	7636
811.441	7776
811.582	7639
811.724	7525
811.865	7502
812.007	7578
812.148	7597
812.29	7643
812.431	7719
812.573	7902
812.714	8008
812.855	8081
812.997	8218
813.138	8324
813.279	8259
813.421	8199
813.562	7978
813.703	7928
813.845	7795
813.986	7457
814.127	7274
814.268	7293
814.41	7202
814.551	7160
814.692	7175
814.833	7095
814.974	7156
815.115	7133
815.256	6939
815.397	6977
815.539	6939
815.68	6818
815.821	6825
815.962	6878
816.103	6818
816.244	6665
816.385	6582
816.526	6616
816.666	6502
816.807	6311
816.948	6376
817.089	6521
817.23	6464
817.371	6372
817.512	6372
817.653	6433
817.793	6388
817.934	6414
818.075	6460
818.216	6467
818.356	6384
818.497	6247
818.638	6159
818.778	6144
818.919	6114
819.06	6091
819.2	6311
819.341	6327
819.481	6346
819.622	6532
819.762	6753
819.903	6650
820.043	6528
820.184	6544
820.324	6509
820.465	6665
820.605	6604
820.746	6540
820.886	6452
821.026	6696
821.167	6707
821.307	6719
821.447	6753
821.588	6604
821.728	6517
821.868	6448
822.008	6327
822.149	6380
822.289	6342
822.429	6125
822.569	6095
822.709	6098
822.849	5882
822.99	5885
823.13	5927
823.27	5920
823.41	5737
823.55	5779
823.69	5817
823.83	5783
823.97	5657
824.11	5554
824.25	5520
824.389	5512
824.529	5585
824.669	5505
824.809	5589
824.949	5684
825.089	5585
825.228	5547
825.368	5387
825.508	5322
825.648	5349
825.787	5318
825.927	5364
826.067	5311
826.206	5265
826.346	5402
826.485	5360
826.625	5379
826.765	5551
826.904	5402
827.044	5246
827.183	5140
827.323	5121
827.462	5223
827.601	5117
827.741	5216
827.88	5189
828.02	5143
828.159	5231
828.298	5273
828.437	5326
828.577	5269
828.716	5505
828.855	5368
828.994	5174
829.134	5159
829.273	5147
829.412	5121
829.551	5159
829.69	5159
829.829	5265
829.968	5334
830.107	5288
830.246	5261
830.385	5189
830.524	5121
830.663	5086
830.802	4980
830.941	4896
831.08	4854
831.219	4930
831.357	4987
831.496	5117
831.635	4953
831.774	4866
831.913	4820
832.051	4717
832.19	4763
832.329	4828
832.467	4679
832.606	4599
832.744	4694
832.883	4706
833.022	4729
833.16	4812
833.299	4793
833.437	4763
833.576	4828
833.714	4839
833.852	4881
833.991	4850
834.129	4972
834.267	4908
834.406	4892
834.544	4946
834.682	4968
834.821	4984
834.959	5124
835.097	4968
835.235	5155
835.373	5117
835.511	5098
835.65	4980
835.788	5071
835.926	4904
836.064	4885
836.202	4873
836.34	5147
836.478	5235
836.615	5102
836.753	5181
836.891	5284
837.029	5212
837.167	5166
837.305	5083
837.443	5189
837.58	5037
837.718	5216
837.856	5151
837.993	5105
838.131	5227
838.269	5193
838.406	5204
838.544	5216
838.681	5056
838.819	4999
838.956	4854
839.094	4870
839.231	4968
839.369	5064
839.506	5410
839.643	5296
839.781	5048
839.918	4999
840.055	5102
840.193	5079
840.33	5147
840.467	5117
840.604	5132
840.742	5463
840.879	5071
841.016	5075
841.153	5117
841.29	5402
841.427	5322
841.564	5326
841.701	5311
841.838	5261
841.975	5250
842.112	5254
842.249	5117
842.385	5071
842.522	5284
842.659	5185
842.796	5098
842.933	5170
843.069	5109
843.206	5178
843.343	5258
843.479	5174
843.616	5261
843.752	4991
843.889	4976
844.025	5204
844.162	5037
844.298	5185
844.435	5086
844.571	5022
844.708	5239
844.844	5307
844.98	5318
845.117	5288
845.253	5132
845.389	5086
845.525	5136
845.661	5121
845.798	5025
845.934	5098
846.07	5064
846.206	5208
846.342	5273
846.478	5159
846.614	5041
846.75	4957
846.886	4968
847.022	5124
847.158	5060
847.294	5033
847.429	5083
847.565	5037
847.701	5341
847.837	4877
847.972	4847
848.108	5006
848.244	4923
848.379	4771
848.515	4752
848.65	4736
848.786	4774
848.921	4831
849.057	4820
849.192	4915
849.328	4752
849.463	4854
849.598	4767
849.734	4778
849.869	4668
850.004	4706
850.14	4675
850.275	4596
850.41	4504
850.545	4561
850.68	4554
850.815	4584
850.95	4618
851.085	4801
851.22	4744
851.355	4687
851.49	4596
851.625	4630
851.76	4664
851.895	4573
852.03	4561
852.165	4687
852.299	4744
852.434	4763
852.569	4744
852.703	4755
852.838	4835
852.973	4915
853.107	4919
853.242	4733
853.376	4637
853.511	4542
853.645	4588
853.78	4828
853.914	4714
854.048	4660
854.183	4611
854.317	4664
854.451	4831
854.585	4656
854.72	4611
854.854	4733
854.988	4618
855.122	4645
855.256	4550
855.39	4660
855.524	4782
855.658	4740
855.792	4660
855.926	4710
856.06	4790
856.194	4767
856.327	4721
856.461	4626
856.595	4630
856.729	4599
856.862	4717
856.996	4733
857.13	4733
857.263	4736
857.397	4797
857.53	4660
857.664	4744
857.797	4755
857.931	4820
858.064	4668
858.197	4725
858.331	4660
858.464	4626
858.597	4531
858.731	4603
858.864	4664
858.997	4569
859.13	4634
859.263	4664
859.396	4660
859.529	4588
859.662	4622
859.795	4558
859.928	4626
860.061	4748
860.194	4748
860.327	4618
860.46	4607
860.592	4740
860.725	4733
860.858	4717
860.99	4569
861.123	4523
861.256	4497
861.388	4584
861.521	5345
861.653	4516
861.786	4424
861.918	4443
862.05	4523
862.183	4519
862.315	4603
862.447	4698
862.58	4512
862.712	4402
862.844	4333
862.976	4436
863.108	4478
863.24	4896
863.372	4306
863.504	4356
863.636	4386
863.768	4451
863.9	4394
864.032	4325
864.164	4394
864.296	4447
864.428	4508
864.559	4573
864.691	4527
864.823	4451
864.954	4474
865.086	4493
865.217	4504
865.349	4409
865.48	4466
865.612	4489
865.743	4641
865.875	4413
866.006	4405
866.137	4493
866.269	4428
866.4	4447
866.531	4383
866.662	4379
866.793	4371
866.924	4440
867.055	4519
867.186	4447
867.317	4413
867.448	4337
867.579	4409
867.71	4371
867.841	4348
867.972	4459
868.103	4466
868.233	4462
868.364	4428
868.495	4485
868.625	4660
868.756	4752
868.886	4565
869.017	4577
869.147	4759
869.278	4710
869.408	4683
869.539	4611
869.669	4717
869.799	4675
869.929	4702
870.06	4733
870.19	4934
870.32	4896
870.45	4896
870.58	5025
870.71	5064
870.84	5090
870.97	4984
871.1	4896
871.23	5147
871.36	5132
871.489	4995
871.619	5037
871.749	5052
871.879	5140
872.008	5136
872.138	5014
872.267	4953
872.397	4858
872.526	4854
872.656	4714
872.785	4782
872.915	4957
873.044	5003
873.173	4934
873.303	4980
873.432	4980
873.561	4984
873.69	4843
873.819	4873
873.948	4942
874.077	4820
874.206	4733
874.335	4820
874.464	4919
874.593	5048
874.722	5006
874.851	5098
874.979	5041
875.108	4984
875.237	4946
875.365	4843
875.494	4881
875.623	4980
875.751	4801
875.88	4942
876.008	4942
876.136	5018
876.265	5178
876.393	5337
876.521	5265
876.65	5201
876.778	5143
876.906	5060
877.034	4999
877.162	5010
877.29	4980
877.418	5045
877.546	5102
877.674	5048
877.802	5010
877.93	4995
878.058	4919
878.185	4831
878.313	4965
878.441	4900
878.568	4805
878.696	4839
878.824	4968
878.951	4987
879.079	5117
879.206	5231
879.333	5067
879.461	4965
879.588	5018
879.715	5147
879.842	5204
879.97	5014
880.097	4790
880.224	4710
880.351	4831
880.478	4828
880.605	4862
880.732	4759
880.859	5086
880.986	4866
881.112	4923
881.239	4786
881.366	4641
881.493	4580
881.619	4626
881.746	4626
881.872	4668
881.999	4645
882.125	4714
882.252	4786
882.378	4793
882.505	4946
882.631	4828
882.757	4683
882.883	4767
883.01	4759
883.136	4668
883.262	4577
883.388	4603
883.514	4797
883.64	4839
883.766	4793
883.892	4687
884.018	4729
884.143	4858
884.269	5022
884.395	4694
884.52	4622
884.646	4622
884.772	4584
884.897	4569
885.023	4706
885.148	4839
885.274	4938
885.399	4793
885.524	4755
885.65	4748
885.775	4721
885.9	4717
886.025	4809
886.15	4831
886.275	4759
886.4	4679
886.525	4729
886.65	4679
886.775	4664
886.9	4900
887.025	5075
887.149	4831
887.274	4603
887.399	4580
887.523	4573
887.648	4626
887.773	4588
887.897	4824
888.021	4778
888.146	4637
888.27	4820
888.395	4854
888.519	4793
888.643	4782
888.767	4858
888.891	4630
889.015	4607
889.139	4630
889.263	4558
889.387	4733
889.511	4812
889.635	4778
889.759	4672
889.883	4596
890.006	4691
890.13	4862
890.254	4596
890.377	4687
890.501	4489
890.624	4497
890.748	4599
890.871	4516
890.995	4409
891.118	4398
891.241	4535
891.364	4493
891.488	4641
891.611	4500
891.734	4554
891.857	4588
891.98	4546
892.103	4653
892.226	4577
892.349	4523
892.471	4455
892.594	4516
892.717	4615
892.839	4538
892.962	4599
893.085	4664
893.207	4599
893.33	4459
893.452	4508
893.575	4660
893.697	4580
893.819	4736
893.941	4850
894.064	4763
894.186	4588
894.308	4554
894.43	4733
894.552	4812
894.674	4733
894.796	4523
894.918	4588
895.04	4611
895.161	4672
895.283	4672
895.405	4573
895.526	4596
895.648	4687
895.769	4687
895.891	4706
896.012	4710
896.134	4782
896.255	4729
896.376	4668
896.498	4592
896.619	4634
896.74	4649
896.861	4588
896.982	4877
897.103	5071
897.224	4805
897.345	4767
897.466	4672
897.587	4714
897.708	4843
897.828	4774
897.949	4725
898.07	4538
898.19	4607
898.311	4786
898.431	4683
898.552	4717
898.672	4850
898.792	4752
898.913	4744
899.033	4577
899.153	4504
899.273	4451
899.393	4481
899.513	4516
899.633	4519
899.753	4565
899.873	4527
899.993	4542
900.113	4561
900.232	4550
900.352	4527
900.472	4485
900.591	4436
900.711	4440
900.83	4405
900.95	4596
901.069	4656
901.189	4569
901.308	4356
901.427	4329
901.546	4394
901.665	4474
901.784	4538
901.904	4383
902.023	4344
902.141	4150
902.26	4143
902.379	4306
902.498	4249
902.617	4204
902.735	4379
902.854	4363
902.973	4383
903.091	4211
903.21	4204
903.328	4348
903.446	4284
903.565	4268
903.683	4398
903.801	4310
903.919	4398
904.038	4413
904.156	4333
904.274	4367
904.392	4421
904.51	4440
904.627	4489
904.745	4558
904.863	4588
904.981	4367
905.098	4287
905.216	4390
905.334	4394
905.451	4432
905.569	4424
905.686	4512
905.803	4550
905.921	4443
906.038	4523
906.155	4462
906.272	4405
906.389	4470
906.506	4348
906.623	4440
906.74	4367
906.857	4306
906.974	4344
907.091	4550
907.208	4675
907.324	4588
907.441	4531
907.557	4341
907.674	4352
907.79	4310
907.907	4363
908.023	4489
908.139	4462
908.256	4424
908.372	4440
908.488	4447
908.604	4306
908.72	4341
908.836	4390
908.952	4371
909.068	4443
909.184	4596
909.3	4523
909.415	4535
909.531	4538
909.647	4329
909.762	4329
909.878	4318
909.993	4443
910.108	4455
910.224	4371
910.339	4485
910.454	4371
910.57	4344
910.685	4200
910.8	4656
910.915	4542
911.03	4451
911.145	4287
911.259	4295
911.374	4333
911.489	4310
911.604	4253
911.718	4177
911.833	4188
911.947	4059
912.062	4010
912.176	4173
912.291	4211
912.405	4230
912.519	4405
912.633	4519
912.748	4383
912.862	4291
912.976	4188
913.09	4063
913.204	4158
913.318	4265
913.431	4405
913.545	4360
913.659	4440
913.772	4337
913.886	4287
914	4185
914.113	4360
914.226	4413
914.34	4371
914.453	4223
914.566	4379
914.68	4299
914.793	4291
914.906	4105
915.019	4131
915.132	4071
915.245	4181
915.358	4181
915.47	4169
915.583	4272
915.696	4325
915.809	4409
915.921	4421
916.034	4219
916.146	4261
916.259	4253
916.371	4383
916.483	4379
916.595	4238
916.708	4314
916.82	4303
916.932	4337
917.044	4398
917.156	4363
917.268	4211
917.38	4249
917.491	4230
917.603	4352
917.715	4421
917.826	4432
917.938	4356
918.049	4272
918.161	4390
918.272	4516
918.384	4550
918.495	4462
918.606	4280
918.717	4276
918.828	4337
918.939	4421
919.05	4287
919.161	4318
919.272	4093
919.383	4188
919.494	4470
919.604	4672
919.715	4447
919.826	4428
919.936	4432
920.047	4542
920.157	4512
920.267	4694
920.378	4580
920.488	4535
920.598	4782
920.708	4915
920.818	4809
920.928	4828
921.038	4957
921.148	4892
921.258	4641
921.368	4592
921.477	4493
921.587	4527
921.697	4432
921.806	4561
921.916	4455
922.025	4310
922.134	4276
922.244	4314
922.353	4367
922.462	4234
922.571	4188
922.68	4078
922.789	4017
922.898	4090
923.007	4059
923.116	4147
923.224	4071
923.333	4090
923.442	4032
923.55	3987
923.659	4059
923.767	4139
923.876	4059
923.984	4147
924.092	4059
924.201	4150
924.309	4128
924.417	4162
924.525	4139
924.633	4158
924.741	5060
924.849	3964
924.956	4162
925.064	4006
925.172	3915
925.279	4029
925.387	4109
925.494	4135
925.602	4261
925.709	4219
925.816	4097
925.924	4196
926.031	4291
926.138	4188
926.245	4223
926.352	4116
926.459	4287
926.566	4386
926.673	4234
926.779	4154
926.886	4135
926.993	4032
927.099	4036
927.206	3964
927.312	3968
927.419	4090
927.525	4040
927.631	4135
927.737	4002
927.843	4036
927.95	3884
928.056	3979
928.162	4032
928.267	4109
928.373	4736
928.479	4200
928.585	3934
928.69	4051
928.796	4147
928.901	3960
929.007	3899
929.112	4040
929.218	3991
929.323	4021
929.428	3960
929.533	4150
929.638	3960
929.743	4021
929.848	4071
929.953	3998
930.058	3960
930.163	3838
930.267	3888
930.372	3991
930.477	3873
930.581	4128
930.685	3937
930.79	3854
930.894	3915
930.998	3888
931.103	4086
931.207	3732
931.311	3724
931.415	3701
931.519	3564
931.623	3637
