Data from test_V78500241_1625.txt Node
Date: Fri Mar 25 17:00:18 CST 2022
User: usil
Spectrometer: V785-0024
Trigger mode: 0
Integration Time (sec): 4.000000E-1
Scans to average: 1
Nonlinearity correction enabled: false
Boxcar width: 0
Storing dark spectrum: false
XAxis mode: Wavelengths
Number of Pixels in Spectrum: 1024
>>>>>Begin Spectral Data<<<<<
801.071	8024
801.214	8020
801.356	7887
801.499	7913
801.641	7833
801.783	7799
801.926	8016
802.068	7963
802.211	8043
802.353	8005
802.496	7864
802.638	7807
802.78	7925
802.923	7925
803.065	7856
803.208	7837
803.35	7955
803.492	8092
803.635	8149
803.777	8001
803.919	8149
804.061	8431
804.204	8149
804.346	8084
804.488	7955
804.63	8054
804.773	8046
804.915	8119
805.057	8279
805.199	8199
805.341	8161
805.483	8271
805.626	8221
805.768	8180
805.91	8180
806.052	8225
806.194	8103
806.336	8252
806.478	8145
806.62	8027
806.762	8157
806.904	8282
807.046	8484
807.188	8370
807.33	8355
807.472	8305
807.614	8157
807.756	8153
807.898	8016
808.04	7898
808.182	7868
808.324	7906
808.465	7898
808.607	8096
808.749	8111
808.891	8149
809.033	8244
809.174	8195
809.316	8107
809.458	8100
809.6	8058
809.741	8069
809.883	8001
810.025	8123
810.166	8054
810.308	8054
810.45	7940
810.591	7822
810.733	7723
810.875	7674
811.016	7540
811.158	7502
811.299	7544
811.441	7704
811.582	7655
811.724	7575
811.865	7563
812.007	7571
812.148	7575
812.29	7655
812.431	7742
812.573	7883
812.714	7986
812.855	8138
812.997	8191
813.138	8282
813.279	8164
813.421	8103
813.562	8005
813.703	7814
813.845	7689
813.986	7426
814.127	7240
814.268	7289
814.41	7285
814.551	7217
814.692	7263
814.833	7129
814.974	7145
815.115	7156
815.256	7008
815.397	6939
815.539	6966
815.68	6871
815.821	6852
815.962	6787
816.103	6757
816.244	6757
816.385	6677
816.526	6654
816.666	6528
816.807	6281
816.948	6403
817.089	6456
817.23	6441
817.371	6388
817.512	6414
817.653	6365
817.793	6331
817.934	6399
818.075	6460
818.216	6460
818.356	6414
818.497	6239
818.638	6133
818.778	6129
818.919	6163
819.06	6171
819.2	6315
819.341	6327
819.481	6365
819.622	6528
819.762	6772
819.903	6658
820.043	6658
820.184	6532
820.324	6536
820.465	6726
820.605	6776
820.746	6639
820.886	6547
821.026	6669
821.167	6662
821.307	6795
821.447	6757
821.588	6646
821.728	6597
821.868	6475
822.008	6327
822.149	6372
822.289	6361
822.429	6171
822.569	6041
822.709	6133
822.849	5885
822.99	5832
823.13	5908
823.27	5904
823.41	5748
823.55	5767
823.69	5764
823.83	5775
823.97	5661
824.11	5467
824.25	5497
824.389	5539
824.529	5573
824.669	5478
824.809	5665
824.949	5627
825.089	5619
825.228	5558
825.368	5406
825.508	5345
825.648	5360
825.787	5360
825.927	5387
826.067	5288
826.206	5288
826.346	5383
826.485	5440
826.625	5372
826.765	5581
826.904	5471
827.044	5269
827.183	5189
827.323	5098
827.462	5250
827.601	5132
827.741	5185
827.88	5254
828.02	5124
828.159	5246
828.298	5315
828.437	5414
828.577	5258
828.716	5547
828.855	5337
828.994	5204
829.134	5166
829.273	5178
829.412	5140
829.551	5033
829.69	5162
829.829	5227
829.968	5368
830.107	5250
830.246	5265
830.385	5193
830.524	5128
830.663	5056
830.802	4957
830.941	4892
831.08	4885
831.219	4976
831.357	4930
831.496	5170
831.635	4949
831.774	4790
831.913	4858
832.051	4744
832.19	4763
832.329	4839
832.467	4725
832.606	4656
832.744	4721
832.883	4729
833.022	4694
833.16	4790
833.299	4850
833.437	4847
833.576	4862
833.714	4881
833.852	4835
833.991	4870
834.129	4923
834.267	4987
834.406	4923
834.544	4972
834.682	4999
834.821	4976
834.959	5162
835.097	4980
835.235	5201
835.373	5056
835.511	5136
835.65	5022
835.788	5029
835.926	4896
836.064	4889
836.202	4927
836.34	5166
836.478	5193
836.615	5113
836.753	5227
836.891	5235
837.029	5239
837.167	5204
837.305	5140
837.443	5178
837.58	5052
837.718	5269
837.856	5208
837.993	5208
838.131	5223
838.269	5166
838.406	5204
838.544	5170
838.681	5014
838.819	5014
838.956	4908
839.094	4927
839.231	4953
839.369	5060
839.506	5440
839.643	5258
839.781	5025
839.918	5045
840.055	5102
840.193	5090
840.33	5094
840.467	5140
840.604	5147
840.742	5425
840.879	5079
841.016	5083
841.153	5166
841.29	5368
841.427	5383
841.564	5303
841.701	5383
841.838	5261
841.975	5239
842.112	5284
842.249	5155
842.385	5140
842.522	5303
842.659	5151
842.796	5170
842.933	5181
843.069	5121
843.206	5151
843.343	5299
843.479	5242
843.616	5280
843.752	5029
843.889	5010
844.025	5235
844.162	5025
844.298	5208
844.435	5094
844.571	4999
844.708	5181
844.844	5299
844.98	5383
845.117	5258
845.253	5166
845.389	5033
845.525	5155
845.661	5132
845.798	5045
845.934	5083
846.07	5041
846.206	5185
846.342	5311
846.478	5143
846.614	4995
846.75	4965
846.886	4949
847.022	5178
847.158	5029
847.294	5033
847.429	5086
847.565	5086
847.701	5315
847.837	4847
847.972	4850
848.108	4965
848.244	4934
848.379	4797
848.515	4763
848.65	4694
848.786	4748
848.921	4767
849.057	4820
849.192	4904
849.328	4843
849.463	4854
849.598	4793
849.734	4782
849.869	4744
850.004	4672
850.14	4649
850.275	4599
850.41	4497
850.545	4569
850.68	4634
850.815	4580
850.95	4634
851.085	4809
851.22	4729
851.355	4698
851.49	4615
851.625	4649
851.76	4660
851.895	4538
852.03	4481
852.165	4637
852.299	4717
852.434	4797
852.569	4782
852.703	4790
852.838	4820
852.973	4915
853.107	4949
853.242	4706
853.376	4664
853.511	4531
853.645	4542
853.78	4820
853.914	4706
854.048	4656
854.183	4679
854.317	4683
854.451	4850
854.585	4687
854.72	4584
854.854	4767
854.988	4607
855.122	4630
855.256	4573
855.39	4683
855.524	4736
855.658	4706
855.792	4710
855.926	4721
856.06	4752
856.194	4812
856.327	4717
856.461	4596
856.595	4596
856.729	4561
856.862	4759
856.996	4694
857.13	4706
857.263	4759
857.397	4820
857.53	4664
857.664	4714
857.797	4774
857.931	4740
858.064	4748
858.197	4740
858.331	4634
858.464	4622
858.597	4535
858.731	4649
858.864	4653
858.997	4607
859.13	4679
859.263	4653
859.396	4683
859.529	4615
859.662	4538
859.795	4504
859.928	4596
860.061	4778
860.194	4740
860.327	4561
860.46	4554
860.592	4698
860.725	4714
860.858	4729
860.99	4558
861.123	4561
861.256	4531
861.388	4561
861.521	5090
861.653	4500
861.786	4447
861.918	4428
862.05	4508
862.183	4527
862.315	4592
862.447	4668
862.58	4599
862.712	4371
862.844	4322
862.976	4478
863.108	4443
863.24	4725
863.372	4287
863.504	4360
863.636	4383
863.768	4474
863.9	4432
864.032	4322
864.164	4432
864.296	4500
864.428	4558
864.559	4573
864.691	4531
864.823	4523
864.954	4462
865.086	4508
865.217	4466
865.349	4405
865.48	4436
865.612	4493
865.743	4656
865.875	4478
866.006	4451
866.137	4455
866.269	4436
866.4	4443
866.531	4402
866.662	4360
866.793	4428
866.924	4402
867.055	4481
867.186	4459
867.317	4363
867.448	4344
867.579	4417
867.71	4363
867.841	4344
867.972	4500
868.103	4436
868.233	4497
868.364	4436
868.495	4455
868.625	4656
868.756	4767
868.886	4538
869.017	4656
869.147	4797
869.278	4805
869.408	4630
869.539	4626
869.669	4691
869.799	4645
869.929	4710
870.06	4771
870.19	4953
870.32	4938
870.45	4942
870.58	4984
870.71	5132
870.84	5048
870.97	4976
871.1	4923
871.23	5124
871.36	5121
871.489	5075
871.619	5052
871.749	5128
871.879	5102
872.008	5162
872.138	5048
872.267	4968
872.397	4839
872.526	4778
872.656	4698
872.785	4843
872.915	4965
873.044	5010
873.173	4953
873.303	4980
873.432	4972
873.561	4942
873.69	4900
873.819	4877
873.948	4870
874.077	4812
874.206	4805
874.335	4805
874.464	4900
874.593	5075
874.722	4942
874.851	5052
874.979	5067
875.108	5060
875.237	4904
875.365	4847
875.494	4870
875.623	4946
875.751	4839
875.88	4900
876.008	4911
876.136	5041
876.265	5166
876.393	5303
876.521	5235
876.65	5220
876.778	5162
876.906	5079
877.034	5006
877.162	4999
877.29	4953
877.418	5109
877.546	5022
877.674	5041
877.802	5037
877.93	5006
878.058	4892
878.185	4866
878.313	4949
878.441	4919
878.568	4835
878.696	4877
878.824	4991
878.951	4961
879.079	5083
879.206	5258
879.333	5113
879.461	4957
879.588	5006
879.715	5113
879.842	5231
879.97	4980
880.097	4809
880.224	4714
880.351	4820
880.478	4843
880.605	4816
880.732	4782
880.859	5102
880.986	4904
881.112	4870
881.239	4774
881.366	4637
881.493	4626
881.619	4546
881.746	4656
881.872	4637
881.999	4706
882.125	4714
882.252	4752
882.378	4847
882.505	4965
882.631	4771
882.757	4683
882.883	4725
883.01	4767
883.136	4653
883.262	4580
883.388	4599
883.514	4831
883.64	4870
883.766	4774
883.892	4660
884.018	4729
884.143	4847
884.269	4965
884.395	4626
884.52	4611
884.646	4599
884.772	4615
884.897	4546
885.023	4618
885.148	4714
885.274	4843
885.399	4774
885.524	4755
885.65	4660
885.775	4714
885.9	4687
886.025	4885
886.15	4744
886.275	4664
886.4	4630
886.525	4702
886.65	4668
886.775	4725
886.9	4866
887.025	5006
887.149	4828
887.274	4672
887.399	4584
887.523	4573
887.648	4573
887.773	4599
887.897	4755
888.021	4767
888.146	4691
888.27	4812
888.395	4831
888.519	4831
888.643	4778
888.767	4786
888.891	4683
889.015	4603
889.139	4645
889.263	4569
889.387	4736
889.511	4877
889.635	4774
889.759	4664
889.883	4596
890.006	4736
890.13	4820
890.254	4653
890.377	4675
890.501	4462
890.624	4474
890.748	4588
890.871	4504
890.995	4409
891.118	4386
891.241	4535
891.364	4542
891.488	4630
891.611	4481
891.734	4580
891.857	4592
891.98	4584
892.103	4668
892.226	4596
892.349	4497
892.471	4421
892.594	4565
892.717	4531
892.839	4565
892.962	4599
893.085	4630
893.207	4588
893.33	4455
893.452	4508
893.575	4622
893.697	4592
893.819	4786
893.941	4812
894.064	4759
894.186	4580
894.308	4584
894.43	4752
894.552	4805
894.674	4793
894.796	4550
894.918	4615
895.04	4554
895.161	4656
895.283	4634
895.405	4546
895.526	4653
895.648	4714
895.769	4725
895.891	4725
896.012	4752
896.134	4714
896.255	4675
896.376	4653
896.498	4637
896.619	4702
896.74	4615
896.861	4653
896.982	4904
897.103	5052
897.224	4828
897.345	4755
897.466	4634
897.587	4733
897.708	4877
897.828	4694
897.949	4660
898.07	4554
898.19	4588
898.311	4828
898.431	4710
898.552	4771
898.672	4828
898.792	4809
898.913	4752
899.033	4618
899.153	4443
899.273	4440
899.393	4478
899.513	4550
899.633	4542
899.753	4516
899.873	4485
899.993	4588
900.113	4504
900.232	4622
900.352	4538
900.472	4500
900.591	4383
900.711	4466
900.83	4443
900.95	4615
901.069	4687
901.189	4588
901.308	4352
901.427	4295
901.546	4402
901.665	4485
901.784	4523
901.904	4386
902.023	4348
902.141	4177
902.26	4169
902.379	4265
902.498	4215
902.617	4173
902.735	4363
902.854	4360
902.973	4360
903.091	4207
903.21	4238
903.328	4249
903.446	4272
903.565	4268
903.683	4394
903.801	4299
903.919	4409
904.038	4405
904.156	4318
904.274	4440
904.392	4417
904.51	4390
904.627	4451
904.745	4592
904.863	4596
904.981	4402
905.098	4322
905.216	4337
905.334	4443
905.451	4462
905.569	4428
905.686	4542
905.803	4531
905.921	4402
906.038	4584
906.155	4504
906.272	4333
906.389	4455
906.506	4356
906.623	4386
906.74	4409
906.857	4303
906.974	4341
907.091	4577
907.208	4656
907.324	4618
907.441	4504
907.557	4348
907.674	4379
907.79	4341
907.907	4352
908.023	4489
908.139	4485
908.256	4421
908.372	4470
908.488	4462
908.604	4325
908.72	4287
908.836	4318
908.952	4402
909.068	4405
909.184	4558
909.3	4481
909.415	4558
909.531	4531
909.647	4363
909.762	4371
909.878	4363
909.993	4447
910.108	4386
910.224	4432
910.339	4459
910.454	4390
910.57	4344
910.685	4299
910.8	4645
910.915	4588
911.03	4481
911.145	4310
911.259	4356
911.374	4398
911.489	4314
911.604	4303
911.718	4154
911.833	4166
911.947	4109
912.062	3998
912.176	4204
912.291	4192
912.405	4230
912.519	4466
912.633	4523
912.748	4402
912.862	4329
912.976	4158
913.09	4158
913.204	4188
913.318	4181
913.431	4360
913.545	4375
913.659	4447
913.772	4356
913.886	4219
914	4204
914.113	4318
914.226	4424
914.34	4386
914.453	4234
914.566	4402
914.68	4268
914.793	4333
914.906	4158
915.019	4116
915.132	4074
915.245	4154
915.358	4234
915.47	4238
915.583	4287
915.696	4287
915.809	4375
915.921	4421
916.034	4242
916.146	4295
916.259	4207
916.371	4379
916.483	4337
916.595	4257
916.708	4299
916.82	4333
916.932	4310
917.044	4360
917.156	4360
917.268	4280
917.38	4299
917.491	4242
917.603	4367
917.715	4417
917.826	4417
917.938	4367
918.049	4242
918.161	4409
918.272	4558
918.384	4466
918.495	4451
918.606	4318
918.717	4303
918.828	4295
918.939	4352
919.05	4261
919.161	4341
919.272	4124
919.383	4150
919.494	4462
919.604	4660
919.715	4386
919.826	4303
919.936	4344
920.047	4508
920.157	4485
920.267	4679
920.378	4500
920.488	4527
920.598	4679
920.708	4892
920.818	4755
920.928	4759
921.038	4980
921.148	4870
921.258	4584
921.368	4512
921.477	4512
921.587	4417
921.697	4360
921.806	4508
921.916	4436
922.025	4192
922.134	4219
922.244	4196
922.353	4337
922.462	4215
922.571	4105
922.68	3949
922.789	3987
922.898	4029
923.007	4017
923.116	4105
923.224	4101
923.333	4097
923.442	4006
923.55	3979
923.659	4029
923.767	4097
923.876	4017
923.984	4139
924.092	4002
924.201	4048
924.309	4093
924.417	4093
924.525	4040
924.633	4071
924.741	4870
924.849	3937
924.956	4082
925.064	3968
925.172	3922
925.279	3922
925.387	4029
925.494	4044
925.602	4223
925.709	4215
925.816	3998
925.924	4112
926.031	4204
926.138	4173
926.245	4196
926.352	4074
926.459	4230
926.566	4310
926.673	4135
926.779	4063
926.886	4032
926.993	3972
927.099	3975
927.206	3949
927.312	3918
927.419	4029
927.525	4025
927.631	4090
927.737	3991
927.843	3926
927.95	3835
928.056	3907
928.162	4021
928.267	4082
928.373	4577
928.479	4097
928.585	3880
928.69	4032
928.796	4090
928.901	3983
929.007	3850
929.112	3987
929.218	3968
929.323	3964
929.428	3953
929.533	4090
929.638	3869
929.743	3975
929.848	4044
929.953	3998
930.058	3907
930.163	3751
930.267	3823
930.372	3991
930.477	3827
930.581	4109
930.685	3918
930.79	3831
930.894	3865
930.998	3850
931.103	4086
931.207	3755
931.311	3663
931.415	3648
931.519	3564
931.623	3576
