Data from test_V78500241_1132.txt Node
Date: Fri Mar 25 16:56:52 CST 2022
User: usil
Spectrometer: V785-0024
Trigger mode: 0
Integration Time (sec): 4.000000E-1
Scans to average: 1
Nonlinearity correction enabled: false
Boxcar width: 0
Storing dark spectrum: false
XAxis mode: Wavelengths
Number of Pixels in Spectrum: 1024
>>>>>Begin Spectral Data<<<<<
801.071	8016
801.214	8035
801.356	7894
801.499	7833
801.641	7776
801.783	7868
801.926	7921
802.068	7902
802.211	7978
802.353	7906
802.496	7875
802.638	7860
802.78	7845
802.923	7951
803.065	7868
803.208	7864
803.35	7925
803.492	8062
803.635	8183
803.777	8035
803.919	8157
804.061	8457
804.204	8157
804.346	8069
804.488	7959
804.63	8088
804.773	8012
804.915	8069
805.057	8351
805.199	8111
805.341	8202
805.483	8248
805.626	8191
805.768	8069
805.91	8172
806.052	8172
806.194	8001
806.336	8248
806.478	8046
806.62	8100
806.762	8115
806.904	8320
807.046	8415
807.188	8313
807.33	8225
807.472	8301
807.614	8088
807.756	8115
807.898	8035
808.04	7906
808.182	7940
808.324	7849
808.465	7932
808.607	8062
808.749	8092
808.891	8210
809.033	8252
809.174	8126
809.316	8043
809.458	8062
809.6	7944
809.741	8065
809.883	7997
810.025	8073
810.166	8039
810.308	7989
810.45	8012
810.591	7879
810.733	7719
810.875	7677
811.016	7468
811.158	7495
811.299	7586
811.441	7666
811.582	7643
811.724	7540
811.865	7491
812.007	7529
812.148	7480
812.29	7594
812.431	7772
812.573	7909
812.714	7989
812.855	8027
812.997	8183
813.138	8252
813.279	8218
813.421	8092
813.562	7947
813.703	7822
813.845	7769
813.986	7457
814.127	7255
814.268	7236
814.41	7137
814.551	7141
814.692	7206
814.833	7038
814.974	7031
815.115	7080
815.256	6935
815.397	6909
815.539	6966
815.68	6856
815.821	6776
815.962	6814
816.103	6863
816.244	6749
816.385	6551
816.526	6650
816.666	6467
816.807	6266
816.948	6441
817.089	6418
817.23	6521
817.371	6372
817.512	6372
817.653	6334
817.793	6346
817.934	6418
818.075	6452
818.216	6403
818.356	6391
818.497	6159
818.638	6098
818.778	6106
818.919	6182
819.06	6175
819.2	6281
819.341	6334
819.481	6380
819.622	6563
819.762	6760
819.903	6696
820.043	6597
820.184	6555
820.324	6612
820.465	6673
820.605	6635
820.746	6589
820.886	6441
821.026	6608
821.167	6711
821.307	6779
821.447	6734
821.588	6730
821.728	6513
821.868	6551
822.008	6311
822.149	6334
822.289	6319
822.429	6072
822.569	6064
822.709	6053
822.849	5874
822.99	5878
823.13	5942
823.27	5931
823.41	5824
823.55	5779
823.69	5771
823.83	5745
823.97	5688
824.11	5474
824.25	5486
824.389	5512
824.529	5558
824.669	5497
824.809	5596
824.949	5570
825.089	5577
825.228	5573
825.368	5429
825.508	5322
825.648	5383
825.787	5341
825.927	5368
826.067	5284
826.206	5292
826.346	5345
826.485	5364
826.625	5360
826.765	5566
826.904	5551
827.044	5258
827.183	5178
827.323	5140
827.462	5216
827.601	5117
827.741	5189
827.88	5189
828.02	5117
828.159	5216
828.298	5315
828.437	5376
828.577	5292
828.716	5463
828.855	5280
828.994	5174
829.134	5117
829.273	5136
829.412	5128
829.551	5090
829.69	5159
829.829	5197
829.968	5330
830.107	5261
830.246	5250
830.385	5128
830.524	5162
830.663	5086
830.802	4961
830.941	4854
831.08	4843
831.219	4972
831.357	4957
831.496	5143
831.635	4892
831.774	4870
831.913	4786
832.051	4740
832.19	4736
832.329	4793
832.467	4672
832.606	4660
832.744	4710
832.883	4725
833.022	4729
833.16	4752
833.299	4824
833.437	4809
833.576	4759
833.714	4828
833.852	4801
833.991	4877
834.129	4923
834.267	4961
834.406	4930
834.544	4965
834.682	5003
834.821	4965
834.959	5117
835.097	4995
835.235	5086
835.373	5056
835.511	5029
835.65	4987
835.788	5018
835.926	4885
836.064	4839
836.202	4927
836.34	5162
836.478	5136
836.615	5060
836.753	5185
836.891	5296
837.029	5246
837.167	5151
837.305	5105
837.443	5113
837.58	5037
837.718	5223
837.856	5181
837.993	5086
838.131	5166
838.269	5181
838.406	5178
838.544	5140
838.681	5014
838.819	4968
838.956	4854
839.094	4881
839.231	4949
839.369	5090
839.506	5395
839.643	5258
839.781	5075
839.918	5003
840.055	5067
840.193	5090
840.33	5079
840.467	5128
840.604	5155
840.742	5383
840.879	5079
841.016	5060
841.153	5140
841.29	5345
841.427	5345
841.564	5311
841.701	5337
841.838	5280
841.975	5204
842.112	5258
842.249	5136
842.385	5098
842.522	5284
842.659	5189
842.796	5098
842.933	5159
843.069	5117
843.206	5109
843.343	5254
843.479	5212
843.616	5269
843.752	5006
843.889	4999
844.025	5181
844.162	4991
844.298	5208
844.435	5079
844.571	5018
844.708	5204
844.844	5288
844.98	5376
845.117	5280
845.253	5197
845.389	5067
845.525	5140
845.661	5102
845.798	5018
845.934	5178
846.07	4995
846.206	5151
846.342	5280
846.478	5121
846.614	4987
846.75	4980
846.886	4919
847.022	5124
847.158	4961
847.294	5033
847.429	5037
847.565	5056
847.701	5303
847.837	4820
847.972	4748
848.108	4949
848.244	4881
848.379	4759
848.515	4645
848.65	4702
848.786	4748
848.921	4767
849.057	4850
849.192	4858
849.328	4824
849.463	4801
849.598	4767
849.734	4721
849.869	4702
850.004	4596
850.14	4630
850.275	4611
850.41	4497
850.545	4558
850.68	4584
850.815	4592
850.95	4596
851.085	4858
851.22	4767
851.355	4615
851.49	4588
851.625	4637
851.76	4626
851.895	4554
852.03	4508
852.165	4618
852.299	4748
852.434	4774
852.569	4725
852.703	4736
852.838	4847
852.973	4892
853.107	4877
853.242	4725
853.376	4687
853.511	4554
853.645	4607
853.78	4801
853.914	4660
854.048	4698
854.183	4596
854.317	4706
854.451	4812
854.585	4630
854.72	4675
854.854	4733
854.988	4630
855.122	4596
855.256	4516
855.39	4664
855.524	4812
855.658	4687
855.792	4679
855.926	4714
856.06	4675
856.194	4752
856.327	4675
856.461	4580
856.595	4561
856.729	4596
856.862	4771
856.996	4710
857.13	4694
857.263	4694
857.397	4820
857.53	4634
857.664	4706
857.797	4763
857.931	4782
858.064	4668
858.197	4702
858.331	4645
858.464	4577
858.597	4493
858.731	4634
858.864	4634
858.997	4580
859.13	4656
859.263	4618
859.396	4733
859.529	4603
859.662	4558
859.795	4558
859.928	4592
860.061	4740
860.194	4778
860.327	4615
860.46	4561
860.592	4679
860.725	4675
860.858	4717
860.99	4535
861.123	4500
861.256	4466
861.388	4599
861.521	5261
861.653	4500
861.786	4440
861.918	4424
862.05	4512
862.183	4523
862.315	4599
862.447	4630
862.58	4504
862.712	4386
862.844	4375
862.976	4489
863.108	4432
863.24	4820
863.372	4284
863.504	4402
863.636	4363
863.768	4485
863.9	4451
864.032	4280
864.164	4375
864.296	4500
864.428	4523
864.559	4565
864.691	4470
864.823	4516
864.954	4500
865.086	4489
865.217	4394
865.349	4394
865.48	4443
865.612	4504
865.743	4641
865.875	4451
866.006	4386
866.137	4443
866.269	4474
866.4	4402
866.531	4428
866.662	4356
866.793	4379
866.924	4398
867.055	4455
867.186	4470
867.317	4402
867.448	4363
867.579	4394
867.71	4402
867.841	4329
867.972	4417
868.103	4459
868.233	4443
868.364	4485
868.495	4447
868.625	4672
868.756	4717
868.886	4558
869.017	4630
869.147	4717
869.278	4763
869.408	4645
869.539	4634
869.669	4698
869.799	4656
869.929	4698
870.06	4683
870.19	4896
870.32	4927
870.45	4911
870.58	4980
870.71	5045
870.84	5048
870.97	4980
871.1	4877
871.23	5113
871.36	5151
871.489	5010
871.619	5033
871.749	5083
871.879	5143
872.008	5174
872.138	5029
872.267	4972
872.397	4831
872.526	4816
872.656	4733
872.785	4774
872.915	4938
873.044	5045
873.173	4953
873.303	4923
873.432	4930
873.561	4938
873.69	4835
873.819	4812
873.948	4892
874.077	4774
874.206	4748
874.335	4763
874.464	4949
874.593	5014
874.722	4946
874.851	5094
874.979	5003
875.108	4995
875.237	4877
875.365	4843
875.494	4835
875.623	4968
875.751	4790
875.88	4820
876.008	4938
876.136	5025
876.265	5185
876.393	5353
876.521	5254
876.65	5193
876.778	5117
876.906	5064
877.034	5018
877.162	5010
877.29	4961
877.418	5048
877.546	4991
877.674	4987
877.802	5029
877.93	5018
878.058	4923
878.185	4843
878.313	4957
878.441	4908
878.568	4801
878.696	4877
878.824	4930
878.951	4957
879.079	5143
879.206	5231
879.333	5025
879.461	4972
879.588	4987
879.715	5064
879.842	5178
879.97	5003
880.097	4831
880.224	4714
880.351	4809
880.478	4820
880.605	4774
880.732	4771
880.859	5098
880.986	4873
881.112	4858
881.239	4782
881.366	4694
881.493	4577
881.619	4519
881.746	4588
881.872	4630
881.999	4618
882.125	4649
882.252	4736
882.378	4824
882.505	4968
882.631	4812
882.757	4656
882.883	4698
883.01	4660
883.136	4637
883.262	4561
883.388	4554
883.514	4816
883.64	4793
883.766	4774
883.892	4675
884.018	4736
884.143	4835
884.269	5006
884.395	4637
884.52	4599
884.646	4656
884.772	4584
884.897	4538
885.023	4584
885.148	4767
885.274	4805
885.399	4771
885.524	4687
885.65	4641
885.775	4729
885.9	4656
886.025	4843
886.15	4744
886.275	4744
886.4	4679
886.525	4717
886.65	4714
886.775	4679
886.9	4877
887.025	5033
887.149	4778
887.274	4641
887.399	4596
887.523	4599
887.648	4527
887.773	4618
887.897	4801
888.021	4790
888.146	4664
888.27	4843
888.395	4915
888.519	4793
888.643	4820
888.767	4828
888.891	4717
889.015	4645
889.139	4683
889.263	4645
889.387	4801
889.511	4885
889.635	4805
889.759	4649
889.883	4706
890.006	4763
890.13	4843
890.254	4687
890.377	4714
890.501	4573
890.624	4542
890.748	4672
890.871	4550
890.995	4497
891.118	4413
891.241	4535
891.364	4546
891.488	4664
891.611	4538
891.734	4516
891.857	4611
891.98	4554
892.103	4656
892.226	4656
892.349	4573
892.471	4497
892.594	4588
892.717	4611
892.839	4611
892.962	4641
893.085	4706
893.207	4611
893.33	4474
893.452	4554
893.575	4675
893.697	4588
893.819	4847
893.941	4843
894.064	4847
894.186	4603
894.308	4603
894.43	4752
894.552	4850
894.674	4790
894.796	4626
894.918	4630
895.04	4592
895.161	4736
895.283	4702
895.405	4687
895.526	4618
895.648	4736
895.769	4744
895.891	4721
896.012	4801
896.134	4725
896.255	4687
896.376	4675
896.498	4660
896.619	4706
896.74	4653
896.861	4698
896.982	4927
897.103	5094
897.224	4889
897.345	4725
897.466	4664
897.587	4786
897.708	4862
897.828	4782
897.949	4736
898.07	4592
898.19	4664
898.311	4839
898.431	4721
898.552	4755
898.672	4816
898.792	4801
898.913	4801
899.033	4607
899.153	4527
899.273	4478
899.393	4531
899.513	4554
899.633	4546
899.753	4580
899.873	4565
899.993	4592
900.113	4542
900.232	4592
900.352	4607
900.472	4512
900.591	4443
900.711	4478
900.83	4459
900.95	4626
901.069	4694
901.189	4580
901.308	4390
901.427	4325
901.546	4424
901.665	4527
901.784	4561
901.904	4405
902.023	4341
902.141	4181
902.26	4223
902.379	4363
902.498	4268
902.617	4249
902.735	4462
902.854	4432
902.973	4325
903.091	4223
903.21	4295
903.328	4291
903.446	4291
903.565	4211
903.683	4356
903.801	4344
903.919	4424
904.038	4466
904.156	4341
904.274	4447
904.392	4424
904.51	4478
904.627	4516
904.745	4626
904.863	4637
904.981	4371
905.098	4318
905.216	4379
905.334	4459
905.451	4447
905.569	4466
905.686	4519
905.803	4637
905.921	4432
906.038	4558
906.155	4470
906.272	4402
906.389	4493
906.506	4386
906.623	4413
906.74	4398
906.857	4280
906.974	4413
907.091	4615
907.208	4698
907.324	4588
907.441	4489
907.557	4383
907.674	4371
907.79	4360
907.907	4375
908.023	4504
908.139	4523
908.256	4451
908.372	4512
908.488	4466
908.604	4379
908.72	4348
908.836	4398
908.952	4386
909.068	4443
909.184	4596
909.3	4504
909.415	4611
909.531	4592
909.647	4398
909.762	4405
909.878	4386
909.993	4432
910.108	4447
910.224	4455
910.339	4527
910.454	4481
910.57	4356
910.685	4303
910.8	4641
910.915	4611
911.03	4508
911.145	4424
911.259	4329
911.374	4417
911.489	4333
911.604	4352
911.718	4200
911.833	4227
911.947	4051
912.062	4051
912.176	4242
912.291	4249
912.405	4246
912.519	4489
912.633	4523
912.748	4363
912.862	4356
912.976	4261
913.09	4135
913.204	4173
913.318	4329
913.431	4383
913.545	4360
913.659	4466
913.772	4424
913.886	4287
914	4242
914.113	4402
914.226	4421
914.34	4390
914.453	4234
914.566	4451
914.68	4352
914.793	4329
914.906	4166
915.019	4154
915.132	4078
915.245	4215
915.358	4246
915.47	4238
915.583	4303
915.696	4322
915.809	4413
915.921	4428
916.034	4291
916.146	4238
916.259	4223
916.371	4405
916.483	4375
916.595	4280
916.708	4280
916.82	4344
916.932	4360
917.044	4314
917.156	4375
917.268	4265
917.38	4253
917.491	4303
917.603	4348
917.715	4451
917.826	4409
917.938	4409
918.049	4310
918.161	4474
918.272	4573
918.384	4561
918.495	4478
918.606	4344
918.717	4272
918.828	4367
918.939	4440
919.05	4291
919.161	4303
919.272	4139
919.383	4238
919.494	4497
919.604	4645
919.715	4440
919.826	4363
919.936	4398
920.047	4542
920.157	4519
920.267	4744
920.378	4588
920.488	4527
920.598	4748
920.708	4885
920.818	4816
920.928	4782
921.038	4938
921.148	4915
921.258	4653
921.368	4550
921.477	4531
921.587	4508
921.697	4367
921.806	4565
921.916	4447
922.025	4318
922.134	4322
922.244	4257
922.353	4363
922.462	4234
922.571	4120
922.68	4036
922.789	3987
922.898	4093
923.007	4017
923.116	4135
923.224	4109
923.333	4078
923.442	4040
923.55	4059
923.659	4048
923.767	4116
923.876	4048
923.984	4147
924.092	4029
924.201	4101
924.309	4124
924.417	4124
924.525	4112
924.633	4120
924.741	5071
924.849	3949
924.956	4173
925.064	3994
925.172	3937
925.279	3934
925.387	4048
925.494	4055
925.602	4219
925.709	4139
925.816	4036
925.924	4238
926.031	4246
926.138	4173
926.245	4257
926.352	4093
926.459	4280
926.566	4306
926.673	4169
926.779	4086
926.886	4105
926.993	4032
927.099	3998
927.206	3994
927.312	3907
927.419	4063
927.525	4051
927.631	4116
927.737	3949
927.843	3964
927.95	3819
928.056	3998
928.162	3979
928.267	4082
928.373	4675
928.479	4124
928.585	3934
928.69	4044
928.796	4044
928.901	3987
929.007	3880
929.112	4025
929.218	4002
929.323	4002
929.428	3949
929.533	4158
929.638	3983
929.743	3994
929.848	4063
929.953	4025
930.058	3964
930.163	3816
930.267	3812
930.372	3960
930.477	3816
930.581	4059
930.685	3975
930.79	3861
930.894	3899
930.998	3918
931.103	4090
931.207	3747
931.311	3709
931.415	3694
931.519	3557
931.623	3557
