Data from test_V78500241_1017.txt Node
Date: Fri Mar 25 16:56:04 CST 2022
User: usil
Spectrometer: V785-0024
Trigger mode: 0
Integration Time (sec): 4.000000E-1
Scans to average: 1
Nonlinearity correction enabled: false
Boxcar width: 0
Storing dark spectrum: false
XAxis mode: Wavelengths
Number of Pixels in Spectrum: 1024
>>>>>Begin Spectral Data<<<<<
801.071	8092
801.214	8001
801.356	7868
801.499	7852
801.641	7788
801.783	7780
801.926	7947
802.068	7849
802.211	7997
802.353	7997
802.496	7845
802.638	7826
802.78	7932
802.923	7902
803.065	7974
803.208	7909
803.35	8005
803.492	8081
803.635	8199
803.777	8031
803.919	8084
804.061	8404
804.204	8111
804.346	8065
804.488	7936
804.63	8100
804.773	7963
804.915	8039
805.057	8271
805.199	8214
805.341	8195
805.483	8229
805.626	8210
805.768	8062
805.91	8149
806.052	8126
806.194	8027
806.336	8263
806.478	8058
806.62	8062
806.762	8069
806.904	8263
807.046	8415
807.188	8294
807.33	8244
807.472	8294
807.614	8062
807.756	8123
807.898	7970
808.04	7932
808.182	7909
808.324	7871
808.465	7856
808.607	8001
808.749	8096
808.891	8187
809.033	8210
809.174	8191
809.316	8069
809.458	7993
809.6	7932
809.741	8058
809.883	8005
810.025	8065
810.166	8001
810.308	8031
810.45	7955
810.591	7845
810.733	7757
810.875	7639
811.016	7460
811.158	7468
811.299	7567
811.441	7723
811.582	7677
811.724	7578
811.865	7499
812.007	7552
812.148	7529
812.29	7537
812.431	7712
812.573	7879
812.714	7959
812.855	8134
812.997	8187
813.138	8275
813.279	8221
813.421	8081
813.562	8039
813.703	7845
813.845	7708
813.986	7476
814.127	7301
814.268	7187
814.41	7187
814.551	7149
814.692	7129
814.833	7072
814.974	7057
815.115	7084
815.256	6924
815.397	6894
815.539	6882
815.68	6814
815.821	6802
815.962	6776
816.103	6859
816.244	6734
816.385	6582
816.526	6582
816.666	6452
816.807	6190
816.948	6384
817.089	6483
817.23	6452
817.371	6308
817.512	6391
817.653	6365
817.793	6376
817.934	6403
818.075	6456
818.216	6399
818.356	6384
818.497	6205
818.638	6106
818.778	6125
818.919	6102
819.06	6121
819.2	6281
819.341	6327
819.481	6319
819.622	6486
819.762	6715
819.903	6726
820.043	6620
820.184	6532
820.324	6547
820.465	6703
820.605	6662
820.746	6608
820.886	6475
821.026	6650
821.167	6662
821.307	6772
821.447	6726
821.588	6589
821.728	6578
821.868	6437
822.008	6338
822.149	6346
822.289	6334
822.429	6201
822.569	6053
822.709	6106
822.849	5927
822.99	5885
823.13	5844
823.27	5912
823.41	5786
823.55	5756
823.69	5760
823.83	5786
823.97	5615
824.11	5524
824.25	5486
824.389	5532
824.529	5551
824.669	5535
824.809	5581
824.949	5623
825.089	5558
825.228	5532
825.368	5357
825.508	5322
825.648	5311
825.787	5357
825.927	5387
826.067	5280
826.206	5246
826.346	5364
826.485	5372
826.625	5379
826.765	5539
826.904	5512
827.044	5231
827.183	5204
827.323	5090
827.462	5250
827.601	5147
827.741	5136
827.88	5193
828.02	5102
828.159	5208
828.298	5322
828.437	5303
828.577	5265
828.716	5463
828.855	5296
828.994	5147
829.134	5128
829.273	5201
829.412	5102
829.551	5128
829.69	5128
829.829	5227
829.968	5364
830.107	5269
830.246	5208
830.385	5204
830.524	5121
830.663	5003
830.802	4930
830.941	4854
831.08	4847
831.219	4957
831.357	4995
831.496	5121
831.635	4900
831.774	4809
831.913	4816
832.051	4714
832.19	4691
832.329	4843
832.467	4694
832.606	4664
832.744	4672
832.883	4694
833.022	4683
833.16	4744
833.299	4786
833.437	4801
833.576	4744
833.714	4786
833.852	4831
833.991	4885
834.129	4980
834.267	4930
834.406	4877
834.544	4934
834.682	4927
834.821	4900
834.959	5155
835.097	4965
835.235	5102
835.373	5052
835.511	5090
835.65	4995
835.788	5025
835.926	4892
836.064	4805
836.202	4877
836.34	5162
836.478	5197
836.615	5121
836.753	5174
836.891	5273
837.029	5269
837.167	5197
837.305	5159
837.443	5159
837.58	5048
837.718	5273
837.856	5124
837.993	5117
838.131	5212
838.269	5223
838.406	5159
838.544	5162
838.681	4976
838.819	5071
838.956	4904
839.094	4915
839.231	4953
839.369	5079
839.506	5372
839.643	5208
839.781	5003
839.918	4953
840.055	5124
840.193	5117
840.33	5136
840.467	5124
840.604	5159
840.742	5425
840.879	5132
841.016	5083
841.153	5086
841.29	5322
841.427	5311
841.564	5299
841.701	5322
841.838	5280
841.975	5250
842.112	5265
842.249	5124
842.385	5113
842.522	5353
842.659	5174
842.796	5128
842.933	5181
843.069	5117
843.206	5159
843.343	5284
843.479	5220
843.616	5246
843.752	5029
843.889	4984
844.025	5223
844.162	5037
844.298	5181
844.435	5048
844.571	5018
844.708	5159
844.844	5296
844.98	5311
845.117	5299
845.253	5140
845.389	5117
845.525	5143
845.661	5109
845.798	5006
845.934	5117
846.07	5025
846.206	5178
846.342	5261
846.478	5159
846.614	4984
846.75	4965
846.886	4870
847.022	5121
847.158	5018
847.294	5033
847.429	5143
847.565	4991
847.701	5315
847.837	4847
847.972	4843
848.108	4972
848.244	4881
848.379	4771
848.515	4740
848.65	4725
848.786	4717
848.921	4767
849.057	4824
849.192	4870
849.328	4805
849.463	4801
849.598	4790
849.734	4759
849.869	4649
850.004	4618
850.14	4637
850.275	4592
850.41	4584
850.545	4603
850.68	4615
850.815	4603
850.95	4565
851.085	4755
851.22	4736
851.355	4641
851.49	4584
851.625	4626
851.76	4664
851.895	4481
852.03	4538
852.165	4618
852.299	4725
852.434	4725
852.569	4698
852.703	4759
852.838	4847
852.973	4946
853.107	4896
853.242	4740
853.376	4618
853.511	4527
853.645	4580
853.78	4714
853.914	4637
854.048	4615
854.183	4626
854.317	4626
854.451	4877
854.585	4691
854.72	4626
854.854	4744
854.988	4588
855.122	4577
855.256	4413
855.39	4637
855.524	4782
855.658	4672
855.792	4656
855.926	4752
856.06	4729
856.194	4786
856.327	4675
856.461	4622
856.595	4622
856.729	4622
856.862	4755
856.996	4660
857.13	4702
857.263	4755
857.397	4812
857.53	4634
857.664	4744
857.797	4752
857.931	4744
858.064	4630
858.197	4740
858.331	4611
858.464	4573
858.597	4500
858.731	4577
858.864	4611
858.997	4538
859.13	4637
859.263	4615
859.396	4706
859.529	4565
859.662	4584
859.795	4542
859.928	4588
860.061	4771
860.194	4702
860.327	4554
860.46	4523
860.592	4656
860.725	4675
860.858	4683
860.99	4527
861.123	4508
861.256	4535
861.388	4603
861.521	5258
861.653	4500
861.786	4436
861.918	4508
862.05	4508
862.183	4554
862.315	4577
862.447	4634
862.58	4527
862.712	4383
862.844	4295
862.976	4447
863.108	4478
863.24	4889
863.372	4318
863.504	4451
863.636	4428
863.768	4504
863.9	4428
864.032	4383
864.164	4421
864.296	4504
864.428	4508
864.559	4577
864.691	4493
864.823	4550
864.954	4516
865.086	4527
865.217	4462
865.349	4462
865.48	4504
865.612	4535
865.743	4630
865.875	4421
866.006	4455
866.137	4478
866.269	4440
866.4	4493
866.531	4447
866.662	4440
866.793	4436
866.924	4443
867.055	4519
867.186	4470
867.317	4489
867.448	4371
867.579	4402
867.71	4363
867.841	4386
867.972	4504
868.103	4493
868.233	4462
868.364	4470
868.495	4523
868.625	4729
868.756	4778
868.886	4615
869.017	4641
869.147	4812
869.278	4809
869.408	4660
869.539	4668
869.669	4702
869.799	4721
869.929	4805
870.06	4782
870.19	4976
870.32	4957
870.45	4915
870.58	5060
870.71	5048
870.84	5098
870.97	4999
871.1	4919
871.23	5189
871.36	5136
871.489	5041
871.619	5109
871.749	5113
871.879	5166
872.008	5208
872.138	5056
872.267	4972
872.397	4889
872.526	4854
872.656	4752
872.785	4809
872.915	4991
873.044	5010
873.173	4930
873.303	4987
873.432	5014
873.561	4972
873.69	4896
873.819	4934
873.948	4938
874.077	4812
874.206	4862
874.335	4797
874.464	4957
874.593	5098
874.722	4995
874.851	5102
874.979	5117
875.108	5086
875.237	4949
875.365	4900
875.494	4900
875.623	4984
875.751	4850
875.88	4946
876.008	5045
876.136	5056
876.265	5189
876.393	5341
876.521	5261
876.65	5273
876.778	5231
876.906	5022
877.034	5025
877.162	5037
877.29	5041
877.418	5067
877.546	5086
877.674	5052
877.802	5052
877.93	5003
878.058	4987
878.185	4873
878.313	5010
878.441	4923
878.568	4790
878.696	4858
878.824	5014
878.951	5029
879.079	5178
879.206	5341
879.333	5102
879.461	4980
879.588	5022
879.715	5185
879.842	5284
879.97	5022
880.097	4778
880.224	4752
880.351	4854
880.478	4793
880.605	4850
880.732	4824
880.859	5128
880.986	4930
881.112	4965
881.239	4755
881.366	4664
881.493	4634
881.619	4637
881.746	4656
881.872	4710
881.999	4698
882.125	4702
882.252	4866
882.378	4892
882.505	4934
882.631	4866
882.757	4733
882.883	4710
883.01	4752
883.136	4691
883.262	4588
883.388	4618
883.514	4881
883.64	4877
883.766	4805
883.892	4683
884.018	4782
884.143	4915
884.269	5006
884.395	4630
884.52	4630
884.646	4691
884.772	4588
884.897	4573
885.023	4687
885.148	4752
885.274	4862
885.399	4801
885.524	4759
885.65	4714
885.775	4729
885.9	4759
886.025	4908
886.15	4835
886.275	4721
886.4	4698
886.525	4721
886.65	4748
886.775	4710
886.9	4949
887.025	5052
887.149	4854
887.274	4630
887.399	4615
887.523	4649
887.648	4599
887.773	4592
887.897	4740
888.021	4843
888.146	4702
888.27	4828
888.395	4911
888.519	4839
888.643	4885
888.767	4862
888.891	4710
889.015	4580
889.139	4660
889.263	4637
889.387	4793
889.511	4896
889.635	4816
889.759	4694
889.883	4672
890.006	4736
890.13	4816
890.254	4683
890.377	4687
890.501	4550
890.624	4497
890.748	4645
890.871	4504
890.995	4546
891.118	4424
891.241	4512
891.364	4550
891.488	4615
891.611	4538
891.734	4565
891.857	4592
891.98	4580
892.103	4691
892.226	4622
892.349	4519
892.471	4478
892.594	4546
892.717	4626
892.839	4596
892.962	4618
893.085	4687
893.207	4622
893.33	4481
893.452	4592
893.575	4668
893.697	4645
893.819	4835
893.941	4873
894.064	4782
894.186	4554
894.308	4607
894.43	4736
894.552	4831
894.674	4767
894.796	4592
894.918	4580
895.04	4588
895.161	4710
895.283	4672
895.405	4626
895.526	4675
895.648	4710
895.769	4744
895.891	4752
896.012	4763
896.134	4740
896.255	4694
896.376	4660
896.498	4584
896.619	4683
896.74	4653
896.861	4653
896.982	4953
897.103	5067
897.224	4820
897.345	4744
897.466	4714
897.587	4740
897.708	4892
897.828	4797
897.949	4649
898.07	4565
898.19	4668
898.311	4843
898.431	4637
898.552	4767
898.672	4835
898.792	4828
898.913	4755
899.033	4660
899.153	4497
899.273	4478
899.393	4550
899.513	4523
899.633	4489
899.753	4561
899.873	4550
899.993	4634
900.113	4588
900.232	4618
900.352	4546
900.472	4542
900.591	4436
900.711	4489
900.83	4447
900.95	4630
901.069	4694
901.189	4565
901.308	4432
901.427	4329
901.546	4375
901.665	4493
901.784	4531
901.904	4405
902.023	4363
902.141	4223
902.26	4196
902.379	4287
902.498	4272
902.617	4238
902.735	4375
902.854	4405
902.973	4386
903.091	4230
903.21	4253
903.328	4287
903.446	4249
903.565	4303
903.683	4367
903.801	4310
903.919	4394
904.038	4432
904.156	4333
904.274	4443
904.392	4402
904.51	4462
904.627	4478
904.745	4592
904.863	4675
904.981	4386
905.098	4325
905.216	4386
905.334	4451
905.451	4459
905.569	4516
905.686	4565
905.803	4577
905.921	4474
906.038	4584
906.155	4478
906.272	4386
906.389	4508
906.506	4375
906.623	4379
906.74	4348
906.857	4280
906.974	4379
907.091	4508
907.208	4664
907.324	4523
907.441	4554
907.557	4299
907.674	4363
907.79	4322
907.907	4352
908.023	4504
908.139	4478
908.256	4474
908.372	4470
908.488	4462
908.604	4329
908.72	4306
908.836	4405
908.952	4371
909.068	4398
909.184	4580
909.3	4531
909.415	4618
909.531	4599
909.647	4360
909.762	4375
909.878	4383
909.993	4466
910.108	4424
910.224	4440
910.339	4500
910.454	4379
910.57	4386
910.685	4329
910.8	4694
910.915	4584
911.03	4508
911.145	4310
911.259	4333
911.374	4379
911.489	4314
911.604	4291
911.718	4150
911.833	4219
911.947	4093
912.062	4040
912.176	4219
912.291	4230
912.405	4253
912.519	4512
912.633	4523
912.748	4367
912.862	4322
912.976	4196
913.09	4150
913.204	4192
913.318	4234
913.431	4375
913.545	4325
913.659	4447
913.772	4451
913.886	4234
914	4200
914.113	4421
914.226	4413
914.34	4421
914.453	4272
914.566	4428
914.68	4352
914.793	4310
914.906	4185
915.019	4139
915.132	4090
915.245	4207
915.358	4242
915.47	4261
915.583	4234
915.696	4291
915.809	4375
915.921	4443
916.034	4272
916.146	4291
916.259	4261
916.371	4390
916.483	4367
916.595	4200
916.708	4333
916.82	4329
916.932	4284
917.044	4333
917.156	4375
917.268	4215
917.38	4265
917.491	4268
917.603	4409
917.715	4421
917.826	4409
917.938	4341
918.049	4249
918.161	4421
918.272	4508
918.384	4508
918.495	4470
918.606	4322
918.717	4242
918.828	4363
918.939	4398
919.05	4284
919.161	4325
919.272	4120
919.383	4246
919.494	4428
919.604	4660
919.715	4413
919.826	4341
919.936	4394
920.047	4500
920.157	4523
920.267	4698
920.378	4561
920.488	4497
920.598	4702
920.708	4881
920.818	4801
920.928	4809
921.038	4942
921.148	4938
921.258	4641
921.368	4580
921.477	4493
921.587	4447
921.697	4367
921.806	4565
921.916	4394
922.025	4310
922.134	4284
922.244	4227
922.353	4344
922.462	4173
922.571	4124
922.68	4013
922.789	3979
922.898	4017
923.007	3998
923.116	4166
923.224	4059
923.333	4093
923.442	4032
923.55	3991
923.659	4010
923.767	4048
923.876	4021
923.984	4097
924.092	3968
924.201	4074
924.309	4097
924.417	4086
924.525	4036
924.633	4086
924.741	5071
924.849	3907
924.956	4158
925.064	3975
925.172	3922
925.279	3941
925.387	4021
925.494	4044
925.602	4169
925.709	4116
925.816	4036
925.924	4173
926.031	4253
926.138	4162
926.245	4200
926.352	4101
926.459	4268
926.566	4356
926.673	4135
926.779	4032
926.886	4143
926.993	3972
927.099	3972
927.206	3960
927.312	3953
927.419	4086
927.525	3994
927.631	4086
927.737	3991
927.843	3972
927.95	3846
928.056	3945
928.162	3983
928.267	4097
928.373	4630
928.479	4120
928.585	3854
928.69	4067
928.796	4093
928.901	3968
929.007	3861
929.112	3972
929.218	3979
929.323	3960
929.428	3972
929.533	4078
929.638	3915
929.743	3953
929.848	4055
929.953	4010
930.058	3922
930.163	3762
930.267	3797
930.372	3998
930.477	3823
930.581	4071
930.685	3994
930.79	3823
930.894	3945
930.998	3869
931.103	4044
931.207	3728
931.311	3789
931.415	3743
931.519	3568
931.623	3511
