Data from test_V78500241_1736.txt Node
Date: Fri Mar 25 17:01:04 CST 2022
User: usil
Spectrometer: V785-0024
Trigger mode: 0
Integration Time (sec): 4.000000E-1
Scans to average: 1
Nonlinearity correction enabled: false
Boxcar width: 0
Storing dark spectrum: false
XAxis mode: Wavelengths
Number of Pixels in Spectrum: 1024
>>>>>Begin Spectral Data<<<<<
801.071	8008
801.214	7967
801.356	7932
801.499	7822
801.641	7814
801.783	7875
801.926	7856
802.068	7959
802.211	8062
802.353	7986
802.496	7864
802.638	7883
802.78	7906
802.923	7883
803.065	7830
803.208	7830
803.35	7936
803.492	8020
803.635	8119
803.777	8001
803.919	8172
804.061	8389
804.204	8202
804.346	8107
804.488	7936
804.63	8081
804.773	8027
804.915	8107
805.057	8275
805.199	8065
805.341	8176
805.483	8244
805.626	8111
805.768	8119
805.91	8199
806.052	8210
806.194	8073
806.336	8240
806.478	8138
806.62	8062
806.762	8172
806.904	8263
807.046	8461
807.188	8336
807.33	8328
807.472	8389
807.614	8210
807.756	8115
807.898	7986
808.04	7879
808.182	7852
808.324	7875
808.465	7887
808.607	8096
808.749	8062
808.891	8191
809.033	8294
809.174	8161
809.316	8035
809.458	8073
809.6	7963
809.741	7982
809.883	7986
810.025	8103
810.166	8039
810.308	8035
810.45	7963
810.591	7890
810.733	7700
810.875	7704
811.016	7525
811.158	7502
811.299	7567
811.441	7689
811.582	7609
811.724	7556
811.865	7499
812.007	7620
812.148	7613
812.29	7613
812.431	7753
812.573	7890
812.714	7959
812.855	8054
812.997	8202
813.138	8275
813.279	8138
813.421	7997
813.562	7993
813.703	7852
813.845	7746
813.986	7403
814.127	7209
814.268	7194
814.41	7110
814.551	7156
814.692	7175
814.833	7156
814.974	7095
815.115	7095
815.256	6916
815.397	6909
815.539	6909
815.68	6852
815.821	6669
815.962	6806
816.103	6821
816.244	6665
816.385	6555
816.526	6566
816.666	6456
816.807	6270
816.948	6452
817.089	6441
817.23	6403
817.371	6365
817.512	6342
817.653	6399
817.793	6277
817.934	6407
818.075	6479
818.216	6445
818.356	6376
818.497	6254
818.638	6095
818.778	6106
818.919	6098
819.06	6121
819.2	6292
819.341	6296
819.481	6407
819.622	6506
819.762	6757
819.903	6730
820.043	6597
820.184	6540
820.324	6601
820.465	6616
820.605	6688
820.746	6707
820.886	6513
821.026	6635
821.167	6654
821.307	6757
821.447	6768
821.588	6703
821.728	6627
821.868	6517
822.008	6365
822.149	6334
822.289	6369
822.429	6144
822.569	6117
822.709	6114
822.849	5942
822.99	5882
823.13	5916
823.27	5977
823.41	5775
823.55	5752
823.69	5710
823.83	5745
823.97	5680
824.11	5558
824.25	5532
824.389	5577
824.529	5623
824.669	5524
824.809	5665
824.949	5710
825.089	5634
825.228	5577
825.368	5448
825.508	5410
825.648	5372
825.787	5474
825.927	5429
826.067	5280
826.206	5349
826.346	5474
826.485	5429
826.625	5444
826.765	5577
826.904	5486
827.044	5299
827.183	5280
827.323	5189
827.462	5265
827.601	5235
827.741	5227
827.88	5246
828.02	5178
828.159	5280
828.298	5360
828.437	5349
828.577	5311
828.716	5471
828.855	5357
828.994	5216
829.134	5189
829.273	5242
829.412	5178
829.551	5162
829.69	5223
829.829	5269
829.968	5402
830.107	5296
830.246	5299
830.385	5159
830.524	5193
830.663	5117
830.802	5045
830.941	4911
831.08	4904
831.219	4965
831.357	5018
831.496	5185
831.635	4987
831.774	4900
831.913	4866
832.051	4721
832.19	4820
832.329	4881
832.467	4733
832.606	4687
832.744	4763
832.883	4755
833.022	4721
833.16	4843
833.299	4816
833.437	4847
833.576	4809
833.714	4870
833.852	4892
833.991	4908
834.129	4995
834.267	4980
834.406	4946
834.544	4980
834.682	4984
834.821	4987
834.959	5159
835.097	5033
835.235	5151
835.373	5132
835.511	5143
835.65	5071
835.788	5018
835.926	4877
836.064	4923
836.202	4946
836.34	5212
836.478	5212
836.615	5189
836.753	5242
836.891	5337
837.029	5265
837.167	5231
837.305	5193
837.443	5212
837.58	5124
837.718	5227
837.856	5204
837.993	5201
838.131	5273
838.269	5216
838.406	5204
838.544	5242
838.681	5090
838.819	5010
838.956	4923
839.094	4904
839.231	5003
839.369	5151
839.506	5471
839.643	5269
839.781	5117
839.918	5048
840.055	5147
840.193	5143
840.33	5124
840.467	5170
840.604	5235
840.742	5440
840.879	5105
841.016	5140
841.153	5212
841.29	5436
841.427	5372
841.564	5334
841.701	5417
841.838	5337
841.975	5292
842.112	5292
842.249	5208
842.385	5143
842.522	5372
842.659	5181
842.796	5208
842.933	5296
843.069	5155
843.206	5140
843.343	5326
843.479	5273
843.616	5318
843.752	5060
843.889	5079
844.025	5254
844.162	5014
844.298	5212
844.435	5140
844.571	5132
844.708	5208
844.844	5326
844.98	5383
845.117	5318
845.253	5170
845.389	5048
845.525	5178
845.661	5162
845.798	5041
845.934	5166
846.07	5079
846.206	5223
846.342	5307
846.478	5208
846.614	5079
846.75	4980
846.886	4923
847.022	5124
847.158	5045
847.294	5109
847.429	5124
847.565	5117
847.701	5330
847.837	4862
847.972	4816
848.108	4949
848.244	4942
848.379	4824
848.515	4771
848.65	4725
848.786	4729
848.921	4790
849.057	4919
849.192	4919
849.328	4805
849.463	4877
849.598	4828
849.734	4774
849.869	4714
850.004	4679
850.14	4675
850.275	4656
850.41	4565
850.545	4596
850.68	4607
850.815	4641
850.95	4702
851.085	4843
851.22	4774
851.355	4649
851.49	4664
851.625	4668
851.76	4664
851.895	4622
852.03	4558
852.165	4664
852.299	4736
852.434	4805
852.569	4767
852.703	4805
852.838	4885
852.973	4930
853.107	4938
853.242	4740
853.376	4637
853.511	4596
853.645	4672
853.78	4809
853.914	4736
854.048	4687
854.183	4668
854.317	4748
854.451	4870
854.585	4694
854.72	4634
854.854	4790
854.988	4645
855.122	4668
855.256	4596
855.39	4710
855.524	4809
855.658	4691
855.792	4778
855.926	4736
856.06	4759
856.194	4831
856.327	4698
856.461	4645
856.595	4637
856.729	4679
856.862	4778
856.996	4683
857.13	4721
857.263	4763
857.397	4820
857.53	4656
857.664	4733
857.797	4755
857.931	4816
858.064	4645
858.197	4809
858.331	4683
858.464	4645
858.597	4523
858.731	4679
858.864	4687
858.997	4611
859.13	4668
859.263	4717
859.396	4714
859.529	4538
859.662	4599
859.795	4577
859.928	4645
860.061	4801
860.194	4831
860.327	4615
860.46	4573
860.592	4790
860.725	4721
860.858	4790
860.99	4573
861.123	4554
861.256	4535
861.388	4672
861.521	5318
861.653	4519
861.786	4436
861.918	4443
862.05	4527
862.183	4584
862.315	4618
862.447	4637
862.58	4573
862.712	4375
862.844	4371
862.976	4508
863.108	4485
863.24	4904
863.372	4379
863.504	4451
863.636	4405
863.768	4504
863.9	4451
864.032	4390
864.164	4436
864.296	4542
864.428	4550
864.559	4565
864.691	4546
864.823	4504
864.954	4535
865.086	4546
865.217	4500
865.349	4428
865.48	4493
865.612	4554
865.743	4675
865.875	4447
866.006	4485
866.137	4512
866.269	4478
866.4	4478
866.531	4447
866.662	4432
866.793	4421
866.924	4432
867.055	4485
867.186	4436
867.317	4405
867.448	4409
867.579	4428
867.71	4432
867.841	4383
867.972	4459
868.103	4481
868.233	4459
868.364	4497
868.495	4497
868.625	4717
868.756	4786
868.886	4599
869.017	4622
869.147	4812
869.278	4831
869.408	4668
869.539	4668
869.669	4721
869.799	4672
869.929	4786
870.06	4763
870.19	4968
870.32	4953
870.45	4949
870.58	5006
870.71	5113
870.84	5124
870.97	4957
871.1	4908
871.23	5147
871.36	5128
871.489	5006
871.619	5136
871.749	5109
871.879	5140
872.008	5174
872.138	5045
872.267	4942
872.397	4866
872.526	4835
872.656	4782
872.785	4820
872.915	4942
873.044	5025
873.173	4961
873.303	5025
873.432	4999
873.561	4999
873.69	4877
873.819	4858
873.948	4946
874.077	4831
874.206	4736
874.335	4866
874.464	4904
874.593	5090
874.722	4949
874.851	5113
874.979	5060
875.108	5071
875.237	4915
875.365	4923
875.494	4961
875.623	4976
875.751	4839
875.88	4854
876.008	5003
876.136	5079
876.265	5235
876.393	5334
876.521	5315
876.65	5261
876.778	5220
876.906	5037
877.034	5025
877.162	5060
877.29	4991
877.418	5041
877.546	5025
877.674	5079
877.802	5041
877.93	5010
878.058	4972
878.185	4858
878.313	4961
878.441	4965
878.568	4801
878.696	4862
878.824	4976
878.951	4995
879.079	5124
879.206	5239
879.333	5109
879.461	4965
879.588	5003
879.715	5136
879.842	5246
879.97	5022
880.097	4771
880.224	4752
880.351	4866
880.478	4835
880.605	4752
880.732	4839
880.859	5132
880.986	4892
881.112	4900
881.239	4755
881.366	4725
881.493	4637
881.619	4607
881.746	4675
881.872	4664
881.999	4679
882.125	4725
882.252	4786
882.378	4809
882.505	5006
882.631	4816
882.757	4714
882.883	4687
883.01	4729
883.136	4687
883.262	4675
883.388	4634
883.514	4835
883.64	4828
883.766	4752
883.892	4694
884.018	4744
884.143	4858
884.269	5025
884.395	4675
884.52	4679
884.646	4645
884.772	4558
884.897	4592
885.023	4706
885.148	4820
885.274	4862
885.399	4870
885.524	4740
885.65	4710
885.775	4797
885.9	4702
886.025	4881
886.15	4736
886.275	4721
886.4	4637
886.525	4733
886.65	4710
886.775	4710
886.9	4930
887.025	5022
887.149	4805
887.274	4668
887.399	4599
887.523	4630
887.648	4573
887.773	4535
887.897	4774
888.021	4786
888.146	4702
888.27	4809
888.395	4919
888.519	4801
888.643	4812
888.767	4854
888.891	4649
889.015	4649
889.139	4653
889.263	4596
889.387	4786
889.511	4877
889.635	4805
889.759	4588
889.883	4668
890.006	4717
890.13	4828
890.254	4645
890.377	4641
890.501	4599
890.624	4542
890.748	4637
890.871	4481
890.995	4413
891.118	4390
891.241	4573
891.364	4504
891.488	4584
891.611	4573
891.734	4561
891.857	4588
891.98	4561
892.103	4641
892.226	4603
892.349	4558
892.471	4436
892.594	4573
892.717	4603
892.839	4607
892.962	4611
893.085	4668
893.207	4546
893.33	4398
893.452	4531
893.575	4672
893.697	4580
893.819	4812
893.941	4885
894.064	4752
894.186	4561
894.308	4615
894.43	4759
894.552	4831
894.674	4767
894.796	4554
894.918	4641
895.04	4569
895.161	4710
895.283	4668
895.405	4554
895.526	4656
895.648	4729
895.769	4771
895.891	4694
896.012	4725
896.134	4744
896.255	4683
896.376	4660
896.498	4622
896.619	4706
896.74	4577
896.861	4683
896.982	4904
897.103	5045
897.224	4839
897.345	4771
897.466	4706
897.587	4782
897.708	4850
897.828	4828
897.949	4668
898.07	4546
898.19	4664
898.311	4870
898.431	4679
898.552	4790
898.672	4839
898.792	4771
898.913	4675
899.033	4607
899.153	4516
899.273	4432
899.393	4504
899.513	4546
899.633	4546
899.753	4535
899.873	4470
899.993	4561
900.113	4561
900.232	4634
900.352	4535
900.472	4462
900.591	4440
900.711	4523
900.83	4390
900.95	4615
901.069	4656
901.189	4569
901.308	4371
901.427	4314
901.546	4413
901.665	4424
901.784	4531
901.904	4405
902.023	4314
902.141	4238
902.26	4173
902.379	4329
902.498	4257
902.617	4211
902.735	4413
902.854	4379
902.973	4371
903.091	4173
903.21	4223
903.328	4280
903.446	4257
903.565	4299
903.683	4386
903.801	4280
903.919	4356
904.038	4405
904.156	4375
904.274	4424
904.392	4436
904.51	4417
904.627	4459
904.745	4573
904.863	4580
904.981	4371
905.098	4272
905.216	4390
905.334	4436
905.451	4451
905.569	4413
905.686	4546
905.803	4531
905.921	4440
906.038	4489
906.155	4436
906.272	4394
906.389	4459
906.506	4318
906.623	4383
906.74	4383
906.857	4306
906.974	4424
907.091	4558
907.208	4675
907.324	4645
907.441	4474
907.557	4398
907.674	4322
907.79	4329
907.907	4394
908.023	4523
908.139	4489
908.256	4443
908.372	4462
908.488	4436
908.604	4341
908.72	4287
908.836	4383
908.952	4409
909.068	4436
909.184	4580
909.3	4500
909.415	4573
909.531	4565
909.647	4352
909.762	4409
909.878	4341
909.993	4409
910.108	4398
910.224	4428
910.339	4451
910.454	4409
910.57	4379
910.685	4329
910.8	4641
910.915	4558
911.03	4516
911.145	4356
911.259	4325
911.374	4379
911.489	4299
911.604	4344
911.718	4158
911.833	4207
911.947	4067
912.062	3991
912.176	4192
912.291	4223
912.405	4219
912.519	4489
912.633	4508
912.748	4363
912.862	4360
912.976	4238
913.09	4082
913.204	4177
913.318	4257
913.431	4432
913.545	4322
913.659	4451
913.772	4352
913.886	4265
914	4219
914.113	4360
914.226	4417
914.34	4379
914.453	4234
914.566	4405
914.68	4287
914.793	4299
914.906	4131
915.019	4135
915.132	4128
915.245	4173
915.358	4253
915.47	4230
915.583	4219
915.696	4333
915.809	4428
915.921	4405
916.034	4257
916.146	4287
916.259	4188
916.371	4356
916.483	4375
916.595	4272
916.708	4329
916.82	4363
916.932	4318
917.044	4325
917.156	4341
917.268	4169
917.38	4234
917.491	4276
917.603	4314
917.715	4413
917.826	4436
917.938	4341
918.049	4246
918.161	4386
918.272	4523
918.384	4535
918.495	4409
918.606	4295
918.717	4246
918.828	4265
918.939	4341
919.05	4230
919.161	4306
919.272	4109
919.383	4215
919.494	4428
919.604	4622
919.715	4402
919.826	4375
919.936	4424
920.047	4550
920.157	4478
920.267	4664
920.378	4584
920.488	4535
920.598	4702
920.708	4885
920.818	4721
920.928	4736
921.038	4972
921.148	4900
921.258	4611
921.368	4546
921.477	4500
921.587	4417
921.697	4390
921.806	4516
921.916	4424
922.025	4299
922.134	4306
922.244	4268
922.353	4360
922.462	4188
922.571	4135
922.68	3975
922.789	3968
922.898	4029
923.007	4013
923.116	4086
923.224	4067
923.333	4097
923.442	4029
923.55	3941
923.659	3968
923.767	4112
923.876	4010
923.984	4158
924.092	4006
924.201	4101
924.309	4093
924.417	4093
924.525	4044
924.633	4078
924.741	4881
924.849	3926
924.956	4112
925.064	3975
925.172	3911
925.279	3926
925.387	4063
925.494	4048
925.602	4211
925.709	4128
925.816	4029
925.924	4158
926.031	4207
926.138	4200
926.245	4207
926.352	4086
926.459	4219
926.566	4299
926.673	4169
926.779	4051
926.886	4071
926.993	3972
927.099	3991
927.206	3960
927.312	3953
927.419	4021
927.525	4051
927.631	4093
927.737	3945
927.843	3896
927.95	3850
928.056	3956
928.162	4021
928.267	4051
928.373	4683
928.479	4162
928.585	3880
928.69	4029
928.796	4032
928.901	3915
929.007	3873
929.112	3983
929.218	3953
929.323	3964
929.428	3922
929.533	4059
929.638	3922
929.743	3949
929.848	4013
929.953	3975
930.058	3949
930.163	3789
930.267	3823
930.372	3964
930.477	3762
930.581	4120
930.685	3941
930.79	3831
930.894	3846
930.998	3835
931.103	4029
931.207	3679
931.311	3705
931.415	3675
931.519	3519
931.623	3572
