Data from test_V78500241_2381.txt Node
Date: Fri Mar 25 17:05:33 CST 2022
User: usil
Spectrometer: V785-0024
Trigger mode: 0
Integration Time (sec): 4.000000E-1
Scans to average: 1
Nonlinearity correction enabled: false
Boxcar width: 0
Storing dark spectrum: false
XAxis mode: Wavelengths
Number of Pixels in Spectrum: 1024
>>>>>Begin Spectral Data<<<<<
801.071	8103
801.214	8008
801.356	7947
801.499	7830
801.641	7818
801.783	7856
801.926	7989
802.068	7921
802.211	8035
802.353	7947
802.496	7883
802.638	7864
802.78	7841
802.923	7887
803.065	7856
803.208	7936
803.35	7978
803.492	8065
803.635	8126
803.777	7986
803.919	8107
804.061	8484
804.204	8202
804.346	8050
804.488	8031
804.63	8103
804.773	8016
804.915	8123
805.057	8233
805.199	8161
805.341	8256
805.483	8279
805.626	8229
805.768	8187
805.91	8244
806.052	8259
806.194	8058
806.336	8279
806.478	8123
806.62	8096
806.762	8191
806.904	8244
807.046	8419
807.188	8343
807.33	8351
807.472	8339
807.614	8103
807.756	8206
807.898	8043
808.04	7917
808.182	7868
808.324	7925
808.465	7932
808.607	8054
808.749	8130
808.891	8286
809.033	8370
809.174	8244
809.316	8157
809.458	8115
809.6	8107
809.741	8039
809.883	8005
810.025	8233
810.166	8111
810.308	8081
810.45	8012
810.591	7841
810.733	7776
810.875	7658
811.016	7575
811.158	7472
811.299	7590
811.441	7719
811.582	7712
811.724	7613
811.865	7563
812.007	7628
812.148	7556
812.29	7636
812.431	7727
812.573	7932
812.714	7951
812.855	8225
812.997	8183
813.138	8324
813.279	8172
813.421	8065
813.562	7982
813.703	7849
813.845	7795
813.986	7407
814.127	7308
814.268	7282
814.41	7236
814.551	7183
814.692	7149
814.833	7107
814.974	7175
815.115	7107
815.256	6951
815.397	6947
815.539	6993
815.68	6772
815.821	6738
815.962	6909
816.103	6840
816.244	6741
816.385	6612
816.526	6635
816.666	6486
816.807	6369
816.948	6471
817.089	6509
817.23	6471
817.371	6448
817.512	6448
817.653	6384
817.793	6391
817.934	6433
818.075	6429
818.216	6445
818.356	6445
818.497	6334
818.638	6148
818.778	6136
818.919	6163
819.06	6190
819.2	6323
819.341	6353
819.481	6437
819.622	6536
819.762	6757
819.903	6700
820.043	6563
820.184	6623
820.324	6563
820.465	6711
820.605	6681
820.746	6658
820.886	6544
821.026	6722
821.167	6711
821.307	6783
821.447	6829
821.588	6703
821.728	6559
821.868	6513
822.008	6388
822.149	6388
822.289	6418
822.429	6114
822.569	6087
822.709	6140
822.849	5920
822.99	5859
823.13	5961
823.27	5950
823.41	5802
823.55	5844
823.69	5764
823.83	5836
823.97	5688
824.11	5535
824.25	5524
824.389	5596
824.529	5581
824.669	5558
824.809	5623
824.949	5672
825.089	5672
825.228	5589
825.368	5440
825.508	5376
825.648	5421
825.787	5410
825.927	5387
826.067	5357
826.206	5273
826.346	5402
826.485	5341
826.625	5448
826.765	5562
826.904	5425
827.044	5315
827.183	5227
827.323	5143
827.462	5261
827.601	5208
827.741	5204
827.88	5223
828.02	5132
828.159	5239
828.298	5364
828.437	5364
828.577	5284
828.716	5520
828.855	5379
828.994	5185
829.134	5151
829.273	5204
829.412	5147
829.551	5155
829.69	5197
829.829	5242
829.968	5376
830.107	5280
830.246	5269
830.385	5174
830.524	5140
830.663	5071
830.802	5006
830.941	4923
831.08	4858
831.219	5006
831.357	4946
831.496	5178
831.635	4889
831.774	4828
831.913	4866
832.051	4740
832.19	4748
832.329	4873
832.467	4702
832.606	4603
832.744	4782
832.883	4729
833.022	4725
833.16	4824
833.299	4820
833.437	4805
833.576	4881
833.714	4877
833.852	4915
833.991	4953
834.129	4957
834.267	4938
834.406	4930
834.544	4930
834.682	5067
834.821	4972
834.959	5151
835.097	5006
835.235	5132
835.373	5113
835.511	5086
835.65	5033
835.788	5048
835.926	4873
836.064	4877
836.202	4908
836.34	5197
836.478	5208
836.615	5102
836.753	5242
836.891	5288
837.029	5254
837.167	5242
837.305	5155
837.443	5185
837.58	5086
837.718	5231
837.856	5140
837.993	5140
838.131	5189
838.269	5231
838.406	5242
838.544	5162
838.681	5052
838.819	5056
838.956	4889
839.094	4892
839.231	5022
839.369	5079
839.506	5414
839.643	5315
839.781	5052
839.918	5025
840.055	5094
840.193	5102
840.33	5143
840.467	5117
840.604	5174
840.742	5440
840.879	5098
841.016	5136
841.153	5102
841.29	5337
841.427	5360
841.564	5345
841.701	5368
841.838	5303
841.975	5223
842.112	5265
842.249	5102
842.385	5151
842.522	5353
842.659	5189
842.796	5204
842.933	5185
843.069	5170
843.206	5102
843.343	5318
843.479	5223
843.616	5269
843.752	5041
843.889	4976
844.025	5208
844.162	5041
844.298	5212
844.435	5098
844.571	5052
844.708	5216
844.844	5258
844.98	5330
845.117	5292
845.253	5155
845.389	5083
845.525	5174
845.661	5159
845.798	5006
845.934	5147
846.07	5117
846.206	5197
846.342	5178
846.478	5159
846.614	5003
846.75	4942
846.886	4934
847.022	5174
847.158	5102
847.294	5079
847.429	5045
847.565	5045
847.701	5322
847.837	4862
847.972	4820
848.108	4968
848.244	4953
848.379	4805
848.515	4755
848.65	4721
848.786	4767
848.921	4736
849.057	4866
849.192	4885
849.328	4793
849.463	4831
849.598	4816
849.734	4759
849.869	4736
850.004	4611
850.14	4641
850.275	4607
850.41	4554
850.545	4618
850.68	4634
850.815	4637
850.95	4660
851.085	4896
851.22	4763
851.355	4634
851.49	4634
851.625	4618
851.76	4653
851.895	4626
852.03	4577
852.165	4641
852.299	4714
852.434	4755
852.569	4740
852.703	4809
852.838	4835
852.973	4915
853.107	4904
853.242	4729
853.376	4653
853.511	4596
853.645	4641
853.78	4797
853.914	4714
854.048	4664
854.183	4618
854.317	4687
854.451	4866
854.585	4645
854.72	4611
854.854	4706
854.988	4596
855.122	4649
855.256	4535
855.39	4687
855.524	4733
855.658	4702
855.792	4687
855.926	4698
856.06	4752
856.194	4839
856.327	4691
856.461	4649
856.595	4634
856.729	4607
856.862	4733
856.996	4706
857.13	4717
857.263	4790
857.397	4805
857.53	4618
857.664	4660
857.797	4744
857.931	4752
858.064	4660
858.197	4702
858.331	4694
858.464	4672
858.597	4489
858.731	4634
858.864	4615
858.997	4584
859.13	4660
859.263	4679
859.396	4714
859.529	4546
859.662	4607
859.795	4569
859.928	4584
860.061	4752
860.194	4729
860.327	4630
860.46	4592
860.592	4733
860.725	4752
860.858	4740
860.99	4615
861.123	4550
861.256	4538
861.388	4637
861.521	5349
861.653	4493
861.786	4451
861.918	4447
862.05	4497
862.183	4554
862.315	4622
862.447	4668
862.58	4573
862.712	4386
862.844	4318
862.976	4516
863.108	4470
863.24	4790
863.372	4318
863.504	4409
863.636	4417
863.768	4462
863.9	4424
864.032	4348
864.164	4421
864.296	4489
864.428	4565
864.559	4527
864.691	4550
864.823	4561
864.954	4516
865.086	4508
865.217	4481
865.349	4413
865.48	4451
865.612	4493
865.743	4634
865.875	4462
866.006	4432
866.137	4451
866.269	4405
866.4	4459
866.531	4474
866.662	4417
866.793	4398
866.924	4405
867.055	4500
867.186	4474
867.317	4451
867.448	4352
867.579	4356
867.71	4390
867.841	4337
867.972	4470
868.103	4455
868.233	4383
868.364	4470
868.495	4440
868.625	4637
868.756	4805
868.886	4565
869.017	4607
869.147	4759
869.278	4782
869.408	4645
869.539	4649
869.669	4733
869.799	4656
869.929	4759
870.06	4752
870.19	4919
870.32	4923
870.45	4927
870.58	4949
870.71	5060
870.84	5094
870.97	4953
871.1	4911
871.23	5147
871.36	5090
871.489	5018
871.619	5056
871.749	5128
871.879	5155
872.008	5197
872.138	5079
872.267	4957
872.397	4866
872.526	4831
872.656	4721
872.785	4801
872.915	4987
873.044	5064
873.173	4957
873.303	4923
873.432	4968
873.561	4949
873.69	4850
873.819	4873
873.948	4919
874.077	4805
874.206	4767
874.335	4801
874.464	4919
874.593	5136
874.722	4984
874.851	5079
874.979	5109
875.108	5052
875.237	4934
875.365	4870
875.494	4953
875.623	4991
875.751	4843
875.88	4847
876.008	5022
876.136	5079
876.265	5197
876.393	5288
876.521	5269
876.65	5242
876.778	5162
876.906	5094
877.034	5037
877.162	5018
877.29	5033
877.418	5006
877.546	5041
877.674	4987
877.802	5060
877.93	4991
878.058	4923
878.185	4885
878.313	4972
878.441	4889
878.568	4847
878.696	4881
878.824	4972
878.951	4999
879.079	5113
879.206	5277
879.333	5117
879.461	4949
879.588	5014
879.715	5117
879.842	5265
879.97	4987
880.097	4706
880.224	4767
880.351	4828
880.478	4809
880.605	4774
880.732	4725
880.859	5090
880.986	4938
881.112	4889
881.239	4797
881.366	4691
881.493	4603
881.619	4584
881.746	4611
881.872	4691
881.999	4679
882.125	4634
882.252	4797
882.378	4847
882.505	4930
882.631	4805
882.757	4706
882.883	4740
883.01	4706
883.136	4683
883.262	4603
883.388	4634
883.514	4847
883.64	4892
883.766	4771
883.892	4656
884.018	4733
884.143	4911
884.269	4999
884.395	4641
884.52	4622
884.646	4645
884.772	4565
884.897	4561
885.023	4664
885.148	4790
885.274	4847
885.399	4782
885.524	4702
885.65	4698
885.775	4744
885.9	4691
886.025	4812
886.15	4790
886.275	4774
886.4	4656
886.525	4744
886.65	4694
886.775	4664
886.9	4900
887.025	4995
887.149	4835
887.274	4675
887.399	4618
887.523	4565
887.648	4577
887.773	4535
887.897	4786
888.021	4801
888.146	4664
888.27	4793
888.395	4900
888.519	4839
888.643	4858
888.767	4835
888.891	4645
889.015	4653
889.139	4694
889.263	4618
889.387	4778
889.511	4820
889.635	4820
889.759	4592
889.883	4645
890.006	4725
890.13	4835
890.254	4630
890.377	4710
890.501	4577
890.624	4508
890.748	4558
890.871	4569
890.995	4417
891.118	4432
891.241	4519
891.364	4523
891.488	4618
891.611	4474
891.734	4512
891.857	4580
891.98	4565
892.103	4637
892.226	4607
892.349	4519
892.471	4432
892.594	4504
892.717	4603
892.839	4588
892.962	4596
893.085	4675
893.207	4580
893.33	4481
893.452	4546
893.575	4615
893.697	4569
893.819	4717
893.941	4835
894.064	4706
894.186	4588
894.308	4596
894.43	4774
894.552	4831
894.674	4778
894.796	4523
894.918	4516
895.04	4588
895.161	4717
895.283	4656
895.405	4577
895.526	4611
895.648	4714
895.769	4706
895.891	4717
896.012	4721
896.134	4740
896.255	4668
896.376	4653
896.498	4641
896.619	4653
896.74	4588
896.861	4675
896.982	4942
897.103	5060
897.224	4835
897.345	4717
897.466	4679
897.587	4714
897.708	4839
897.828	4812
897.949	4687
898.07	4516
898.19	4603
898.311	4812
898.431	4649
898.552	4714
898.672	4774
898.792	4820
898.913	4774
899.033	4626
899.153	4504
899.273	4440
899.393	4497
899.513	4523
899.633	4527
899.753	4535
899.873	4527
899.993	4596
900.113	4558
900.232	4584
900.352	4558
900.472	4466
900.591	4405
900.711	4478
900.83	4443
900.95	4577
901.069	4694
901.189	4531
901.308	4383
901.427	4268
901.546	4375
901.665	4436
901.784	4497
901.904	4405
902.023	4284
902.141	4177
902.26	4192
902.379	4325
902.498	4234
902.617	4200
902.735	4386
902.854	4386
902.973	4341
903.091	4230
903.21	4249
903.328	4261
903.446	4230
903.565	4230
903.683	4352
903.801	4303
903.919	4417
904.038	4451
904.156	4242
904.274	4443
904.392	4383
904.51	4413
904.627	4478
904.745	4573
904.863	4626
904.981	4386
905.098	4341
905.216	4360
905.334	4421
905.451	4485
905.569	4413
905.686	4542
905.803	4527
905.921	4421
906.038	4573
906.155	4504
906.272	4413
906.389	4470
906.506	4325
906.623	4386
906.74	4409
906.857	4314
906.974	4367
907.091	4554
907.208	4599
907.324	4588
907.441	4474
907.557	4318
907.674	4352
907.79	4295
907.907	4352
908.023	4478
908.139	4459
908.256	4462
908.372	4470
908.488	4459
908.604	4291
908.72	4352
908.836	4424
908.952	4375
909.068	4447
909.184	4558
909.3	4409
909.415	4538
909.531	4535
909.647	4363
909.762	4352
909.878	4265
909.993	4478
910.108	4394
910.224	4405
910.339	4500
910.454	4367
910.57	4363
910.685	4295
910.8	4645
910.915	4626
911.03	4493
911.145	4310
911.259	4314
911.374	4352
911.489	4314
911.604	4291
911.718	4173
911.833	4166
911.947	4086
912.062	4071
912.176	4188
912.291	4230
912.405	4230
912.519	4481
912.633	4523
912.748	4383
912.862	4341
912.976	4219
913.09	4135
913.204	4188
913.318	4249
913.431	4360
913.545	4360
913.659	4466
913.772	4375
913.886	4284
914	4196
914.113	4371
914.226	4428
914.34	4405
914.453	4177
914.566	4424
914.68	4310
914.793	4322
914.906	4109
915.019	4090
915.132	4051
915.245	4162
915.358	4223
915.47	4207
915.583	4303
915.696	4306
915.809	4424
915.921	4390
916.034	4253
916.146	4249
916.259	4215
916.371	4379
916.483	4386
916.595	4287
916.708	4295
916.82	4291
916.932	4344
917.044	4295
917.156	4318
917.268	4234
917.38	4261
917.491	4287
917.603	4295
917.715	4443
917.826	4424
917.938	4405
918.049	4246
918.161	4447
918.272	4592
918.384	4554
918.495	4424
918.606	4287
918.717	4204
918.828	4322
918.939	4363
919.05	4249
919.161	4352
919.272	4162
919.383	4211
919.494	4443
919.604	4618
919.715	4424
919.826	4375
919.936	4402
920.047	4516
920.157	4493
920.267	4698
920.378	4542
920.488	4512
920.598	4717
920.708	4870
920.818	4759
920.928	4782
921.038	4972
921.148	4858
921.258	4675
921.368	4550
921.477	4462
921.587	4443
921.697	4413
921.806	4554
921.916	4474
922.025	4272
922.134	4295
922.244	4227
922.353	4367
922.462	4166
922.571	4116
922.68	4002
922.789	3987
922.898	4051
923.007	3975
923.116	4086
923.224	4105
923.333	4036
923.442	3987
923.55	3949
923.659	4032
923.767	4196
923.876	4029
923.984	4150
924.092	3994
924.201	4036
924.309	4086
924.417	4147
924.525	4055
924.633	4116
924.741	4980
924.849	3884
924.956	4154
925.064	3960
925.172	3911
925.279	4002
925.387	4017
925.494	4082
925.602	4215
925.709	4150
925.816	4029
925.924	4112
926.031	4211
926.138	4150
926.245	4181
926.352	4093
926.459	4272
926.566	4287
926.673	4154
926.779	4116
926.886	4059
926.993	3987
927.099	3979
927.206	3892
927.312	3972
927.419	4063
927.525	4021
927.631	4086
927.737	3983
927.843	3930
927.95	3842
928.056	3926
928.162	4006
928.267	4067
928.373	4649
928.479	4143
928.585	3869
928.69	4021
928.796	4093
928.901	3987
929.007	3823
929.112	4029
929.218	3972
929.323	3911
929.428	3983
929.533	4124
929.638	3918
929.743	3949
929.848	4055
929.953	3972
930.058	3941
930.163	3778
930.267	3838
930.372	4002
930.477	3850
930.581	4112
930.685	3960
930.79	3842
930.894	3911
930.998	3846
931.103	4032
931.207	3724
931.311	3694
931.415	3641
931.519	3526
931.623	3519
