Data from test_V78500241_450.txt Node
Date: Fri Mar 25 16:52:07 CST 2022
User: usil
Spectrometer: V785-0024
Trigger mode: 0
Integration Time (sec): 4.000000E-1
Scans to average: 1
Nonlinearity correction enabled: false
Boxcar width: 0
Storing dark spectrum: false
XAxis mode: Wavelengths
Number of Pixels in Spectrum: 1024
>>>>>Begin Spectral Data<<<<<
801.071	8088
801.214	7921
801.356	7887
801.499	7871
801.641	7856
801.783	7868
801.926	8092
802.068	7982
802.211	8016
802.353	8005
802.496	7871
802.638	7940
802.78	7925
802.923	7967
803.065	7868
803.208	7860
803.35	8008
803.492	8027
803.635	8210
803.777	8024
803.919	8172
804.061	8385
804.204	8134
804.346	8065
804.488	8035
804.63	8096
804.773	8077
804.915	8103
805.057	8317
805.199	8157
805.341	8275
805.483	8252
805.626	8149
805.768	8065
805.91	8115
806.052	8221
806.194	8195
806.336	8298
806.478	8126
806.62	8138
806.762	8130
806.904	8233
807.046	8389
807.188	8301
807.33	8199
807.472	8237
807.614	8168
807.756	8145
807.898	8096
808.04	7879
808.182	7997
808.324	7947
808.465	7974
808.607	8103
808.749	8054
808.891	8290
809.033	8263
809.174	8195
809.316	8107
809.458	8088
809.6	8077
809.741	8027
809.883	8065
810.025	8134
810.166	8130
810.308	8096
810.45	7989
810.591	7913
810.733	7734
810.875	7738
811.016	7552
811.158	7457
811.299	7563
811.441	7803
811.582	7757
811.724	7643
811.865	7575
812.007	7624
812.148	7586
812.29	7636
812.431	7719
812.573	7951
812.714	8035
812.855	8134
812.997	8282
813.138	8298
813.279	8233
813.421	8142
813.562	8027
813.703	7955
813.845	7852
813.986	7533
814.127	7400
814.268	7346
814.41	7274
814.551	7244
814.692	7183
814.833	7126
814.974	7133
815.115	7129
815.256	6943
815.397	6970
815.539	7004
815.68	6878
815.821	6837
815.962	6928
816.103	6829
816.244	6745
816.385	6665
816.526	6639
816.666	6540
816.807	6384
816.948	6445
817.089	6460
817.23	6460
817.371	6410
817.512	6391
817.653	6426
817.793	6399
817.934	6494
818.075	6479
818.216	6509
818.356	6410
818.497	6258
818.638	6175
818.778	6258
818.919	6140
819.06	6239
819.2	6350
819.341	6350
819.481	6331
819.622	6578
819.762	6768
819.903	6806
820.043	6627
820.184	6620
820.324	6646
820.465	6684
820.605	6646
820.746	6578
820.886	6536
821.026	6711
821.167	6738
821.307	6791
821.447	6806
821.588	6642
821.728	6547
821.868	6551
822.008	6346
822.149	6391
822.289	6399
822.429	6194
822.569	6163
822.709	6114
822.849	5912
822.99	5916
823.13	5942
823.27	5923
823.41	5783
823.55	5779
823.69	5764
823.83	5878
823.97	5695
824.11	5562
824.25	5627
824.389	5589
824.529	5649
824.669	5600
824.809	5623
824.949	5726
825.089	5657
825.228	5604
825.368	5395
825.508	5330
825.648	5364
825.787	5368
825.927	5421
826.067	5334
826.206	5349
826.346	5425
826.485	5429
826.625	5463
826.765	5619
826.904	5486
827.044	5269
827.183	5185
827.323	5159
827.462	5242
827.601	5189
827.741	5223
827.88	5273
828.02	5174
828.159	5246
828.298	5299
828.437	5379
828.577	5296
828.716	5490
828.855	5299
828.994	5170
829.134	5239
829.273	5254
829.412	5140
829.551	5094
829.69	5212
829.829	5231
829.968	5406
830.107	5280
830.246	5284
830.385	5147
830.524	5197
830.663	5056
830.802	5037
830.941	4949
831.08	4873
831.219	5018
831.357	4991
831.496	5132
831.635	4953
831.774	4870
831.913	4862
832.051	4748
832.19	4736
832.329	4828
832.467	4820
832.606	4649
832.744	4717
832.883	4748
833.022	4706
833.16	4805
833.299	4866
833.437	4835
833.576	4885
833.714	4919
833.852	4938
833.991	4889
834.129	4987
834.267	4953
834.406	4908
834.544	5029
834.682	4987
834.821	4999
834.959	5174
835.097	5041
835.235	5170
835.373	5105
835.511	5159
835.65	5033
835.788	5037
835.926	4892
836.064	4911
836.202	4934
836.34	5181
836.478	5204
836.615	5128
836.753	5220
836.891	5307
837.029	5261
837.167	5170
837.305	5159
837.443	5140
837.58	5075
837.718	5280
837.856	5197
837.993	5178
838.131	5258
838.269	5227
838.406	5231
838.544	5235
838.681	5056
838.819	4976
838.956	4934
839.094	4919
839.231	5003
839.369	5117
839.506	5406
839.643	5185
839.781	5086
839.918	5006
840.055	5102
840.193	5079
840.33	5090
840.467	5124
840.604	5189
840.742	5452
840.879	5056
841.016	5132
841.153	5189
841.29	5383
841.427	5368
841.564	5315
841.701	5345
841.838	5258
841.975	5193
842.112	5322
842.249	5159
842.385	5140
842.522	5337
842.659	5170
842.796	5174
842.933	5201
843.069	5193
843.206	5151
843.343	5322
843.479	5216
843.616	5337
843.752	5045
843.889	5010
844.025	5216
844.162	5086
844.298	5197
844.435	5071
844.571	5071
844.708	5261
844.844	5334
844.98	5337
845.117	5273
845.253	5166
845.389	5071
845.525	5143
845.661	5155
845.798	5113
845.934	5140
846.07	5086
846.206	5258
846.342	5280
846.478	5185
846.614	5045
846.75	4965
846.886	4946
847.022	5162
847.158	5060
847.294	5083
847.429	5170
847.565	5041
847.701	5330
847.837	4934
847.972	4850
848.108	4980
848.244	4957
848.379	4812
848.515	4736
848.65	4763
848.786	4752
848.921	4812
849.057	4866
849.192	4949
849.328	4790
849.463	4854
849.598	4771
849.734	4740
849.869	4691
850.004	4679
850.14	4660
850.275	4634
850.41	4542
850.545	4569
850.68	4645
850.815	4630
850.95	4645
851.085	4858
851.22	4759
851.355	4687
851.49	4641
851.625	4660
851.76	4641
851.895	4569
852.03	4527
852.165	4622
852.299	4778
852.434	4816
852.569	4771
852.703	4778
852.838	4797
852.973	4957
853.107	4923
853.242	4778
853.376	4706
853.511	4615
853.645	4637
853.78	4839
853.914	4675
854.048	4675
854.183	4660
854.317	4740
854.451	4843
854.585	4736
854.72	4653
854.854	4729
854.988	4573
855.122	4615
855.256	4558
855.39	4618
855.524	4755
855.658	4679
855.792	4733
855.926	4748
856.06	4752
856.194	4854
856.327	4698
856.461	4580
856.595	4626
856.729	4660
856.862	4736
856.996	4721
857.13	4778
857.263	4755
857.397	4797
857.53	4672
857.664	4706
857.797	4782
857.931	4824
858.064	4710
858.197	4790
858.331	4656
858.464	4664
858.597	4565
858.731	4626
858.864	4668
858.997	4588
859.13	4660
859.263	4672
859.396	4744
859.529	4611
859.662	4584
859.795	4565
859.928	4603
860.061	4774
860.194	4740
860.327	4611
860.46	4588
860.592	4694
860.725	4725
860.858	4740
860.99	4584
861.123	4538
861.256	4565
861.388	4611
861.521	5452
861.653	4516
861.786	4500
861.918	4443
862.05	4550
862.183	4546
862.315	4607
862.447	4664
862.58	4546
862.712	4447
862.844	4303
862.976	4462
863.108	4523
863.24	4820
863.372	4348
863.504	4394
863.636	4409
863.768	4493
863.9	4481
864.032	4394
864.164	4409
864.296	4443
864.428	4565
864.559	4588
864.691	4554
864.823	4538
864.954	4527
865.086	4516
865.217	4432
865.349	4398
865.48	4485
865.612	4519
865.743	4618
865.875	4478
866.006	4470
866.137	4462
866.269	4474
866.4	4527
866.531	4402
866.662	4409
866.793	4432
866.924	4436
867.055	4512
867.186	4497
867.317	4413
867.448	4363
867.579	4413
867.71	4417
867.841	4417
867.972	4481
868.103	4470
868.233	4451
868.364	4466
868.495	4500
868.625	4672
868.756	4774
868.886	4542
869.017	4687
869.147	4759
869.278	4744
869.408	4630
869.539	4656
869.669	4733
869.799	4660
869.929	4755
870.06	4755
870.19	4919
870.32	4934
870.45	4930
870.58	5041
870.71	5128
870.84	5117
870.97	4942
871.1	4919
871.23	5143
871.36	5159
871.489	5075
871.619	5109
871.749	5109
871.879	5162
872.008	5140
872.138	5079
872.267	5029
872.397	4889
872.526	4786
872.656	4736
872.785	4774
872.915	4942
873.044	5083
873.173	4953
873.303	5003
873.432	4927
873.561	4980
873.69	4854
873.819	4900
873.948	4934
874.077	4885
874.206	4793
874.335	4843
874.464	4968
874.593	5014
874.722	4927
874.851	5121
874.979	5075
875.108	5048
875.237	4911
875.365	4850
875.494	4900
875.623	4987
875.751	4877
875.88	4881
876.008	4968
876.136	5060
876.265	5204
876.393	5326
876.521	5239
876.65	5280
876.778	5178
876.906	5060
877.034	5033
877.162	5086
877.29	5014
877.418	5064
877.546	5098
877.674	4980
877.802	5052
877.93	5090
878.058	4972
878.185	4870
878.313	4987
878.441	4953
878.568	4797
878.696	4904
878.824	4949
878.951	5003
879.079	5128
879.206	5349
879.333	5105
879.461	5018
879.588	5014
879.715	5166
879.842	5197
879.97	5029
880.097	4782
880.224	4748
880.351	4816
880.478	4881
880.605	4801
880.732	4793
880.859	5071
880.986	4923
881.112	4919
881.239	4759
881.366	4656
881.493	4596
881.619	4618
881.746	4656
881.872	4702
881.999	4630
882.125	4660
882.252	4805
882.378	4847
882.505	4976
882.631	4786
882.757	4645
882.883	4702
883.01	4725
883.136	4675
883.262	4611
883.388	4622
883.514	4782
883.64	4866
883.766	4839
883.892	4679
884.018	4767
884.143	4896
884.269	5003
884.395	4736
884.52	4618
884.646	4698
884.772	4558
884.897	4573
885.023	4660
885.148	4793
885.274	4862
885.399	4824
885.524	4729
885.65	4672
885.775	4759
885.9	4706
886.025	4854
886.15	4771
886.275	4717
886.4	4615
886.525	4729
886.65	4706
886.775	4683
886.9	4896
887.025	5037
887.149	4809
887.274	4656
887.399	4584
887.523	4607
887.648	4580
887.773	4584
887.897	4790
888.021	4790
888.146	4679
888.27	4839
888.395	4923
888.519	4782
888.643	4793
888.767	4824
888.891	4637
889.015	4622
889.139	4649
889.263	4596
889.387	4782
889.511	4892
889.635	4816
889.759	4603
889.883	4653
890.006	4759
890.13	4850
890.254	4626
890.377	4649
890.501	4523
890.624	4474
890.748	4577
890.871	4516
890.995	4455
891.118	4371
891.241	4538
891.364	4481
891.488	4660
891.611	4500
891.734	4542
891.857	4607
891.98	4561
892.103	4630
892.226	4615
892.349	4538
892.471	4459
892.594	4531
892.717	4596
892.839	4599
892.962	4599
893.085	4679
893.207	4573
893.33	4481
893.452	4516
893.575	4672
893.697	4565
893.819	4744
893.941	4847
894.064	4782
894.186	4565
894.308	4558
894.43	4717
894.552	4828
894.674	4744
894.796	4561
894.918	4577
895.04	4573
895.161	4683
895.283	4660
895.405	4596
895.526	4664
895.648	4694
895.769	4714
895.891	4683
896.012	4782
896.134	4717
896.255	4626
896.376	4668
896.498	4630
896.619	4714
896.74	4611
896.861	4641
896.982	4900
897.103	5102
897.224	4831
897.345	4774
897.466	4664
897.587	4736
897.708	4892
897.828	4786
897.949	4656
898.07	4599
898.19	4645
898.311	4835
898.431	4672
898.552	4725
898.672	4835
898.792	4786
898.913	4717
899.033	4641
899.153	4542
899.273	4409
899.393	4504
899.513	4599
899.633	4535
899.753	4527
899.873	4569
899.993	4580
900.113	4580
900.232	4626
900.352	4546
900.472	4523
900.591	4409
900.711	4508
900.83	4470
900.95	4580
901.069	4683
901.189	4508
901.308	4371
901.427	4333
901.546	4371
901.665	4478
901.784	4519
901.904	4390
902.023	4348
902.141	4207
902.26	4188
902.379	4303
902.498	4265
902.617	4230
902.735	4428
902.854	4390
902.973	4390
903.091	4223
903.21	4261
903.328	4314
903.446	4261
903.565	4295
903.683	4337
903.801	4329
903.919	4398
904.038	4409
904.156	4291
904.274	4443
904.392	4402
904.51	4417
904.627	4478
904.745	4565
904.863	4607
904.981	4424
905.098	4318
905.216	4348
905.334	4421
905.451	4466
905.569	4413
905.686	4603
905.803	4573
905.921	4405
906.038	4516
906.155	4497
906.272	4417
906.389	4466
906.506	4363
906.623	4363
906.74	4390
906.857	4344
906.974	4363
907.091	4538
907.208	4702
907.324	4592
907.441	4489
907.557	4337
907.674	4356
907.79	4299
907.907	4398
908.023	4466
908.139	4466
908.256	4428
908.372	4424
908.488	4432
908.604	4344
908.72	4348
908.836	4363
908.952	4402
909.068	4440
909.184	4592
909.3	4466
909.415	4611
909.531	4584
909.647	4356
909.762	4344
909.878	4356
909.993	4447
910.108	4383
910.224	4402
910.339	4478
910.454	4375
910.57	4379
910.685	4333
910.8	4660
910.915	4599
911.03	4508
911.145	4356
911.259	4344
911.374	4405
911.489	4341
911.604	4291
911.718	4177
911.833	4188
911.947	4074
912.062	4074
912.176	4207
912.291	4219
912.405	4227
912.519	4432
912.633	4546
912.748	4402
912.862	4322
912.976	4230
913.09	4120
913.204	4166
913.318	4242
913.431	4371
913.545	4386
913.659	4436
913.772	4352
913.886	4246
914	4227
914.113	4344
914.226	4436
914.34	4402
914.453	4207
914.566	4447
914.68	4360
914.793	4280
914.906	4154
915.019	4101
915.132	4116
915.245	4219
915.358	4230
915.47	4284
915.583	4276
915.696	4265
915.809	4481
915.921	4424
916.034	4272
916.146	4268
916.259	4238
916.371	4405
916.483	4363
916.595	4261
916.708	4352
916.82	4322
916.932	4341
917.044	4333
917.156	4325
917.268	4230
917.38	4287
917.491	4325
917.603	4280
917.715	4455
917.826	4451
917.938	4360
918.049	4268
918.161	4386
918.272	4542
918.384	4550
918.495	4455
918.606	4261
918.717	4253
918.828	4310
918.939	4375
919.05	4276
919.161	4348
919.272	4166
919.383	4257
919.494	4428
919.604	4603
919.715	4440
919.826	4348
919.936	4470
920.047	4493
920.157	4481
920.267	4687
920.378	4538
920.488	4474
920.598	4729
920.708	4866
920.818	4714
920.928	4755
921.038	4984
921.148	4927
921.258	4645
921.368	4561
921.477	4508
921.587	4451
921.697	4375
921.806	4538
921.916	4428
922.025	4257
922.134	4246
922.244	4211
922.353	4314
922.462	4204
922.571	4105
922.68	3994
922.789	3937
922.898	4063
923.007	3983
923.116	4078
923.224	4078
923.333	4086
923.442	3953
923.55	4002
923.659	4048
923.767	4078
923.876	4017
923.984	4124
924.092	3975
924.201	4093
924.309	4086
924.417	4131
924.525	4082
924.633	4067
924.741	5064
924.849	3949
924.956	4147
925.064	3945
925.172	3964
925.279	3987
925.387	4044
925.494	4086
925.602	4246
925.709	4196
925.816	4025
925.924	4116
926.031	4196
926.138	4150
926.245	4207
926.352	4048
926.459	4261
926.566	4287
926.673	4166
926.779	4055
926.886	4109
926.993	3964
927.099	3964
927.206	3941
927.312	3918
927.419	4048
927.525	4063
927.631	4071
927.737	4021
927.843	3960
927.95	3827
928.056	3975
928.162	4013
928.267	4063
928.373	4649
928.479	4147
928.585	3892
928.69	4036
928.796	4051
928.901	3964
929.007	3861
929.112	4002
929.218	4021
929.323	3964
929.428	3949
929.533	4078
929.638	3915
929.743	3960
929.848	4112
929.953	4029
930.058	3949
930.163	3823
930.267	3842
930.372	3956
930.477	3804
930.581	4086
930.685	3964
930.79	3804
930.894	3918
930.998	3884
931.103	4063
931.207	3698
931.311	3717
931.415	3682
931.519	3538
931.623	3564
