Data from test_V78500241_378.txt Node
Date: Fri Mar 25 16:51:37 CST 2022
User: usil
Spectrometer: V785-0024
Trigger mode: 0
Integration Time (sec): 4.000000E-1
Scans to average: 1
Nonlinearity correction enabled: false
Boxcar width: 0
Storing dark spectrum: false
XAxis mode: Wavelengths
Number of Pixels in Spectrum: 1024
>>>>>Begin Spectral Data<<<<<
801.071	8111
801.214	8065
801.356	7970
801.499	7913
801.641	7788
801.783	7841
801.926	8001
802.068	7986
802.211	8001
802.353	8073
802.496	7944
802.638	7879
802.78	7974
802.923	7993
803.065	7906
803.208	7925
803.35	7989
803.492	8126
803.635	8119
803.777	7993
803.919	8164
804.061	8450
804.204	8172
804.346	8096
804.488	7898
804.63	8107
804.773	8031
804.915	8145
805.057	8301
805.199	8176
805.341	8187
805.483	8328
805.626	8176
805.768	8077
805.91	8081
806.052	8244
806.194	8138
806.336	8336
806.478	8180
806.62	8153
806.762	8126
806.904	8351
807.046	8492
807.188	8366
807.33	8259
807.472	8309
807.614	8145
807.756	8244
807.898	8126
808.04	7936
808.182	7921
808.324	7970
808.465	8027
808.607	8092
808.749	8134
808.891	8180
809.033	8301
809.174	8263
809.316	8145
809.458	8081
809.6	8008
809.741	8081
809.883	8058
810.025	8168
810.166	8130
810.308	8039
810.45	8016
810.591	7909
810.733	7849
810.875	7689
811.016	7552
811.158	7571
811.299	7723
811.441	7837
811.582	7845
811.724	7689
811.865	7655
812.007	7655
812.148	7609
812.29	7601
812.431	7780
812.573	7955
812.714	8024
812.855	8149
812.997	8313
813.138	8267
813.279	8191
813.421	8176
813.562	8123
813.703	7951
813.845	7849
813.986	7567
814.127	7324
814.268	7278
814.41	7232
814.551	7244
814.692	7225
814.833	7145
814.974	7133
815.115	7179
815.256	6935
815.397	6916
815.539	6920
815.68	6863
815.821	6818
815.962	6932
816.103	6882
816.244	6787
816.385	6677
816.526	6692
816.666	6582
816.807	6395
816.948	6528
817.089	6464
817.23	6486
817.371	6426
817.512	6369
817.653	6403
817.793	6448
817.934	6471
818.075	6464
818.216	6494
818.356	6407
818.497	6277
818.638	6144
818.778	6205
818.919	6178
819.06	6190
819.2	6331
819.341	6346
819.481	6445
819.622	6532
819.762	6806
819.903	6738
820.043	6631
820.184	6604
820.324	6669
820.465	6715
820.605	6673
820.746	6623
820.886	6540
821.026	6722
821.167	6715
821.307	6897
821.447	6787
821.588	6700
821.728	6578
821.868	6555
822.008	6289
822.149	6414
822.289	6433
822.429	6163
822.569	6117
822.709	6182
822.849	6030
822.99	5992
823.13	5942
823.27	5939
823.41	5885
823.55	5821
823.69	5745
823.83	5832
823.97	5688
824.11	5581
824.25	5505
824.389	5619
824.529	5668
824.669	5547
824.809	5691
824.949	5649
825.089	5668
825.228	5585
825.368	5417
825.508	5334
825.648	5364
825.787	5417
825.927	5421
826.067	5364
826.206	5315
826.346	5417
826.485	5467
826.625	5474
826.765	5558
826.904	5516
827.044	5250
827.183	5246
827.323	5220
827.462	5277
827.601	5185
827.741	5231
827.88	5246
828.02	5102
828.159	5242
828.298	5318
828.437	5387
828.577	5395
828.716	5528
828.855	5391
828.994	5170
829.134	5208
829.273	5261
829.412	5166
829.551	5147
829.69	5212
829.829	5284
829.968	5372
830.107	5273
830.246	5307
830.385	5204
830.524	5174
830.663	5083
830.802	4961
830.941	4923
831.08	4866
831.219	4965
831.357	4980
831.496	5143
831.635	4991
831.774	4870
831.913	4877
832.051	4744
832.19	4816
832.329	4873
832.467	4736
832.606	4618
832.744	4736
832.883	4744
833.022	4748
833.16	4824
833.299	4820
833.437	4820
833.576	4835
833.714	4854
833.852	4881
833.991	4976
834.129	5003
834.267	4953
834.406	4942
834.544	4991
834.682	5006
834.821	5018
834.959	5197
835.097	5006
835.235	5140
835.373	5109
835.511	5140
835.65	5022
835.788	5071
835.926	4889
836.064	4938
836.202	4923
836.34	5189
836.478	5227
836.615	5132
836.753	5220
836.891	5296
837.029	5269
837.167	5170
837.305	5178
837.443	5178
837.58	5090
837.718	5258
837.856	5261
837.993	5181
838.131	5216
838.269	5227
838.406	5227
838.544	5212
838.681	5075
838.819	5056
838.956	4934
839.094	4915
839.231	5014
839.369	5064
839.506	5421
839.643	5292
839.781	5060
839.918	5048
840.055	5083
840.193	5170
840.33	5166
840.467	5166
840.604	5208
840.742	5436
840.879	5128
841.016	5105
841.153	5170
841.29	5414
841.427	5368
841.564	5322
841.701	5368
841.838	5280
841.975	5288
842.112	5318
842.249	5178
842.385	5132
842.522	5360
842.659	5193
842.796	5193
842.933	5193
843.069	5185
843.206	5235
843.343	5330
843.479	5193
843.616	5296
843.752	5045
843.889	5060
844.025	5246
844.162	5117
844.298	5284
844.435	5102
844.571	5071
844.708	5170
844.844	5284
844.98	5391
845.117	5292
845.253	5170
845.389	5117
845.525	5143
845.661	5166
845.798	5086
845.934	5185
846.07	5048
846.206	5242
846.342	5311
846.478	5174
846.614	4987
846.75	4987
846.886	5003
847.022	5147
847.158	5014
847.294	5037
847.429	5140
847.565	5090
847.701	5307
847.837	4843
847.972	4850
848.108	4965
848.244	4957
848.379	4774
848.515	4755
848.65	4771
848.786	4710
848.921	4790
849.057	4873
849.192	4877
849.328	4828
849.463	4873
849.598	4778
849.734	4790
849.869	4698
850.004	4653
850.14	4687
850.275	4634
850.41	4558
850.545	4561
850.68	4645
850.815	4656
850.95	4683
851.085	4858
851.22	4763
851.355	4645
851.49	4675
851.625	4607
851.76	4679
851.895	4580
852.03	4538
852.165	4675
852.299	4725
852.434	4812
852.569	4752
852.703	4801
852.838	4866
852.973	5014
853.107	4987
853.242	4721
853.376	4675
853.511	4542
853.645	4634
853.78	4843
853.914	4733
854.048	4702
854.183	4656
854.317	4729
854.451	4877
854.585	4721
854.72	4634
854.854	4778
854.988	4615
855.122	4637
855.256	4565
855.39	4668
855.524	4812
855.658	4687
855.792	4729
855.926	4748
856.06	4782
856.194	4797
856.327	4702
856.461	4630
856.595	4649
856.729	4634
856.862	4744
856.996	4675
857.13	4744
857.263	4790
857.397	4850
857.53	4729
857.664	4752
857.797	4839
857.931	4782
858.064	4767
858.197	4771
858.331	4679
858.464	4653
858.597	4542
858.731	4679
858.864	4660
858.997	4580
859.13	4664
859.263	4740
859.396	4706
859.529	4603
859.662	4588
859.795	4577
859.928	4645
860.061	4763
860.194	4782
860.327	4622
860.46	4554
860.592	4714
860.725	4759
860.858	4782
860.99	4607
861.123	4558
861.256	4550
861.388	4592
861.521	5357
861.653	4554
861.786	4470
861.918	4523
862.05	4565
862.183	4607
862.315	4584
862.447	4672
862.58	4546
862.712	4424
862.844	4360
862.976	4500
863.108	4489
863.24	4755
863.372	4341
863.504	4432
863.636	4424
863.768	4474
863.9	4402
864.032	4337
864.164	4462
864.296	4481
864.428	4531
864.559	4584
864.691	4550
864.823	4516
864.954	4516
865.086	4550
865.217	4421
865.349	4474
865.48	4474
865.612	4500
865.743	4618
865.875	4508
866.006	4440
866.137	4489
866.269	4470
866.4	4417
866.531	4424
866.662	4405
866.793	4413
866.924	4462
867.055	4455
867.186	4504
867.317	4413
867.448	4337
867.579	4386
867.71	4333
867.841	4337
867.972	4493
868.103	4447
868.233	4466
868.364	4443
868.495	4512
868.625	4668
868.756	4790
868.886	4603
869.017	4626
869.147	4782
869.278	4790
869.408	4683
869.539	4603
869.669	4702
869.799	4691
869.929	4733
870.06	4831
870.19	4949
870.32	4866
870.45	4957
870.58	5037
870.71	5140
870.84	5128
870.97	4942
871.1	4919
871.23	5174
871.36	5174
871.489	4968
871.619	5045
871.749	5136
871.879	5086
872.008	5212
872.138	5033
872.267	4991
872.397	4850
872.526	4816
872.656	4774
872.785	4805
872.915	4968
873.044	5033
873.173	4923
873.303	4961
873.432	4972
873.561	4965
873.69	4854
873.819	4923
873.948	4927
874.077	4866
874.206	4793
874.335	4824
874.464	4930
874.593	5140
874.722	4968
874.851	5064
874.979	5136
875.108	5045
875.237	4957
875.365	4885
875.494	4885
875.623	4980
875.751	4885
875.88	4877
876.008	4999
876.136	5033
876.265	5212
876.393	5357
876.521	5265
876.65	5220
876.778	5117
876.906	5075
877.034	5029
877.162	5056
877.29	4987
877.418	5075
877.546	5067
877.674	5033
877.802	5067
877.93	4995
878.058	4927
878.185	4934
878.313	5006
878.441	5006
878.568	4809
878.696	4885
878.824	4968
878.951	5045
879.079	5094
879.206	5254
879.333	5128
879.461	5022
879.588	5045
879.715	5155
879.842	5239
879.97	5003
880.097	4771
880.224	4702
880.351	4763
880.478	4877
880.605	4812
880.732	4782
880.859	5060
880.986	4942
881.112	4961
881.239	4793
881.366	4679
881.493	4607
881.619	4569
881.746	4637
881.872	4675
881.999	4668
882.125	4687
882.252	4820
882.378	4824
882.505	4995
882.631	4820
882.757	4656
882.883	4786
883.01	4729
883.136	4702
883.262	4645
883.388	4584
883.514	4812
883.64	4877
883.766	4801
883.892	4672
884.018	4698
884.143	4866
884.269	5037
884.395	4694
884.52	4668
884.646	4687
884.772	4561
884.897	4592
885.023	4691
885.148	4763
885.274	4885
885.399	4866
885.524	4729
885.65	4710
885.775	4767
885.9	4729
886.025	4835
886.15	4774
886.275	4805
886.4	4679
886.525	4759
886.65	4683
886.775	4752
886.9	4949
887.025	5025
887.149	4805
887.274	4710
887.399	4645
887.523	4603
887.648	4603
887.773	4569
887.897	4748
888.021	4778
888.146	4706
888.27	4771
888.395	4873
888.519	4835
888.643	4793
888.767	4797
888.891	4721
889.015	4641
889.139	4660
889.263	4653
889.387	4755
889.511	4923
889.635	4809
889.759	4634
889.883	4660
890.006	4721
890.13	4850
890.254	4611
890.377	4706
890.501	4637
890.624	4527
890.748	4634
890.871	4493
890.995	4436
891.118	4383
891.241	4561
891.364	4565
891.488	4637
891.611	4535
891.734	4523
891.857	4653
891.98	4622
892.103	4637
892.226	4603
892.349	4508
892.471	4409
892.594	4580
892.717	4611
892.839	4596
892.962	4599
893.085	4717
893.207	4637
893.33	4485
893.452	4569
893.575	4710
893.697	4603
893.819	4786
893.941	4831
894.064	4786
894.186	4535
894.308	4649
894.43	4736
894.552	4850
894.674	4786
894.796	4561
894.918	4618
895.04	4565
895.161	4660
895.283	4694
895.405	4573
895.526	4683
895.648	4679
895.769	4679
895.891	4729
896.012	4717
896.134	4793
896.255	4675
896.376	4656
896.498	4626
896.619	4702
896.74	4611
896.861	4599
896.982	4908
897.103	5071
897.224	4839
897.345	4774
897.466	4641
897.587	4706
897.708	4877
897.828	4752
897.949	4645
898.07	4580
898.19	4649
898.311	4820
898.431	4706
898.552	4748
898.672	4820
898.792	4809
898.913	4736
899.033	4561
899.153	4512
899.273	4462
899.393	4447
899.513	4599
899.633	4497
899.753	4538
899.873	4531
899.993	4645
900.113	4504
900.232	4603
900.352	4516
900.472	4485
900.591	4413
900.711	4440
900.83	4497
900.95	4561
901.069	4679
901.189	4535
901.308	4417
901.427	4341
901.546	4360
901.665	4512
901.784	4538
901.904	4390
902.023	4356
902.141	4147
902.26	4196
902.379	4303
902.498	4234
902.617	4215
902.735	4383
902.854	4432
902.973	4394
903.091	4166
903.21	4211
903.328	4268
903.446	4265
903.565	4242
903.683	4390
903.801	4314
903.919	4383
904.038	4451
904.156	4306
904.274	4474
904.392	4379
904.51	4451
904.627	4451
904.745	4615
904.863	4607
904.981	4371
905.098	4325
905.216	4329
905.334	4424
905.451	4447
905.569	4459
905.686	4542
905.803	4531
905.921	4405
906.038	4569
906.155	4481
906.272	4432
906.389	4432
906.506	4356
906.623	4379
906.74	4417
906.857	4333
906.974	4352
907.091	4565
907.208	4660
907.324	4645
907.441	4523
907.557	4325
907.674	4409
907.79	4310
907.907	4360
908.023	4466
908.139	4447
908.256	4470
908.372	4481
908.488	4432
908.604	4371
908.72	4356
908.836	4417
908.952	4394
909.068	4421
909.184	4558
909.3	4462
909.415	4550
909.531	4558
909.647	4371
909.762	4333
909.878	4344
909.993	4466
910.108	4440
910.224	4394
910.339	4508
910.454	4398
910.57	4360
910.685	4329
910.8	4615
910.915	4596
911.03	4470
911.145	4322
911.259	4360
911.374	4394
911.489	4360
911.604	4280
911.718	4173
911.833	4238
911.947	4036
912.062	4036
912.176	4227
912.291	4242
912.405	4238
912.519	4489
912.633	4519
912.748	4398
912.862	4284
912.976	4219
913.09	4135
913.204	4219
913.318	4253
913.431	4398
913.545	4405
913.659	4398
913.772	4398
913.886	4276
914	4200
914.113	4394
914.226	4421
914.34	4402
914.453	4257
914.566	4432
914.68	4341
914.793	4363
914.906	4181
915.019	4162
915.132	4078
915.245	4268
915.358	4211
915.47	4265
915.583	4314
915.696	4325
915.809	4386
915.921	4436
916.034	4272
916.146	4261
916.259	4234
916.371	4432
916.483	4318
916.595	4306
916.708	4356
916.82	4314
916.932	4341
917.044	4344
917.156	4337
917.268	4227
917.38	4333
917.491	4230
917.603	4322
917.715	4455
917.826	4402
917.938	4325
918.049	4272
918.161	4424
918.272	4561
918.384	4542
918.495	4432
918.606	4299
918.717	4234
918.828	4348
918.939	4344
919.05	4253
919.161	4310
919.272	4173
919.383	4223
919.494	4443
919.604	4653
919.715	4470
919.826	4352
919.936	4398
920.047	4527
920.157	4485
920.267	4679
920.378	4546
920.488	4504
920.598	4725
920.708	4835
920.818	4771
920.928	4748
921.038	4934
921.148	4953
921.258	4626
921.368	4554
921.477	4497
921.587	4470
921.697	4352
921.806	4580
921.916	4462
922.025	4299
922.134	4276
922.244	4211
922.353	4325
922.462	4162
922.571	4116
922.68	4032
922.789	3987
922.898	4048
923.007	4010
923.116	4082
923.224	4093
923.333	4063
923.442	4006
923.55	3991
923.659	4032
923.767	4101
923.876	3998
923.984	4166
924.092	3975
924.201	4048
924.309	4090
924.417	4139
924.525	4078
924.633	4093
924.741	4911
924.849	3926
924.956	4150
925.064	3975
925.172	3899
925.279	3964
925.387	4078
925.494	4040
925.602	4261
925.709	4230
925.816	4063
925.924	4131
926.031	4268
926.138	4181
926.245	4215
926.352	4105
926.459	4265
926.566	4287
926.673	4200
926.779	4105
926.886	4048
926.993	4051
927.099	4040
927.206	3918
927.312	3949
927.419	4017
927.525	4025
927.631	4086
927.737	3998
927.843	3937
927.95	3865
928.056	3987
928.162	4006
928.267	4086
928.373	4710
928.479	4105
928.585	3854
928.69	4036
928.796	4063
928.901	3968
929.007	3880
929.112	4006
929.218	3998
929.323	4013
929.428	3941
929.533	4135
929.638	3915
929.743	3949
929.848	4002
929.953	3991
930.058	3964
930.163	3766
930.267	3819
930.372	3968
930.477	3835
930.581	4120
930.685	3934
930.79	3819
930.894	3911
930.998	3869
931.103	4074
931.207	3679
931.311	3701
931.415	3679
931.519	3515
931.623	3553
