Data from test_V78500241_1557.txt Node
Date: Fri Mar 25 16:59:49 CST 2022
User: usil
Spectrometer: V785-0024
Trigger mode: 0
Integration Time (sec): 4.000000E-1
Scans to average: 1
Nonlinearity correction enabled: false
Boxcar width: 0
Storing dark spectrum: false
XAxis mode: Wavelengths
Number of Pixels in Spectrum: 1024
>>>>>Begin Spectral Data<<<<<
801.071	8031
801.214	8020
801.356	7887
801.499	7852
801.641	7776
801.783	7849
801.926	7894
802.068	7909
802.211	7970
802.353	7978
802.496	7811
802.638	7890
802.78	7936
802.923	7925
803.065	7830
803.208	7906
803.35	7856
803.492	8039
803.635	8123
803.777	7955
803.919	8073
804.061	8400
804.204	8149
804.346	8035
804.488	7909
804.63	8065
804.773	7963
804.915	8092
805.057	8309
805.199	8168
805.341	8195
805.483	8210
805.626	8237
805.768	8195
805.91	8206
806.052	8221
806.194	8096
806.336	8202
806.478	8100
806.62	7982
806.762	8149
806.904	8332
807.046	8488
807.188	8324
807.33	8317
807.472	8336
807.614	8062
807.756	8134
807.898	8020
808.04	7849
808.182	7868
808.324	7902
808.465	7864
808.607	8058
808.749	8058
808.891	8202
809.033	8275
809.174	8202
809.316	8035
809.458	8039
809.6	8031
809.741	8020
809.883	8008
810.025	8096
810.166	8062
810.308	8043
810.45	7963
810.591	7898
810.733	7677
810.875	7605
811.016	7533
811.158	7400
811.299	7571
811.441	7772
811.582	7674
811.724	7586
811.865	7567
812.007	7571
812.148	7575
812.29	7643
812.431	7761
812.573	7845
812.714	8031
812.855	8065
812.997	8206
813.138	8267
813.279	8157
813.421	8088
813.562	7982
813.703	7887
813.845	7742
813.986	7445
814.127	7225
814.268	7168
814.41	7228
814.551	7103
814.692	7240
814.833	7095
814.974	7126
815.115	7122
815.256	6890
815.397	6909
815.539	6966
815.68	6776
815.821	6692
815.962	6840
816.103	6776
816.244	6730
816.385	6585
816.526	6642
816.666	6528
816.807	6403
816.948	6448
817.089	6475
817.23	6483
817.371	6361
817.512	6334
817.653	6410
817.793	6414
817.934	6452
818.075	6479
818.216	6407
818.356	6399
818.497	6209
818.638	6068
818.778	6102
818.919	6136
819.06	6178
819.2	6315
819.341	6323
819.481	6319
819.622	6506
819.762	6658
819.903	6627
820.043	6604
820.184	6559
820.324	6582
820.465	6734
820.605	6623
820.746	6642
820.886	6494
821.026	6673
821.167	6612
821.307	6730
821.447	6749
821.588	6658
821.728	6555
821.868	6509
822.008	6258
822.149	6315
822.289	6323
822.429	6159
822.569	6060
822.709	6098
822.849	5931
822.99	5920
823.13	5878
823.27	5904
823.41	5726
823.55	5729
823.69	5760
823.83	5764
823.97	5630
824.11	5532
824.25	5497
824.389	5532
824.529	5543
824.669	5532
824.809	5619
824.949	5676
825.089	5589
825.228	5482
825.368	5383
825.508	5341
825.648	5349
825.787	5315
825.927	5307
826.067	5277
826.206	5273
826.346	5387
826.485	5406
826.625	5406
826.765	5493
826.904	5463
827.044	5227
827.183	5166
827.323	5159
827.462	5277
827.601	5124
827.741	5193
827.88	5242
828.02	5159
828.159	5185
828.298	5288
828.437	5337
828.577	5250
828.716	5478
828.855	5326
828.994	5151
829.134	5140
829.273	5155
829.412	5117
829.551	5155
829.69	5140
829.829	5201
829.968	5368
830.107	5277
830.246	5280
830.385	5231
830.524	5178
830.663	5098
830.802	4968
830.941	4850
831.08	4866
831.219	4987
831.357	4965
831.496	5136
831.635	4896
831.774	4774
831.913	4847
832.051	4710
832.19	4748
832.329	4820
832.467	4710
832.606	4660
832.744	4687
832.883	4714
833.022	4752
833.16	4759
833.299	4767
833.437	4809
833.576	4854
833.714	4892
833.852	4862
833.991	4870
834.129	4911
834.267	4984
834.406	4881
834.544	4972
834.682	4957
834.821	4965
834.959	5174
835.097	4949
835.235	5102
835.373	5056
835.511	5079
835.65	5048
835.788	5037
835.926	4892
836.064	4885
836.202	4930
836.34	5098
836.478	5204
836.615	5132
836.753	5166
836.891	5254
837.029	5197
837.167	5155
837.305	5170
837.443	5136
837.58	5128
837.718	5250
837.856	5147
837.993	5178
838.131	5227
838.269	5212
838.406	5201
838.544	5136
838.681	5018
838.819	4972
838.956	4831
839.094	4915
839.231	4946
839.369	5064
839.506	5455
839.643	5261
839.781	5037
839.918	5014
840.055	5086
840.193	5060
840.33	5029
840.467	5155
840.604	5143
840.742	5410
840.879	5117
841.016	5025
841.153	5121
841.29	5345
841.427	5296
841.564	5280
841.701	5334
841.838	5280
841.975	5223
842.112	5284
842.249	5121
842.385	5083
842.522	5311
842.659	5159
842.796	5151
842.933	5155
843.069	5174
843.206	5170
843.343	5277
843.479	5185
843.616	5277
843.752	5033
843.889	5018
844.025	5239
844.162	4999
844.298	5212
844.435	5083
844.571	5006
844.708	5204
844.844	5311
844.98	5334
845.117	5269
845.253	5124
845.389	5067
845.525	5132
845.661	5189
845.798	5022
845.934	5136
846.07	5029
846.206	5143
846.342	5284
846.478	5128
846.614	5010
846.75	4968
846.886	4915
847.022	5113
847.158	4995
847.294	5094
847.429	5102
847.565	5041
847.701	5334
847.837	4858
847.972	4847
848.108	5018
848.244	4987
848.379	4729
848.515	4714
848.65	4660
848.786	4786
848.921	4828
849.057	4816
849.192	4877
849.328	4828
849.463	4786
849.598	4763
849.734	4786
849.869	4672
850.004	4637
850.14	4637
850.275	4599
850.41	4500
850.545	4588
850.68	4588
850.815	4596
850.95	4645
851.085	4816
851.22	4702
851.355	4649
851.49	4664
851.625	4596
851.76	4656
851.895	4497
852.03	4504
852.165	4607
852.299	4725
852.434	4763
852.569	4774
852.703	4736
852.838	4801
852.973	4923
853.107	4854
853.242	4710
853.376	4653
853.511	4523
853.645	4607
853.78	4812
853.914	4672
854.048	4683
854.183	4626
854.317	4664
854.451	4847
854.585	4675
854.72	4603
854.854	4714
854.988	4554
855.122	4645
855.256	4489
855.39	4622
855.524	4801
855.658	4675
855.792	4683
855.926	4733
856.06	4717
856.194	4835
856.327	4626
856.461	4626
856.595	4637
856.729	4634
856.862	4725
856.996	4675
857.13	4748
857.263	4733
857.397	4774
857.53	4668
857.664	4740
857.797	4774
857.931	4767
858.064	4675
858.197	4752
858.331	4603
858.464	4630
858.597	4500
858.731	4634
858.864	4615
858.997	4550
859.13	4622
859.263	4672
859.396	4653
859.529	4577
859.662	4561
859.795	4523
859.928	4626
860.061	4736
860.194	4767
860.327	4546
860.46	4508
860.592	4771
860.725	4736
860.858	4683
860.99	4577
861.123	4481
861.256	4588
861.388	4611
861.521	5227
861.653	4478
861.786	4386
861.918	4428
862.05	4512
862.183	4497
862.315	4596
862.447	4637
862.58	4512
862.712	4413
862.844	4371
862.976	4455
863.108	4451
863.24	4752
863.372	4318
863.504	4402
863.636	4394
863.768	4455
863.9	4428
864.032	4402
864.164	4390
864.296	4451
864.428	4554
864.559	4569
864.691	4497
864.823	4538
864.954	4474
865.086	4481
865.217	4424
865.349	4405
865.48	4402
865.612	4508
865.743	4634
865.875	4466
866.006	4371
866.137	4447
866.269	4432
866.4	4447
866.531	4421
866.662	4409
866.793	4360
866.924	4398
867.055	4478
867.186	4424
867.317	4440
867.448	4390
867.579	4341
867.71	4341
867.841	4371
867.972	4417
868.103	4474
868.233	4474
868.364	4413
868.495	4493
868.625	4683
868.756	4698
868.886	4618
869.017	4637
869.147	4721
869.278	4755
869.408	4645
869.539	4622
869.669	4721
869.799	4637
869.929	4729
870.06	4698
870.19	4896
870.32	4881
870.45	4946
870.58	4976
870.71	5083
870.84	5113
870.97	4892
871.1	4866
871.23	5201
871.36	5075
871.489	4991
871.619	5056
871.749	5045
871.879	5075
872.008	5216
872.138	5018
872.267	4991
872.397	4843
872.526	4812
872.656	4679
872.785	4816
872.915	4938
873.044	4980
873.173	4953
873.303	5022
873.432	4976
873.561	4957
873.69	4870
873.819	4835
873.948	4885
874.077	4771
874.206	4748
874.335	4759
874.464	4942
874.593	5010
874.722	4930
874.851	5075
874.979	5037
875.108	5041
875.237	4892
875.365	4854
875.494	4889
875.623	4934
875.751	4797
875.88	4812
876.008	4984
876.136	4976
876.265	5197
876.393	5284
876.521	5231
876.65	5189
876.778	5128
876.906	5056
877.034	5010
877.162	5041
877.29	4991
877.418	5056
877.546	5041
877.674	5003
877.802	5037
877.93	5003
878.058	4942
878.185	4885
878.313	4919
878.441	4877
878.568	4767
878.696	4870
878.824	4889
878.951	5022
879.079	5128
879.206	5273
879.333	5113
879.461	4968
879.588	4980
879.715	5121
879.842	5246
879.97	5003
880.097	4778
880.224	4767
880.351	4759
880.478	4866
880.605	4824
880.732	4736
880.859	5094
880.986	4881
881.112	4915
881.239	4767
881.366	4706
881.493	4634
881.619	4554
881.746	4694
881.872	4584
881.999	4596
882.125	4698
882.252	4759
882.378	4824
882.505	4927
882.631	4740
882.757	4596
882.883	4752
883.01	4755
883.136	4679
883.262	4592
883.388	4630
883.514	4801
883.64	4847
883.766	4767
883.892	4683
884.018	4706
884.143	4923
884.269	4987
884.395	4729
884.52	4569
884.646	4641
884.772	4573
884.897	4504
885.023	4592
885.148	4828
885.274	4885
885.399	4786
885.524	4672
885.65	4664
885.775	4744
885.9	4691
886.025	4847
886.15	4778
886.275	4710
886.4	4626
886.525	4729
886.65	4668
886.775	4694
886.9	4885
887.025	5064
887.149	4839
887.274	4668
887.399	4603
887.523	4596
887.648	4546
887.773	4527
887.897	4748
888.021	4816
888.146	4626
888.27	4759
888.395	4908
888.519	4774
888.643	4763
888.767	4790
888.891	4580
889.015	4573
889.139	4618
889.263	4588
889.387	4763
889.511	4828
889.635	4801
889.759	4588
889.883	4653
890.006	4729
890.13	4797
890.254	4615
890.377	4615
890.501	4500
890.624	4489
890.748	4634
890.871	4531
890.995	4432
891.118	4325
891.241	4519
891.364	4558
891.488	4611
891.611	4504
891.734	4558
891.857	4599
891.98	4580
892.103	4626
892.226	4588
892.349	4508
892.471	4394
892.594	4497
892.717	4565
892.839	4538
892.962	4577
893.085	4694
893.207	4573
893.33	4443
893.452	4550
893.575	4626
893.697	4538
893.819	4790
893.941	4805
894.064	4793
894.186	4603
894.308	4603
894.43	4736
894.552	4809
894.674	4759
894.796	4546
894.918	4573
895.04	4561
895.161	4702
895.283	4618
895.405	4592
895.526	4630
895.648	4694
895.769	4691
895.891	4710
896.012	4744
896.134	4759
896.255	4668
896.376	4641
896.498	4558
896.619	4668
896.74	4611
896.861	4622
896.982	4896
897.103	5033
897.224	4854
897.345	4729
897.466	4664
897.587	4748
897.708	4847
897.828	4736
897.949	4694
898.07	4554
898.19	4653
898.311	4801
898.431	4634
898.552	4748
898.672	4820
898.792	4801
898.913	4694
899.033	4584
899.153	4500
899.273	4405
899.393	4485
899.513	4481
899.633	4455
899.753	4516
899.873	4466
899.993	4588
900.113	4554
900.232	4554
900.352	4504
900.472	4481
900.591	4371
900.711	4493
900.83	4367
900.95	4634
901.069	4679
901.189	4485
901.308	4337
901.427	4314
901.546	4390
901.665	4478
901.784	4531
901.904	4383
902.023	4306
902.141	4162
902.26	4128
902.379	4291
902.498	4234
902.617	4200
902.735	4344
902.854	4390
902.973	4318
903.091	4143
903.21	4204
903.328	4246
903.446	4276
903.565	4238
903.683	4325
903.801	4265
903.919	4394
904.038	4481
904.156	4325
904.274	4421
904.392	4428
904.51	4421
904.627	4481
904.745	4561
904.863	4607
904.981	4413
905.098	4322
905.216	4379
905.334	4428
905.451	4440
905.569	4424
905.686	4565
905.803	4592
905.921	4428
906.038	4554
906.155	4462
906.272	4421
906.389	4447
906.506	4356
906.623	4360
906.74	4436
906.857	4295
906.974	4371
907.091	4588
907.208	4698
907.324	4592
907.441	4561
907.557	4360
907.674	4386
907.79	4352
907.907	4386
908.023	4500
908.139	4546
908.256	4478
908.372	4474
908.488	4459
908.604	4367
908.72	4379
908.836	4394
908.952	4413
909.068	4455
909.184	4630
909.3	4519
909.415	4668
909.531	4622
909.647	4405
909.762	4417
909.878	4371
909.993	4508
910.108	4428
910.224	4413
910.339	4500
910.454	4398
910.57	4424
910.685	4367
910.8	4664
910.915	4592
911.03	4535
911.145	4363
911.259	4424
911.374	4402
911.489	4333
911.604	4299
911.718	4211
911.833	4196
911.947	4124
912.062	4105
912.176	4188
912.291	4276
912.405	4284
912.519	4504
912.633	4531
912.748	4409
912.862	4272
912.976	4246
913.09	4139
913.204	4192
913.318	4287
913.431	4379
913.545	4367
913.659	4462
913.772	4421
913.886	4306
914	4291
914.113	4432
914.226	4443
914.34	4436
914.453	4268
914.566	4428
914.68	4280
914.793	4383
914.906	4200
915.019	4128
915.132	4120
915.245	4196
915.358	4219
915.47	4246
915.583	4280
915.696	4318
915.809	4436
915.921	4417
916.034	4268
916.146	4276
916.259	4287
916.371	4398
916.483	4405
916.595	4291
916.708	4329
916.82	4325
916.932	4386
917.044	4383
917.156	4360
917.268	4280
917.38	4306
917.491	4230
917.603	4367
917.715	4470
917.826	4485
917.938	4360
918.049	4306
918.161	4398
918.272	4554
918.384	4565
918.495	4512
918.606	4322
918.717	4261
918.828	4363
918.939	4383
919.05	4306
919.161	4383
919.272	4177
919.383	4265
919.494	4512
919.604	4653
919.715	4424
919.826	4383
919.936	4394
920.047	4527
920.157	4459
920.267	4744
920.378	4588
920.488	4542
920.598	4721
920.708	4877
920.818	4774
920.928	4752
921.038	4972
921.148	4923
921.258	4641
921.368	4596
921.477	4497
921.587	4531
921.697	4363
921.806	4580
921.916	4424
922.025	4253
922.134	4276
922.244	4287
922.353	4329
922.462	4211
922.571	4204
922.68	4006
922.789	4036
922.898	4002
923.007	4051
923.116	4135
923.224	4097
923.333	4112
923.442	4013
923.55	4017
923.659	4097
923.767	4124
923.876	4040
923.984	4143
924.092	4029
924.201	4131
924.309	4120
924.417	4166
924.525	4135
924.633	4131
924.741	5121
924.849	3956
924.956	4173
925.064	4032
925.172	3953
925.279	4021
925.387	4078
925.494	4055
925.602	4238
925.709	4181
925.816	4109
925.924	4181
926.031	4227
926.138	4158
926.245	4242
926.352	4139
926.459	4272
926.566	4314
926.673	4177
926.779	4055
926.886	4067
926.993	4021
927.099	3949
927.206	3941
927.312	4021
927.419	4078
927.525	4055
927.631	4135
927.737	4025
927.843	3972
927.95	3896
928.056	4032
928.162	4025
928.267	4086
928.373	4607
928.479	4135
928.585	3907
928.69	4059
928.796	4097
928.901	4010
929.007	3918
929.112	4029
929.218	4013
929.323	3953
929.428	3972
929.533	4124
929.638	3915
929.743	3987
929.848	4105
929.953	4040
930.058	3953
930.163	3831
930.267	3823
930.372	3975
930.477	3831
930.581	4135
930.685	3907
930.79	3842
930.894	3915
930.998	3873
931.103	4055
931.207	3762
931.311	3751
931.415	3675
931.519	3542
931.623	3564
