Data from test_V78500241_497.txt Node
Date: Fri Mar 25 16:52:27 CST 2022
User: usil
Spectrometer: V785-0024
Trigger mode: 0
Integration Time (sec): 4.000000E-1
Scans to average: 1
Nonlinearity correction enabled: false
Boxcar width: 0
Storing dark spectrum: false
XAxis mode: Wavelengths
Number of Pixels in Spectrum: 1024
>>>>>Begin Spectral Data<<<<<
801.071	7989
801.214	8027
801.356	7902
801.499	7845
801.641	7826
801.783	7928
801.926	8100
802.068	8096
802.211	8043
802.353	7978
802.496	7894
802.638	7909
802.78	7974
802.923	7936
803.065	7875
803.208	7902
803.35	7974
803.492	8046
803.635	8073
803.777	8062
803.919	8123
804.061	8442
804.204	8130
804.346	8050
804.488	7917
804.63	8065
804.773	8001
804.915	8039
805.057	8279
805.199	8180
805.341	8259
805.483	8282
805.626	8229
805.768	8077
805.91	8115
806.052	8202
806.194	8058
806.336	8309
806.478	8123
806.62	8069
806.762	8119
806.904	8263
807.046	8400
807.188	8370
807.33	8244
807.472	8229
807.614	8233
807.756	8130
807.898	8027
808.04	7913
808.182	7970
808.324	7845
808.465	7932
808.607	7982
808.749	8149
808.891	8168
809.033	8221
809.174	8248
809.316	8031
809.458	8046
809.6	7989
809.741	8046
809.883	8035
810.025	8073
810.166	8065
810.308	8096
810.45	7955
810.591	7917
810.733	7814
810.875	7655
811.016	7476
811.158	7525
811.299	7559
811.441	7723
811.582	7696
811.724	7586
811.865	7609
812.007	7632
812.148	7639
812.29	7597
812.431	7769
812.573	7921
812.714	8058
812.855	8130
812.997	8328
813.138	8351
813.279	8195
813.421	8210
813.562	8012
813.703	7909
813.845	7826
813.986	7464
814.127	7324
814.268	7316
814.41	7278
814.551	7251
814.692	7175
814.833	7069
814.974	7133
815.115	7076
815.256	7038
815.397	6973
815.539	6920
815.68	6806
815.821	6753
815.962	6905
816.103	6825
816.244	6726
816.385	6642
816.526	6669
816.666	6563
816.807	6285
816.948	6456
817.089	6475
817.23	6521
817.371	6388
817.512	6414
817.653	6426
817.793	6365
817.934	6426
818.075	6437
818.216	6486
818.356	6460
818.497	6270
818.638	6076
818.778	6117
818.919	6148
819.06	6163
819.2	6300
819.341	6353
819.481	6350
819.622	6528
819.762	6738
819.903	6700
820.043	6593
820.184	6627
820.324	6627
820.465	6639
820.605	6616
820.746	6650
820.886	6540
821.026	6658
821.167	6681
821.307	6871
821.447	6787
821.588	6658
821.728	6566
821.868	6498
822.008	6304
822.149	6334
822.289	6365
822.429	6171
822.569	6083
822.709	6114
822.849	5923
822.99	5920
823.13	5923
823.27	5958
823.41	5817
823.55	5760
823.69	5783
823.83	5824
823.97	5707
824.11	5539
824.25	5532
824.389	5581
824.529	5634
824.669	5543
824.809	5619
824.949	5699
825.089	5623
825.228	5520
825.368	5440
825.508	5341
825.648	5376
825.787	5410
825.927	5334
826.067	5311
826.206	5315
826.346	5364
826.485	5372
826.625	5448
826.765	5554
826.904	5455
827.044	5273
827.183	5216
827.323	5155
827.462	5235
827.601	5166
827.741	5136
827.88	5212
828.02	5151
828.159	5208
828.298	5280
828.437	5364
828.577	5299
828.716	5535
828.855	5326
828.994	5136
829.134	5185
829.273	5197
829.412	5147
829.551	5147
829.69	5166
829.829	5235
829.968	5452
830.107	5311
830.246	5341
830.385	5132
830.524	5117
830.663	5041
830.802	5006
830.941	4862
831.08	4908
831.219	5003
831.357	4972
831.496	5155
831.635	4953
831.774	4873
831.913	4805
832.051	4725
832.19	4774
832.329	4805
832.467	4691
832.606	4656
832.744	4736
832.883	4717
833.022	4694
833.16	4774
833.299	4786
833.437	4828
833.576	4877
833.714	4900
833.852	4847
833.991	4915
834.129	4968
834.267	4942
834.406	4957
834.544	4991
834.682	4927
834.821	4999
834.959	5147
835.097	5014
835.235	5166
835.373	5086
835.511	5098
835.65	5025
835.788	5018
835.926	4900
836.064	4892
836.202	4957
836.34	5147
836.478	5220
836.615	5109
836.753	5216
836.891	5280
837.029	5265
837.167	5235
837.305	5136
837.443	5174
837.58	5094
837.718	5250
837.856	5204
837.993	5155
838.131	5265
838.269	5189
838.406	5261
838.544	5201
838.681	5014
838.819	5033
838.956	4900
839.094	4953
839.231	4995
839.369	5060
839.506	5429
839.643	5246
839.781	5048
839.918	5045
840.055	5067
840.193	5090
840.33	5147
840.467	5189
840.604	5193
840.742	5452
840.879	5117
841.016	5124
841.153	5162
841.29	5368
841.427	5349
841.564	5318
841.701	5345
841.838	5292
841.975	5246
842.112	5246
842.249	5121
842.385	5102
842.522	5368
842.659	5235
842.796	5178
842.933	5162
843.069	5166
843.206	5189
843.343	5311
843.479	5273
843.616	5296
843.752	5014
843.889	5018
844.025	5246
844.162	5022
844.298	5227
844.435	5090
844.571	5075
844.708	5227
844.844	5284
844.98	5395
845.117	5326
845.253	5094
845.389	5105
845.525	5162
845.661	5136
845.798	5067
845.934	5147
846.07	4999
846.206	5189
846.342	5296
846.478	5197
846.614	4999
846.75	5003
846.886	5014
847.022	5124
847.158	5079
847.294	5090
847.429	5079
847.565	5064
847.701	5357
847.837	4873
847.972	4843
848.108	4961
848.244	4934
848.379	4797
848.515	4771
848.65	4744
848.786	4740
848.921	4809
849.057	4885
849.192	4915
849.328	4801
849.463	4850
849.598	4790
849.734	4801
849.869	4725
850.004	4630
850.14	4672
850.275	4634
850.41	4558
850.545	4573
850.68	4599
850.815	4653
850.95	4656
851.085	4809
851.22	4733
851.355	4683
851.49	4603
851.625	4618
851.76	4611
851.895	4588
852.03	4527
852.165	4679
852.299	4717
852.434	4805
852.569	4752
852.703	4763
852.838	4839
852.973	4934
853.107	4915
853.242	4744
853.376	4683
853.511	4538
853.645	4649
853.78	4828
853.914	4702
854.048	4668
854.183	4641
854.317	4721
854.451	4881
854.585	4660
854.72	4672
854.854	4748
854.988	4626
855.122	4641
855.256	4558
855.39	4706
855.524	4835
855.658	4706
855.792	4725
855.926	4729
856.06	4805
856.194	4820
856.327	4672
856.461	4618
856.595	4618
856.729	4603
856.862	4774
856.996	4668
857.13	4721
857.263	4828
857.397	4809
857.53	4668
857.664	4729
857.797	4774
857.931	4805
858.064	4645
858.197	4782
858.331	4733
858.464	4653
858.597	4554
858.731	4675
858.864	4649
858.997	4577
859.13	4668
859.263	4622
859.396	4683
859.529	4637
859.662	4607
859.795	4611
859.928	4622
860.061	4812
860.194	4759
860.327	4580
860.46	4592
860.592	4771
860.725	4714
860.858	4736
860.99	4558
861.123	4500
861.256	4558
861.388	4607
861.521	5322
861.653	4485
861.786	4451
861.918	4500
862.05	4542
862.183	4558
862.315	4630
862.447	4641
862.58	4535
862.712	4451
862.844	4341
862.976	4508
863.108	4485
863.24	4767
863.372	4390
863.504	4417
863.636	4436
863.768	4481
863.9	4455
864.032	4356
864.164	4432
864.296	4436
864.428	4569
864.559	4542
864.691	4523
864.823	4535
864.954	4493
865.086	4512
865.217	4493
865.349	4417
865.48	4443
865.612	4478
865.743	4645
865.875	4466
866.006	4424
866.137	4504
866.269	4451
866.4	4466
866.531	4417
866.662	4417
866.793	4409
866.924	4398
867.055	4516
867.186	4398
867.317	4383
867.448	4348
867.579	4379
867.71	4356
867.841	4371
867.972	4478
868.103	4462
868.233	4413
868.364	4413
868.495	4538
868.625	4660
868.756	4736
868.886	4615
869.017	4615
869.147	4740
869.278	4748
869.408	4714
869.539	4622
869.669	4717
869.799	4649
869.929	4748
870.06	4755
870.19	5025
870.32	4892
870.45	4938
870.58	4991
870.71	5124
870.84	5109
870.97	4942
871.1	4915
871.23	5143
871.36	5143
871.489	5010
871.619	5025
871.749	5067
871.879	5086
872.008	5140
872.138	5037
872.267	4949
872.397	4892
872.526	4778
872.656	4736
872.785	4793
872.915	4991
873.044	5048
873.173	4923
873.303	4972
873.432	4953
873.561	4957
873.69	4892
873.819	4854
873.948	4911
874.077	4862
874.206	4790
874.335	4752
874.464	4961
874.593	5067
874.722	4915
874.851	5162
874.979	5060
875.108	4968
875.237	4904
875.365	4904
875.494	4793
875.623	4984
875.751	4809
875.88	4843
876.008	4987
876.136	5067
876.265	5227
876.393	5410
876.521	5246
876.65	5235
876.778	5216
876.906	5079
877.034	5064
877.162	5075
877.29	4938
877.418	5090
877.546	5037
877.674	5086
877.802	5037
877.93	5018
878.058	4923
878.185	4854
878.313	4946
878.441	4972
878.568	4771
878.696	4843
878.824	4934
878.951	4968
879.079	5117
879.206	5307
879.333	5056
879.461	5006
879.588	4999
879.715	5124
879.842	5185
879.97	5014
880.097	4793
880.224	4755
880.351	4812
880.478	4831
880.605	4831
880.732	4767
880.859	5105
880.986	4881
881.112	4930
881.239	4744
881.366	4710
881.493	4649
881.619	4611
881.746	4683
881.872	4660
881.999	4679
882.125	4683
882.252	4816
882.378	4812
882.505	4942
882.631	4778
882.757	4710
882.883	4733
883.01	4744
883.136	4694
883.262	4599
883.388	4630
883.514	4805
883.64	4877
883.766	4797
883.892	4683
884.018	4672
884.143	4927
884.269	5029
884.395	4664
884.52	4660
884.646	4626
884.772	4615
884.897	4584
885.023	4672
885.148	4771
885.274	4873
885.399	4782
885.524	4702
885.65	4679
885.775	4793
885.9	4702
886.025	4866
886.15	4790
886.275	4679
886.4	4702
886.525	4721
886.65	4672
886.775	4694
886.9	4946
887.025	5025
887.149	4778
887.274	4664
887.399	4588
887.523	4618
887.648	4615
887.773	4599
887.897	4710
888.021	4790
888.146	4645
888.27	4790
888.395	4911
888.519	4797
888.643	4839
888.767	4801
888.891	4706
889.015	4603
889.139	4607
889.263	4561
889.387	4767
889.511	4870
889.635	4839
889.759	4691
889.883	4622
890.006	4755
890.13	4812
890.254	4634
890.377	4668
890.501	4542
890.624	4500
890.748	4630
890.871	4466
890.995	4462
891.118	4440
891.241	4478
891.364	4558
891.488	4641
891.611	4489
891.734	4542
891.857	4607
891.98	4558
892.103	4641
892.226	4565
892.349	4554
892.471	4478
892.594	4584
892.717	4558
892.839	4554
892.962	4596
893.085	4630
893.207	4580
893.33	4451
893.452	4531
893.575	4675
893.697	4618
893.819	4774
893.941	4843
894.064	4767
894.186	4569
894.308	4577
894.43	4721
894.552	4850
894.674	4786
894.796	4554
894.918	4561
895.04	4565
895.161	4714
895.283	4656
895.405	4580
895.526	4653
895.648	4706
895.769	4698
895.891	4759
896.012	4736
896.134	4698
896.255	4664
896.376	4637
896.498	4611
896.619	4637
896.74	4611
896.861	4672
896.982	4908
897.103	5086
897.224	4854
897.345	4752
897.466	4683
897.587	4725
897.708	4854
897.828	4805
897.949	4656
898.07	4542
898.19	4687
898.311	4828
898.431	4683
898.552	4725
898.672	4873
898.792	4782
898.913	4721
899.033	4626
899.153	4523
899.273	4424
899.393	4527
899.513	4508
899.633	4512
899.753	4554
899.873	4531
899.993	4607
900.113	4527
900.232	4580
900.352	4531
900.472	4459
900.591	4436
900.711	4535
900.83	4421
900.95	4653
901.069	4634
901.189	4546
901.308	4360
901.427	4299
901.546	4348
901.665	4470
901.784	4489
901.904	4344
902.023	4314
902.141	4234
902.26	4120
902.379	4272
902.498	4230
902.617	4192
902.735	4360
902.854	4402
902.973	4367
903.091	4211
903.21	4227
903.328	4261
903.446	4287
903.565	4272
903.683	4322
903.801	4280
903.919	4424
904.038	4481
904.156	4306
904.274	4417
904.392	4421
904.51	4367
904.627	4459
904.745	4569
904.863	4649
904.981	4405
905.098	4329
905.216	4356
905.334	4409
905.451	4398
905.569	4455
905.686	4558
905.803	4558
905.921	4436
906.038	4554
906.155	4466
906.272	4394
906.389	4474
906.506	4348
906.623	4375
906.74	4371
906.857	4341
906.974	4421
907.091	4542
907.208	4714
907.324	4626
907.441	4516
907.557	4333
907.674	4363
907.79	4310
907.907	4394
908.023	4485
908.139	4481
908.256	4436
908.372	4481
908.488	4466
908.604	4398
908.72	4367
908.836	4367
908.952	4386
909.068	4417
909.184	4569
909.3	4504
909.415	4637
909.531	4550
909.647	4363
909.762	4375
909.878	4356
909.993	4421
910.108	4409
910.224	4405
910.339	4481
910.454	4440
910.57	4386
910.685	4318
910.8	4733
910.915	4634
911.03	4481
911.145	4287
911.259	4348
911.374	4383
911.489	4314
911.604	4325
911.718	4207
911.833	4215
911.947	4162
912.062	4071
912.176	4227
912.291	4246
912.405	4280
912.519	4440
912.633	4478
912.748	4352
912.862	4291
912.976	4219
913.09	4093
913.204	4150
913.318	4249
913.431	4379
913.545	4352
913.659	4436
913.772	4394
913.886	4261
914	4276
914.113	4363
914.226	4409
914.34	4360
914.453	4287
914.566	4493
914.68	4310
914.793	4333
914.906	4112
915.019	4143
915.132	4097
915.245	4188
915.358	4207
915.47	4230
915.583	4280
915.696	4333
915.809	4394
915.921	4451
916.034	4291
916.146	4284
916.259	4219
916.371	4383
916.483	4360
916.595	4280
916.708	4352
916.82	4333
916.932	4341
917.044	4265
917.156	4299
917.268	4246
917.38	4310
917.491	4257
917.603	4360
917.715	4409
917.826	4424
917.938	4325
918.049	4242
918.161	4386
918.272	4542
918.384	4577
918.495	4466
918.606	4238
918.717	4257
918.828	4413
918.939	4379
919.05	4253
919.161	4341
919.272	4131
919.383	4211
919.494	4417
919.604	4664
919.715	4451
919.826	4333
919.936	4386
920.047	4500
920.157	4493
920.267	4706
920.378	4546
920.488	4485
920.598	4748
920.708	4858
920.818	4740
920.928	4778
921.038	4938
921.148	4908
921.258	4618
921.368	4554
921.477	4519
921.587	4443
921.697	4386
921.806	4550
921.916	4443
922.025	4257
922.134	4287
922.244	4207
922.353	4329
922.462	4173
922.571	4128
922.68	4013
922.789	3964
922.898	4074
923.007	3991
923.116	4093
923.224	4040
923.333	4128
923.442	3983
923.55	3979
923.659	4025
923.767	4105
923.876	3979
923.984	4169
924.092	4006
924.201	4074
924.309	4112
924.417	4097
924.525	4048
924.633	4128
924.741	5014
924.849	3941
924.956	4105
925.064	3907
925.172	3899
925.279	3972
925.387	4086
925.494	4097
925.602	4211
925.709	4188
925.816	4059
925.924	4116
926.031	4204
926.138	4154
926.245	4196
926.352	4097
926.459	4284
926.566	4318
926.673	4158
926.779	4101
926.886	4101
926.993	3998
927.099	3998
927.206	3968
927.312	3876
927.419	4074
927.525	4044
927.631	4120
927.737	3964
927.843	3960
927.95	3865
928.056	3907
928.162	3972
928.267	4059
928.373	4668
928.479	4105
928.585	3922
928.69	4002
928.796	4086
928.901	3956
929.007	3819
929.112	4006
929.218	4010
929.323	3930
929.428	3975
929.533	4097
929.638	3892
929.743	3941
929.848	4071
929.953	3998
930.058	3937
930.163	3770
930.267	3819
930.372	4044
930.477	3797
930.581	4116
930.685	3953
930.79	3831
930.894	3907
930.998	3911
931.103	4036
931.207	3694
931.311	3682
931.415	3701
931.519	3492
931.623	3515
