Data from test_V78500241_1579.txt Node
Date: Fri Mar 25 16:59:58 CST 2022
User: usil
Spectrometer: V785-0024
Trigger mode: 0
Integration Time (sec): 4.000000E-1
Scans to average: 1
Nonlinearity correction enabled: false
Boxcar width: 0
Storing dark spectrum: false
XAxis mode: Wavelengths
Number of Pixels in Spectrum: 1024
>>>>>Begin Spectral Data<<<<<
801.071	8103
801.214	8016
801.356	7890
801.499	7947
801.641	7818
801.783	7868
801.926	7940
802.068	7951
802.211	7974
802.353	8020
802.496	7917
802.638	7959
802.78	7936
802.923	8008
803.065	7883
803.208	7928
803.35	7944
803.492	8130
803.635	8176
803.777	7986
803.919	8180
804.061	8454
804.204	8229
804.346	8149
804.488	8008
804.63	8100
804.773	8016
804.915	8119
805.057	8332
805.199	8176
805.341	8263
805.483	8282
805.626	8187
805.768	8111
805.91	8305
806.052	8225
806.194	8206
806.336	8267
806.478	8123
806.62	8130
806.762	8225
806.904	8309
807.046	8438
807.188	8389
807.33	8313
807.472	8313
807.614	8218
807.756	8111
807.898	7978
808.04	7982
808.182	7925
808.324	7890
808.465	7978
808.607	8096
808.749	8130
808.891	8221
809.033	8271
809.174	8191
809.316	8065
809.458	8069
809.6	8039
809.741	7982
809.883	8043
810.025	8164
810.166	8096
810.308	8008
810.45	8020
810.591	7898
810.733	7746
810.875	7639
811.016	7567
811.158	7499
811.299	7590
811.441	7700
811.582	7674
811.724	7586
811.865	7601
812.007	7628
812.148	7559
812.29	7662
812.431	7734
812.573	7970
812.714	7963
812.855	8081
812.997	8240
813.138	8301
813.279	8149
813.421	8126
813.562	7989
813.703	7868
813.845	7674
813.986	7460
814.127	7206
814.268	7251
814.41	7206
814.551	7244
814.692	7228
814.833	7076
814.974	7114
815.115	7129
815.256	7004
815.397	7015
815.539	7004
815.68	6852
815.821	6760
815.962	6897
816.103	6772
816.244	6738
816.385	6662
816.526	6635
816.666	6563
816.807	6395
816.948	6460
817.089	6525
817.23	6433
817.371	6410
817.512	6350
817.653	6388
817.793	6384
817.934	6403
818.075	6486
818.216	6464
818.356	6426
818.497	6289
818.638	6117
818.778	6205
818.919	6129
819.06	6106
819.2	6327
819.341	6327
819.481	6407
819.622	6536
819.762	6646
819.903	6719
820.043	6585
820.184	6597
820.324	6582
820.465	6703
820.605	6700
820.746	6623
820.886	6540
821.026	6688
821.167	6673
821.307	6833
821.447	6829
821.588	6700
821.728	6589
821.868	6532
822.008	6346
822.149	6410
822.289	6319
822.429	6209
822.569	6133
822.709	6087
822.849	5927
822.99	5912
823.13	5920
823.27	5958
823.41	5783
823.55	5832
823.69	5851
823.83	5817
823.97	5672
824.11	5528
824.25	5524
824.389	5592
824.529	5649
824.669	5520
824.809	5657
824.949	5646
825.089	5642
825.228	5604
825.368	5417
825.508	5330
825.648	5368
825.787	5410
825.927	5448
826.067	5345
826.206	5334
826.346	5387
826.485	5395
826.625	5414
826.765	5608
826.904	5512
827.044	5280
827.183	5261
827.323	5170
827.462	5239
827.601	5166
827.741	5166
827.88	5280
828.02	5128
828.159	5284
828.298	5284
828.437	5391
828.577	5315
828.716	5520
828.855	5364
828.994	5193
829.134	5136
829.273	5185
829.412	5166
829.551	5124
829.69	5181
829.829	5231
829.968	5376
830.107	5250
830.246	5280
830.385	5235
830.524	5151
830.663	5113
830.802	5029
830.941	4877
831.08	4915
831.219	5064
831.357	5003
831.496	5136
831.635	4953
831.774	4847
831.913	4919
832.051	4740
832.19	4771
832.329	4839
832.467	4729
832.606	4607
832.744	4763
832.883	4740
833.022	4725
833.16	4812
833.299	4805
833.437	4850
833.576	4828
833.714	4820
833.852	4858
833.991	4908
834.129	4991
834.267	4968
834.406	4953
834.544	4999
834.682	4976
834.821	4980
834.959	5201
835.097	4995
835.235	5174
835.373	5113
835.511	5117
835.65	4968
835.788	5022
835.926	4900
836.064	4877
836.202	4900
836.34	5254
836.478	5185
836.615	5124
836.753	5212
836.891	5311
837.029	5280
837.167	5239
837.305	5220
837.443	5159
837.58	5151
837.718	5273
837.856	5189
837.993	5166
838.131	5227
838.269	5235
838.406	5265
838.544	5189
838.681	5010
838.819	5003
838.956	4900
839.094	4911
839.231	4980
839.369	5124
839.506	5414
839.643	5254
839.781	5094
839.918	5003
840.055	5094
840.193	5102
840.33	5083
840.467	5124
840.604	5197
840.742	5395
840.879	5086
841.016	5098
841.153	5132
841.29	5364
841.427	5368
841.564	5337
841.701	5364
841.838	5280
841.975	5273
842.112	5292
842.249	5143
842.385	5102
842.522	5307
842.659	5185
842.796	5109
842.933	5181
843.069	5136
843.206	5151
843.343	5368
843.479	5273
843.616	5239
843.752	5048
843.889	4987
844.025	5242
844.162	5033
844.298	5204
844.435	5086
844.571	5052
844.708	5265
844.844	5307
844.98	5379
845.117	5299
845.253	5178
845.389	5090
845.525	5147
845.661	5204
845.798	5048
845.934	5235
846.07	5064
846.206	5197
846.342	5277
846.478	5159
846.614	5041
846.75	4946
846.886	4927
847.022	5162
847.158	5048
847.294	5098
847.429	5109
847.565	5041
847.701	5334
847.837	4843
847.972	4797
848.108	5003
848.244	4896
848.379	4786
848.515	4778
848.65	4736
848.786	4714
848.921	4812
849.057	4843
849.192	4904
849.328	4831
849.463	4870
849.598	4828
849.734	4790
849.869	4748
850.004	4611
850.14	4687
850.275	4653
850.41	4489
850.545	4603
850.68	4603
850.815	4607
850.95	4641
851.085	4885
851.22	4809
851.355	4710
851.49	4596
851.625	4634
851.76	4656
851.895	4508
852.03	4527
852.165	4641
852.299	4717
852.434	4816
852.569	4755
852.703	4771
852.838	4862
852.973	4908
853.107	4930
853.242	4782
853.376	4740
853.511	4626
853.645	4588
853.78	4790
853.914	4687
854.048	4668
854.183	4679
854.317	4687
854.451	4835
854.585	4611
854.72	4634
854.854	4733
854.988	4660
855.122	4672
855.256	4546
855.39	4641
855.524	4790
855.658	4744
855.792	4710
855.926	4706
856.06	4759
856.194	4835
856.327	4691
856.461	4615
856.595	4618
856.729	4634
856.862	4801
856.996	4721
857.13	4714
857.263	4752
857.397	4805
857.53	4694
857.664	4717
857.797	4763
857.931	4793
858.064	4698
858.197	4763
858.331	4660
858.464	4626
858.597	4554
858.731	4622
858.864	4656
858.997	4558
859.13	4687
859.263	4641
859.396	4675
859.529	4550
859.662	4558
859.795	4531
859.928	4554
860.061	4744
860.194	4752
860.327	4653
860.46	4577
860.592	4717
860.725	4733
860.858	4702
860.99	4546
861.123	4516
861.256	4569
861.388	4592
861.521	5254
861.653	4508
861.786	4432
861.918	4447
862.05	4542
862.183	4565
862.315	4596
862.447	4664
862.58	4535
862.712	4383
862.844	4333
862.976	4497
863.108	4443
863.24	4759
863.372	4398
863.504	4428
863.636	4421
863.768	4466
863.9	4421
864.032	4386
864.164	4352
864.296	4459
864.428	4580
864.559	4558
864.691	4535
864.823	4542
864.954	4428
865.086	4508
865.217	4459
865.349	4436
865.48	4470
865.612	4485
865.743	4660
865.875	4519
866.006	4405
866.137	4481
866.269	4432
866.4	4405
866.531	4470
866.662	4436
866.793	4443
866.924	4386
867.055	4478
867.186	4432
867.317	4436
867.448	4398
867.579	4402
867.71	4421
867.841	4356
867.972	4455
868.103	4451
868.233	4447
868.364	4447
868.495	4474
868.625	4668
868.756	4717
868.886	4554
869.017	4656
869.147	4725
869.278	4801
869.408	4740
869.539	4687
869.669	4706
869.799	4660
869.929	4740
870.06	4740
870.19	4930
870.32	4877
870.45	4911
870.58	5029
870.71	5094
870.84	5090
870.97	4957
871.1	4949
871.23	5113
871.36	5090
871.489	5022
871.619	5041
871.749	5067
871.879	5071
872.008	5181
872.138	5045
872.267	5022
872.397	4870
872.526	4816
872.656	4698
872.785	4790
872.915	4984
873.044	5006
873.173	4923
873.303	4896
873.432	4984
873.561	4987
873.69	4892
873.819	4850
873.948	4911
874.077	4847
874.206	4736
874.335	4862
874.464	4911
874.593	5075
874.722	4972
874.851	5029
874.979	5109
875.108	5018
875.237	4896
875.365	4862
875.494	4896
875.623	4972
875.751	4812
875.88	4934
876.008	5006
876.136	5045
876.265	5185
876.393	5318
876.521	5246
876.65	5261
876.778	5147
876.906	5029
877.034	5060
877.162	5086
877.29	4987
877.418	5094
877.546	5010
877.674	4991
877.802	5022
877.93	4965
878.058	4934
878.185	4889
878.313	4972
878.441	4927
878.568	4774
878.696	4896
878.824	4938
878.951	4980
879.079	5185
879.206	5296
879.333	5048
879.461	5037
879.588	4999
879.715	5067
879.842	5204
879.97	4991
880.097	4786
880.224	4755
880.351	4820
880.478	4839
880.605	4824
880.732	4805
880.859	5090
880.986	4900
881.112	4923
881.239	4843
881.366	4664
881.493	4603
881.619	4565
881.746	4615
881.872	4687
881.999	4641
882.125	4694
882.252	4752
882.378	4793
882.505	4976
882.631	4797
882.757	4656
882.883	4702
883.01	4691
883.136	4611
883.262	4607
883.388	4599
883.514	4805
883.64	4870
883.766	4801
883.892	4641
884.018	4672
884.143	4877
884.269	4999
884.395	4675
884.52	4634
884.646	4656
884.772	4592
884.897	4531
885.023	4668
885.148	4748
885.274	4843
885.399	4744
885.524	4679
885.65	4672
885.775	4740
885.9	4706
886.025	4854
886.15	4801
886.275	4774
886.4	4672
886.525	4710
886.65	4683
886.775	4683
886.9	4946
887.025	5052
887.149	4797
887.274	4630
887.399	4573
887.523	4626
887.648	4637
887.773	4634
887.897	4801
888.021	4763
888.146	4683
888.27	4862
888.395	4923
888.519	4782
888.643	4835
888.767	4820
888.891	4656
889.015	4611
889.139	4618
889.263	4580
889.387	4744
889.511	4877
889.635	4816
889.759	4653
889.883	4653
890.006	4733
890.13	4828
890.254	4569
890.377	4641
890.501	4558
890.624	4519
890.748	4637
890.871	4443
890.995	4459
891.118	4421
891.241	4508
891.364	4519
891.488	4653
891.611	4455
891.734	4516
891.857	4573
891.98	4599
892.103	4630
892.226	4573
892.349	4550
892.471	4451
892.594	4599
892.717	4603
892.839	4558
892.962	4554
893.085	4687
893.207	4599
893.33	4440
893.452	4497
893.575	4641
893.697	4577
893.819	4828
893.941	4839
894.064	4778
894.186	4535
894.308	4588
894.43	4717
894.552	4801
894.674	4725
894.796	4584
894.918	4542
895.04	4527
895.161	4694
895.283	4626
895.405	4569
895.526	4649
895.648	4710
895.769	4687
895.891	4706
896.012	4668
896.134	4725
896.255	4683
896.376	4603
896.498	4645
896.619	4694
896.74	4569
896.861	4664
896.982	4927
897.103	5064
897.224	4805
897.345	4740
897.466	4694
897.587	4748
897.708	4858
897.828	4805
897.949	4691
898.07	4561
898.19	4626
898.311	4816
898.431	4607
898.552	4736
898.672	4828
898.792	4797
898.913	4706
899.033	4580
899.153	4516
899.273	4443
899.393	4497
899.513	4493
899.633	4497
899.753	4512
899.873	4493
899.993	4538
900.113	4554
900.232	4542
900.352	4558
900.472	4485
900.591	4394
900.711	4497
900.83	4409
900.95	4569
901.069	4672
901.189	4542
901.308	4390
901.427	4348
901.546	4409
901.665	4413
901.784	4443
901.904	4375
902.023	4375
902.141	4147
902.26	4147
902.379	4280
902.498	4246
902.617	4246
902.735	4341
902.854	4322
902.973	4333
903.091	4207
903.21	4211
903.328	4257
903.446	4291
903.565	4223
903.683	4386
903.801	4291
903.919	4451
904.038	4436
904.156	4314
904.274	4440
904.392	4360
904.51	4398
904.627	4455
904.745	4599
904.863	4630
904.981	4394
905.098	4310
905.216	4348
905.334	4405
905.451	4436
905.569	4402
905.686	4554
905.803	4546
905.921	4394
906.038	4550
906.155	4497
906.272	4398
906.389	4447
906.506	4379
906.623	4462
906.74	4394
906.857	4303
906.974	4337
907.091	4542
907.208	4645
907.324	4615
907.441	4489
907.557	4268
907.674	4337
907.79	4333
907.907	4375
908.023	4474
908.139	4455
908.256	4466
908.372	4500
908.488	4459
908.604	4325
908.72	4341
908.836	4405
908.952	4383
909.068	4424
909.184	4516
909.3	4519
909.415	4622
909.531	4558
909.647	4322
909.762	4386
909.878	4333
909.993	4421
910.108	4428
910.224	4394
910.339	4440
910.454	4428
910.57	4333
910.685	4314
910.8	4626
910.915	4558
911.03	4443
911.145	4322
911.259	4318
911.374	4390
911.489	4265
911.604	4249
911.718	4143
911.833	4188
911.947	4116
912.062	4010
912.176	4223
912.291	4246
912.405	4284
912.519	4459
912.633	4497
912.748	4356
912.862	4322
912.976	4211
913.09	4128
913.204	4169
913.318	4246
913.431	4413
913.545	4367
913.659	4474
913.772	4371
913.886	4219
914	4223
914.113	4344
914.226	4459
914.34	4398
914.453	4234
914.566	4417
914.68	4367
914.793	4329
914.906	4169
915.019	4120
915.132	4082
915.245	4204
915.358	4200
915.47	4261
915.583	4249
915.696	4299
915.809	4371
915.921	4462
916.034	4261
916.146	4249
916.259	4230
916.371	4337
916.483	4367
916.595	4242
916.708	4348
916.82	4325
916.932	4341
917.044	4337
917.156	4341
917.268	4219
917.38	4234
917.491	4284
917.603	4329
917.715	4417
917.826	4481
917.938	4318
918.049	4265
918.161	4371
918.272	4493
918.384	4573
918.495	4451
918.606	4325
918.717	4219
918.828	4333
918.939	4348
919.05	4280
919.161	4333
919.272	4158
919.383	4185
919.494	4417
919.604	4596
919.715	4440
919.826	4337
919.936	4394
920.047	4523
920.157	4527
920.267	4683
920.378	4481
920.488	4500
920.598	4725
920.708	4889
920.818	4729
920.928	4797
921.038	4927
921.148	4915
921.258	4611
921.368	4561
921.477	4470
921.587	4417
921.697	4360
921.806	4535
921.916	4443
922.025	4242
922.134	4207
922.244	4261
922.353	4318
922.462	4162
922.571	4131
922.68	3975
922.789	3998
922.898	4044
923.007	3960
923.116	4112
923.224	4051
923.333	4063
923.442	4002
923.55	3937
923.659	4032
923.767	4128
923.876	3987
923.984	4109
924.092	3934
924.201	4071
924.309	4082
924.417	4131
924.525	4029
924.633	4131
924.741	4892
924.849	3888
924.956	4105
925.064	3930
925.172	3934
925.279	3937
925.387	4082
925.494	4044
925.602	4196
925.709	4143
925.816	4044
925.924	4101
926.031	4181
926.138	4158
926.245	4211
926.352	4055
926.459	4219
926.566	4325
926.673	4131
926.779	4078
926.886	4082
926.993	3972
927.099	3941
927.206	3930
927.312	3930
927.419	4059
927.525	4010
927.631	4048
927.737	3972
927.843	3941
927.95	3846
928.056	3979
928.162	3930
928.267	4101
928.373	4599
928.479	4082
928.585	3896
928.69	4006
928.796	4025
928.901	3911
929.007	3857
929.112	4013
929.218	3979
929.323	3926
929.428	3915
929.533	4097
929.638	3896
929.743	3975
929.848	4051
929.953	3956
930.058	3953
930.163	3778
930.267	3831
930.372	3956
930.477	3812
930.581	4071
930.685	3876
930.79	3759
930.894	3850
930.998	3861
931.103	4040
931.207	3701
931.311	3656
931.415	3679
931.519	3485
931.623	3530
