Data from test_V78500241_35.txt Node
Date: Fri Mar 25 16:49:14 CST 2022
User: usil
Spectrometer: V785-0024
Trigger mode: 0
Integration Time (sec): 4.000000E-1
Scans to average: 1
Nonlinearity correction enabled: false
Boxcar width: 0
Storing dark spectrum: false
XAxis mode: Wavelengths
Number of Pixels in Spectrum: 1024
>>>>>Begin Spectral Data<<<<<
801.071	8100
801.214	8020
801.356	7936
801.499	7982
801.641	7849
801.783	7890
801.926	8024
802.068	7974
802.211	8016
802.353	8008
802.496	7944
802.638	7921
802.78	7909
802.923	7997
803.065	7906
803.208	7917
803.35	8008
803.492	8073
803.635	8180
803.777	8024
803.919	8138
804.061	8438
804.204	8221
804.346	8027
804.488	7959
804.63	8088
804.773	7997
804.915	8073
805.057	8248
805.199	8176
805.341	8259
805.483	8294
805.626	8225
805.768	8218
805.91	8233
806.052	8290
806.194	8119
806.336	8275
806.478	8176
806.62	8161
806.762	8214
806.904	8248
807.046	8473
807.188	8377
807.33	8370
807.472	8377
807.614	8195
807.756	8202
807.898	7982
808.04	7913
808.182	7902
808.324	7936
808.465	7917
808.607	8088
808.749	8130
808.891	8183
809.033	8339
809.174	8103
809.316	8069
809.458	8126
809.6	7959
809.741	7967
809.883	8050
810.025	8111
810.166	8149
810.308	8024
810.45	8027
810.591	7879
810.733	7811
810.875	7780
811.016	7616
811.158	7559
811.299	7605
811.441	7765
811.582	7776
811.724	7655
811.865	7544
812.007	7628
812.148	7597
812.29	7693
812.431	7757
812.573	7890
812.714	8058
812.855	8161
812.997	8202
813.138	8370
813.279	8221
813.421	8081
813.562	8016
813.703	7978
813.845	7795
813.986	7457
814.127	7324
814.268	7263
814.41	7285
814.551	7202
814.692	7129
814.833	7179
814.974	7129
815.115	7126
815.256	7000
815.397	6935
815.539	6973
815.68	6818
815.821	6791
815.962	6924
816.103	6871
816.244	6787
816.385	6612
816.526	6555
816.666	6528
816.807	6369
816.948	6422
817.089	6483
817.23	6502
817.371	6414
817.512	6433
817.653	6437
817.793	6319
817.934	6452
818.075	6456
818.216	6509
818.356	6391
818.497	6254
818.638	6159
818.778	6201
818.919	6205
819.06	6201
819.2	6327
819.341	6315
819.481	6437
819.622	6555
819.762	6787
819.903	6760
820.043	6642
820.184	6578
820.324	6669
820.465	6757
820.605	6677
820.746	6711
820.886	6551
821.026	6688
821.167	6772
821.307	6810
821.447	6760
821.588	6673
821.728	6620
821.868	6525
822.008	6342
822.149	6388
822.289	6407
822.429	6235
822.569	6167
822.709	6155
822.849	5920
822.99	5973
823.13	5931
823.27	5980
823.41	5760
823.55	5790
823.69	5767
823.83	5851
823.97	5699
824.11	5570
824.25	5566
824.389	5596
824.529	5630
824.669	5551
824.809	5684
824.949	5699
825.089	5653
825.228	5589
825.368	5421
825.508	5379
825.648	5353
825.787	5436
825.927	5425
826.067	5311
826.206	5353
826.346	5357
826.485	5455
826.625	5414
826.765	5589
826.904	5539
827.044	5277
827.183	5181
827.323	5155
827.462	5223
827.601	5239
827.741	5197
827.88	5280
828.02	5170
828.159	5299
828.298	5341
828.437	5402
828.577	5353
828.716	5490
828.855	5414
828.994	5231
829.134	5181
829.273	5258
829.412	5201
829.551	5204
829.69	5250
829.829	5280
829.968	5433
830.107	5330
830.246	5337
830.385	5162
830.524	5212
830.663	5132
830.802	5094
830.941	4896
831.08	4946
831.219	5048
831.357	5071
831.496	5273
831.635	5003
831.774	4949
831.913	4889
832.051	4790
832.19	4771
832.329	4911
832.467	4752
832.606	4740
832.744	4843
832.883	4812
833.022	4870
833.16	4877
833.299	4896
833.437	4870
833.576	4927
833.714	4904
833.852	4957
833.991	4999
834.129	5071
834.267	5033
834.406	5014
834.544	5033
834.682	5045
834.821	4965
834.959	5246
835.097	5006
835.235	5265
835.373	5197
835.511	5197
835.65	5083
835.788	5136
835.926	5003
836.064	4949
836.202	4995
836.34	5277
836.478	5277
836.615	5181
836.753	5296
836.891	5387
837.029	5292
837.167	5261
837.305	5231
837.443	5193
837.58	5178
837.718	5307
837.856	5280
837.993	5273
838.131	5299
838.269	5250
838.406	5322
838.544	5258
838.681	5143
838.819	5117
838.956	4980
839.094	4965
839.231	5048
839.369	5174
839.506	5509
839.643	5376
839.781	5151
839.918	5090
840.055	5212
840.193	5162
840.33	5208
840.467	5174
840.604	5280
840.742	5551
840.879	5102
841.016	5178
841.153	5208
841.29	5421
841.427	5395
841.564	5383
841.701	5455
841.838	5364
841.975	5303
842.112	5345
842.249	5159
842.385	5147
842.522	5478
842.659	5269
842.796	5178
842.933	5277
843.069	5212
843.206	5231
843.343	5326
843.479	5303
843.616	5383
843.752	5117
843.889	5117
844.025	5288
844.162	5132
844.298	5280
844.435	5189
844.571	5170
844.708	5296
844.844	5368
844.98	5444
845.117	5353
845.253	5216
845.389	5162
845.525	5250
845.661	5178
845.798	5136
845.934	5235
846.07	5113
846.206	5231
846.342	5360
846.478	5216
846.614	5105
846.75	5094
846.886	4995
847.022	5239
847.158	5151
847.294	5128
847.429	5162
847.565	5174
847.701	5376
847.837	4923
847.972	4854
848.108	5014
848.244	4961
848.379	4843
848.515	4790
848.65	4790
848.786	4778
848.921	4873
849.057	4908
849.192	4984
849.328	4850
849.463	4927
849.598	4877
849.734	4793
849.869	4774
850.004	4656
850.14	4736
850.275	4634
850.41	4565
850.545	4630
850.68	4653
850.815	4691
850.95	4740
851.085	4900
851.22	4805
851.355	4774
851.49	4660
851.625	4729
851.76	4736
851.895	4675
852.03	4584
852.165	4748
852.299	4790
852.434	4881
852.569	4793
852.703	4870
852.838	4885
852.973	4999
853.107	5025
853.242	4839
853.376	4752
853.511	4615
853.645	4740
853.78	4805
853.914	4812
854.048	4714
854.183	4702
854.317	4763
854.451	4915
854.585	4744
854.72	4706
854.854	4850
854.988	4630
855.122	4721
855.256	4622
855.39	4691
855.524	4873
855.658	4812
855.792	4782
855.926	4759
856.06	4850
856.194	4843
856.327	4725
856.461	4679
856.595	4702
856.729	4740
856.862	4790
856.996	4763
857.13	4805
857.263	4847
857.397	4881
857.53	4710
857.664	4805
857.797	4828
857.931	4866
858.064	4729
858.197	4771
858.331	4694
858.464	4683
858.597	4588
858.731	4687
858.864	4752
858.997	4702
859.13	4748
859.263	4721
859.396	4752
859.529	4615
859.662	4660
859.795	4634
859.928	4664
860.061	4858
860.194	4820
860.327	4691
860.46	4611
860.592	4752
860.725	4755
860.858	4763
860.99	4641
861.123	4561
861.256	4584
861.388	4679
861.521	5440
861.653	4531
861.786	4504
861.918	4478
862.05	4599
862.183	4626
862.315	4706
862.447	4755
862.58	4622
862.712	4451
862.844	4428
862.976	4535
863.108	4504
863.24	4930
863.372	4432
863.504	4466
863.636	4432
863.768	4592
863.9	4512
864.032	4451
864.164	4474
864.296	4542
864.428	4584
864.559	4622
864.691	4565
864.823	4607
864.954	4588
865.086	4573
865.217	4516
865.349	4481
865.48	4462
865.612	4573
865.743	4687
865.875	4584
866.006	4531
866.137	4554
866.269	4481
866.4	4481
866.531	4500
866.662	4474
866.793	4459
866.924	4466
867.055	4519
867.186	4519
867.317	4512
867.448	4428
867.579	4470
867.71	4462
867.841	4405
867.972	4504
868.103	4538
868.233	4440
868.364	4504
868.495	4550
868.625	4721
868.756	4866
868.886	4645
869.017	4679
869.147	4854
869.278	4824
869.408	4733
869.539	4683
869.669	4793
869.799	4721
869.929	4850
870.06	4831
870.19	5018
870.32	5041
870.45	5014
870.58	5067
870.71	5166
870.84	5159
870.97	5029
871.1	4965
871.23	5178
871.36	5174
871.489	5140
871.619	5132
871.749	5178
871.879	5212
872.008	5231
872.138	5128
872.267	5060
872.397	4911
872.526	4938
872.656	4801
872.785	4881
872.915	5041
873.044	5105
873.173	4961
873.303	5048
873.432	5041
873.561	5079
873.69	4919
873.819	4877
873.948	4934
874.077	4919
874.206	4858
874.335	4892
874.464	4987
874.593	5086
874.722	5048
874.851	5201
874.979	5189
875.108	5136
875.237	4980
875.365	4919
875.494	4991
875.623	5079
875.751	4946
875.88	4984
876.008	5056
876.136	5102
876.265	5246
876.393	5376
876.521	5296
876.65	5311
876.778	5261
876.906	5170
877.034	5098
877.162	5094
877.29	5037
877.418	5155
877.546	5124
877.674	5140
877.802	5102
877.93	5052
878.058	5010
878.185	4942
878.313	5064
878.441	4980
878.568	4900
878.696	4965
878.824	4972
878.951	5060
879.079	5235
879.206	5360
879.333	5143
879.461	5022
879.588	5117
879.715	5181
879.842	5303
879.97	5067
880.097	4831
880.224	4839
880.351	4831
880.478	4896
880.605	4843
880.732	4828
880.859	5132
880.986	4972
881.112	4972
881.239	4854
881.366	4740
881.493	4687
881.619	4634
881.746	4702
881.872	4717
881.999	4729
882.125	4687
882.252	4824
882.378	4911
882.505	5033
882.631	4847
882.757	4748
882.883	4786
883.01	4801
883.136	4683
883.262	4653
883.388	4694
883.514	4900
883.64	4885
883.766	4858
883.892	4714
884.018	4809
884.143	4923
884.269	5033
884.395	4748
884.52	4672
884.646	4683
884.772	4622
884.897	4649
885.023	4721
885.148	4843
885.274	4942
885.399	4862
885.524	4774
885.65	4744
885.775	4771
885.9	4793
886.025	4915
886.15	4858
886.275	4786
886.4	4729
886.525	4816
886.65	4763
886.775	4733
886.9	4957
887.025	5155
887.149	4858
887.274	4687
887.399	4630
887.523	4694
887.648	4611
887.773	4637
887.897	4824
888.021	4801
888.146	4725
888.27	4858
888.395	4984
888.519	4881
888.643	4911
888.767	4889
888.891	4710
889.015	4687
889.139	4725
889.263	4668
889.387	4835
889.511	4889
889.635	4885
889.759	4668
889.883	4687
890.006	4793
890.13	4881
890.254	4672
890.377	4702
890.501	4637
890.624	4569
890.748	4668
890.871	4565
890.995	4481
891.118	4455
891.241	4611
891.364	4584
891.488	4740
891.611	4538
891.734	4596
891.857	4687
891.98	4611
892.103	4691
892.226	4672
892.349	4588
892.471	4497
892.594	4584
892.717	4645
892.839	4603
892.962	4626
893.085	4729
893.207	4645
893.33	4519
893.452	4618
893.575	4687
893.697	4645
893.819	4877
893.941	4870
894.064	4847
894.186	4710
894.308	4672
894.43	4812
894.552	4824
894.674	4801
894.796	4615
894.918	4687
895.04	4626
895.161	4755
895.283	4717
895.405	4649
895.526	4733
895.648	4755
895.769	4691
895.891	4752
896.012	4790
896.134	4786
896.255	4736
896.376	4714
896.498	4702
896.619	4725
896.74	4675
896.861	4683
896.982	4980
897.103	5128
897.224	4892
897.345	4797
897.466	4740
897.587	4797
897.708	4873
897.828	4824
897.949	4698
898.07	4634
898.19	4744
898.311	4809
898.431	4691
898.552	4805
898.672	4873
898.792	4881
898.913	4763
899.033	4729
899.153	4580
899.273	4527
899.393	4535
899.513	4577
899.633	4580
899.753	4615
899.873	4569
899.993	4645
900.113	4588
900.232	4649
900.352	4599
900.472	4550
900.591	4413
900.711	4527
900.83	4519
900.95	4656
901.069	4668
901.189	4596
901.308	4390
901.427	4367
901.546	4428
901.665	4561
901.784	4565
901.904	4497
902.023	4398
902.141	4204
902.26	4211
902.379	4356
902.498	4329
902.617	4272
902.735	4417
902.854	4466
902.973	4398
903.091	4188
903.21	4284
903.328	4333
903.446	4322
903.565	4280
903.683	4440
903.801	4295
903.919	4481
904.038	4459
904.156	4363
904.274	4443
904.392	4432
904.51	4523
904.627	4519
904.745	4675
904.863	4736
904.981	4481
905.098	4413
905.216	4424
905.334	4462
905.451	4531
905.569	4535
905.686	4634
905.803	4660
905.921	4470
906.038	4615
906.155	4561
906.272	4493
906.389	4508
906.506	4417
906.623	4405
906.74	4459
906.857	4371
906.974	4478
907.091	4592
907.208	4752
907.324	4653
907.441	4588
907.557	4436
907.674	4428
907.79	4398
907.907	4523
908.023	4596
908.139	4565
908.256	4516
908.372	4535
908.488	4554
908.604	4462
908.72	4432
908.836	4421
908.952	4493
909.068	4508
909.184	4687
909.3	4538
909.415	4679
909.531	4649
909.647	4462
909.762	4459
909.878	4451
909.993	4478
910.108	4516
910.224	4481
910.339	4569
910.454	4550
910.57	4447
910.685	4402
910.8	4801
910.915	4645
911.03	4596
911.145	4470
911.259	4428
911.374	4504
911.489	4383
911.604	4333
911.718	4287
911.833	4295
911.947	4204
912.062	4097
912.176	4299
912.291	4287
912.405	4383
912.519	4561
912.633	4596
912.748	4447
912.862	4398
912.976	4325
913.09	4177
913.204	4223
913.318	4287
913.431	4440
913.545	4428
913.659	4512
913.772	4424
913.886	4379
914	4303
914.113	4432
914.226	4493
914.34	4447
914.453	4238
914.566	4489
914.68	4379
914.793	4379
914.906	4242
915.019	4181
915.132	4166
915.245	4200
915.358	4299
915.47	4295
915.583	4325
915.696	4375
915.809	4500
915.921	4485
916.034	4371
916.146	4348
916.259	4268
916.371	4485
916.483	4413
916.595	4306
916.708	4371
916.82	4443
916.932	4413
917.044	4455
917.156	4405
917.268	4341
917.38	4344
917.491	4344
917.603	4405
917.715	4489
917.826	4558
917.938	4451
918.049	4337
918.161	4470
918.272	4641
918.384	4599
918.495	4500
918.606	4352
918.717	4291
918.828	4409
918.939	4451
919.05	4310
919.161	4405
919.272	4227
919.383	4306
919.494	4542
919.604	4706
919.715	4516
919.826	4428
919.936	4470
920.047	4580
920.157	4546
920.267	4767
920.378	4664
920.488	4584
920.598	4786
920.708	4972
920.818	4820
920.928	4858
921.038	5064
921.148	4991
921.258	4725
921.368	4607
921.477	4569
921.587	4550
921.697	4478
921.806	4615
921.916	4478
922.025	4306
922.134	4348
922.244	4291
922.353	4405
922.462	4219
922.571	4249
922.68	4082
922.789	4078
922.898	4124
923.007	4063
923.116	4219
923.224	4131
923.333	4181
923.442	4067
923.55	4067
923.659	4105
923.767	4173
923.876	4093
923.984	4249
924.092	4048
924.201	4105
924.309	4162
924.417	4181
924.525	4158
924.633	4181
924.741	5056
924.849	4013
924.956	4200
925.064	4074
925.172	3960
925.279	4055
925.387	4154
925.494	4139
925.602	4265
925.709	4234
925.816	4150
925.924	4211
926.031	4352
926.138	4261
926.245	4257
926.352	4154
926.459	4360
926.566	4402
926.673	4211
926.779	4192
926.886	4166
926.993	3998
927.099	4021
927.206	4021
927.312	4032
927.419	4105
927.525	4097
927.631	4162
927.737	4067
927.843	4006
927.95	3903
928.056	4017
928.162	4051
928.267	4124
928.373	4702
928.479	4204
928.585	3968
928.69	4112
928.796	4177
928.901	4036
929.007	3911
929.112	4078
929.218	4051
929.323	4025
929.428	3983
929.533	4207
929.638	3937
929.743	4017
929.848	4150
929.953	4105
930.058	4029
930.163	3869
930.267	3892
930.372	4032
930.477	3873
930.581	4158
930.685	4006
930.79	3903
930.894	3915
930.998	3899
931.103	4112
931.207	3770
931.311	3762
931.415	3736
931.519	3561
931.623	3610
