Data from test_V78500241_2283.txt Node
Date: Fri Mar 25 17:04:52 CST 2022
User: usil
Spectrometer: V785-0024
Trigger mode: 0
Integration Time (sec): 4.000000E-1
Scans to average: 1
Nonlinearity correction enabled: false
Boxcar width: 0
Storing dark spectrum: false
XAxis mode: Wavelengths
Number of Pixels in Spectrum: 1024
>>>>>Begin Spectral Data<<<<<
801.071	8062
801.214	8024
801.356	7841
801.499	7868
801.641	7780
801.783	7792
801.926	7986
802.068	7963
802.211	7989
802.353	8012
802.496	7909
802.638	7898
802.78	7909
802.923	7913
803.065	7917
803.208	7902
803.35	8031
803.492	8096
803.635	8149
803.777	8024
803.919	8115
804.061	8457
804.204	8237
804.346	8069
804.488	8001
804.63	8077
804.773	8077
804.915	8115
805.057	8324
805.199	8187
805.341	8153
805.483	8256
805.626	8233
805.768	8157
805.91	8286
806.052	8214
806.194	8115
806.336	8301
806.478	8092
806.62	8081
806.762	8161
806.904	8259
807.046	8446
807.188	8396
807.33	8286
807.472	8317
807.614	8168
807.756	8111
807.898	8069
808.04	7852
808.182	7879
808.324	7826
808.465	7993
808.607	8046
808.749	8084
808.891	8244
809.033	8339
809.174	8221
809.316	8100
809.458	8050
809.6	8031
809.741	8103
809.883	8046
810.025	8046
810.166	8088
810.308	7997
810.45	8054
810.591	7947
810.733	7769
810.875	7674
811.016	7544
811.158	7495
811.299	7529
811.441	7727
811.582	7674
811.724	7582
811.865	7537
812.007	7582
812.148	7578
812.29	7609
812.431	7792
812.573	7871
812.714	8008
812.855	8168
812.997	8153
813.138	8286
813.279	8202
813.421	8107
813.562	7986
813.703	7803
813.845	7738
813.986	7525
814.127	7255
814.268	7160
814.41	7228
814.551	7183
814.692	7221
814.833	7145
814.974	7080
815.115	7110
815.256	6985
815.397	6939
815.539	6981
815.68	6848
815.821	6783
815.962	6844
816.103	6840
816.244	6745
816.385	6631
816.526	6589
816.666	6551
816.807	6311
816.948	6452
817.089	6475
817.23	6467
817.371	6372
817.512	6372
817.653	6422
817.793	6372
817.934	6452
818.075	6502
818.216	6437
818.356	6361
818.497	6350
818.638	6216
818.778	6136
818.919	6125
819.06	6144
819.2	6350
819.341	6304
819.481	6403
819.622	6555
819.762	6776
819.903	6673
820.043	6589
820.184	6566
820.324	6604
820.465	6722
820.605	6669
820.746	6654
820.886	6563
821.026	6677
821.167	6719
821.307	6787
821.447	6821
821.588	6692
821.728	6639
821.868	6502
822.008	6331
822.149	6369
822.289	6319
822.429	6171
822.569	6038
822.709	6106
822.849	5939
822.99	5836
823.13	5923
823.27	5920
823.41	5771
823.55	5802
823.69	5817
823.83	5775
823.97	5707
824.11	5600
824.25	5554
824.389	5611
824.529	5577
824.669	5516
824.809	5672
824.949	5684
825.089	5615
825.228	5577
825.368	5429
825.508	5421
825.648	5379
825.787	5406
825.927	5376
826.067	5326
826.206	5269
826.346	5433
826.485	5387
826.625	5444
826.765	5547
826.904	5539
827.044	5265
827.183	5204
827.323	5102
827.462	5277
827.601	5128
827.741	5178
827.88	5227
828.02	5147
828.159	5288
828.298	5280
828.437	5353
828.577	5334
828.716	5474
828.855	5357
828.994	5151
829.134	5189
829.273	5162
829.412	5086
829.551	5124
829.69	5181
829.829	5261
829.968	5414
830.107	5258
830.246	5345
830.385	5193
830.524	5121
830.663	5086
830.802	5079
830.941	4881
831.08	4873
831.219	4961
831.357	4968
831.496	5136
831.635	4934
831.774	4858
831.913	4839
832.051	4729
832.19	4725
832.329	4873
832.467	4698
832.606	4660
832.744	4675
832.883	4759
833.022	4774
833.16	4778
833.299	4828
833.437	4793
833.576	4820
833.714	4927
833.852	4873
833.991	4892
834.129	5003
834.267	4946
834.406	4896
834.544	5018
834.682	5029
834.821	4984
834.959	5178
835.097	4972
835.235	5193
835.373	5124
835.511	5098
835.65	5025
835.788	5003
835.926	4927
836.064	4892
836.202	4949
836.34	5174
836.478	5174
836.615	5151
836.753	5212
836.891	5242
837.029	5216
837.167	5223
837.305	5201
837.443	5136
837.58	5094
837.718	5288
837.856	5162
837.993	5159
838.131	5261
838.269	5193
838.406	5250
838.544	5170
838.681	5056
838.819	5006
838.956	4873
839.094	4896
839.231	4991
839.369	5117
839.506	5482
839.643	5235
839.781	5052
839.918	5018
840.055	5056
840.193	5121
840.33	5086
840.467	5140
840.604	5197
840.742	5414
840.879	5086
841.016	5109
841.153	5178
841.29	5391
841.427	5379
841.564	5318
841.701	5372
841.838	5273
841.975	5254
842.112	5246
842.249	5151
842.385	5128
842.522	5299
842.659	5181
842.796	5140
842.933	5208
843.069	5166
843.206	5174
843.343	5261
843.479	5239
843.616	5227
843.752	5041
843.889	5014
844.025	5235
844.162	4999
844.298	5208
844.435	5045
844.571	5041
844.708	5204
844.844	5303
844.98	5395
845.117	5311
845.253	5105
845.389	5098
845.525	5109
845.661	5132
845.798	5022
845.934	5155
846.07	5048
846.206	5235
846.342	5277
846.478	5147
846.614	5060
846.75	4961
846.886	4938
847.022	5109
847.158	5018
847.294	5075
847.429	5193
847.565	5075
847.701	5353
847.837	4850
847.972	4774
848.108	4991
848.244	4938
848.379	4793
848.515	4729
848.65	4714
848.786	4672
848.921	4797
849.057	4831
849.192	4881
849.328	4778
849.463	4820
849.598	4782
849.734	4744
849.869	4725
850.004	4694
850.14	4653
850.275	4603
850.41	4554
850.545	4611
850.68	4607
850.815	4603
850.95	4622
851.085	4820
851.22	4675
851.355	4672
851.49	4615
851.625	4653
851.76	4656
851.895	4523
852.03	4519
852.165	4622
852.299	4744
852.434	4778
852.569	4702
852.703	4793
852.838	4843
852.973	4972
853.107	4877
853.242	4706
853.376	4645
853.511	4538
853.645	4615
853.78	4812
853.914	4733
854.048	4694
854.183	4679
854.317	4698
854.451	4850
854.585	4702
854.72	4615
854.854	4721
854.988	4588
855.122	4645
855.256	4554
855.39	4615
855.524	4793
855.658	4714
855.792	4733
855.926	4694
856.06	4763
856.194	4809
856.327	4675
856.461	4607
856.595	4641
856.729	4592
856.862	4759
856.996	4706
857.13	4725
857.263	4736
857.397	4801
857.53	4649
857.664	4721
857.797	4778
857.931	4744
858.064	4733
858.197	4763
858.331	4660
858.464	4596
858.597	4554
858.731	4596
858.864	4626
858.997	4599
859.13	4641
859.263	4634
859.396	4679
859.529	4584
859.662	4596
859.795	4565
859.928	4615
860.061	4736
860.194	4748
860.327	4622
860.46	4546
860.592	4698
860.725	4752
860.858	4736
860.99	4535
861.123	4535
861.256	4497
861.388	4675
861.521	5269
861.653	4405
861.786	4478
861.918	4459
862.05	4558
862.183	4535
862.315	4603
862.447	4618
862.58	4527
862.712	4363
862.844	4280
862.976	4474
863.108	4489
863.24	4881
863.372	4322
863.504	4462
863.636	4455
863.768	4497
863.9	4481
864.032	4352
864.164	4356
864.296	4462
864.428	4516
864.559	4531
864.691	4542
864.823	4542
864.954	4550
865.086	4531
865.217	4478
865.349	4424
865.48	4478
865.612	4478
865.743	4603
865.875	4466
866.006	4428
866.137	4398
866.269	4417
866.4	4428
866.531	4436
866.662	4417
866.793	4417
866.924	4417
867.055	4455
867.186	4443
867.317	4394
867.448	4363
867.579	4398
867.71	4432
867.841	4386
867.972	4436
868.103	4451
868.233	4402
868.364	4459
868.495	4462
868.625	4641
868.756	4774
868.886	4531
869.017	4607
869.147	4771
869.278	4767
869.408	4668
869.539	4664
869.669	4767
869.799	4664
869.929	4744
870.06	4778
870.19	4999
870.32	4934
870.45	4938
870.58	5029
870.71	5109
870.84	5098
870.97	4873
871.1	4862
871.23	5105
871.36	5124
871.489	4999
871.619	5075
871.749	5105
871.879	5105
872.008	5140
872.138	5018
872.267	4957
872.397	4862
872.526	4752
872.656	4763
872.785	4809
872.915	4938
873.044	5075
873.173	4961
873.303	4961
873.432	4968
873.561	4900
873.69	4866
873.819	4889
873.948	4942
874.077	4870
874.206	4744
874.335	4729
874.464	4927
874.593	5067
874.722	4942
874.851	5094
874.979	5067
875.108	5067
875.237	4911
875.365	4873
875.494	4892
875.623	4961
875.751	4793
875.88	4873
876.008	5010
876.136	5006
876.265	5185
876.393	5364
876.521	5254
876.65	5277
876.778	5166
876.906	5048
877.034	4995
877.162	5003
877.29	5037
877.418	5056
877.546	5003
877.674	5022
877.802	5033
877.93	4987
878.058	4919
878.185	4873
878.313	4953
878.441	4923
878.568	4847
878.696	4862
878.824	4949
878.951	4957
879.079	5140
879.206	5265
879.333	5041
879.461	4938
879.588	4968
879.715	5128
879.842	5216
879.97	4980
880.097	4763
880.224	4786
880.351	4873
880.478	4809
880.605	4771
880.732	4782
880.859	5060
880.986	4854
881.112	4900
881.239	4805
881.366	4691
881.493	4599
881.619	4615
881.746	4637
881.872	4691
881.999	4596
882.125	4660
882.252	4755
882.378	4831
882.505	5010
882.631	4771
882.757	4683
882.883	4733
883.01	4744
883.136	4668
883.262	4615
883.388	4603
883.514	4820
883.64	4824
883.766	4790
883.892	4664
884.018	4721
884.143	4877
884.269	4995
884.395	4675
884.52	4626
884.646	4660
884.772	4573
884.897	4504
885.023	4687
885.148	4790
885.274	4816
885.399	4793
885.524	4714
885.65	4717
885.775	4736
885.9	4752
886.025	4862
886.15	4782
886.275	4675
886.4	4607
886.525	4714
886.65	4736
886.775	4694
886.9	4930
887.025	5075
887.149	4755
887.274	4679
887.399	4618
887.523	4577
887.648	4588
887.773	4531
887.897	4744
888.021	4767
888.146	4683
888.27	4763
888.395	4877
888.519	4809
888.643	4805
888.767	4831
888.891	4744
889.015	4637
889.139	4588
889.263	4588
889.387	4748
889.511	4854
889.635	4831
889.759	4615
889.883	4664
890.006	4733
890.13	4809
890.254	4596
890.377	4668
890.501	4519
890.624	4493
890.748	4630
890.871	4554
890.995	4428
891.118	4360
891.241	4538
891.364	4538
891.488	4611
891.611	4443
891.734	4535
891.857	4603
891.98	4535
892.103	4649
892.226	4550
892.349	4519
892.471	4402
892.594	4508
892.717	4611
892.839	4542
892.962	4603
893.085	4672
893.207	4577
893.33	4428
893.452	4531
893.575	4668
893.697	4599
893.819	4759
893.941	4835
894.064	4774
894.186	4577
894.308	4569
894.43	4698
894.552	4744
894.674	4710
894.796	4542
894.918	4573
895.04	4493
895.161	4706
895.283	4668
895.405	4573
895.526	4679
895.648	4706
895.769	4694
895.891	4694
896.012	4748
896.134	4721
896.255	4672
896.376	4599
896.498	4573
896.619	4637
896.74	4649
896.861	4645
896.982	4923
897.103	5045
897.224	4824
897.345	4778
897.466	4683
897.587	4748
897.708	4824
897.828	4786
897.949	4649
898.07	4611
898.19	4668
898.311	4854
898.431	4664
898.552	4736
898.672	4752
898.792	4763
898.913	4725
899.033	4603
899.153	4504
899.273	4451
899.393	4489
899.513	4550
899.633	4497
899.753	4577
899.873	4500
899.993	4550
900.113	4565
900.232	4546
900.352	4519
900.472	4478
900.591	4405
900.711	4459
900.83	4466
900.95	4538
901.069	4714
901.189	4546
901.308	4394
901.427	4318
901.546	4341
901.665	4474
901.784	4500
901.904	4432
902.023	4295
902.141	4204
902.26	4200
902.379	4284
902.498	4207
902.617	4200
902.735	4333
902.854	4367
902.973	4363
903.091	4223
903.21	4204
903.328	4246
903.446	4238
903.565	4238
903.683	4356
903.801	4268
903.919	4352
904.038	4413
904.156	4329
904.274	4489
904.392	4352
904.51	4447
904.627	4474
904.745	4550
904.863	4622
904.981	4367
905.098	4257
905.216	4344
905.334	4436
905.451	4421
905.569	4432
905.686	4554
905.803	4573
905.921	4379
906.038	4554
906.155	4417
906.272	4405
906.389	4413
906.506	4383
906.623	4375
906.74	4356
906.857	4291
906.974	4363
907.091	4577
907.208	4679
907.324	4561
907.441	4485
907.557	4371
907.674	4379
907.79	4344
907.907	4417
908.023	4485
908.139	4550
908.256	4459
908.372	4466
908.488	4459
908.604	4363
908.72	4322
908.836	4360
908.952	4394
909.068	4402
909.184	4527
909.3	4485
909.415	4584
909.531	4546
909.647	4344
909.762	4344
909.878	4344
909.993	4459
910.108	4405
910.224	4421
910.339	4512
910.454	4436
910.57	4371
910.685	4287
910.8	4599
910.915	4611
911.03	4474
911.145	4356
911.259	4363
911.374	4329
911.489	4303
911.604	4280
911.718	4162
911.833	4207
911.947	4090
912.062	4074
912.176	4204
912.291	4185
912.405	4257
912.519	4451
912.633	4512
912.748	4344
912.862	4284
912.976	4185
913.09	4124
913.204	4188
913.318	4257
913.431	4325
913.545	4375
913.659	4402
913.772	4352
913.886	4257
914	4238
914.113	4352
914.226	4386
914.34	4409
914.453	4261
914.566	4436
914.68	4322
914.793	4329
914.906	4143
915.019	4131
915.132	4071
915.245	4150
915.358	4188
915.47	4227
915.583	4253
915.696	4329
915.809	4428
915.921	4413
916.034	4280
916.146	4249
916.259	4204
916.371	4383
916.483	4371
916.595	4227
916.708	4280
916.82	4333
916.932	4295
917.044	4341
917.156	4325
917.268	4238
917.38	4265
917.491	4246
917.603	4341
917.715	4409
917.826	4436
917.938	4386
918.049	4230
918.161	4421
918.272	4485
918.384	4519
918.495	4409
918.606	4299
918.717	4246
918.828	4299
918.939	4398
919.05	4234
919.161	4284
919.272	4131
919.383	4211
919.494	4474
919.604	4634
919.715	4470
919.826	4337
919.936	4428
920.047	4542
920.157	4474
920.267	4683
920.378	4546
920.488	4466
920.598	4733
920.708	4885
920.818	4797
920.928	4752
921.038	4946
921.148	4927
921.258	4622
921.368	4550
921.477	4489
921.587	4440
921.697	4367
921.806	4519
921.916	4417
922.025	4268
922.134	4272
922.244	4219
922.353	4310
922.462	4192
922.571	4105
922.68	4017
922.789	3994
922.898	4002
923.007	3975
923.116	4124
923.224	4086
923.333	4067
923.442	3987
923.55	4017
923.659	4002
923.767	4135
923.876	4032
923.984	4154
924.092	3975
924.201	4063
924.309	4131
924.417	4128
924.525	4063
924.633	4097
924.741	5098
924.849	3899
924.956	4124
925.064	3979
925.172	3899
925.279	3983
925.387	4036
925.494	4116
925.602	4227
925.709	4204
925.816	4063
925.924	4131
926.031	4200
926.138	4234
926.245	4265
926.352	4063
926.459	4234
926.566	4257
926.673	4131
926.779	4139
926.886	4093
926.993	3998
927.099	3941
927.206	3949
927.312	3941
927.419	3987
927.525	4017
927.631	4109
927.737	3949
927.843	3941
927.95	3816
928.056	3968
928.162	3945
928.267	4044
928.373	4702
928.479	4128
928.585	3880
928.69	3983
928.796	4040
928.901	3975
929.007	3861
929.112	3998
929.218	4010
929.323	3937
929.428	3922
929.533	4120
929.638	3915
929.743	3945
929.848	4017
929.953	3998
930.058	3953
930.163	3800
930.267	3793
930.372	3968
930.477	3789
930.581	4082
930.685	3964
930.79	3831
930.894	3880
930.998	3819
931.103	4036
931.207	3717
931.311	3713
931.415	3679
931.519	3473
931.623	3568
