Data from test_V78500241_487.txt Node
Date: Fri Mar 25 16:52:23 CST 2022
User: usil
Spectrometer: V785-0024
Trigger mode: 0
Integration Time (sec): 4.000000E-1
Scans to average: 1
Nonlinearity correction enabled: false
Boxcar width: 0
Storing dark spectrum: false
XAxis mode: Wavelengths
Number of Pixels in Spectrum: 1024
>>>>>Begin Spectral Data<<<<<
801.071	8035
801.214	7978
801.356	7906
801.499	7818
801.641	7792
801.783	7841
801.926	8001
802.068	7947
802.211	8031
802.353	7982
802.496	7913
802.638	7864
802.78	7947
802.923	7826
803.065	7845
803.208	7879
803.35	7902
803.492	8077
803.635	8081
803.777	8012
803.919	8130
804.061	8450
804.204	8153
804.346	8027
804.488	7944
804.63	8103
804.773	8046
804.915	8031
805.057	8309
805.199	8187
805.341	8233
805.483	8286
805.626	8180
805.768	8100
805.91	8149
806.052	8123
806.194	8134
806.336	8259
806.478	8172
806.62	8065
806.762	8149
806.904	8164
807.046	8400
807.188	8343
807.33	8191
807.472	8237
807.614	8119
807.756	8069
807.898	7951
808.04	7898
808.182	7936
808.324	7970
808.465	7947
808.607	8046
808.749	8062
808.891	8252
809.033	8275
809.174	8206
809.316	8031
809.458	8043
809.6	7986
809.741	8020
809.883	8065
810.025	8050
810.166	8130
810.308	8035
810.45	8008
810.591	7852
810.733	7761
810.875	7662
811.016	7556
811.158	7540
811.299	7632
811.441	7761
811.582	7632
811.724	7537
811.865	7590
812.007	7590
812.148	7632
812.29	7632
812.431	7723
812.573	7849
812.714	7963
812.855	8161
812.997	8286
813.138	8355
813.279	8161
813.421	8157
813.562	8062
813.703	7902
813.845	7818
813.986	7510
814.127	7305
814.268	7365
814.41	7285
814.551	7168
814.692	7213
814.833	7057
814.974	7072
815.115	7122
815.256	6981
815.397	6909
815.539	6905
815.68	6837
815.821	6776
815.962	6905
816.103	6875
816.244	6726
816.385	6677
816.526	6635
816.666	6486
816.807	6372
816.948	6391
817.089	6456
817.23	6452
817.371	6384
817.512	6433
817.653	6384
817.793	6361
817.934	6388
818.075	6441
818.216	6422
818.356	6380
818.497	6213
818.638	6140
818.778	6053
818.919	6121
819.06	6110
819.2	6273
819.341	6285
819.481	6319
819.622	6483
819.762	6825
819.903	6707
820.043	6623
820.184	6532
820.324	6551
820.465	6684
820.605	6612
820.746	6589
820.886	6494
821.026	6696
821.167	6677
821.307	6749
821.447	6726
821.588	6669
821.728	6547
821.868	6494
822.008	6285
822.149	6357
822.289	6365
822.429	6159
822.569	6114
822.709	6076
822.849	5927
822.99	5885
823.13	5916
823.27	5893
823.41	5809
823.55	5767
823.69	5783
823.83	5756
823.97	5668
824.11	5562
824.25	5490
824.389	5547
824.529	5638
824.669	5566
824.809	5634
824.949	5657
825.089	5589
825.228	5547
825.368	5402
825.508	5360
825.648	5318
825.787	5349
825.927	5417
826.067	5315
826.206	5258
826.346	5395
826.485	5376
826.625	5402
826.765	5558
826.904	5535
827.044	5288
827.183	5193
827.323	5189
827.462	5261
827.601	5155
827.741	5170
827.88	5220
828.02	5124
828.159	5223
828.298	5315
828.437	5395
828.577	5223
828.716	5467
828.855	5299
828.994	5124
829.134	5166
829.273	5178
829.412	5132
829.551	5132
829.69	5197
829.829	5254
829.968	5376
830.107	5223
830.246	5265
830.385	5181
830.524	5079
830.663	5075
830.802	4965
830.941	4919
831.08	4854
831.219	5003
831.357	4953
831.496	5094
831.635	4919
831.774	4835
831.913	4801
832.051	4733
832.19	4786
832.329	4847
832.467	4736
832.606	4569
832.744	4683
832.883	4714
833.022	4721
833.16	4782
833.299	4797
833.437	4831
833.576	4816
833.714	4847
833.852	4850
833.991	4877
834.129	4984
834.267	4976
834.406	4923
834.544	4942
834.682	4961
834.821	4927
834.959	5147
835.097	4991
835.235	5143
835.373	5098
835.511	5098
835.65	4957
835.788	5014
835.926	4904
836.064	4873
836.202	4870
836.34	5117
836.478	5166
836.615	5128
836.753	5155
836.891	5299
837.029	5235
837.167	5223
837.305	5143
837.443	5113
837.58	5071
837.718	5254
837.856	5231
837.993	5143
838.131	5231
838.269	5242
838.406	5220
838.544	5136
838.681	5022
838.819	4968
838.956	4957
839.094	4915
839.231	4980
839.369	5090
839.506	5391
839.643	5258
839.781	5071
839.918	4980
840.055	5071
840.193	5109
840.33	5132
840.467	5147
840.604	5151
840.742	5463
840.879	5029
841.016	5083
841.153	5140
841.29	5398
841.427	5345
841.564	5345
841.701	5341
841.838	5254
841.975	5235
842.112	5284
842.249	5128
842.385	5159
842.522	5326
842.659	5174
842.796	5117
842.933	5216
843.069	5185
843.206	5098
843.343	5299
843.479	5246
843.616	5269
843.752	5018
843.889	5006
844.025	5204
844.162	5006
844.298	5250
844.435	5064
844.571	4987
844.708	5242
844.844	5315
844.98	5395
845.117	5296
845.253	5159
845.389	5090
845.525	5189
845.661	5147
845.798	5056
845.934	5128
846.07	5018
846.206	5189
846.342	5258
846.478	5170
846.614	5018
846.75	4972
846.886	4949
847.022	5128
847.158	5006
847.294	5067
847.429	5086
847.565	5083
847.701	5334
847.837	4843
847.972	4820
848.108	5018
848.244	4949
848.379	4786
848.515	4729
848.65	4740
848.786	4710
848.921	4725
849.057	4862
849.192	4938
849.328	4801
849.463	4889
849.598	4740
849.734	4767
849.869	4683
850.004	4641
850.14	4656
850.275	4641
850.41	4561
850.545	4607
850.68	4599
850.815	4660
850.95	4584
851.085	4866
851.22	4767
851.355	4675
851.49	4626
851.625	4641
851.76	4641
851.895	4527
852.03	4500
852.165	4653
852.299	4740
852.434	4820
852.569	4786
852.703	4812
852.838	4820
852.973	4908
853.107	4927
853.242	4717
853.376	4702
853.511	4561
853.645	4607
853.78	4847
853.914	4706
854.048	4679
854.183	4698
854.317	4702
854.451	4797
854.585	4710
854.72	4675
854.854	4767
854.988	4561
855.122	4641
855.256	4535
855.39	4683
855.524	4733
855.658	4656
855.792	4702
855.926	4683
856.06	4771
856.194	4831
856.327	4675
856.461	4626
856.595	4622
856.729	4645
856.862	4721
856.996	4698
857.13	4710
857.263	4748
857.397	4771
857.53	4630
857.664	4721
857.797	4771
857.931	4767
858.064	4706
858.197	4725
858.331	4672
858.464	4603
858.597	4550
858.731	4664
858.864	4626
858.997	4630
859.13	4687
859.263	4653
859.396	4664
859.529	4584
859.662	4577
859.795	4542
859.928	4618
860.061	4744
860.194	4763
860.327	4554
860.46	4542
860.592	4691
860.725	4733
860.858	4717
860.99	4577
861.123	4519
861.256	4523
861.388	4664
861.521	5318
861.653	4512
861.786	4481
861.918	4443
862.05	4497
862.183	4561
862.315	4596
862.447	4714
862.58	4577
862.712	4436
862.844	4348
862.976	4504
863.108	4489
863.24	4763
863.372	4367
863.504	4451
863.636	4413
863.768	4459
863.9	4417
864.032	4379
864.164	4367
864.296	4481
864.428	4596
864.559	4569
864.691	4542
864.823	4462
864.954	4474
865.086	4497
865.217	4451
865.349	4409
865.48	4440
865.612	4542
865.743	4630
865.875	4462
866.006	4428
866.137	4466
866.269	4447
866.4	4485
866.531	4417
866.662	4356
866.793	4421
866.924	4474
867.055	4493
867.186	4470
867.317	4424
867.448	4386
867.579	4443
867.71	4375
867.841	4386
867.972	4466
868.103	4478
868.233	4462
868.364	4493
868.495	4489
868.625	4675
868.756	4752
868.886	4558
869.017	4656
869.147	4801
869.278	4793
869.408	4649
869.539	4622
869.669	4763
869.799	4675
869.929	4725
870.06	4694
870.19	4976
870.32	4934
870.45	4938
870.58	5018
870.71	5060
870.84	5071
870.97	4919
871.1	4927
871.23	5162
871.36	5124
871.489	5105
871.619	5075
871.749	5140
871.879	5132
872.008	5155
872.138	5052
872.267	4968
872.397	4824
872.526	4778
872.656	4740
872.785	4797
872.915	4984
873.044	4980
873.173	4980
873.303	4980
873.432	4942
873.561	4934
873.69	4809
873.819	4873
873.948	4881
874.077	4835
874.206	4805
874.335	4828
874.464	4976
874.593	5022
874.722	4911
874.851	5102
874.979	5060
875.108	4987
875.237	4961
875.365	4881
875.494	4889
875.623	4927
875.751	4820
875.88	4870
876.008	4995
876.136	5025
876.265	5162
876.393	5303
876.521	5288
876.65	5235
876.778	5201
876.906	5071
877.034	5033
877.162	5041
877.29	5022
877.418	5045
877.546	5064
877.674	5010
877.802	4999
877.93	5048
878.058	4980
878.185	4858
878.313	5048
878.441	4961
878.568	4801
878.696	4881
878.824	4957
878.951	5014
879.079	5155
879.206	5303
879.333	5105
879.461	5010
879.588	5018
879.715	5102
879.842	5227
879.97	5079
880.097	4782
880.224	4725
880.351	4774
880.478	4824
880.605	4812
880.732	4831
880.859	5105
880.986	4915
881.112	4930
881.239	4797
881.366	4664
881.493	4603
881.619	4580
881.746	4588
881.872	4664
881.999	4634
882.125	4694
882.252	4797
882.378	4828
882.505	5014
882.631	4797
882.757	4702
882.883	4717
883.01	4725
883.136	4672
883.262	4615
883.388	4603
883.514	4820
883.64	4797
883.766	4805
883.892	4641
884.018	4691
884.143	4919
884.269	5022
884.395	4717
884.52	4634
884.646	4653
884.772	4542
884.897	4588
885.023	4630
885.148	4805
885.274	4835
885.399	4816
885.524	4714
885.65	4675
885.775	4767
885.9	4721
886.025	4850
886.15	4816
886.275	4736
886.4	4653
886.525	4790
886.65	4698
886.775	4725
886.9	4908
887.025	5094
887.149	4816
887.274	4675
887.399	4641
887.523	4588
887.648	4599
887.773	4596
887.897	4839
888.021	4812
888.146	4653
888.27	4862
888.395	4877
888.519	4809
888.643	4850
888.767	4812
888.891	4672
889.015	4603
889.139	4645
889.263	4660
889.387	4778
889.511	4881
889.635	4858
889.759	4702
889.883	4653
890.006	4752
890.13	4870
890.254	4641
890.377	4679
890.501	4558
890.624	4561
890.748	4645
890.871	4538
890.995	4447
891.118	4409
891.241	4481
891.364	4546
891.488	4653
891.611	4569
891.734	4573
891.857	4611
891.98	4596
892.103	4717
892.226	4565
892.349	4527
892.471	4432
892.594	4519
892.717	4615
892.839	4588
892.962	4565
893.085	4702
893.207	4622
893.33	4470
893.452	4561
893.575	4660
893.697	4554
893.819	4858
893.941	4843
894.064	4805
894.186	4611
894.308	4618
894.43	4736
894.552	4828
894.674	4683
894.796	4611
894.918	4641
895.04	4596
895.161	4706
895.283	4656
895.405	4596
895.526	4618
895.648	4721
895.769	4740
895.891	4710
896.012	4694
896.134	4710
896.255	4694
896.376	4630
896.498	4634
896.619	4656
896.74	4607
896.861	4660
896.982	4930
897.103	5075
897.224	4828
897.345	4744
897.466	4664
897.587	4729
897.708	4839
897.828	4763
897.949	4675
898.07	4577
898.19	4599
898.311	4854
898.431	4660
898.552	4717
898.672	4797
898.792	4774
898.913	4744
899.033	4675
899.153	4516
899.273	4394
899.393	4481
899.513	4485
899.633	4493
899.753	4565
899.873	4497
899.993	4561
900.113	4489
900.232	4622
900.352	4565
900.472	4512
900.591	4386
900.711	4519
900.83	4466
900.95	4637
901.069	4725
901.189	4481
901.308	4363
901.427	4314
901.546	4360
901.665	4474
901.784	4546
901.904	4386
902.023	4306
902.141	4177
902.26	4196
902.379	4310
902.498	4257
902.617	4253
902.735	4375
902.854	4390
902.973	4344
903.091	4204
903.21	4276
903.328	4299
903.446	4287
903.565	4211
903.683	4356
903.801	4303
903.919	4424
904.038	4428
904.156	4333
904.274	4436
904.392	4440
904.51	4451
904.627	4451
904.745	4512
904.863	4660
904.981	4421
905.098	4303
905.216	4344
905.334	4459
905.451	4417
905.569	4443
905.686	4542
905.803	4569
905.921	4390
906.038	4569
906.155	4462
906.272	4417
906.389	4443
906.506	4371
906.623	4383
906.74	4409
906.857	4329
906.974	4402
907.091	4523
907.208	4691
907.324	4637
907.441	4497
907.557	4310
907.674	4371
907.79	4295
907.907	4390
908.023	4493
908.139	4462
908.256	4428
908.372	4447
908.488	4436
908.604	4333
908.72	4322
908.836	4405
908.952	4379
909.068	4440
909.184	4554
909.3	4508
909.415	4523
909.531	4554
909.647	4360
909.762	4379
909.878	4329
909.993	4432
910.108	4390
910.224	4440
910.339	4462
910.454	4371
910.57	4337
910.685	4295
910.8	4637
910.915	4558
911.03	4481
911.145	4322
911.259	4363
911.374	4348
911.489	4223
911.604	4215
911.718	4169
911.833	4223
911.947	4120
912.062	4029
912.176	4246
912.291	4200
912.405	4249
912.519	4462
912.633	4508
912.748	4379
912.862	4337
912.976	4215
913.09	4097
913.204	4166
913.318	4253
913.431	4375
913.545	4386
913.659	4390
913.772	4329
913.886	4253
914	4204
914.113	4398
914.226	4432
914.34	4390
914.453	4223
914.566	4462
914.68	4291
914.793	4303
914.906	4211
915.019	4131
915.132	4071
915.245	4207
915.358	4166
915.47	4234
915.583	4284
915.696	4268
915.809	4440
915.921	4394
916.034	4238
916.146	4268
916.259	4181
916.371	4386
916.483	4329
916.595	4265
916.708	4314
916.82	4318
916.932	4272
917.044	4398
917.156	4268
917.268	4238
917.38	4276
917.491	4291
917.603	4356
917.715	4432
917.826	4436
917.938	4348
918.049	4238
918.161	4383
918.272	4569
918.384	4512
918.495	4443
918.606	4299
918.717	4219
918.828	4329
918.939	4394
919.05	4219
919.161	4402
919.272	4120
919.383	4192
919.494	4489
919.604	4603
919.715	4428
919.826	4379
919.936	4341
920.047	4504
920.157	4493
920.267	4691
920.378	4554
920.488	4497
920.598	4710
920.708	4877
920.818	4733
920.928	4771
921.038	4942
921.148	4915
921.258	4653
921.368	4573
921.477	4504
921.587	4462
921.697	4383
921.806	4531
921.916	4417
922.025	4272
922.134	4287
922.244	4249
922.353	4348
922.462	4169
922.571	4139
922.68	4006
922.789	3964
922.898	4093
923.007	4025
923.116	4120
923.224	4154
923.333	4082
923.442	4013
923.55	3953
923.659	4002
923.767	4116
923.876	3960
923.984	4131
924.092	3983
924.201	4097
924.309	4101
924.417	4090
924.525	4074
924.633	4078
924.741	5033
924.849	3937
924.956	4131
925.064	3899
925.172	3915
925.279	3979
925.387	4116
925.494	4051
925.602	4200
925.709	4211
925.816	4067
925.924	4139
926.031	4234
926.138	4223
926.245	4185
926.352	4078
926.459	4223
926.566	4291
926.673	4116
926.779	4086
926.886	4048
926.993	4029
927.099	3949
927.206	3972
927.312	3922
927.419	4051
927.525	4017
927.631	4082
927.737	3972
927.843	3975
927.95	3819
928.056	3968
928.162	4021
928.267	4082
928.373	4714
928.479	4143
928.585	3876
928.69	4017
928.796	4078
928.901	3941
929.007	3854
929.112	4021
929.218	3975
929.323	4002
929.428	3945
929.533	4090
929.638	3911
929.743	3991
929.848	4044
929.953	4021
930.058	3922
930.163	3743
930.267	3838
930.372	3998
930.477	3793
930.581	4063
930.685	3964
930.79	3819
930.894	3869
930.998	3842
931.103	4097
931.207	3759
931.311	3682
931.415	3728
931.519	3542
931.623	3568
