Data from test_V78500241_1173.txt Node
Date: Fri Mar 25 16:57:09 CST 2022
User: usil
Spectrometer: V785-0024
Trigger mode: 0
Integration Time (sec): 4.000000E-1
Scans to average: 1
Nonlinearity correction enabled: false
Boxcar width: 0
Storing dark spectrum: false
XAxis mode: Wavelengths
Number of Pixels in Spectrum: 1024
>>>>>Begin Spectral Data<<<<<
801.071	8031
801.214	8058
801.356	7856
801.499	7811
801.641	7746
801.783	7765
801.926	7944
802.068	7909
802.211	7970
802.353	8024
802.496	7879
802.638	7830
802.78	7993
802.923	7989
803.065	7932
803.208	7879
803.35	7902
803.492	8073
803.635	8123
803.777	8077
803.919	8229
804.061	8408
804.204	8084
804.346	7978
804.488	7970
804.63	8183
804.773	7997
804.915	8081
805.057	8263
805.199	8187
805.341	8279
805.483	8206
805.626	8233
805.768	8103
805.91	8187
806.052	8142
806.194	8103
806.336	8290
806.478	8103
806.62	8016
806.762	8138
806.904	8298
807.046	8476
807.188	8358
807.33	8275
807.472	8286
807.614	8172
807.756	8092
807.898	8031
808.04	7932
808.182	7921
808.324	7906
808.465	7887
808.607	8069
808.749	8069
808.891	8149
809.033	8248
809.174	8256
809.316	8005
809.458	7989
809.6	7974
809.741	7986
809.883	8020
810.025	8062
810.166	8088
810.308	7963
810.45	8054
810.591	7860
810.733	7757
810.875	7639
811.016	7567
811.158	7506
811.299	7605
811.441	7704
811.582	7723
811.724	7586
811.865	7529
812.007	7590
812.148	7582
812.29	7693
812.431	7700
812.573	7864
812.714	7944
812.855	8103
812.997	8229
813.138	8298
813.279	8214
813.421	8088
813.562	7997
813.703	7845
813.845	7689
813.986	7457
814.127	7168
814.268	7190
814.41	7206
814.551	7133
814.692	7202
814.833	7080
814.974	7034
815.115	7080
815.256	6924
815.397	6897
815.539	6916
815.68	6875
815.821	6818
815.962	6795
816.103	6818
816.244	6749
816.385	6646
816.526	6616
816.666	6486
816.807	6308
816.948	6448
817.089	6464
817.23	6509
817.371	6361
817.512	6331
817.653	6456
817.793	6350
817.934	6380
818.075	6429
818.216	6399
818.356	6418
818.497	6258
818.638	6102
818.778	6125
818.919	6152
819.06	6144
819.2	6304
819.341	6300
819.481	6376
819.622	6532
819.762	6688
819.903	6722
820.043	6582
820.184	6517
820.324	6601
820.465	6654
820.605	6616
820.746	6642
820.886	6460
821.026	6616
821.167	6703
821.307	6795
821.447	6692
821.588	6692
821.728	6521
821.868	6456
822.008	6277
822.149	6334
822.289	6331
822.429	6171
822.569	6095
822.709	6045
822.849	5874
822.99	5912
823.13	5901
823.27	5878
823.41	5752
823.55	5775
823.69	5718
823.83	5767
823.97	5619
824.11	5520
824.25	5505
824.389	5490
824.529	5619
824.669	5520
824.809	5600
824.949	5661
825.089	5592
825.228	5562
825.368	5360
825.508	5326
825.648	5349
825.787	5387
825.927	5395
826.067	5341
826.206	5269
826.346	5337
826.485	5421
826.625	5387
826.765	5566
826.904	5493
827.044	5235
827.183	5178
827.323	5121
827.462	5258
827.601	5181
827.741	5170
827.88	5128
828.02	5098
828.159	5197
828.298	5265
828.437	5307
828.577	5269
828.716	5490
828.855	5265
828.994	5124
829.134	5121
829.273	5235
829.412	5079
829.551	5121
829.69	5151
829.829	5201
829.968	5357
830.107	5280
830.246	5220
830.385	5159
830.524	5083
830.663	5083
830.802	4949
830.941	4877
831.08	4885
831.219	5037
831.357	4965
831.496	5136
831.635	4938
831.774	4850
831.913	4816
832.051	4687
832.19	4725
832.329	4854
832.467	4687
832.606	4649
832.744	4752
832.883	4717
833.022	4771
833.16	4755
833.299	4877
833.437	4847
833.576	4786
833.714	4904
833.852	4839
833.991	4885
834.129	4930
834.267	4908
834.406	4885
834.544	4961
834.682	4961
834.821	4965
834.959	5155
835.097	4972
835.235	5124
835.373	5041
835.511	5098
835.65	5048
835.788	4991
835.926	4900
836.064	4854
836.202	4938
836.34	5109
836.478	5231
836.615	5094
836.753	5204
836.891	5242
837.029	5269
837.167	5223
837.305	5162
837.443	5124
837.58	5033
837.718	5254
837.856	5220
837.993	5159
838.131	5185
838.269	5223
838.406	5170
838.544	5155
838.681	4938
838.819	5010
838.956	4904
839.094	4877
839.231	4949
839.369	5060
839.506	5391
839.643	5223
839.781	5041
839.918	5014
840.055	5094
840.193	5083
840.33	5098
840.467	5075
840.604	5174
840.742	5406
840.879	5086
841.016	5113
841.153	5181
841.29	5406
841.427	5288
841.564	5280
841.701	5391
841.838	5288
841.975	5235
842.112	5284
842.249	5079
842.385	5071
842.522	5383
842.659	5075
842.796	5143
842.933	5170
843.069	5105
843.206	5117
843.343	5277
843.479	5223
843.616	5284
843.752	5071
843.889	4953
844.025	5204
844.162	4995
844.298	5166
844.435	5060
844.571	5086
844.708	5174
844.844	5303
844.98	5292
845.117	5254
845.253	5136
845.389	5124
845.525	5140
845.661	5098
845.798	5041
845.934	5159
846.07	4991
846.206	5124
846.342	5296
846.478	5098
846.614	5014
846.75	4961
846.886	4938
847.022	5140
847.158	5022
847.294	5060
847.429	5094
847.565	4991
847.701	5315
847.837	4858
847.972	4771
848.108	4949
848.244	4915
848.379	4774
848.515	4740
848.65	4717
848.786	4733
848.921	4717
849.057	4843
849.192	4896
849.328	4812
849.463	4797
849.598	4805
849.734	4725
849.869	4748
850.004	4603
850.14	4634
850.275	4573
850.41	4512
850.545	4584
850.68	4626
850.815	4611
850.95	4607
851.085	4862
851.22	4744
851.355	4603
851.49	4580
851.625	4664
851.76	4622
851.895	4531
852.03	4550
852.165	4622
852.299	4721
852.434	4828
852.569	4717
852.703	4782
852.838	4850
852.973	4930
853.107	4908
853.242	4733
853.376	4615
853.511	4558
853.645	4546
853.78	4801
853.914	4668
854.048	4683
854.183	4618
854.317	4733
854.451	4797
854.585	4672
854.72	4630
854.854	4755
854.988	4588
855.122	4645
855.256	4523
855.39	4645
855.524	4729
855.658	4714
855.792	4694
855.926	4672
856.06	4744
856.194	4771
856.327	4656
856.461	4558
856.595	4637
856.729	4584
856.862	4767
856.996	4702
857.13	4691
857.263	4786
857.397	4771
857.53	4626
857.664	4710
857.797	4725
857.931	4790
858.064	4717
858.197	4748
858.331	4622
858.464	4580
858.597	4523
858.731	4565
858.864	4645
858.997	4569
859.13	4596
859.263	4664
859.396	4687
859.529	4569
859.662	4584
859.795	4489
859.928	4592
860.061	4740
860.194	4763
860.327	4577
860.46	4573
860.592	4725
860.725	4683
860.858	4641
860.99	4546
861.123	4538
861.256	4485
861.388	4584
861.521	5220
861.653	4466
861.786	4413
861.918	4428
862.05	4485
862.183	4504
862.315	4592
862.447	4607
862.58	4531
862.712	4394
862.844	4348
862.976	4440
863.108	4447
863.24	4881
863.372	4287
863.504	4440
863.636	4356
863.768	4493
863.9	4421
864.032	4375
864.164	4405
864.296	4470
864.428	4523
864.559	4538
864.691	4519
864.823	4504
864.954	4447
865.086	4508
865.217	4462
865.349	4386
865.48	4470
865.612	4519
865.743	4565
865.875	4443
866.006	4413
866.137	4474
866.269	4383
866.4	4440
866.531	4428
866.662	4405
866.793	4375
866.924	4383
867.055	4500
867.186	4402
867.317	4394
867.448	4367
867.579	4428
867.71	4348
867.841	4383
867.972	4481
868.103	4455
868.233	4432
868.364	4512
868.495	4493
868.625	4656
868.756	4717
868.886	4561
869.017	4611
869.147	4771
869.278	4771
869.408	4622
869.539	4645
869.669	4694
869.799	4668
869.929	4733
870.06	4729
870.19	4949
870.32	4847
870.45	4919
870.58	4949
870.71	5109
870.84	5147
870.97	4862
871.1	4911
871.23	5098
871.36	5124
871.489	5048
871.619	5094
871.749	5018
871.879	5090
872.008	5140
872.138	5060
872.267	4987
872.397	4835
872.526	4809
872.656	4710
872.785	4755
872.915	4942
873.044	5037
873.173	4949
873.303	4923
873.432	4946
873.561	4930
873.69	4854
873.819	4847
873.948	4866
874.077	4824
874.206	4714
874.335	4744
874.464	4858
874.593	5132
874.722	4968
874.851	5083
874.979	5048
875.108	5006
875.237	4927
875.365	4862
875.494	4938
875.623	4976
875.751	4816
875.88	4904
876.008	4942
876.136	4991
876.265	5151
876.393	5334
876.521	5231
876.65	5201
876.778	5151
876.906	5041
877.034	5018
877.162	5029
877.29	4942
877.418	5037
877.546	5083
877.674	5018
877.802	5003
877.93	4968
878.058	4881
878.185	4850
878.313	4927
878.441	4908
878.568	4801
878.696	4870
878.824	4984
878.951	5006
879.079	5105
879.206	5208
879.333	5102
879.461	4946
879.588	5014
879.715	5151
879.842	5208
879.97	5003
880.097	4733
880.224	4748
880.351	4805
880.478	4801
880.605	4805
880.732	4797
880.859	5083
880.986	4908
881.112	4858
881.239	4816
881.366	4630
881.493	4599
881.619	4569
881.746	4622
881.872	4649
881.999	4649
882.125	4725
882.252	4778
882.378	4805
882.505	4911
882.631	4812
882.757	4649
882.883	4721
883.01	4721
883.136	4660
883.262	4603
883.388	4588
883.514	4805
883.64	4850
883.766	4763
883.892	4672
884.018	4698
884.143	4877
884.269	4984
884.395	4668
884.52	4630
884.646	4672
884.772	4618
884.897	4527
885.023	4622
885.148	4774
885.274	4820
885.399	4809
885.524	4698
885.65	4683
885.775	4702
885.9	4691
886.025	4858
886.15	4805
886.275	4740
886.4	4599
886.525	4687
886.65	4675
886.775	4672
886.9	4873
887.025	5033
887.149	4744
887.274	4641
887.399	4554
887.523	4630
887.648	4577
887.773	4599
887.897	4752
888.021	4763
888.146	4645
888.27	4782
888.395	4927
888.519	4801
888.643	4816
888.767	4824
888.891	4653
889.015	4626
889.139	4691
889.263	4603
889.387	4725
889.511	4831
889.635	4786
889.759	4630
889.883	4611
890.006	4733
890.13	4873
890.254	4554
890.377	4664
890.501	4558
890.624	4512
890.748	4618
890.871	4546
890.995	4398
891.118	4352
891.241	4478
891.364	4558
891.488	4645
891.611	4459
891.734	4516
891.857	4599
891.98	4497
892.103	4691
892.226	4588
892.349	4516
892.471	4413
892.594	4516
892.717	4538
892.839	4561
892.962	4569
893.085	4694
893.207	4569
893.33	4462
893.452	4535
893.575	4675
893.697	4561
893.819	4790
893.941	4854
894.064	4736
894.186	4603
894.308	4542
894.43	4744
894.552	4904
894.674	4755
894.796	4561
894.918	4542
895.04	4546
895.161	4702
895.283	4611
895.405	4622
895.526	4622
895.648	4702
895.769	4714
895.891	4736
896.012	4774
896.134	4714
896.255	4653
896.376	4622
896.498	4580
896.619	4653
896.74	4618
896.861	4637
896.982	4866
897.103	5056
897.224	4843
897.345	4740
897.466	4634
897.587	4687
897.708	4847
897.828	4736
897.949	4694
898.07	4546
898.19	4656
898.311	4816
898.431	4626
898.552	4710
898.672	4763
898.792	4790
898.913	4744
899.033	4622
899.153	4493
899.273	4451
899.393	4535
899.513	4481
899.633	4538
899.753	4565
899.873	4500
899.993	4599
900.113	4474
900.232	4550
900.352	4527
900.472	4455
900.591	4398
900.711	4504
900.83	4398
900.95	4599
901.069	4721
901.189	4527
901.308	4356
901.427	4337
901.546	4371
901.665	4440
901.784	4470
901.904	4352
902.023	4310
902.141	4207
902.26	4162
902.379	4314
902.498	4234
902.617	4223
902.735	4383
902.854	4405
902.973	4363
903.091	4188
903.21	4253
903.328	4246
903.446	4242
903.565	4257
903.683	4333
903.801	4238
903.919	4390
904.038	4428
904.156	4367
904.274	4436
904.392	4413
904.51	4398
904.627	4466
904.745	4615
904.863	4668
904.981	4394
905.098	4325
905.216	4379
905.334	4394
905.451	4447
905.569	4409
905.686	4535
905.803	4523
905.921	4405
906.038	4565
906.155	4443
906.272	4390
906.389	4424
906.506	4299
906.623	4367
906.74	4405
906.857	4295
906.974	4379
907.091	4527
907.208	4687
907.324	4584
907.441	4527
907.557	4337
907.674	4344
907.79	4257
907.907	4394
908.023	4428
908.139	4459
908.256	4413
908.372	4470
908.488	4443
908.604	4333
908.72	4310
908.836	4398
908.952	4367
909.068	4383
909.184	4580
909.3	4455
909.415	4577
909.531	4538
909.647	4360
909.762	4356
909.878	4318
909.993	4390
910.108	4424
910.224	4413
910.339	4474
910.454	4352
910.57	4352
910.685	4295
910.8	4599
910.915	4611
911.03	4497
911.145	4310
911.259	4306
911.374	4375
911.489	4253
911.604	4276
911.718	4200
911.833	4196
911.947	4055
912.062	4093
912.176	4215
912.291	4249
912.405	4261
912.519	4432
912.633	4485
912.748	4322
912.862	4291
912.976	4166
913.09	4071
913.204	4204
913.318	4253
913.431	4356
913.545	4390
913.659	4402
913.772	4341
913.886	4249
914	4211
914.113	4386
914.226	4379
914.34	4367
914.453	4246
914.566	4417
914.68	4314
914.793	4329
914.906	4147
915.019	4074
915.132	4086
915.245	4150
915.358	4200
915.47	4227
915.583	4246
915.696	4261
915.809	4421
915.921	4436
916.034	4284
916.146	4268
916.259	4204
916.371	4394
916.483	4394
916.595	4291
916.708	4337
916.82	4276
916.932	4341
917.044	4325
917.156	4291
917.268	4219
917.38	4227
917.491	4246
917.603	4337
917.715	4428
917.826	4432
917.938	4352
918.049	4211
918.161	4421
918.272	4554
918.384	4493
918.495	4443
918.606	4291
918.717	4230
918.828	4348
918.939	4337
919.05	4280
919.161	4318
919.272	4143
919.383	4200
919.494	4424
919.604	4599
919.715	4447
919.826	4333
919.936	4405
920.047	4462
920.157	4447
920.267	4649
920.378	4527
920.488	4493
920.598	4656
920.708	4820
920.818	4744
920.928	4744
921.038	4961
921.148	4927
921.258	4634
921.368	4554
921.477	4478
921.587	4432
921.697	4318
921.806	4523
921.916	4398
922.025	4238
922.134	4310
922.244	4242
922.353	4341
922.462	4200
922.571	4093
922.68	4010
922.789	3998
922.898	4051
923.007	3975
923.116	4059
923.224	4010
923.333	4048
923.442	3975
923.55	3975
923.659	4010
923.767	4067
923.876	3987
923.984	4166
924.092	3941
924.201	4055
924.309	4071
924.417	4109
924.525	4032
924.633	4162
924.741	5075
924.849	3892
924.956	4150
925.064	3930
925.172	3945
925.279	3937
925.387	4040
925.494	4006
925.602	4169
925.709	4158
925.816	4051
925.924	4101
926.031	4234
926.138	4192
926.245	4234
926.352	4086
926.459	4192
926.566	4261
926.673	4158
926.779	4074
926.886	4082
926.993	3983
927.099	3983
927.206	3949
927.312	3937
927.419	4025
927.525	4006
927.631	4124
927.737	3960
927.843	3918
927.95	3865
928.056	3911
928.162	3998
928.267	4055
928.373	4664
928.479	4116
928.585	3865
928.69	3983
928.796	4048
928.901	3975
929.007	3861
929.112	4017
929.218	3956
929.323	3968
929.428	3949
929.533	4109
929.638	3888
929.743	3945
929.848	4074
929.953	3975
930.058	3911
930.163	3747
930.267	3831
930.372	3991
930.477	3816
930.581	4086
930.685	3941
930.79	3869
930.894	3873
930.998	3846
931.103	4025
931.207	3713
931.311	3671
931.415	3663
931.519	3507
931.623	3534
