Data from test_V78500241_1423.txt Node
Date: Fri Mar 25 16:58:53 CST 2022
User: usil
Spectrometer: V785-0024
Trigger mode: 0
Integration Time (sec): 4.000000E-1
Scans to average: 1
Nonlinearity correction enabled: false
Boxcar width: 0
Storing dark spectrum: false
XAxis mode: Wavelengths
Number of Pixels in Spectrum: 1024
>>>>>Begin Spectral Data<<<<<
801.071	8039
801.214	8043
801.356	7913
801.499	7830
801.641	7780
801.783	7780
801.926	7967
802.068	7951
802.211	8005
802.353	7982
802.496	7898
802.638	7849
802.78	7909
802.923	7898
803.065	7871
803.208	7845
803.35	7970
803.492	8024
803.635	8138
803.777	8005
803.919	8126
804.061	8457
804.204	8115
804.346	8043
804.488	7951
804.63	8138
804.773	8008
804.915	8107
805.057	8298
805.199	8191
805.341	8145
805.483	8282
805.626	8240
805.768	8096
805.91	8187
806.052	8252
806.194	8073
806.336	8328
806.478	8138
806.62	8031
806.762	8187
806.904	8282
807.046	8507
807.188	8396
807.33	8324
807.472	8263
807.614	8168
807.756	8123
807.898	8016
808.04	7871
808.182	7936
808.324	7944
808.465	8027
808.607	8164
808.749	8115
808.891	8218
809.033	8282
809.174	8176
809.316	8035
809.458	8062
809.6	7974
809.741	7974
809.883	8081
810.025	8062
810.166	8062
810.308	8050
810.45	8039
810.591	7852
810.733	7704
810.875	7609
811.016	7590
811.158	7559
811.299	7586
811.441	7712
811.582	7753
811.724	7578
811.865	7556
812.007	7597
812.148	7605
812.29	7658
812.431	7765
812.573	7940
812.714	7936
812.855	8115
812.997	8218
813.138	8275
813.279	8187
813.421	8123
813.562	8024
813.703	7871
813.845	7738
813.986	7434
814.127	7293
814.268	7274
814.41	7171
814.551	7107
814.692	7187
814.833	7099
814.974	7149
815.115	7088
815.256	6981
815.397	6916
815.539	6947
815.68	6890
815.821	6722
815.962	6726
816.103	6791
816.244	6749
816.385	6578
816.526	6563
816.666	6502
816.807	6361
816.948	6475
817.089	6426
817.23	6410
817.371	6353
817.512	6410
817.653	6353
817.793	6319
817.934	6437
818.075	6467
818.216	6452
818.356	6365
818.497	6232
818.638	6117
818.778	6148
818.919	6117
819.06	6213
819.2	6365
819.341	6319
819.481	6372
819.622	6559
819.762	6787
819.903	6662
820.043	6574
820.184	6566
820.324	6528
820.465	6722
820.605	6650
820.746	6650
820.886	6452
821.026	6669
821.167	6688
821.307	6779
821.447	6787
821.588	6688
821.728	6589
821.868	6513
822.008	6315
822.149	6395
822.289	6342
822.429	6095
822.569	6087
822.709	6129
822.849	5916
822.99	5904
823.13	5889
823.27	5908
823.41	5813
823.55	5805
823.69	5767
823.83	5798
823.97	5638
824.11	5471
824.25	5497
824.389	5589
824.529	5570
824.669	5493
824.809	5611
824.949	5642
825.089	5596
825.228	5490
825.368	5391
825.508	5326
825.648	5353
825.787	5357
825.927	5345
826.067	5349
826.206	5334
826.346	5379
826.485	5383
826.625	5379
826.765	5528
826.904	5524
827.044	5284
827.183	5220
827.323	5124
827.462	5216
827.601	5185
827.741	5155
827.88	5212
828.02	5128
828.159	5239
828.298	5231
828.437	5387
828.577	5235
828.716	5436
828.855	5299
828.994	5143
829.134	5109
829.273	5174
829.412	5155
829.551	5151
829.69	5181
829.829	5261
829.968	5364
830.107	5227
830.246	5284
830.385	5166
830.524	5151
830.663	5083
830.802	4984
830.941	4847
831.08	4862
831.219	4946
831.357	4980
831.496	5132
831.635	4938
831.774	4835
831.913	4892
832.051	4672
832.19	4736
832.329	4877
832.467	4660
832.606	4683
832.744	4721
832.883	4687
833.022	4694
833.16	4767
833.299	4835
833.437	4790
833.576	4816
833.714	4854
833.852	4835
833.991	4911
834.129	4965
834.267	4938
834.406	4866
834.544	4987
834.682	5037
834.821	4942
834.959	5159
835.097	4999
835.235	5117
835.373	5052
835.511	5071
835.65	5064
835.788	5041
835.926	4877
836.064	4858
836.202	4976
836.34	5166
836.478	5231
836.615	5079
836.753	5143
836.891	5242
837.029	5231
837.167	5201
837.305	5140
837.443	5143
837.58	5090
837.718	5269
837.856	5147
837.993	5102
838.131	5197
838.269	5189
838.406	5185
838.544	5193
838.681	5037
838.819	5041
838.956	4889
839.094	4870
839.231	4976
839.369	5128
839.506	5463
839.643	5216
839.781	5086
839.918	5022
840.055	5086
840.193	5029
840.33	5105
840.467	5178
840.604	5201
840.742	5433
840.879	5045
841.016	5075
841.153	5159
841.29	5372
841.427	5364
841.564	5341
841.701	5334
841.838	5280
841.975	5223
842.112	5231
842.249	5159
842.385	5060
842.522	5360
842.659	5159
842.796	5162
842.933	5220
843.069	5064
843.206	5174
843.343	5273
843.479	5235
843.616	5235
843.752	5052
843.889	4946
844.025	5201
844.162	5075
844.298	5178
844.435	5060
844.571	5018
844.708	5174
844.844	5299
844.98	5337
845.117	5254
845.253	5113
845.389	5083
845.525	5151
845.661	5124
845.798	5025
845.934	5132
846.07	5071
846.206	5170
846.342	5299
846.478	5189
846.614	4999
846.75	4938
846.886	4900
847.022	5075
847.158	5037
847.294	5014
847.429	5086
847.565	5037
847.701	5341
847.837	4805
847.972	4793
848.108	4911
848.244	4961
848.379	4759
848.515	4759
848.65	4725
848.786	4733
848.921	4740
849.057	4847
849.192	4885
849.328	4816
849.463	4847
849.598	4790
849.734	4771
849.869	4668
850.004	4607
850.14	4603
850.275	4596
850.41	4516
850.545	4546
850.68	4641
850.815	4641
850.95	4622
851.085	4824
851.22	4736
851.355	4683
851.49	4603
851.625	4607
851.76	4630
851.895	4535
852.03	4523
852.165	4626
852.299	4717
852.434	4767
852.569	4752
852.703	4790
852.838	4858
852.973	4881
853.107	4881
853.242	4790
853.376	4675
853.511	4554
853.645	4611
853.78	4786
853.914	4637
854.048	4615
854.183	4656
854.317	4710
854.451	4771
854.585	4668
854.72	4637
854.854	4759
854.988	4622
855.122	4599
855.256	4508
855.39	4637
855.524	4748
855.658	4717
855.792	4675
855.926	4721
856.06	4729
856.194	4733
856.327	4664
856.461	4607
856.595	4527
856.729	4603
856.862	4736
856.996	4714
857.13	4702
857.263	4748
857.397	4790
857.53	4618
857.664	4725
857.797	4736
857.931	4790
858.064	4645
858.197	4736
858.331	4656
858.464	4618
858.597	4481
858.731	4649
858.864	4622
858.997	4596
859.13	4653
859.263	4664
859.396	4702
859.529	4569
859.662	4565
859.795	4512
859.928	4637
860.061	4778
860.194	4752
860.327	4634
860.46	4580
860.592	4721
860.725	4717
860.858	4702
860.99	4538
861.123	4519
861.256	4497
861.388	4618
861.521	5474
861.653	4462
861.786	4485
861.918	4466
862.05	4500
862.183	4535
862.315	4599
862.447	4634
862.58	4561
862.712	4383
862.844	4310
862.976	4481
863.108	4466
863.24	4831
863.372	4322
863.504	4402
863.636	4455
863.768	4478
863.9	4451
864.032	4363
864.164	4360
864.296	4474
864.428	4508
864.559	4554
864.691	4573
864.823	4519
864.954	4462
865.086	4481
865.217	4462
865.349	4379
865.48	4462
865.612	4493
865.743	4592
865.875	4451
866.006	4436
866.137	4485
866.269	4493
866.4	4413
866.531	4421
866.662	4356
866.793	4398
866.924	4413
867.055	4440
867.186	4470
867.317	4421
867.448	4341
867.579	4379
867.71	4375
867.841	4398
867.972	4436
868.103	4394
868.233	4436
868.364	4432
868.495	4474
868.625	4656
868.756	4790
868.886	4599
869.017	4649
869.147	4786
869.278	4763
869.408	4656
869.539	4592
869.669	4710
869.799	4698
869.929	4752
870.06	4706
870.19	4934
870.32	4904
870.45	4923
870.58	4987
870.71	5064
870.84	5071
870.97	4881
871.1	4927
871.23	5113
871.36	5102
871.489	4976
871.619	5090
871.749	5117
871.879	5086
872.008	5071
872.138	5029
872.267	4976
872.397	4831
872.526	4812
872.656	4748
872.785	4748
872.915	4991
873.044	5022
873.173	4946
873.303	4949
873.432	4957
873.561	4965
873.69	4820
873.819	4870
873.948	4873
874.077	4828
874.206	4759
874.335	4790
874.464	4900
874.593	5098
874.722	4923
874.851	5109
874.979	5079
875.108	5102
875.237	4900
875.365	4885
875.494	4797
875.623	4968
875.751	4759
875.88	4904
876.008	5006
876.136	4984
876.265	5185
876.393	5330
876.521	5246
876.65	5231
876.778	5151
876.906	5045
877.034	4984
877.162	5064
877.29	4923
877.418	5048
877.546	4987
877.674	5064
877.802	5056
877.93	5003
878.058	4892
878.185	4843
878.313	4976
878.441	4953
878.568	4801
878.696	4850
878.824	4957
878.951	5014
879.079	5105
879.206	5277
879.333	5079
879.461	4923
879.588	5010
879.715	5174
879.842	5197
879.97	4987
880.097	4774
880.224	4736
880.351	4790
880.478	4824
880.605	4816
880.732	4740
880.859	5094
880.986	4911
881.112	4915
881.239	4786
881.366	4622
881.493	4611
881.619	4603
881.746	4596
881.872	4618
881.999	4622
882.125	4698
882.252	4820
882.378	4790
882.505	4984
882.631	4790
882.757	4664
882.883	4752
883.01	4721
883.136	4660
883.262	4618
883.388	4615
883.514	4805
883.64	4824
883.766	4786
883.892	4634
884.018	4691
884.143	4835
884.269	5022
884.395	4694
884.52	4626
884.646	4607
884.772	4565
884.897	4546
885.023	4645
885.148	4759
885.274	4816
885.399	4797
885.524	4687
885.65	4733
885.775	4733
885.9	4679
886.025	4824
886.15	4763
886.275	4710
886.4	4637
886.525	4675
886.65	4637
886.775	4668
886.9	4927
887.025	5022
887.149	4820
887.274	4664
887.399	4611
887.523	4580
887.648	4584
887.773	4565
887.897	4771
888.021	4752
888.146	4656
888.27	4790
888.395	4919
888.519	4801
888.643	4850
888.767	4767
888.891	4698
889.015	4584
889.139	4622
889.263	4611
889.387	4767
889.511	4904
889.635	4797
889.759	4653
889.883	4649
890.006	4683
890.13	4835
890.254	4622
890.377	4679
890.501	4535
890.624	4500
890.748	4634
890.871	4516
890.995	4409
891.118	4360
891.241	4512
891.364	4554
891.488	4694
891.611	4527
891.734	4516
891.857	4641
891.98	4516
892.103	4622
892.226	4622
892.349	4527
892.471	4394
892.594	4588
892.717	4607
892.839	4558
892.962	4592
893.085	4615
893.207	4565
893.33	4466
893.452	4561
893.575	4649
893.697	4538
893.819	4755
893.941	4839
894.064	4744
894.186	4561
894.308	4550
894.43	4725
894.552	4805
894.674	4740
894.796	4554
894.918	4618
895.04	4542
895.161	4672
895.283	4679
895.405	4580
895.526	4596
895.648	4668
895.769	4687
895.891	4721
896.012	4717
896.134	4717
896.255	4698
896.376	4607
896.498	4592
896.619	4664
896.74	4584
896.861	4641
896.982	4919
897.103	5045
897.224	4812
897.345	4694
897.466	4626
897.587	4694
897.708	4892
897.828	4755
897.949	4626
898.07	4523
898.19	4622
898.311	4892
898.431	4668
898.552	4683
898.672	4820
898.792	4778
898.913	4733
899.033	4641
899.153	4470
899.273	4455
899.393	4485
899.513	4516
899.633	4497
899.753	4516
899.873	4516
899.993	4592
900.113	4538
900.232	4558
900.352	4565
900.472	4466
900.591	4462
900.711	4531
900.83	4455
900.95	4554
901.069	4664
901.189	4516
901.308	4329
901.427	4291
901.546	4318
901.665	4462
901.784	4512
901.904	4352
902.023	4314
902.141	4227
902.26	4177
902.379	4280
902.498	4215
902.617	4257
902.735	4363
902.854	4367
902.973	4367
903.091	4227
903.21	4261
903.328	4333
903.446	4287
903.565	4207
903.683	4348
903.801	4303
903.919	4424
904.038	4413
904.156	4295
904.274	4481
904.392	4398
904.51	4428
904.627	4462
904.745	4554
904.863	4634
904.981	4367
905.098	4318
905.216	4371
905.334	4386
905.451	4375
905.569	4417
905.686	4565
905.803	4558
905.921	4375
906.038	4550
906.155	4497
906.272	4405
906.389	4436
906.506	4318
906.623	4379
906.74	4405
906.857	4303
906.974	4360
907.091	4546
907.208	4706
907.324	4558
907.441	4489
907.557	4363
907.674	4329
907.79	4310
907.907	4341
908.023	4466
908.139	4478
908.256	4409
908.372	4436
908.488	4493
908.604	4394
908.72	4306
908.836	4367
908.952	4337
909.068	4470
909.184	4558
909.3	4489
909.415	4596
909.531	4531
909.647	4375
909.762	4375
909.878	4314
909.993	4481
910.108	4443
910.224	4379
910.339	4436
910.454	4375
910.57	4360
910.685	4325
910.8	4653
910.915	4584
911.03	4489
911.145	4360
911.259	4367
911.374	4363
911.489	4287
911.604	4299
911.718	4135
911.833	4196
911.947	4071
912.062	4029
912.176	4204
912.291	4211
912.405	4257
912.519	4402
912.633	4481
912.748	4325
912.862	4295
912.976	4211
913.09	4078
913.204	4185
913.318	4230
913.431	4375
913.545	4329
913.659	4398
913.772	4322
913.886	4215
914	4211
914.113	4405
914.226	4447
914.34	4402
914.453	4215
914.566	4432
914.68	4291
914.793	4322
914.906	4158
915.019	4097
915.132	4116
915.245	4207
915.358	4204
915.47	4253
915.583	4322
915.696	4253
915.809	4402
915.921	4405
916.034	4215
916.146	4230
916.259	4211
916.371	4413
916.483	4310
916.595	4219
916.708	4322
916.82	4295
916.932	4318
917.044	4284
917.156	4318
917.268	4207
917.38	4325
917.491	4230
917.603	4314
917.715	4375
917.826	4428
917.938	4367
918.049	4268
918.161	4356
918.272	4519
918.384	4508
918.495	4455
918.606	4314
918.717	4265
918.828	4329
918.939	4348
919.05	4200
919.161	4325
919.272	4131
919.383	4181
919.494	4405
919.604	4592
919.715	4428
919.826	4379
919.936	4402
920.047	4538
920.157	4497
920.267	4702
920.378	4561
920.488	4519
920.598	4668
920.708	4858
920.818	4748
920.928	4782
921.038	4980
921.148	4919
921.258	4641
921.368	4592
921.477	4497
921.587	4455
921.697	4348
921.806	4596
921.916	4413
922.025	4284
922.134	4280
922.244	4192
922.353	4337
922.462	4181
922.571	4139
922.68	3998
922.789	3941
922.898	3949
923.007	4013
923.116	4071
923.224	4093
923.333	4040
923.442	4010
923.55	4021
923.659	4010
923.767	4067
923.876	4010
923.984	4082
924.092	4013
924.201	4010
924.309	4025
924.417	4120
924.525	4048
924.633	4078
924.741	5045
924.849	3941
924.956	4131
925.064	3934
925.172	3911
925.279	3998
925.387	4051
925.494	4032
925.602	4207
925.709	4139
925.816	4025
925.924	4154
926.031	4238
926.138	4147
926.245	4181
926.352	4090
926.459	4211
926.566	4306
926.673	4173
926.779	4086
926.886	4120
926.993	4036
927.099	3918
927.206	3972
927.312	3941
927.419	4044
927.525	4002
927.631	4112
927.737	3937
927.843	3926
927.95	3831
928.056	3941
928.162	3983
928.267	4055
928.373	4580
928.479	4086
928.585	3896
928.69	4017
928.796	4120
928.901	3934
929.007	3808
929.112	4032
929.218	3960
929.323	3937
929.428	3941
929.533	4109
929.638	3865
929.743	4021
929.848	4029
929.953	3972
930.058	3903
930.163	3797
930.267	3838
930.372	3964
930.477	3827
930.581	4124
930.685	3964
930.79	3842
930.894	3880
930.998	3835
931.103	4048
931.207	3709
931.311	3709
931.415	3652
931.519	3500
931.623	3515
