Data from test_V78500241_1272.txt Node
Date: Fri Mar 25 16:57:50 CST 2022
User: usil
Spectrometer: V785-0024
Trigger mode: 0
Integration Time (sec): 4.000000E-1
Scans to average: 1
Nonlinearity correction enabled: false
Boxcar width: 0
Storing dark spectrum: false
XAxis mode: Wavelengths
Number of Pixels in Spectrum: 1024
>>>>>Begin Spectral Data<<<<<
801.071	8031
801.214	7986
801.356	7898
801.499	7837
801.641	7731
801.783	7780
801.926	7917
802.068	7932
802.211	7940
802.353	7997
802.496	7750
802.638	7909
802.78	7947
802.923	7970
803.065	7913
803.208	7864
803.35	7978
803.492	8142
803.635	8153
803.777	7993
803.919	8142
804.061	8431
804.204	8111
804.346	8100
804.488	7955
804.63	8039
804.773	8027
804.915	8081
805.057	8328
805.199	8149
805.341	8237
805.483	8294
805.626	8210
805.768	8058
805.91	8267
806.052	8199
806.194	8081
806.336	8298
806.478	8031
806.62	8073
806.762	8161
806.904	8290
807.046	8446
807.188	8282
807.33	8275
807.472	8332
807.614	8107
807.756	8073
807.898	8020
808.04	7925
808.182	7860
808.324	7894
808.465	7970
808.607	8100
808.749	8081
808.891	8195
809.033	8263
809.174	8138
809.316	8069
809.458	8008
809.6	7959
809.741	8024
809.883	7963
810.025	8103
810.166	8050
810.308	7986
810.45	8012
810.591	7883
810.733	7712
810.875	7559
811.016	7578
811.158	7468
811.299	7582
811.441	7727
811.582	7658
811.724	7578
811.865	7499
812.007	7616
812.148	7647
812.29	7666
812.431	7746
812.573	7852
812.714	7993
812.855	8096
812.997	8229
813.138	8313
813.279	8210
813.421	8081
813.562	8005
813.703	7818
813.845	7772
813.986	7480
814.127	7289
814.268	7114
814.41	7240
814.551	7141
814.692	7247
814.833	7118
814.974	7046
815.115	7099
815.256	6878
815.397	6901
815.539	6970
815.68	6852
815.821	6734
815.962	6821
816.103	6814
816.244	6681
816.385	6612
816.526	6601
816.666	6448
816.807	6327
816.948	6414
817.089	6433
817.23	6445
817.371	6365
817.512	6388
817.653	6311
817.793	6338
817.934	6441
818.075	6475
818.216	6486
818.356	6357
818.497	6228
818.638	6178
818.778	6171
818.919	6144
819.06	6186
819.2	6311
819.341	6300
819.481	6289
819.622	6490
819.762	6703
819.903	6707
820.043	6574
820.184	6574
820.324	6616
820.465	6715
820.605	6711
820.746	6642
820.886	6517
821.026	6665
821.167	6627
821.307	6741
821.447	6738
821.588	6703
821.728	6566
821.868	6464
822.008	6357
822.149	6319
822.289	6338
822.429	6091
822.569	6076
822.709	6049
822.849	5996
822.99	5931
823.13	5931
823.27	5878
823.41	5764
823.55	5790
823.69	5752
823.83	5760
823.97	5684
824.11	5512
824.25	5509
824.389	5596
824.529	5532
824.669	5509
824.809	5619
824.949	5680
825.089	5630
825.228	5570
825.368	5414
825.508	5292
825.648	5315
825.787	5345
825.927	5353
826.067	5315
826.206	5284
826.346	5372
826.485	5360
826.625	5376
826.765	5566
826.904	5463
827.044	5250
827.183	5242
827.323	5090
827.462	5231
827.601	5159
827.741	5147
827.88	5170
828.02	5064
828.159	5235
828.298	5258
828.437	5360
828.577	5250
828.716	5493
828.855	5292
828.994	5162
829.134	5109
829.273	5197
829.412	5124
829.551	5143
829.69	5098
829.829	5254
829.968	5372
830.107	5239
830.246	5265
830.385	5166
830.524	5102
830.663	5041
830.802	4919
830.941	4850
831.08	4873
831.219	4957
831.357	4949
831.496	5109
831.635	4934
831.774	4854
831.913	4797
832.051	4740
832.19	4717
832.329	4820
832.467	4653
832.606	4672
832.744	4694
832.883	4698
833.022	4752
833.16	4759
833.299	4835
833.437	4801
833.576	4820
833.714	4885
833.852	4835
833.991	4889
834.129	4934
834.267	4961
834.406	4881
834.544	4953
834.682	4961
834.821	4976
834.959	5231
835.097	5003
835.235	5113
835.373	5075
835.511	5098
835.65	5010
835.788	5003
835.926	4934
836.064	4870
836.202	4957
836.34	5162
836.478	5201
836.615	5098
836.753	5193
836.891	5284
837.029	5204
837.167	5128
837.305	5162
837.443	5147
837.58	5124
837.718	5273
837.856	5197
837.993	5090
838.131	5193
838.269	5204
838.406	5178
838.544	5178
838.681	4995
838.819	4995
838.956	4923
839.094	4862
839.231	4946
839.369	5090
839.506	5429
839.643	5246
839.781	5045
839.918	4965
840.055	5098
840.193	5086
840.33	5075
840.467	5083
840.604	5216
840.742	5512
840.879	5060
841.016	5060
841.153	5064
841.29	5379
841.427	5341
841.564	5318
841.701	5349
841.838	5277
841.975	5216
842.112	5242
842.249	5128
842.385	5113
842.522	5315
842.659	5181
842.796	5136
842.933	5212
843.069	5140
843.206	5166
843.343	5296
843.479	5223
843.616	5269
843.752	5014
843.889	4999
844.025	5201
844.162	4984
844.298	5185
844.435	5102
844.571	5037
844.708	5235
844.844	5292
844.98	5322
845.117	5277
845.253	5140
845.389	5045
845.525	5155
845.661	5140
845.798	5056
845.934	5113
846.07	5025
846.206	5162
846.342	5299
846.478	5204
846.614	5037
846.75	4942
846.886	4919
847.022	5185
847.158	5018
847.294	5041
847.429	5132
847.565	4995
847.701	5330
847.837	4850
847.972	4771
848.108	4904
848.244	4953
848.379	4793
848.515	4729
848.65	4725
848.786	4748
848.921	4767
849.057	4843
849.192	4915
849.328	4816
849.463	4763
849.598	4790
849.734	4748
849.869	4702
850.004	4649
850.14	4649
850.275	4637
850.41	4497
850.545	4561
850.68	4592
850.815	4596
850.95	4660
851.085	4801
851.22	4771
851.355	4710
851.49	4592
851.625	4653
851.76	4668
851.895	4538
852.03	4516
852.165	4626
852.299	4691
852.434	4744
852.569	4714
852.703	4797
852.838	4824
852.973	4900
853.107	4942
853.242	4710
853.376	4679
853.511	4535
853.645	4527
853.78	4805
853.914	4717
854.048	4668
854.183	4660
854.317	4679
854.451	4831
854.585	4645
854.72	4622
854.854	4748
854.988	4580
855.122	4618
855.256	4535
855.39	4656
855.524	4763
855.658	4710
855.792	4736
855.926	4725
856.06	4729
856.194	4782
856.327	4672
856.461	4615
856.595	4626
856.729	4577
856.862	4733
856.996	4679
857.13	4740
857.263	4729
857.397	4748
857.53	4664
857.664	4687
857.797	4782
857.931	4786
858.064	4660
858.197	4725
858.331	4653
858.464	4622
858.597	4493
858.731	4596
858.864	4679
858.997	4580
859.13	4664
859.263	4607
859.396	4721
859.529	4573
859.662	4599
859.795	4550
859.928	4634
860.061	4706
860.194	4714
860.327	4561
860.46	4573
860.592	4679
860.725	4733
860.858	4691
860.99	4584
861.123	4508
861.256	4554
861.388	4607
861.521	5147
861.653	4462
861.786	4394
861.918	4436
862.05	4493
862.183	4558
862.315	4618
862.447	4645
862.58	4523
862.712	4478
862.844	4352
862.976	4474
863.108	4398
863.24	4885
863.372	4360
863.504	4436
863.636	4356
863.768	4481
863.9	4409
864.032	4284
864.164	4455
864.296	4421
864.428	4531
864.559	4569
864.691	4512
864.823	4516
864.954	4455
865.086	4512
865.217	4447
865.349	4428
865.48	4432
865.612	4508
865.743	4603
865.875	4535
866.006	4421
866.137	4462
866.269	4455
866.4	4390
866.531	4409
866.662	4390
866.793	4375
866.924	4375
867.055	4538
867.186	4481
867.317	4417
867.448	4348
867.579	4390
867.71	4367
867.841	4322
867.972	4455
868.103	4375
868.233	4405
868.364	4455
868.495	4489
868.625	4630
868.756	4721
868.886	4546
869.017	4618
869.147	4740
869.278	4725
869.408	4653
869.539	4618
869.669	4729
869.799	4634
869.929	4714
870.06	4725
870.19	4961
870.32	4870
870.45	4923
870.58	4938
870.71	5079
870.84	5064
870.97	4885
871.1	4900
871.23	5121
871.36	5105
871.489	5006
871.619	4984
871.749	5086
871.879	5098
872.008	5155
872.138	5041
872.267	4957
872.397	4843
872.526	4782
872.656	4675
872.785	4778
872.915	5006
873.044	5025
873.173	4938
873.303	4961
873.432	4953
873.561	4972
873.69	4835
873.819	4870
873.948	4911
874.077	4835
874.206	4778
874.335	4759
874.464	4919
874.593	5079
874.722	4991
874.851	5094
874.979	5014
875.108	5045
875.237	4877
875.365	4858
875.494	4873
875.623	4972
875.751	4801
875.88	4908
876.008	4980
876.136	5018
876.265	5189
876.393	5307
876.521	5216
876.65	5227
876.778	5102
876.906	5079
877.034	4976
877.162	5056
877.29	4961
877.418	5079
877.546	5006
877.674	5056
877.802	4980
877.93	4957
878.058	4938
878.185	4839
878.313	4934
878.441	4896
878.568	4801
878.696	4824
878.824	4965
878.951	4938
879.079	5155
879.206	5231
879.333	5071
879.461	5022
879.588	4991
879.715	5121
879.842	5201
879.97	5003
880.097	4767
880.224	4744
880.351	4793
880.478	4801
880.605	4740
880.732	4809
880.859	5045
880.986	4885
881.112	4889
881.239	4729
881.366	4706
881.493	4611
881.619	4626
881.746	4618
881.872	4668
881.999	4637
882.125	4668
882.252	4790
882.378	4831
882.505	4991
882.631	4782
882.757	4626
882.883	4740
883.01	4721
883.136	4637
883.262	4561
883.388	4615
883.514	4774
883.64	4900
883.766	4759
883.892	4649
884.018	4755
884.143	4820
884.269	4991
884.395	4714
884.52	4603
884.646	4622
884.772	4656
884.897	4573
885.023	4660
885.148	4752
885.274	4816
885.399	4797
885.524	4668
885.65	4721
885.775	4706
885.9	4683
886.025	4816
886.15	4778
886.275	4725
886.4	4641
886.525	4702
886.65	4691
886.775	4634
886.9	4881
887.025	5067
887.149	4820
887.274	4656
887.399	4599
887.523	4558
887.648	4626
887.773	4580
887.897	4771
888.021	4748
888.146	4714
888.27	4812
888.395	4850
888.519	4763
888.643	4850
888.767	4748
888.891	4672
889.015	4634
889.139	4622
889.263	4611
889.387	4748
889.511	4870
889.635	4786
889.759	4622
889.883	4611
890.006	4664
890.13	4870
890.254	4599
890.377	4649
890.501	4538
890.624	4493
890.748	4668
890.871	4485
890.995	4409
891.118	4398
891.241	4493
891.364	4485
891.488	4611
891.611	4508
891.734	4565
891.857	4607
891.98	4561
892.103	4634
892.226	4569
892.349	4531
892.471	4436
892.594	4519
892.717	4615
892.839	4569
892.962	4592
893.085	4649
893.207	4588
893.33	4474
893.452	4542
893.575	4653
893.697	4531
893.819	4820
893.941	4778
894.064	4774
894.186	4519
894.308	4527
894.43	4721
894.552	4790
894.674	4790
894.796	4535
894.918	4580
895.04	4546
895.161	4687
895.283	4653
895.405	4554
895.526	4618
895.648	4668
895.769	4664
895.891	4710
896.012	4687
896.134	4721
896.255	4683
896.376	4622
896.498	4565
896.619	4664
896.74	4592
896.861	4660
896.982	4885
897.103	5041
897.224	4828
897.345	4710
897.466	4637
897.587	4755
897.708	4820
897.828	4755
897.949	4672
898.07	4489
898.19	4596
898.311	4778
898.431	4626
898.552	4759
898.672	4786
898.792	4771
898.913	4740
899.033	4660
899.153	4462
899.273	4432
899.393	4481
899.513	4474
899.633	4523
899.753	4512
899.873	4512
899.993	4596
900.113	4558
900.232	4527
900.352	4500
900.472	4489
900.591	4443
900.711	4474
900.83	4432
900.95	4615
901.069	4698
901.189	4554
901.308	4352
901.427	4333
901.546	4367
901.665	4402
901.784	4493
901.904	4390
902.023	4318
902.141	4227
902.26	4177
902.379	4306
902.498	4257
902.617	4211
902.735	4363
902.854	4405
902.973	4295
903.091	4207
903.21	4223
903.328	4287
903.446	4261
903.565	4272
903.683	4295
903.801	4265
903.919	4398
904.038	4436
904.156	4344
904.274	4424
904.392	4352
904.51	4459
904.627	4466
904.745	4573
904.863	4573
904.981	4363
905.098	4303
905.216	4299
905.334	4455
905.451	4417
905.569	4440
905.686	4546
905.803	4542
905.921	4386
906.038	4516
906.155	4447
906.272	4440
906.389	4504
906.506	4333
906.623	4329
906.74	4375
906.857	4322
906.974	4325
907.091	4573
907.208	4679
907.324	4558
907.441	4508
907.557	4329
907.674	4344
907.79	4341
907.907	4379
908.023	4474
908.139	4466
908.256	4405
908.372	4489
908.488	4443
908.604	4386
908.72	4337
908.836	4402
908.952	4344
909.068	4413
909.184	4603
909.3	4443
909.415	4558
909.531	4546
909.647	4360
909.762	4375
909.878	4367
909.993	4443
910.108	4402
910.224	4375
910.339	4390
910.454	4363
910.57	4318
910.685	4314
910.8	4607
910.915	4538
911.03	4447
911.145	4360
911.259	4333
911.374	4337
911.489	4291
911.604	4284
911.718	4166
911.833	4196
911.947	4067
912.062	3998
912.176	4150
912.291	4227
912.405	4261
912.519	4432
912.633	4462
912.748	4360
912.862	4284
912.976	4200
913.09	4082
913.204	4166
913.318	4234
913.431	4325
913.545	4348
913.659	4413
913.772	4348
913.886	4306
914	4234
914.113	4360
914.226	4432
914.34	4383
914.453	4181
914.566	4390
914.68	4299
914.793	4352
914.906	4181
915.019	4131
915.132	4101
915.245	4181
915.358	4211
915.47	4230
915.583	4230
915.696	4287
915.809	4421
915.921	4417
916.034	4265
916.146	4238
916.259	4211
916.371	4341
916.483	4322
916.595	4242
916.708	4325
916.82	4352
916.932	4344
917.044	4348
917.156	4299
917.268	4234
917.38	4265
917.491	4204
917.603	4287
917.715	4421
917.826	4478
917.938	4363
918.049	4207
918.161	4386
918.272	4508
918.384	4508
918.495	4451
918.606	4287
918.717	4249
918.828	4363
918.939	4379
919.05	4242
919.161	4291
919.272	4082
919.383	4223
919.494	4417
919.604	4645
919.715	4409
919.826	4341
919.936	4413
920.047	4531
920.157	4504
920.267	4725
920.378	4474
920.488	4489
920.598	4717
920.708	4900
920.818	4744
920.928	4729
921.038	4961
921.148	4881
921.258	4607
921.368	4569
921.477	4455
921.587	4455
921.697	4375
921.806	4546
921.916	4390
922.025	4242
922.134	4227
922.244	4249
922.353	4337
922.462	4135
922.571	4131
922.68	4002
922.789	3941
922.898	4017
923.007	3960
923.116	4078
923.224	4116
923.333	4071
923.442	3968
923.55	4002
923.659	3998
923.767	4074
923.876	4013
923.984	4097
924.092	3998
924.201	4074
924.309	4086
924.417	4101
924.525	4032
924.633	4078
924.741	5025
924.849	3896
924.956	4112
925.064	3979
925.172	3926
925.279	3968
925.387	4048
925.494	4040
925.602	4215
925.709	4158
925.816	4048
925.924	4097
926.031	4204
926.138	4173
926.245	4185
926.352	4048
926.459	4246
926.566	4253
926.673	4177
926.779	4067
926.886	4082
926.993	3953
927.099	3934
927.206	3968
927.312	3918
927.419	4017
927.525	4025
927.631	4093
927.737	3953
927.843	3956
927.95	3857
928.056	3945
928.162	3937
928.267	4032
928.373	4672
928.479	4116
928.585	3880
928.69	4006
928.796	4074
928.901	3949
929.007	3850
929.112	4013
929.218	3915
929.323	3968
929.428	3979
929.533	4055
929.638	3960
929.743	3926
929.848	4105
929.953	4025
930.058	3941
930.163	3751
930.267	3838
930.372	3960
930.477	3819
930.581	4086
930.685	3964
930.79	3827
930.894	3892
930.998	3861
931.103	3983
931.207	3694
931.311	3709
931.415	3690
931.519	3526
931.623	3549
