Data from test_V78500241_2583.txt Node
Date: Fri Mar 25 17:06:57 CST 2022
User: usil
Spectrometer: V785-0024
Trigger mode: 0
Integration Time (sec): 4.000000E-1
Scans to average: 1
Nonlinearity correction enabled: false
Boxcar width: 0
Storing dark spectrum: false
XAxis mode: Wavelengths
Number of Pixels in Spectrum: 1024
>>>>>Begin Spectral Data<<<<<
801.071	8027
801.214	8027
801.356	7940
801.499	7875
801.641	7822
801.783	7887
801.926	7902
802.068	7925
802.211	7978
802.353	8111
802.496	7932
802.638	7936
802.78	7989
802.923	7940
803.065	7860
803.208	7890
803.35	8008
803.492	8062
803.635	8187
803.777	8054
803.919	8161
804.061	8530
804.204	8065
804.346	8119
804.488	7936
804.63	8126
804.773	8046
804.915	8138
805.057	8259
805.199	8119
805.341	8157
805.483	8324
805.626	8290
805.768	8176
805.91	8202
806.052	8153
806.194	8084
806.336	8347
806.478	8077
806.62	8062
806.762	8077
806.904	8267
807.046	8434
807.188	8370
807.33	8328
807.472	8370
807.614	8134
807.756	8138
807.898	7986
808.04	7845
808.182	7894
808.324	7849
808.465	7936
808.607	8100
808.749	8088
808.891	8221
809.033	8320
809.174	8180
809.316	8062
809.458	8069
809.6	8016
809.741	8054
809.883	8069
810.025	8107
810.166	8043
810.308	7970
810.45	8024
810.591	7909
810.733	7757
810.875	7620
811.016	7518
811.158	7491
811.299	7624
811.441	7753
811.582	7746
811.724	7647
811.865	7548
812.007	7655
812.148	7582
812.29	7658
812.431	7753
812.573	7879
812.714	7909
812.855	8115
812.997	8195
813.138	8320
813.279	8161
813.421	8031
813.562	8027
813.703	7871
813.845	7761
813.986	7506
814.127	7270
814.268	7209
814.41	7240
814.551	7114
814.692	7225
814.833	7114
814.974	7095
815.115	7118
815.256	6989
815.397	6928
815.539	7015
815.68	6844
815.821	6745
815.962	6833
816.103	6806
816.244	6700
816.385	6662
816.526	6639
816.666	6509
816.807	6353
816.948	6452
817.089	6486
817.23	6486
817.371	6494
817.512	6384
817.653	6365
817.793	6384
817.934	6433
818.075	6498
818.216	6437
818.356	6429
818.497	6224
818.638	6136
818.778	6121
818.919	6129
819.06	6136
819.2	6285
819.341	6410
819.481	6365
819.622	6563
819.762	6768
819.903	6764
820.043	6662
820.184	6608
820.324	6547
820.465	6745
820.605	6707
820.746	6734
820.886	6544
821.026	6715
821.167	6741
821.307	6787
821.447	6810
821.588	6669
821.728	6654
821.868	6544
822.008	6399
822.149	6384
822.289	6403
822.429	6178
822.569	6102
822.709	6159
822.849	5935
822.99	5961
823.13	5961
823.27	5973
823.41	5817
823.55	5760
823.69	5828
823.83	5771
823.97	5688
824.11	5562
824.25	5547
824.389	5592
824.529	5623
824.669	5524
824.809	5581
824.949	5638
825.089	5581
825.228	5570
825.368	5368
825.508	5288
825.648	5417
825.787	5421
825.927	5383
826.067	5326
826.206	5315
826.346	5395
826.485	5414
826.625	5440
826.765	5528
826.904	5509
827.044	5227
827.183	5208
827.323	5166
827.462	5220
827.601	5239
827.741	5155
827.88	5258
828.02	5121
828.159	5254
828.298	5292
828.437	5368
828.577	5284
828.716	5474
828.855	5341
828.994	5166
829.134	5166
829.273	5185
829.412	5151
829.551	5166
829.69	5170
829.829	5242
829.968	5379
830.107	5296
830.246	5299
830.385	5151
830.524	5117
830.663	5079
830.802	4976
830.941	4900
831.08	4843
831.219	4999
831.357	5006
831.496	5189
831.635	4953
831.774	4877
831.913	4892
832.051	4793
832.19	4820
832.329	4858
832.467	4714
832.606	4599
832.744	4714
832.883	4740
833.022	4729
833.16	4828
833.299	4824
833.437	4809
833.576	4896
833.714	4870
833.852	4900
833.991	4885
834.129	4999
834.267	4938
834.406	4927
834.544	5010
834.682	5006
834.821	4942
834.959	5246
835.097	4991
835.235	5143
835.373	5094
835.511	5075
835.65	5006
835.788	5025
835.926	4919
836.064	4892
836.202	4946
836.34	5178
836.478	5239
836.615	5098
836.753	5239
836.891	5330
837.029	5201
837.167	5220
837.305	5128
837.443	5140
837.58	5102
837.718	5204
837.856	5204
837.993	5086
838.131	5265
838.269	5239
838.406	5193
838.544	5216
838.681	5033
838.819	4991
838.956	4896
839.094	4885
839.231	4995
839.369	5045
839.506	5395
839.643	5197
839.781	5071
839.918	5029
840.055	5098
840.193	5094
840.33	5086
840.467	5166
840.604	5159
840.742	5486
840.879	5083
841.016	5132
841.153	5121
841.29	5425
841.427	5345
841.564	5383
841.701	5372
841.838	5261
841.975	5250
842.112	5269
842.249	5151
842.385	5124
842.522	5345
842.659	5216
842.796	5189
842.933	5185
843.069	5166
843.206	5132
843.343	5318
843.479	5250
843.616	5261
843.752	5067
843.889	4984
844.025	5235
844.162	5033
844.298	5178
844.435	5086
844.571	5048
844.708	5193
844.844	5299
844.98	5330
845.117	5322
845.253	5166
845.389	5048
845.525	5174
845.661	5208
845.798	4987
845.934	5132
846.07	5105
846.206	5239
846.342	5311
846.478	5140
846.614	5025
846.75	4980
846.886	4953
847.022	5136
847.158	5022
847.294	5098
847.429	5086
847.565	5067
847.701	5364
847.837	4843
847.972	4835
848.108	4980
848.244	4968
848.379	4801
848.515	4679
848.65	4725
848.786	4752
848.921	4774
849.057	4850
849.192	4915
849.328	4820
849.463	4889
849.598	4835
849.734	4767
849.869	4694
850.004	4615
850.14	4733
850.275	4618
850.41	4493
850.545	4577
850.68	4649
850.815	4611
850.95	4626
851.085	4843
851.22	4733
851.355	4664
851.49	4611
851.625	4656
851.76	4584
851.895	4626
852.03	4527
852.165	4656
852.299	4706
852.434	4797
852.569	4729
852.703	4824
852.838	4854
852.973	4911
853.107	4896
853.242	4717
853.376	4710
853.511	4493
853.645	4599
853.78	4782
853.914	4729
854.048	4675
854.183	4630
854.317	4706
854.451	4896
854.585	4645
854.72	4641
854.854	4786
854.988	4592
855.122	4634
855.256	4500
855.39	4706
855.524	4748
855.658	4771
855.792	4687
855.926	4759
856.06	4771
856.194	4809
856.327	4736
856.461	4618
856.595	4649
856.729	4622
856.862	4725
856.996	4679
857.13	4717
857.263	4774
857.397	4809
857.53	4656
857.664	4672
857.797	4767
857.931	4771
858.064	4679
858.197	4744
858.331	4660
858.464	4637
858.597	4538
858.731	4603
858.864	4653
858.997	4611
859.13	4691
859.263	4660
859.396	4710
859.529	4584
859.662	4580
859.795	4489
859.928	4603
860.061	4816
860.194	4767
860.327	4569
860.46	4565
860.592	4706
860.725	4694
860.858	4744
860.99	4599
861.123	4523
861.256	4516
861.388	4615
861.521	5315
861.653	4497
861.786	4470
861.918	4474
862.05	4558
862.183	4558
862.315	4599
862.447	4672
862.58	4527
862.712	4383
862.844	4306
862.976	4497
863.108	4409
863.24	4717
863.372	4295
863.504	4447
863.636	4409
863.768	4470
863.9	4451
864.032	4390
864.164	4436
864.296	4485
864.428	4508
864.559	4592
864.691	4527
864.823	4508
864.954	4504
865.086	4550
865.217	4428
865.349	4443
865.48	4459
865.612	4489
865.743	4626
865.875	4459
866.006	4451
866.137	4523
866.269	4432
866.4	4432
866.531	4459
866.662	4424
866.793	4421
866.924	4413
867.055	4489
867.186	4462
867.317	4421
867.448	4405
867.579	4352
867.71	4383
867.841	4367
867.972	4459
868.103	4459
868.233	4432
868.364	4478
868.495	4478
868.625	4664
868.756	4778
868.886	4512
869.017	4603
869.147	4790
869.278	4782
869.408	4672
869.539	4653
869.669	4782
869.799	4691
869.929	4736
870.06	4721
870.19	4949
870.32	4919
870.45	4911
870.58	5048
870.71	5113
870.84	5067
870.97	4953
871.1	4938
871.23	5109
871.36	5147
871.489	5018
871.619	5052
871.749	5109
871.879	5102
872.008	5208
872.138	5075
872.267	4965
872.397	4850
872.526	4831
872.656	4687
872.785	4835
872.915	4961
873.044	5045
873.173	4984
873.303	4995
873.432	5003
873.561	4949
873.69	4889
873.819	4816
873.948	4934
874.077	4793
874.206	4767
874.335	4820
874.464	4965
874.593	5060
874.722	4995
874.851	5094
874.979	5041
875.108	4999
875.237	4896
875.365	4881
875.494	4942
875.623	4976
875.751	4862
875.88	4839
876.008	4961
876.136	5048
876.265	5231
876.393	5410
876.521	5322
876.65	5204
876.778	5170
876.906	5094
877.034	5045
877.162	5041
877.29	5003
877.418	5060
877.546	5045
877.674	5079
877.802	5014
877.93	5022
878.058	4930
878.185	4938
878.313	4961
878.441	4961
878.568	4850
878.696	4919
878.824	4987
878.951	4987
879.079	5132
879.206	5292
879.333	5071
879.461	5003
879.588	5022
879.715	5128
879.842	5261
879.97	5025
880.097	4767
880.224	4759
880.351	4850
880.478	4824
880.605	4809
880.732	4778
880.859	5113
880.986	4927
881.112	4904
881.239	4812
881.366	4634
881.493	4626
881.619	4584
881.746	4653
881.872	4615
881.999	4660
882.125	4668
882.252	4744
882.378	4801
882.505	4953
882.631	4767
882.757	4626
882.883	4774
883.01	4748
883.136	4668
883.262	4637
883.388	4611
883.514	4854
883.64	4854
883.766	4748
883.892	4656
884.018	4729
884.143	4911
884.269	5037
884.395	4679
884.52	4630
884.646	4660
884.772	4592
884.897	4622
885.023	4656
885.148	4744
885.274	4843
885.399	4790
885.524	4733
885.65	4710
885.775	4786
885.9	4721
886.025	4828
886.15	4786
886.275	4790
886.4	4626
886.525	4706
886.65	4672
886.775	4744
886.9	4881
887.025	5029
887.149	4809
887.274	4599
887.399	4622
887.523	4592
887.648	4599
887.773	4588
887.897	4759
888.021	4763
888.146	4706
888.27	4774
888.395	4873
888.519	4782
888.643	4812
888.767	4843
888.891	4691
889.015	4641
889.139	4653
889.263	4573
889.387	4763
889.511	4809
889.635	4797
889.759	4660
889.883	4653
890.006	4729
890.13	4797
890.254	4618
890.377	4687
890.501	4546
890.624	4531
890.748	4637
890.871	4538
890.995	4402
891.118	4398
891.241	4512
891.364	4504
891.488	4645
891.611	4512
891.734	4527
891.857	4618
891.98	4558
892.103	4641
892.226	4569
892.349	4516
892.471	4405
892.594	4565
892.717	4542
892.839	4592
892.962	4622
893.085	4675
893.207	4584
893.33	4459
893.452	4565
893.575	4660
893.697	4588
893.819	4824
893.941	4801
894.064	4797
894.186	4535
894.308	4615
894.43	4710
894.552	4809
894.674	4691
894.796	4573
894.918	4599
895.04	4603
895.161	4706
895.283	4649
895.405	4577
895.526	4634
895.648	4687
895.769	4714
895.891	4687
896.012	4721
896.134	4725
896.255	4725
896.376	4645
896.498	4626
896.619	4687
896.74	4615
896.861	4561
896.982	4904
897.103	5086
897.224	4805
897.345	4767
897.466	4691
897.587	4729
897.708	4782
897.828	4778
897.949	4706
898.07	4592
898.19	4611
898.311	4824
898.431	4641
898.552	4725
898.672	4793
898.792	4816
898.913	4717
899.033	4660
899.153	4462
899.273	4432
899.393	4489
899.513	4558
899.633	4527
899.753	4558
899.873	4527
899.993	4607
900.113	4523
900.232	4569
900.352	4504
900.472	4527
900.591	4405
900.711	4504
900.83	4455
900.95	4664
901.069	4679
901.189	4527
901.308	4371
901.427	4314
901.546	4379
901.665	4474
901.784	4519
901.904	4379
902.023	4356
902.141	4143
902.26	4200
902.379	4314
902.498	4211
902.617	4196
902.735	4325
902.854	4390
902.973	4394
903.091	4200
903.21	4196
903.328	4284
903.446	4268
903.565	4234
903.683	4360
903.801	4299
903.919	4405
904.038	4424
904.156	4325
904.274	4459
904.392	4352
904.51	4394
904.627	4481
904.745	4626
904.863	4630
904.981	4386
905.098	4371
905.216	4409
905.334	4421
905.451	4459
905.569	4489
905.686	4519
905.803	4561
905.921	4413
906.038	4542
906.155	4512
906.272	4413
906.389	4436
906.506	4344
906.623	4375
906.74	4348
906.857	4333
906.974	4356
907.091	4538
907.208	4653
907.324	4584
907.441	4504
907.557	4371
907.674	4306
907.79	4318
907.907	4375
908.023	4489
908.139	4481
908.256	4481
908.372	4493
908.488	4474
908.604	4329
908.72	4329
908.836	4367
908.952	4405
909.068	4394
909.184	4561
909.3	4504
909.415	4588
909.531	4546
909.647	4291
909.762	4344
909.878	4383
909.993	4383
910.108	4436
910.224	4363
910.339	4489
910.454	4383
910.57	4386
910.685	4314
910.8	4675
910.915	4538
911.03	4489
911.145	4325
911.259	4329
911.374	4375
911.489	4261
911.604	4325
911.718	4177
911.833	4192
911.947	4090
912.062	4036
912.176	4177
912.291	4303
912.405	4276
912.519	4459
912.633	4489
912.748	4390
912.862	4333
912.976	4200
913.09	4067
913.204	4181
913.318	4261
913.431	4379
913.545	4348
913.659	4409
913.772	4356
913.886	4253
914	4204
914.113	4367
914.226	4409
914.34	4428
914.453	4242
914.566	4356
914.68	4325
914.793	4333
914.906	4154
915.019	4143
915.132	4051
915.245	4207
915.358	4246
915.47	4204
915.583	4268
915.696	4280
915.809	4402
915.921	4413
916.034	4280
916.146	4215
916.259	4242
916.371	4383
916.483	4356
916.595	4272
916.708	4337
916.82	4299
916.932	4337
917.044	4360
917.156	4383
917.268	4223
917.38	4280
917.491	4280
917.603	4314
917.715	4394
917.826	4447
917.938	4356
918.049	4249
918.161	4417
918.272	4554
918.384	4523
918.495	4466
918.606	4299
918.717	4242
918.828	4284
918.939	4363
919.05	4284
919.161	4371
919.272	4120
919.383	4257
919.494	4440
919.604	4615
919.715	4493
919.826	4333
919.936	4367
920.047	4535
920.157	4519
920.267	4691
920.378	4504
920.488	4531
920.598	4683
920.708	4881
920.818	4721
920.928	4771
921.038	4949
921.148	4908
921.258	4645
921.368	4558
921.477	4466
921.587	4447
921.697	4402
921.806	4569
921.916	4436
922.025	4310
922.134	4272
922.244	4223
922.353	4325
922.462	4173
922.571	4124
922.68	4010
922.789	4006
922.898	4013
923.007	4002
923.116	4105
923.224	4086
923.333	4078
923.442	4025
923.55	4017
923.659	3983
923.767	4090
923.876	3964
923.984	4074
924.092	3991
924.201	4086
924.309	4086
924.417	4158
924.525	4063
924.633	4105
924.741	5048
924.849	3884
924.956	4150
925.064	3987
925.172	3903
925.279	4006
925.387	4044
925.494	4090
925.602	4200
925.709	4215
925.816	4055
925.924	4150
926.031	4227
926.138	4150
926.245	4204
926.352	4082
926.459	4219
926.566	4272
926.673	4139
926.779	4086
926.886	4032
926.993	3983
927.099	3945
927.206	3941
927.312	3934
927.419	4071
927.525	4032
927.631	4074
927.737	3979
927.843	3949
927.95	3854
928.056	3945
928.162	4036
928.267	4048
928.373	4580
928.479	4097
928.585	3873
928.69	4036
928.796	4090
928.901	3983
929.007	3831
929.112	3975
929.218	3972
929.323	3956
929.428	3896
929.533	4086
929.638	3915
929.743	3926
929.848	4051
929.953	4029
930.058	3983
930.163	3781
930.267	3827
930.372	3998
930.477	3808
930.581	4086
930.685	3956
930.79	3850
930.894	3873
930.998	3873
931.103	4051
931.207	3743
931.311	3740
931.415	3698
931.519	3557
931.623	3576
