Data from test_V78500241_444.txt Node
Date: Fri Mar 25 16:52:05 CST 2022
User: usil
Spectrometer: V785-0024
Trigger mode: 0
Integration Time (sec): 4.000000E-1
Scans to average: 1
Nonlinearity correction enabled: false
Boxcar width: 0
Storing dark spectrum: false
XAxis mode: Wavelengths
Number of Pixels in Spectrum: 1024
>>>>>Begin Spectral Data<<<<<
801.071	8084
801.214	8020
801.356	7913
801.499	7928
801.641	7845
801.783	7883
801.926	8020
802.068	8027
802.211	8050
802.353	8069
802.496	7928
802.638	7921
802.78	7959
802.923	7871
803.065	7860
803.208	7826
803.35	7955
803.492	8081
803.635	8111
803.777	8024
803.919	8115
804.061	8431
804.204	8183
804.346	8119
804.488	8005
804.63	8103
804.773	7997
804.915	8092
805.057	8332
805.199	8214
805.341	8256
805.483	8237
805.626	8183
805.768	8069
805.91	8145
806.052	8195
806.194	8149
806.336	8336
806.478	8183
806.62	8199
806.762	8206
806.904	8298
807.046	8434
807.188	8336
807.33	8309
807.472	8393
807.614	8134
807.756	8229
807.898	8092
808.04	7921
808.182	7974
808.324	7989
808.465	7974
808.607	8084
808.749	8058
808.891	8172
809.033	8229
809.174	8161
809.316	8062
809.458	8046
809.6	8062
809.741	8001
809.883	8138
810.025	8161
810.166	8096
810.308	8077
810.45	8035
810.591	7875
810.733	7757
810.875	7689
811.016	7472
811.158	7544
811.299	7632
811.441	7784
811.582	7765
811.724	7624
811.865	7616
812.007	7655
812.148	7655
812.29	7616
812.431	7822
812.573	7944
812.714	8020
812.855	8183
812.997	8252
813.138	8419
813.279	8183
813.421	8237
813.562	8065
813.703	7951
813.845	7799
813.986	7544
814.127	7384
814.268	7316
814.41	7251
814.551	7149
814.692	7225
814.833	7095
814.974	7114
815.115	7164
815.256	7019
815.397	6943
815.539	6928
815.68	6863
815.821	6818
815.962	6882
816.103	6859
816.244	6818
816.385	6700
816.526	6677
816.666	6525
816.807	6372
816.948	6506
817.089	6502
817.23	6422
817.371	6433
817.512	6361
817.653	6429
817.793	6399
817.934	6486
818.075	6502
818.216	6483
818.356	6414
818.497	6270
818.638	6136
818.778	6155
818.919	6125
819.06	6220
819.2	6323
819.341	6338
819.481	6403
819.622	6532
819.762	6776
819.903	6684
820.043	6646
820.184	6597
820.324	6566
820.465	6650
820.605	6673
820.746	6642
820.886	6483
821.026	6688
821.167	6741
821.307	6806
821.447	6722
821.588	6677
821.728	6593
821.868	6509
822.008	6334
822.149	6407
822.289	6323
822.429	6171
822.569	6049
822.709	6125
822.849	5965
822.99	5901
823.13	5908
823.27	5920
823.41	5790
823.55	5824
823.69	5798
823.83	5786
823.97	5699
824.11	5562
824.25	5611
824.389	5596
824.529	5604
824.669	5532
824.809	5695
824.949	5642
825.089	5600
825.228	5619
825.368	5383
825.508	5357
825.648	5315
825.787	5406
825.927	5364
826.067	5341
826.206	5337
826.346	5398
826.485	5376
826.625	5429
826.765	5558
826.904	5482
827.044	5258
827.183	5208
827.323	5155
827.462	5318
827.601	5208
827.741	5193
827.88	5258
828.02	5124
828.159	5288
828.298	5261
828.437	5372
828.577	5322
828.716	5471
828.855	5337
828.994	5181
829.134	5162
829.273	5201
829.412	5166
829.551	5121
829.69	5136
829.829	5269
829.968	5398
830.107	5318
830.246	5322
830.385	5181
830.524	5117
830.663	5109
830.802	5018
830.941	4885
831.08	4904
831.219	5003
831.357	4991
831.496	5098
831.635	4957
831.774	4816
831.913	4843
832.051	4729
832.19	4744
832.329	4862
832.467	4733
832.606	4656
832.744	4729
832.883	4778
833.022	4729
833.16	4767
833.299	4839
833.437	4843
833.576	4816
833.714	4858
833.852	4904
833.991	4885
834.129	5014
834.267	4923
834.406	4961
834.544	4991
834.682	4999
834.821	4972
834.959	5174
835.097	5018
835.235	5151
835.373	5086
835.511	5090
835.65	5022
835.788	5056
835.926	4919
836.064	4908
836.202	4934
836.34	5235
836.478	5181
836.615	5185
836.753	5246
836.891	5269
837.029	5220
837.167	5208
837.305	5170
837.443	5124
837.58	5071
837.718	5231
837.856	5147
837.993	5212
838.131	5280
838.269	5189
838.406	5250
838.544	5170
838.681	5029
838.819	5010
838.956	4915
839.094	4904
839.231	5014
839.369	5140
839.506	5509
839.643	5277
839.781	5075
839.918	5022
840.055	5094
840.193	5132
840.33	5162
840.467	5155
840.604	5235
840.742	5554
840.879	5159
841.016	5128
841.153	5216
841.29	5402
841.427	5372
841.564	5341
841.701	5406
841.838	5296
841.975	5246
842.112	5258
842.249	5140
842.385	5083
842.522	5372
842.659	5155
842.796	5140
842.933	5254
843.069	5181
843.206	5109
843.343	5296
843.479	5185
843.616	5269
843.752	5022
843.889	5086
844.025	5193
844.162	5025
844.298	5185
844.435	5113
844.571	5109
844.708	5143
844.844	5364
844.98	5410
845.117	5284
845.253	5121
845.389	5098
845.525	5136
845.661	5189
845.798	5029
845.934	5155
846.07	5037
846.206	5208
846.342	5315
846.478	5174
846.614	5022
846.75	4949
846.886	4968
847.022	5132
847.158	5022
847.294	5064
847.429	5143
847.565	5052
847.701	5337
847.837	4790
847.972	4820
848.108	4953
848.244	4972
848.379	4790
848.515	4736
848.65	4698
848.786	4748
848.921	4793
849.057	4892
849.192	4908
849.328	4790
849.463	4839
849.598	4828
849.734	4740
849.869	4675
850.004	4645
850.14	4694
850.275	4599
850.41	4542
850.545	4588
850.68	4615
850.815	4645
850.95	4679
851.085	4877
851.22	4729
851.355	4672
851.49	4618
851.625	4664
851.76	4630
851.895	4611
852.03	4512
852.165	4649
852.299	4729
852.434	4812
852.569	4771
852.703	4774
852.838	4862
852.973	4972
853.107	4938
853.242	4752
853.376	4725
853.511	4607
853.645	4626
853.78	4816
853.914	4736
854.048	4706
854.183	4679
854.317	4694
854.451	4915
854.585	4748
854.72	4668
854.854	4809
854.988	4664
855.122	4706
855.256	4584
855.39	4675
855.524	4870
855.658	4805
855.792	4782
855.926	4752
856.06	4854
856.194	4896
856.327	4755
856.461	4584
856.595	4683
856.729	4725
856.862	4835
856.996	4774
857.13	4744
857.263	4828
857.397	4858
857.53	4691
857.664	4763
857.797	4786
857.931	4854
858.064	4706
858.197	4752
858.331	4698
858.464	4653
858.597	4607
858.731	4675
858.864	4710
858.997	4649
859.13	4717
859.263	4687
859.396	4812
859.529	4649
859.662	4634
859.795	4599
859.928	4679
860.061	4812
860.194	4885
860.327	4653
860.46	4611
860.592	4774
860.725	4759
860.858	4748
860.99	4630
861.123	4588
861.256	4561
861.388	4664
861.521	5444
861.653	4558
861.786	4470
861.918	4519
862.05	4577
862.183	4573
862.315	4683
862.447	4725
862.58	4596
862.712	4409
862.844	4352
862.976	4546
863.108	4500
863.24	4816
863.372	4333
863.504	4504
863.636	4474
863.768	4516
863.9	4512
864.032	4363
864.164	4478
864.296	4531
864.428	4592
864.559	4561
864.691	4569
864.823	4577
864.954	4497
865.086	4588
865.217	4478
865.349	4478
865.48	4481
865.612	4531
865.743	4660
865.875	4516
866.006	4516
866.137	4519
866.269	4512
866.4	4478
866.531	4462
866.662	4421
866.793	4405
866.924	4493
867.055	4588
867.186	4497
867.317	4470
867.448	4398
867.579	4455
867.71	4402
867.841	4413
867.972	4481
868.103	4493
868.233	4436
868.364	4489
868.495	4538
868.625	4668
868.756	4801
868.886	4603
869.017	4656
869.147	4763
869.278	4831
869.408	4687
869.539	4660
869.669	4740
869.799	4706
869.929	4774
870.06	4782
870.19	4984
870.32	4984
870.45	5014
870.58	5033
870.71	5136
870.84	5136
870.97	4957
871.1	4957
871.23	5208
871.36	5170
871.489	5029
871.619	5094
871.749	5121
871.879	5181
872.008	5166
872.138	5079
872.267	5003
872.397	4889
872.526	4862
872.656	4767
872.785	4839
872.915	4961
873.044	5071
873.173	4953
873.303	4968
873.432	5029
873.561	4980
873.69	4930
873.819	4949
873.948	4938
874.077	4835
874.206	4828
874.335	4839
874.464	5010
874.593	5083
874.722	4984
874.851	5121
874.979	5071
875.108	5060
875.237	4938
875.365	4972
875.494	4908
875.623	4991
875.751	4904
875.88	4915
876.008	5037
876.136	5060
876.265	5201
876.393	5391
876.521	5284
876.65	5216
876.778	5159
876.906	5121
877.034	5105
877.162	5056
877.29	5083
877.418	5083
877.546	5083
877.674	5041
877.802	5128
877.93	5113
878.058	5029
878.185	4858
878.313	5060
878.441	5033
878.568	4831
878.696	4881
878.824	5022
878.951	4999
879.079	5197
879.206	5296
879.333	5132
879.461	4972
879.588	5052
879.715	5174
879.842	5254
879.97	5025
880.097	4831
880.224	4801
880.351	4885
880.478	4881
880.605	4839
880.732	4870
880.859	5121
880.986	4908
881.112	4942
881.239	4839
881.366	4702
881.493	4637
881.619	4618
881.746	4683
881.872	4687
881.999	4729
882.125	4714
882.252	4858
882.378	4870
882.505	5033
882.631	4797
882.757	4717
882.883	4786
883.01	4809
883.136	4691
883.262	4634
883.388	4664
883.514	4862
883.64	4908
883.766	4843
883.892	4759
884.018	4748
884.143	4927
884.269	5018
884.395	4733
884.52	4694
884.646	4717
884.772	4637
884.897	4618
885.023	4683
885.148	4877
885.274	4930
885.399	4805
885.524	4710
885.65	4733
885.775	4801
885.9	4755
886.025	4885
886.15	4843
886.275	4778
886.4	4698
886.525	4755
886.65	4706
886.775	4759
886.9	4949
887.025	5048
887.149	4812
887.274	4687
887.399	4626
887.523	4637
887.648	4577
887.773	4599
887.897	4812
888.021	4774
888.146	4714
888.27	4831
888.395	4915
888.519	4862
888.643	4839
888.767	4858
888.891	4675
889.015	4660
889.139	4698
889.263	4660
889.387	4797
889.511	4915
889.635	4786
889.759	4706
889.883	4675
890.006	4763
890.13	4870
890.254	4683
890.377	4714
890.501	4577
890.624	4577
890.748	4691
890.871	4546
890.995	4466
891.118	4451
891.241	4523
891.364	4584
891.488	4691
891.611	4516
891.734	4558
891.857	4607
891.98	4584
892.103	4668
892.226	4615
892.349	4538
892.471	4443
892.594	4565
892.717	4618
892.839	4558
892.962	4637
893.085	4660
893.207	4615
893.33	4470
893.452	4584
893.575	4668
893.697	4622
893.819	4824
893.941	4881
894.064	4824
894.186	4649
894.308	4588
894.43	4740
894.552	4854
894.674	4797
894.796	4584
894.918	4615
895.04	4615
895.161	4702
895.283	4698
895.405	4615
895.526	4672
895.648	4717
895.769	4725
895.891	4755
896.012	4725
896.134	4748
896.255	4729
896.376	4702
896.498	4626
896.619	4752
896.74	4664
896.861	4683
896.982	4946
897.103	5124
897.224	4854
897.345	4752
897.466	4744
897.587	4759
897.708	4866
897.828	4824
897.949	4706
898.07	4580
898.19	4645
898.311	4835
898.431	4717
898.552	4774
898.672	4835
898.792	4877
898.913	4805
899.033	4664
899.153	4546
899.273	4474
899.393	4519
899.513	4580
899.633	4558
899.753	4535
899.873	4519
899.993	4656
900.113	4592
900.232	4603
900.352	4523
900.472	4531
900.591	4443
900.711	4550
900.83	4481
900.95	4588
901.069	4721
901.189	4577
901.308	4386
901.427	4383
901.546	4379
901.665	4538
901.784	4550
901.904	4462
902.023	4341
902.141	4200
902.26	4158
902.379	4390
902.498	4246
902.617	4253
902.735	4398
902.854	4459
902.973	4398
903.091	4265
903.21	4230
903.328	4303
903.446	4257
903.565	4310
903.683	4333
903.801	4268
903.919	4383
904.038	4436
904.156	4386
904.274	4451
904.392	4409
904.51	4508
904.627	4474
904.745	4607
904.863	4653
904.981	4417
905.098	4344
905.216	4386
905.334	4493
905.451	4470
905.569	4504
905.686	4599
905.803	4607
905.921	4459
906.038	4580
906.155	4500
906.272	4402
906.389	4470
906.506	4348
906.623	4383
906.74	4421
906.857	4367
906.974	4379
907.091	4565
907.208	4660
907.324	4618
907.441	4512
907.557	4352
907.674	4379
907.79	4363
907.907	4390
908.023	4508
908.139	4447
908.256	4421
908.372	4497
908.488	4481
908.604	4322
908.72	4356
908.836	4379
908.952	4398
909.068	4485
909.184	4561
909.3	4512
909.415	4615
909.531	4577
909.647	4360
909.762	4390
909.878	4432
909.993	4478
910.108	4432
910.224	4432
910.339	4531
910.454	4428
910.57	4341
910.685	4303
910.8	4706
910.915	4569
911.03	4497
911.145	4314
911.259	4371
911.374	4386
911.489	4348
911.604	4276
911.718	4128
911.833	4215
911.947	4093
912.062	4097
912.176	4219
912.291	4249
912.405	4261
912.519	4462
912.633	4538
912.748	4371
912.862	4322
912.976	4242
913.09	4082
913.204	4139
913.318	4268
913.431	4386
913.545	4379
913.659	4451
913.772	4371
913.886	4306
914	4295
914.113	4417
914.226	4409
914.34	4394
914.453	4265
914.566	4409
914.68	4272
914.793	4367
914.906	4139
915.019	4143
915.132	4082
915.245	4234
915.358	4242
915.47	4265
915.583	4276
915.696	4322
915.809	4459
915.921	4455
916.034	4253
916.146	4242
916.259	4257
916.371	4360
916.483	4360
916.595	4352
916.708	4367
916.82	4337
916.932	4375
917.044	4352
917.156	4375
917.268	4261
917.38	4299
917.491	4303
917.603	4348
917.715	4413
917.826	4428
917.938	4386
918.049	4261
918.161	4363
918.272	4573
918.384	4542
918.495	4459
918.606	4325
918.717	4227
918.828	4379
918.939	4424
919.05	4314
919.161	4314
919.272	4131
919.383	4257
919.494	4493
919.604	4611
919.715	4466
919.826	4386
919.936	4421
920.047	4546
920.157	4569
920.267	4687
920.378	4542
920.488	4516
920.598	4755
920.708	4904
920.818	4725
920.928	4786
921.038	4980
921.148	4896
921.258	4687
921.368	4546
921.477	4497
921.587	4474
921.697	4390
921.806	4580
921.916	4390
922.025	4265
922.134	4318
922.244	4207
922.353	4325
922.462	4181
922.571	4124
922.68	3991
922.789	3998
922.898	4074
923.007	3968
923.116	4105
923.224	4101
923.333	4086
923.442	3998
923.55	4002
923.659	4040
923.767	4124
923.876	3998
923.984	4131
924.092	3991
924.201	4097
924.309	4128
924.417	4124
924.525	4078
924.633	4135
924.741	5037
924.849	3926
924.956	4166
925.064	3968
925.172	3934
925.279	3972
925.387	4067
925.494	4109
925.602	4196
925.709	4211
925.816	4074
925.924	4166
926.031	4230
926.138	4200
926.245	4227
926.352	4105
926.459	4253
926.566	4306
926.673	4181
926.779	4063
926.886	4105
926.993	3956
927.099	3956
927.206	3934
927.312	3934
927.419	4051
927.525	4040
927.631	4116
927.737	4010
927.843	3941
927.95	3861
928.056	3934
928.162	3979
928.267	4090
928.373	4664
928.479	4162
928.585	3945
928.69	4044
928.796	4093
928.901	4010
929.007	3850
929.112	3975
929.218	3979
929.323	3960
929.428	3979
929.533	4147
929.638	3930
929.743	3956
929.848	4044
929.953	4002
930.058	3953
930.163	3827
930.267	3819
930.372	3964
930.477	3770
930.581	4131
930.685	3937
930.79	3823
930.894	3903
930.998	3861
931.103	4029
931.207	3762
931.311	3660
931.415	3682
931.519	3534
931.623	3572
