Data from test_V78500241_720.txt Node
Date: Fri Mar 25 16:54:00 CST 2022
User: usil
Spectrometer: V785-0024
Trigger mode: 0
Integration Time (sec): 4.000000E-1
Scans to average: 1
Nonlinearity correction enabled: false
Boxcar width: 0
Storing dark spectrum: false
XAxis mode: Wavelengths
Number of Pixels in Spectrum: 1024
>>>>>Begin Spectral Data<<<<<
801.071	8008
801.214	7997
801.356	7833
801.499	7849
801.641	7833
801.783	7799
801.926	7921
802.068	7921
802.211	7925
802.353	7974
802.496	7917
802.638	7833
802.78	7921
802.923	7898
803.065	7845
803.208	7822
803.35	7967
803.492	8092
803.635	8195
803.777	7997
803.919	8092
804.061	8393
804.204	8100
804.346	8100
804.488	7997
804.63	8043
804.773	7997
804.915	8100
805.057	8237
805.199	8081
805.341	8153
805.483	8221
805.626	8206
805.768	8199
805.91	8168
806.052	8225
806.194	8115
806.336	8237
806.478	8084
806.62	7970
806.762	8119
806.904	8180
807.046	8385
807.188	8317
807.33	8301
807.472	8385
807.614	8126
807.756	8100
807.898	7940
808.04	7784
808.182	7940
808.324	7883
808.465	7902
808.607	8005
808.749	8027
808.891	8176
809.033	8259
809.174	8187
809.316	8012
809.458	8039
809.6	7970
809.741	7963
809.883	7974
810.025	8096
810.166	8016
810.308	8031
810.45	7982
810.591	7906
810.733	7666
810.875	7643
811.016	7521
811.158	7525
811.299	7525
811.441	7670
811.582	7727
811.724	7605
811.865	7506
812.007	7559
812.148	7620
812.29	7594
812.431	7666
812.573	7894
812.714	7997
812.855	8103
812.997	8214
813.138	8298
813.279	8100
813.421	8065
813.562	8001
813.703	7849
813.845	7715
813.986	7506
814.127	7289
814.268	7255
814.41	7225
814.551	7126
814.692	7149
814.833	7008
814.974	7091
815.115	7091
815.256	6939
815.397	6954
815.539	6973
815.68	6829
815.821	6818
815.962	6825
816.103	6806
816.244	6726
816.385	6650
816.526	6612
816.666	6437
816.807	6273
816.948	6429
817.089	6460
817.23	6437
817.371	6369
817.512	6376
817.653	6384
817.793	6350
817.934	6380
818.075	6467
818.216	6445
818.356	6399
818.497	6220
818.638	6087
818.778	6133
818.919	6064
819.06	6186
819.2	6334
819.341	6258
819.481	6323
819.622	6574
819.762	6707
819.903	6662
820.043	6620
820.184	6551
820.324	6513
820.465	6646
820.605	6654
820.746	6547
820.886	6525
821.026	6642
821.167	6669
821.307	6760
821.447	6711
821.588	6627
821.728	6532
821.868	6513
822.008	6331
822.149	6311
822.289	6388
822.429	6136
822.569	6083
822.709	6129
822.849	5878
822.99	5874
823.13	5855
823.27	5874
823.41	5760
823.55	5824
823.69	5710
823.83	5794
823.97	5691
824.11	5570
824.25	5501
824.389	5573
824.529	5562
824.669	5501
824.809	5634
824.949	5676
825.089	5611
825.228	5528
825.368	5444
825.508	5318
825.648	5303
825.787	5387
825.927	5459
826.067	5307
826.206	5265
826.346	5387
826.485	5410
826.625	5383
826.765	5497
826.904	5398
827.044	5223
827.183	5204
827.323	5098
827.462	5242
827.601	5155
827.741	5220
827.88	5204
828.02	5121
828.159	5258
828.298	5307
828.437	5368
828.577	5311
828.716	5448
828.855	5334
828.994	5185
829.134	5204
829.273	5197
829.412	5204
829.551	5193
829.69	5204
829.829	5284
829.968	5414
830.107	5360
830.246	5284
830.385	5258
830.524	5136
830.663	5098
830.802	4968
830.941	4923
831.08	4915
831.219	4946
831.357	4991
831.496	5227
831.635	5033
831.774	4892
831.913	4885
832.051	4759
832.19	4839
832.329	4870
832.467	4733
832.606	4660
832.744	4755
832.883	4744
833.022	4763
833.16	4824
833.299	4854
833.437	4866
833.576	4870
833.714	4904
833.852	4896
833.991	4930
834.129	5003
834.267	4999
834.406	4938
834.544	5014
834.682	5037
834.821	4949
834.959	5197
835.097	5014
835.235	5132
835.373	5098
835.511	5083
835.65	5083
835.788	5071
835.926	4915
836.064	4911
836.202	4934
836.34	5208
836.478	5231
836.615	5136
836.753	5296
836.891	5326
837.029	5299
837.167	5292
837.305	5166
837.443	5227
837.58	5064
837.718	5284
837.856	5212
837.993	5151
838.131	5307
838.269	5189
838.406	5227
838.544	5239
838.681	5124
838.819	5090
838.956	4984
839.094	4915
839.231	5075
839.369	5105
839.506	5444
839.643	5341
839.781	5109
839.918	5086
840.055	5155
840.193	5170
840.33	5170
840.467	5159
840.604	5220
840.742	5440
840.879	5083
841.016	5113
841.153	5250
841.29	5414
841.427	5410
841.564	5372
841.701	5433
841.838	5292
841.975	5227
842.112	5269
842.249	5147
842.385	5166
842.522	5372
842.659	5208
842.796	5181
842.933	5239
843.069	5204
843.206	5223
843.343	5372
843.479	5296
843.616	5307
843.752	5071
843.889	5094
844.025	5227
844.162	5033
844.298	5239
844.435	5136
844.571	5064
844.708	5261
844.844	5341
844.98	5368
845.117	5284
845.253	5170
845.389	5117
845.525	5193
845.661	5117
845.798	5056
845.934	5132
846.07	5048
846.206	5235
846.342	5372
846.478	5197
846.614	5029
846.75	4984
846.886	4942
847.022	5159
847.158	5048
847.294	5094
847.429	5105
847.565	5064
847.701	5345
847.837	4900
847.972	4835
848.108	4987
848.244	4980
848.379	4774
848.515	4778
848.65	4809
848.786	4778
848.921	4790
849.057	4881
849.192	4927
849.328	4850
849.463	4873
849.598	4881
849.734	4797
849.869	4763
850.004	4641
850.14	4687
850.275	4603
850.41	4542
850.545	4630
850.68	4611
850.815	4679
850.95	4637
851.085	4828
851.22	4744
851.355	4675
851.49	4698
851.625	4714
851.76	4683
851.895	4500
852.03	4607
852.165	4630
852.299	4786
852.434	4831
852.569	4771
852.703	4778
852.838	4881
852.973	4938
853.107	4965
853.242	4786
853.376	4649
853.511	4550
853.645	4683
853.78	4835
853.914	4687
854.048	4721
854.183	4649
854.317	4698
854.451	4881
854.585	4630
854.72	4683
854.854	4752
854.988	4584
855.122	4592
855.256	4538
855.39	4679
855.524	4797
855.658	4706
855.792	4736
855.926	4733
856.06	4771
856.194	4824
856.327	4710
856.461	4622
856.595	4679
856.729	4668
856.862	4809
856.996	4710
857.13	4733
857.263	4801
857.397	4850
857.53	4649
857.664	4717
857.797	4763
857.931	4797
858.064	4729
858.197	4778
858.331	4706
858.464	4653
858.597	4512
858.731	4694
858.864	4637
858.997	4634
859.13	4679
859.263	4672
859.396	4687
859.529	4588
859.662	4580
859.795	4550
859.928	4664
860.061	4748
860.194	4790
860.327	4679
860.46	4607
860.592	4748
860.725	4733
860.858	4755
860.99	4645
861.123	4599
861.256	4535
861.388	4580
861.521	5406
861.653	4546
861.786	4493
861.918	4542
862.05	4538
862.183	4611
862.315	4656
862.447	4645
862.58	4569
862.712	4402
862.844	4371
862.976	4516
863.108	4504
863.24	4930
863.372	4409
863.504	4436
863.636	4459
863.768	4485
863.9	4451
864.032	4363
864.164	4386
864.296	4481
864.428	4599
864.559	4538
864.691	4561
864.823	4577
864.954	4497
865.086	4478
865.217	4500
865.349	4436
865.48	4527
865.612	4497
865.743	4626
865.875	4451
866.006	4436
866.137	4481
866.269	4508
866.4	4466
866.531	4405
866.662	4398
866.793	4432
866.924	4455
867.055	4550
867.186	4504
867.317	4462
867.448	4394
867.579	4413
867.71	4417
867.841	4371
867.972	4474
868.103	4470
868.233	4474
868.364	4443
868.495	4489
868.625	4649
868.756	4809
868.886	4580
869.017	4645
869.147	4729
869.278	4736
869.408	4649
869.539	4656
869.669	4733
869.799	4687
869.929	4744
870.06	4778
870.19	5003
870.32	4923
870.45	4984
870.58	4953
870.71	5098
870.84	5124
870.97	4961
871.1	4904
871.23	5155
871.36	5159
871.489	5003
871.619	5132
871.749	5109
871.879	5143
872.008	5136
872.138	5117
872.267	5014
872.397	4831
872.526	4835
872.656	4763
872.785	4824
872.915	5025
873.044	5041
873.173	4911
873.303	4980
873.432	4976
873.561	4949
873.69	4908
873.819	4828
873.948	4942
874.077	4885
874.206	4755
874.335	4790
874.464	4938
874.593	5064
874.722	4991
874.851	5086
874.979	5067
875.108	5067
875.237	4850
875.365	4862
875.494	4866
875.623	4995
875.751	4904
875.88	4835
876.008	4961
876.136	5064
876.265	5166
876.393	5353
876.521	5284
876.65	5239
876.778	5170
876.906	5105
877.034	4980
877.162	5109
877.29	4995
877.418	5041
877.546	5079
877.674	5041
877.802	5064
877.93	5067
878.058	4892
878.185	4934
878.313	4949
878.441	4987
878.568	4839
878.696	4923
878.824	5003
878.951	5041
879.079	5162
879.206	5265
879.333	5079
879.461	5029
879.588	4976
879.715	5113
879.842	5216
879.97	5079
880.097	4797
880.224	4782
880.351	4854
880.478	4850
880.605	4877
880.732	4820
880.859	5105
880.986	4946
881.112	4858
881.239	4778
881.366	4691
881.493	4603
881.619	4603
881.746	4656
881.872	4675
881.999	4687
882.125	4702
882.252	4835
882.378	4824
882.505	4965
882.631	4786
882.757	4687
882.883	4778
883.01	4714
883.136	4668
883.262	4611
883.388	4630
883.514	4793
883.64	4870
883.766	4801
883.892	4656
884.018	4755
884.143	4938
884.269	5010
884.395	4691
884.52	4656
884.646	4706
884.772	4577
884.897	4584
885.023	4710
885.148	4767
885.274	4839
885.399	4809
885.524	4748
885.65	4683
885.775	4729
885.9	4729
886.025	4820
886.15	4828
886.275	4752
886.4	4694
886.525	4714
886.65	4706
886.775	4710
886.9	4877
887.025	5083
887.149	4870
887.274	4645
887.399	4584
887.523	4577
887.648	4611
887.773	4607
887.897	4809
888.021	4786
888.146	4721
888.27	4862
888.395	4938
888.519	4835
888.643	4831
888.767	4847
888.891	4706
889.015	4611
889.139	4702
889.263	4630
889.387	4759
889.511	4904
889.635	4786
889.759	4649
889.883	4618
890.006	4733
890.13	4809
890.254	4641
890.377	4694
890.501	4573
890.624	4546
890.748	4672
890.871	4535
890.995	4474
891.118	4333
891.241	4531
891.364	4516
891.488	4702
891.611	4542
891.734	4546
891.857	4656
891.98	4584
892.103	4653
892.226	4603
892.349	4565
892.471	4394
892.594	4561
892.717	4592
892.839	4618
892.962	4615
893.085	4675
893.207	4630
893.33	4485
893.452	4516
893.575	4675
893.697	4618
893.819	4793
893.941	4828
894.064	4767
894.186	4596
894.308	4573
894.43	4782
894.552	4854
894.674	4786
894.796	4558
894.918	4611
895.04	4577
895.161	4694
895.283	4641
895.405	4596
895.526	4656
895.648	4702
895.769	4698
895.891	4744
896.012	4736
896.134	4706
896.255	4683
896.376	4656
896.498	4656
896.619	4645
896.74	4656
896.861	4603
896.982	4953
897.103	5140
897.224	4828
897.345	4748
897.466	4683
897.587	4740
897.708	4915
897.828	4797
897.949	4660
898.07	4569
898.19	4675
898.311	4835
898.431	4660
898.552	4752
898.672	4790
898.792	4797
898.913	4778
899.033	4618
899.153	4512
899.273	4478
899.393	4489
899.513	4519
899.633	4527
899.753	4523
899.873	4561
899.993	4622
900.113	4489
900.232	4607
900.352	4504
900.472	4497
900.591	4443
900.711	4474
900.83	4451
900.95	4626
901.069	4641
901.189	4523
901.308	4337
901.427	4363
901.546	4436
901.665	4478
901.784	4519
901.904	4394
902.023	4329
902.141	4166
902.26	4169
902.379	4325
902.498	4246
902.617	4230
902.735	4352
902.854	4394
902.973	4383
903.091	4207
903.21	4238
903.328	4329
903.446	4291
903.565	4280
903.683	4394
903.801	4253
903.919	4424
904.038	4428
904.156	4348
904.274	4459
904.392	4440
904.51	4447
904.627	4462
904.745	4584
904.863	4683
904.981	4386
905.098	4333
905.216	4413
905.334	4424
905.451	4447
905.569	4436
905.686	4584
905.803	4588
905.921	4443
906.038	4535
906.155	4512
906.272	4451
906.389	4455
906.506	4360
906.623	4398
906.74	4424
906.857	4246
906.974	4386
907.091	4569
907.208	4649
907.324	4573
907.441	4519
907.557	4360
907.674	4367
907.79	4348
907.907	4383
908.023	4474
908.139	4489
908.256	4428
908.372	4497
908.488	4489
908.604	4409
908.72	4284
908.836	4356
908.952	4367
909.068	4417
909.184	4554
909.3	4443
909.415	4607
909.531	4573
909.647	4306
909.762	4383
909.878	4348
909.993	4428
910.108	4398
910.224	4466
910.339	4466
910.454	4390
910.57	4367
910.685	4325
910.8	4687
910.915	4645
911.03	4508
911.145	4318
911.259	4325
911.374	4386
911.489	4295
911.604	4280
911.718	4188
911.833	4173
911.947	4097
912.062	4029
912.176	4211
912.291	4249
912.405	4246
912.519	4436
912.633	4531
912.748	4379
912.862	4363
912.976	4261
913.09	4154
913.204	4185
913.318	4246
913.431	4417
913.545	4371
913.659	4451
913.772	4402
913.886	4261
914	4200
914.113	4367
914.226	4443
914.34	4386
914.453	4211
914.566	4424
914.68	4310
914.793	4337
914.906	4204
915.019	4082
915.132	4090
915.245	4147
915.358	4211
915.47	4181
915.583	4249
915.696	4287
915.809	4451
915.921	4421
916.034	4306
916.146	4242
916.259	4230
916.371	4402
916.483	4360
916.595	4291
916.708	4367
916.82	4295
916.932	4329
917.044	4329
917.156	4325
917.268	4249
917.38	4265
917.491	4299
917.603	4390
917.715	4451
917.826	4424
917.938	4322
918.049	4242
918.161	4402
918.272	4542
918.384	4527
918.495	4436
918.606	4284
918.717	4230
918.828	4375
918.939	4386
919.05	4230
919.161	4352
919.272	4135
919.383	4272
919.494	4432
919.604	4630
919.715	4421
919.826	4379
919.936	4405
920.047	4580
920.157	4478
920.267	4698
920.378	4531
920.488	4470
920.598	4714
920.708	4896
920.818	4801
920.928	4755
921.038	5022
921.148	4946
921.258	4607
921.368	4561
921.477	4493
921.587	4519
921.697	4436
921.806	4535
921.916	4481
922.025	4261
922.134	4291
922.244	4200
922.353	4303
922.462	4158
922.571	4166
922.68	4013
922.789	3953
922.898	4032
923.007	4010
923.116	4116
923.224	4116
923.333	4105
923.442	3987
923.55	3991
923.659	4032
923.767	4112
923.876	3983
923.984	4173
924.092	3953
924.201	4093
924.309	4078
924.417	4124
924.525	4048
924.633	4063
924.741	5071
924.849	3915
924.956	4139
925.064	3998
925.172	3876
925.279	3975
925.387	4032
925.494	4082
925.602	4249
925.709	4188
925.816	4010
925.924	4162
926.031	4242
926.138	4139
926.245	4192
926.352	4078
926.459	4230
926.566	4284
926.673	4150
926.779	4105
926.886	4032
926.993	3945
927.099	3937
927.206	3960
927.312	3960
927.419	4059
927.525	4006
927.631	4071
927.737	3979
927.843	3922
927.95	3880
928.056	3953
928.162	3998
928.267	4078
928.373	4706
928.479	4128
928.585	3865
928.69	4040
928.796	4036
928.901	3964
929.007	3812
929.112	4002
929.218	3991
929.323	3926
929.428	3911
929.533	4093
929.638	3930
929.743	3994
929.848	3991
929.953	3994
930.058	3899
930.163	3755
930.267	3861
930.372	3968
930.477	3842
930.581	4048
930.685	3918
930.79	3854
930.894	3869
930.998	3854
931.103	4071
931.207	3740
931.311	3770
931.415	3667
931.519	3526
931.623	3587
