Data from test_V78500241_1708.txt Node
Date: Fri Mar 25 17:00:52 CST 2022
User: usil
Spectrometer: V785-0024
Trigger mode: 0
Integration Time (sec): 4.000000E-1
Scans to average: 1
Nonlinearity correction enabled: false
Boxcar width: 0
Storing dark spectrum: false
XAxis mode: Wavelengths
Number of Pixels in Spectrum: 1024
>>>>>Begin Spectral Data<<<<<
801.071	8065
801.214	8031
801.356	7864
801.499	7856
801.641	7795
801.783	7811
801.926	7986
802.068	7967
802.211	7993
802.353	8039
802.496	7830
802.638	7837
802.78	7909
802.923	7940
803.065	7940
803.208	7837
803.35	7970
803.492	8058
803.635	8142
803.777	7986
803.919	8103
804.061	8473
804.204	8138
804.346	8054
804.488	7902
804.63	8050
804.773	8046
804.915	8149
805.057	8210
805.199	8214
805.341	8187
805.483	8229
805.626	8164
805.768	8153
805.91	8161
806.052	8259
806.194	7993
806.336	8320
806.478	8065
806.62	8035
806.762	8153
806.904	8317
807.046	8530
807.188	8404
807.33	8351
807.472	8362
807.614	8202
807.756	8130
807.898	7963
808.04	7906
808.182	7925
808.324	7852
808.465	7909
808.607	8039
808.749	8161
808.891	8206
809.033	8328
809.174	8176
809.316	8065
809.458	8100
809.6	8001
809.741	8046
809.883	8043
810.025	8149
810.166	8065
810.308	8043
810.45	7982
810.591	7814
810.733	7811
810.875	7677
811.016	7540
811.158	7521
811.299	7578
811.441	7746
811.582	7674
811.724	7628
811.865	7620
812.007	7567
812.148	7601
812.29	7616
812.431	7772
812.573	7890
812.714	7993
812.855	8031
812.997	8221
813.138	8305
813.279	8240
813.421	8084
813.562	8020
813.703	7894
813.845	7757
813.986	7495
814.127	7247
814.268	7190
814.41	7175
814.551	7168
814.692	7244
814.833	7088
814.974	7034
815.115	7084
815.256	6913
815.397	6985
815.539	6993
815.68	6821
815.821	6760
815.962	6829
816.103	6787
816.244	6658
816.385	6623
816.526	6635
816.666	6521
816.807	6323
816.948	6429
817.089	6414
817.23	6441
817.371	6319
817.512	6296
817.653	6369
817.793	6410
817.934	6384
818.075	6471
818.216	6441
818.356	6407
818.497	6239
818.638	6129
818.778	6155
818.919	6140
819.06	6148
819.2	6334
819.341	6342
819.481	6315
819.622	6494
819.762	6730
819.903	6757
820.043	6608
820.184	6570
820.324	6544
820.465	6673
820.605	6631
820.746	6665
820.886	6540
821.026	6642
821.167	6726
821.307	6791
821.447	6791
821.588	6719
821.728	6532
821.868	6525
822.008	6311
822.149	6292
822.289	6357
822.429	6144
822.569	6079
822.709	6125
822.849	5939
822.99	5897
823.13	5939
823.27	5927
823.41	5844
823.55	5771
823.69	5832
823.83	5771
823.97	5657
824.11	5573
824.25	5501
824.389	5505
824.529	5585
824.669	5554
824.809	5646
824.949	5680
825.089	5653
825.228	5562
825.368	5334
825.508	5349
825.648	5414
825.787	5334
825.927	5318
826.067	5288
826.206	5273
826.346	5383
826.485	5376
826.625	5440
826.765	5577
826.904	5512
827.044	5250
827.183	5132
827.323	5140
827.462	5227
827.601	5162
827.741	5189
827.88	5201
828.02	5079
828.159	5189
828.298	5280
828.437	5326
828.577	5265
828.716	5436
828.855	5307
828.994	5162
829.134	5174
829.273	5201
829.412	5105
829.551	5132
829.69	5136
829.829	5231
829.968	5360
830.107	5273
830.246	5204
830.385	5185
830.524	5174
830.663	5056
830.802	4972
830.941	4858
831.08	4911
831.219	4949
831.357	4946
831.496	5140
831.635	4892
831.774	4862
831.913	4831
832.051	4733
832.19	4721
832.329	4805
832.467	4675
832.606	4634
832.744	4694
832.883	4691
833.022	4752
833.16	4755
833.299	4809
833.437	4831
833.576	4831
833.714	4801
833.852	4854
833.991	4847
834.129	4976
834.267	4927
834.406	4908
834.544	4984
834.682	5014
834.821	4957
834.959	5128
835.097	5010
835.235	5136
835.373	5083
835.511	5117
835.65	5025
835.788	5056
835.926	4885
836.064	4896
836.202	4889
836.34	5143
836.478	5235
836.615	5109
836.753	5212
836.891	5280
837.029	5261
837.167	5155
837.305	5143
837.443	5136
837.58	5071
837.718	5216
837.856	5170
837.993	5128
838.131	5220
838.269	5197
838.406	5246
838.544	5223
838.681	5041
838.819	4957
838.956	4881
839.094	4930
839.231	4957
839.369	5094
839.506	5425
839.643	5258
839.781	5064
839.918	5064
840.055	5113
840.193	5075
840.33	5079
840.467	5136
840.604	5178
840.742	5433
840.879	5060
841.016	5090
841.153	5155
841.29	5387
841.427	5334
841.564	5296
841.701	5376
841.838	5258
841.975	5216
842.112	5258
842.249	5162
842.385	5128
842.522	5311
842.659	5162
842.796	5147
842.933	5204
843.069	5143
843.206	5174
843.343	5311
843.479	5239
843.616	5261
843.752	5071
843.889	5010
844.025	5216
844.162	5025
844.298	5170
844.435	5052
844.571	5041
844.708	5201
844.844	5299
844.98	5353
845.117	5299
845.253	5143
845.389	5083
845.525	5136
845.661	5079
845.798	5003
845.934	5166
846.07	5025
846.206	5185
846.342	5246
846.478	5166
846.614	5033
846.75	4953
846.886	4961
847.022	5151
847.158	5022
847.294	5056
847.429	5090
847.565	5086
847.701	5284
847.837	4877
847.972	4790
848.108	4934
848.244	4938
848.379	4778
848.515	4683
848.65	4717
848.786	4725
848.921	4763
849.057	4885
849.192	4957
849.328	4824
849.463	4885
849.598	4790
849.734	4717
849.869	4717
850.004	4626
850.14	4725
850.275	4573
850.41	4535
850.545	4569
850.68	4622
850.815	4577
850.95	4611
851.085	4831
851.22	4752
851.355	4683
851.49	4664
851.625	4611
851.76	4622
851.895	4641
852.03	4516
852.165	4672
852.299	4691
852.434	4748
852.569	4778
852.703	4759
852.838	4843
852.973	4896
853.107	4919
853.242	4763
853.376	4714
853.511	4558
853.645	4592
853.78	4793
853.914	4706
854.048	4645
854.183	4599
854.317	4706
854.451	4828
854.585	4653
854.72	4615
854.854	4733
854.988	4584
855.122	4615
855.256	4542
855.39	4653
855.524	4759
855.658	4755
855.792	4717
855.926	4717
856.06	4721
856.194	4782
856.327	4672
856.461	4599
856.595	4592
856.729	4573
856.862	4752
856.996	4679
857.13	4706
857.263	4729
857.397	4843
857.53	4641
857.664	4714
857.797	4793
857.931	4786
858.064	4736
858.197	4725
858.331	4641
858.464	4645
858.597	4474
858.731	4596
858.864	4664
858.997	4561
859.13	4675
859.263	4694
859.396	4698
859.529	4592
859.662	4561
859.795	4516
859.928	4649
860.061	4740
860.194	4763
860.327	4554
860.46	4565
860.592	4672
860.725	4679
860.858	4733
860.99	4550
861.123	4493
861.256	4546
861.388	4626
861.521	5201
861.653	4481
861.786	4413
861.918	4462
862.05	4512
862.183	4561
862.315	4626
862.447	4653
862.58	4531
862.712	4405
862.844	4352
862.976	4478
863.108	4451
863.24	4892
863.372	4375
863.504	4413
863.636	4398
863.768	4478
863.9	4455
864.032	4356
864.164	4402
864.296	4440
864.428	4538
864.559	4554
864.691	4508
864.823	4527
864.954	4493
865.086	4504
865.217	4447
865.349	4443
865.48	4500
865.612	4497
865.743	4592
865.875	4462
866.006	4424
866.137	4417
866.269	4466
866.4	4436
866.531	4413
866.662	4344
866.793	4367
866.924	4398
867.055	4500
867.186	4436
867.317	4421
867.448	4371
867.579	4383
867.71	4367
867.841	4322
867.972	4447
868.103	4402
868.233	4451
868.364	4421
868.495	4455
868.625	4611
868.756	4721
868.886	4584
869.017	4634
869.147	4793
869.278	4714
869.408	4641
869.539	4611
869.669	4672
869.799	4641
869.929	4793
870.06	4763
870.19	4923
870.32	4892
870.45	4949
870.58	4987
870.71	5109
870.84	5083
870.97	4999
871.1	4881
871.23	5140
871.36	5132
871.489	5022
871.619	5010
871.749	5086
871.879	5086
872.008	5147
872.138	5041
872.267	4946
872.397	4889
872.526	4801
872.656	4767
872.785	4786
872.915	4923
873.044	4995
873.173	4923
873.303	4942
873.432	4934
873.561	4923
873.69	4889
873.819	4870
873.948	4858
874.077	4786
874.206	4733
874.335	4797
874.464	4911
874.593	5010
874.722	4961
874.851	5109
874.979	5037
875.108	5022
875.237	4885
875.365	4835
875.494	4953
875.623	4946
875.751	4816
875.88	4900
876.008	4968
876.136	5025
876.265	5159
876.393	5322
876.521	5216
876.65	5250
876.778	5170
876.906	5102
877.034	5086
877.162	5025
877.29	5003
877.418	5071
877.546	5037
877.674	4980
877.802	4961
877.93	5022
878.058	4972
878.185	4866
878.313	4980
878.441	4927
878.568	4782
878.696	4885
878.824	4923
878.951	5003
879.079	5075
879.206	5303
879.333	5079
879.461	4938
879.588	4919
879.715	5124
879.842	5204
879.97	5006
880.097	4759
880.224	4771
880.351	4809
880.478	4843
880.605	4809
880.732	4767
880.859	5045
880.986	4930
881.112	4915
881.239	4759
881.366	4687
881.493	4603
881.619	4599
881.746	4630
881.872	4634
881.999	4656
882.125	4672
882.252	4790
882.378	4824
882.505	4984
882.631	4816
882.757	4653
882.883	4733
883.01	4683
883.136	4679
883.262	4611
883.388	4615
883.514	4809
883.64	4854
883.766	4782
883.892	4710
884.018	4714
884.143	4877
884.269	5010
884.395	4660
884.52	4656
884.646	4702
884.772	4550
884.897	4569
885.023	4611
885.148	4809
885.274	4873
885.399	4793
885.524	4733
885.65	4626
885.775	4717
885.9	4653
886.025	4835
886.15	4797
886.275	4702
886.4	4660
886.525	4736
886.65	4687
886.775	4649
886.9	4854
887.025	5014
887.149	4755
887.274	4607
887.399	4573
887.523	4561
887.648	4531
887.773	4554
887.897	4759
888.021	4786
888.146	4618
888.27	4793
888.395	4934
888.519	4824
888.643	4790
888.767	4793
888.891	4687
889.015	4634
889.139	4603
889.263	4523
889.387	4748
889.511	4854
889.635	4778
889.759	4630
889.883	4649
890.006	4679
890.13	4801
890.254	4626
890.377	4698
890.501	4592
890.624	4504
890.748	4607
890.871	4489
890.995	4455
891.118	4398
891.241	4508
891.364	4489
891.488	4577
891.611	4455
891.734	4508
891.857	4580
891.98	4516
892.103	4660
892.226	4584
892.349	4527
892.471	4379
892.594	4546
892.717	4615
892.839	4599
892.962	4554
893.085	4668
893.207	4622
893.33	4443
893.452	4508
893.575	4668
893.697	4596
893.819	4790
893.941	4847
894.064	4733
894.186	4550
894.308	4588
894.43	4748
894.552	4805
894.674	4801
894.796	4577
894.918	4626
895.04	4531
895.161	4687
895.283	4611
895.405	4550
895.526	4565
895.648	4679
895.769	4641
895.891	4744
896.012	4778
896.134	4725
896.255	4622
896.376	4660
896.498	4611
896.619	4637
896.74	4611
896.861	4653
896.982	4900
897.103	5079
897.224	4839
897.345	4702
897.466	4656
897.587	4706
897.708	4839
897.828	4714
897.949	4675
898.07	4527
898.19	4649
898.311	4797
898.431	4679
898.552	4782
898.672	4782
898.792	4809
898.913	4710
899.033	4603
899.153	4519
899.273	4402
899.393	4466
899.513	4550
899.633	4470
899.753	4535
899.873	4462
899.993	4542
900.113	4577
900.232	4588
900.352	4531
900.472	4485
900.591	4421
900.711	4462
900.83	4485
900.95	4577
901.069	4637
901.189	4508
901.308	4413
901.427	4329
901.546	4333
901.665	4459
901.784	4497
901.904	4325
902.023	4325
902.141	4162
902.26	4169
902.379	4253
902.498	4169
902.617	4200
902.735	4383
902.854	4443
902.973	4310
903.091	4227
903.21	4207
903.328	4291
903.446	4284
903.565	4246
903.683	4356
903.801	4295
903.919	4367
904.038	4451
904.156	4284
904.274	4470
904.392	4367
904.51	4386
904.627	4478
904.745	4546
904.863	4607
904.981	4417
905.098	4329
905.216	4356
905.334	4421
905.451	4470
905.569	4413
905.686	4561
905.803	4569
905.921	4367
906.038	4565
906.155	4436
906.272	4417
906.389	4386
906.506	4333
906.623	4375
906.74	4356
906.857	4291
906.974	4348
907.091	4504
907.208	4626
907.324	4607
907.441	4481
907.557	4356
907.674	4322
907.79	4318
907.907	4367
908.023	4474
908.139	4508
908.256	4409
908.372	4440
908.488	4379
908.604	4295
908.72	4280
908.836	4371
908.952	4390
909.068	4421
909.184	4550
909.3	4451
909.415	4577
909.531	4538
909.647	4337
909.762	4375
909.878	4322
909.993	4421
910.108	4375
910.224	4383
910.339	4478
910.454	4390
910.57	4363
910.685	4287
910.8	4653
910.915	4618
911.03	4500
911.145	4333
911.259	4295
911.374	4413
911.489	4306
911.604	4261
911.718	4181
911.833	4230
911.947	4067
912.062	4025
912.176	4177
912.291	4200
912.405	4219
912.519	4428
912.633	4455
912.748	4352
912.862	4276
912.976	4196
913.09	4025
913.204	4135
913.318	4246
913.431	4322
913.545	4383
913.659	4402
913.772	4367
913.886	4204
914	4188
914.113	4409
914.226	4474
914.34	4371
914.453	4265
914.566	4424
914.68	4276
914.793	4325
914.906	4116
915.019	4143
915.132	4105
915.245	4181
915.358	4242
915.47	4230
915.583	4215
915.696	4272
915.809	4447
915.921	4390
916.034	4246
916.146	4230
916.259	4257
916.371	4375
916.483	4356
916.595	4268
916.708	4325
916.82	4333
916.932	4344
917.044	4333
917.156	4291
917.268	4272
917.38	4287
917.491	4249
917.603	4375
917.715	4428
917.826	4413
917.938	4333
918.049	4261
918.161	4402
918.272	4558
918.384	4535
918.495	4485
918.606	4287
918.717	4242
918.828	4363
918.939	4394
919.05	4306
919.161	4333
919.272	4158
919.383	4284
919.494	4417
919.604	4649
919.715	4470
919.826	4386
919.936	4443
920.047	4538
920.157	4550
920.267	4744
920.378	4607
920.488	4535
920.598	4710
920.708	4942
920.818	4801
920.928	4767
921.038	4976
921.148	4934
921.258	4672
921.368	4607
921.477	4516
921.587	4481
921.697	4386
921.806	4637
921.916	4447
922.025	4299
922.134	4303
922.244	4268
922.353	4371
922.462	4204
922.571	4177
922.68	4086
922.789	4044
922.898	4067
923.007	4040
923.116	4147
923.224	4074
923.333	4109
923.442	4002
923.55	3998
923.659	4071
923.767	4131
923.876	4040
923.984	4166
924.092	4013
924.201	4082
924.309	4177
924.417	4124
924.525	4086
924.633	4128
924.741	4942
924.849	3949
924.956	4143
925.064	4017
925.172	3941
925.279	3964
925.387	4071
925.494	4086
925.602	4253
925.709	4219
925.816	4059
925.924	4188
926.031	4280
926.138	4173
926.245	4211
926.352	4162
926.459	4257
926.566	4291
926.673	4162
926.779	4131
926.886	4162
926.993	4036
927.099	3972
927.206	3964
927.312	3979
927.419	4071
927.525	4055
927.631	4150
927.737	3964
927.843	3968
927.95	3854
928.056	3960
928.162	4048
928.267	4082
928.373	4717
928.479	4162
928.585	3896
928.69	4013
928.796	4090
928.901	3972
929.007	3865
929.112	4036
929.218	3975
929.323	3968
929.428	3926
929.533	4131
929.638	3911
929.743	4025
929.848	4059
929.953	3994
930.058	3945
930.163	3793
930.267	3850
930.372	3960
930.477	3899
930.581	4135
930.685	3949
930.79	3888
930.894	3903
930.998	3857
931.103	4074
931.207	3698
931.311	3728
931.415	3698
931.519	3538
931.623	3614
