Data from test_V78500241_162.txt Node
Date: Fri Mar 25 16:50:07 CST 2022
User: usil
Spectrometer: V785-0024
Trigger mode: 0
Integration Time (sec): 4.000000E-1
Scans to average: 1
Nonlinearity correction enabled: false
Boxcar width: 0
Storing dark spectrum: false
XAxis mode: Wavelengths
Number of Pixels in Spectrum: 1024
>>>>>Begin Spectral Data<<<<<
801.071	7997
801.214	7967
801.356	7902
801.499	7811
801.641	7826
801.783	7822
801.926	8020
802.068	7993
802.211	7951
802.353	8012
802.496	7811
802.638	7925
802.78	7894
802.923	7928
803.065	7868
803.208	7776
803.35	7947
803.492	8043
803.635	8119
803.777	7993
803.919	8058
804.061	8366
804.204	8020
804.346	7993
804.488	7902
804.63	8012
804.773	7951
804.915	8035
805.057	8290
805.199	8062
805.341	8229
805.483	8210
805.626	8180
805.768	8088
805.91	8149
806.052	8214
806.194	8088
806.336	8309
806.478	8153
806.62	8050
806.762	8096
806.904	8214
807.046	8423
807.188	8290
807.33	8279
807.472	8336
807.614	8115
807.756	8153
807.898	8062
808.04	7906
808.182	7940
808.324	7856
808.465	7883
808.607	8016
808.749	8081
808.891	8183
809.033	8324
809.174	8294
809.316	8073
809.458	8046
809.6	8005
809.741	8077
809.883	8008
810.025	8161
810.166	8096
810.308	7989
810.45	7993
810.591	7928
810.733	7788
810.875	7757
811.016	7582
811.158	7518
811.299	7605
811.441	7723
811.582	7666
811.724	7586
811.865	7632
812.007	7582
812.148	7651
812.29	7677
812.431	7788
812.573	7921
812.714	8050
812.855	8263
812.997	8275
813.138	8450
813.279	8199
813.421	8157
813.562	8027
813.703	7868
813.845	7757
813.986	7518
814.127	7350
814.268	7225
814.41	7198
814.551	7213
814.692	7209
814.833	7168
814.974	7171
815.115	7129
815.256	6973
815.397	6954
815.539	6947
815.68	6863
815.821	6798
815.962	6913
816.103	6913
816.244	6779
816.385	6616
816.526	6684
816.666	6536
816.807	6304
816.948	6467
817.089	6460
817.23	6506
817.371	6433
817.512	6418
817.653	6414
817.793	6369
817.934	6437
818.075	6445
818.216	6388
818.356	6464
818.497	6213
818.638	6102
818.778	6178
818.919	6129
819.06	6133
819.2	6281
819.341	6319
819.481	6350
819.622	6506
819.762	6700
819.903	6684
820.043	6608
820.184	6578
820.324	6585
820.465	6639
820.605	6692
820.746	6654
820.886	6467
821.026	6669
821.167	6692
821.307	6821
821.447	6776
821.588	6635
821.728	6585
821.868	6506
822.008	6292
822.149	6391
822.289	6361
822.429	6201
822.569	6098
822.709	6125
822.849	5851
822.99	5942
823.13	5961
823.27	5980
823.41	5840
823.55	5790
823.69	5828
823.83	5828
823.97	5703
824.11	5589
824.25	5467
824.389	5543
824.529	5611
824.669	5532
824.809	5630
824.949	5642
825.089	5600
825.228	5570
825.368	5376
825.508	5376
825.648	5410
825.787	5410
825.927	5349
826.067	5322
826.206	5311
826.346	5368
826.485	5395
826.625	5429
826.765	5566
826.904	5497
827.044	5235
827.183	5212
827.323	5105
827.462	5269
827.601	5181
827.741	5140
827.88	5212
828.02	5185
828.159	5201
828.298	5330
828.437	5364
828.577	5288
828.716	5516
828.855	5307
828.994	5185
829.134	5128
829.273	5208
829.412	5143
829.551	5212
829.69	5121
829.829	5193
829.968	5398
830.107	5273
830.246	5311
830.385	5170
830.524	5132
830.663	5071
830.802	4995
830.941	4873
831.08	4889
831.219	5010
831.357	4972
831.496	5178
831.635	4953
831.774	4889
831.913	4870
832.051	4744
832.19	4786
832.329	4896
832.467	4774
832.606	4683
832.744	4736
832.883	4702
833.022	4729
833.16	4816
833.299	4797
833.437	4843
833.576	4828
833.714	4896
833.852	4831
833.991	4877
834.129	4934
834.267	4972
834.406	4885
834.544	4965
834.682	5048
834.821	4942
834.959	5155
835.097	4991
835.235	5185
835.373	5143
835.511	5090
835.65	4991
835.788	4980
835.926	4953
836.064	4881
836.202	4915
836.34	5216
836.478	5261
836.615	5132
836.753	5227
836.891	5292
837.029	5239
837.167	5193
837.305	5170
837.443	5143
837.58	5094
837.718	5239
837.856	5178
837.993	5136
838.131	5235
838.269	5197
838.406	5254
838.544	5231
838.681	5022
838.819	5003
838.956	4911
839.094	4930
839.231	4995
839.369	5102
839.506	5410
839.643	5250
839.781	5075
839.918	5018
840.055	5079
840.193	5105
840.33	5094
840.467	5132
840.604	5143
840.742	5406
840.879	5136
841.016	5048
841.153	5181
841.29	5330
841.427	5364
841.564	5330
841.701	5303
841.838	5265
841.975	5265
842.112	5227
842.249	5121
842.385	5132
842.522	5303
842.659	5178
842.796	5121
842.933	5204
843.069	5162
843.206	5151
843.343	5284
843.479	5258
843.616	5269
843.752	5029
843.889	5003
844.025	5189
844.162	4987
844.298	5201
844.435	5121
844.571	5041
844.708	5189
844.844	5288
844.98	5360
845.117	5315
845.253	5136
845.389	5075
845.525	5197
845.661	5197
845.798	5037
845.934	5121
846.07	5064
846.206	5151
846.342	5265
846.478	5185
846.614	5052
846.75	4972
846.886	4923
847.022	5124
847.158	5045
847.294	5003
847.429	5037
847.565	5105
847.701	5360
847.837	4885
847.972	4839
848.108	4946
848.244	4934
848.379	4759
848.515	4767
848.65	4744
848.786	4714
848.921	4767
849.057	4854
849.192	4930
849.328	4835
849.463	4870
849.598	4778
849.734	4763
849.869	4721
850.004	4634
850.14	4664
850.275	4592
850.41	4519
850.545	4592
850.68	4580
850.815	4656
850.95	4653
851.085	4873
851.22	4736
851.355	4664
851.49	4656
851.625	4630
851.76	4637
851.895	4573
852.03	4554
852.165	4679
852.299	4733
852.434	4774
852.569	4755
852.703	4793
852.838	4828
852.973	4987
853.107	4946
853.242	4706
853.376	4630
853.511	4565
853.645	4618
853.78	4805
853.914	4687
854.048	4687
854.183	4649
854.317	4694
854.451	4904
854.585	4729
854.72	4664
854.854	4782
854.988	4603
855.122	4653
855.256	4478
855.39	4664
855.524	4809
855.658	4733
855.792	4683
855.926	4752
856.06	4778
856.194	4759
856.327	4702
856.461	4592
856.595	4649
856.729	4656
856.862	4839
856.996	4733
857.13	4702
857.263	4767
857.397	4835
857.53	4675
857.664	4759
857.797	4782
857.931	4752
858.064	4736
858.197	4755
858.331	4664
858.464	4611
858.597	4527
858.731	4596
858.864	4687
858.997	4615
859.13	4656
859.263	4755
859.396	4687
859.529	4599
859.662	4573
859.795	4573
859.928	4645
860.061	4774
860.194	4740
860.327	4588
860.46	4558
860.592	4721
860.725	4725
860.858	4736
860.99	4580
861.123	4519
861.256	4535
861.388	4660
861.521	5368
861.653	4470
861.786	4394
861.918	4459
862.05	4558
862.183	4569
862.315	4565
862.447	4679
862.58	4558
862.712	4424
862.844	4299
862.976	4538
863.108	4459
863.24	4877
863.372	4325
863.504	4398
863.636	4386
863.768	4519
863.9	4443
864.032	4356
864.164	4447
864.296	4497
864.428	4531
864.559	4569
864.691	4558
864.823	4542
864.954	4466
865.086	4504
865.217	4478
865.349	4459
865.48	4417
865.612	4516
865.743	4664
865.875	4478
866.006	4443
866.137	4474
866.269	4428
866.4	4447
866.531	4455
866.662	4428
866.793	4436
866.924	4421
867.055	4504
867.186	4424
867.317	4398
867.448	4363
867.579	4405
867.71	4428
867.841	4417
867.972	4478
868.103	4497
868.233	4459
868.364	4497
868.495	4485
868.625	4656
868.756	4752
868.886	4607
869.017	4603
869.147	4790
869.278	4824
869.408	4698
869.539	4656
869.669	4748
869.799	4664
869.929	4744
870.06	4721
870.19	4980
870.32	4972
870.45	4934
870.58	5010
870.71	5143
870.84	5075
870.97	4972
871.1	4908
871.23	5155
871.36	5197
871.489	5010
871.619	5075
871.749	5102
871.879	5132
872.008	5197
872.138	5094
872.267	4961
872.397	4854
872.526	4866
872.656	4691
872.785	4824
872.915	4957
873.044	5124
873.173	4968
873.303	4942
873.432	4961
873.561	4968
873.69	4915
873.819	4904
873.948	4946
874.077	4870
874.206	4782
874.335	4805
874.464	4927
874.593	5067
874.722	4991
874.851	5098
874.979	5143
875.108	5045
875.237	4896
875.365	4889
875.494	4934
875.623	4953
875.751	4892
875.88	4850
876.008	4972
876.136	5048
876.265	5261
876.393	5436
876.521	5250
876.65	5258
876.778	5201
876.906	5098
877.034	5010
877.162	5075
877.29	4991
877.418	5056
877.546	5056
877.674	5067
877.802	5022
877.93	5014
878.058	4927
878.185	4896
878.313	4976
878.441	4957
878.568	4828
878.696	4904
878.824	4972
878.951	5029
879.079	5174
879.206	5280
879.333	5147
879.461	4972
879.588	5056
879.715	5102
879.842	5220
879.97	5006
880.097	4831
880.224	4771
880.351	4889
880.478	4839
880.605	4858
880.732	4820
880.859	5090
880.986	4911
881.112	4961
881.239	4763
881.366	4656
881.493	4618
881.619	4584
881.746	4649
881.872	4664
881.999	4698
882.125	4721
882.252	4748
882.378	4793
882.505	4972
882.631	4763
882.757	4698
882.883	4755
883.01	4755
883.136	4691
883.262	4599
883.388	4683
883.514	4843
883.64	4889
883.766	4797
883.892	4634
884.018	4706
884.143	4923
884.269	5064
884.395	4687
884.52	4634
884.646	4622
884.772	4607
884.897	4622
885.023	4721
885.148	4774
885.274	4870
885.399	4816
885.524	4748
885.65	4702
885.775	4771
885.9	4736
886.025	4820
886.15	4820
886.275	4748
886.4	4660
886.525	4744
886.65	4755
886.775	4687
886.9	4957
887.025	5075
887.149	4812
887.274	4679
887.399	4592
887.523	4603
887.648	4588
887.773	4558
887.897	4786
888.021	4786
888.146	4683
888.27	4793
888.395	4900
888.519	4793
888.643	4740
888.767	4805
888.891	4752
889.015	4626
889.139	4641
889.263	4599
889.387	4778
889.511	4839
889.635	4797
889.759	4641
889.883	4626
890.006	4729
890.13	4805
890.254	4641
890.377	4698
890.501	4523
890.624	4565
890.748	4615
890.871	4516
890.995	4489
891.118	4405
891.241	4531
891.364	4531
891.488	4668
891.611	4550
891.734	4554
891.857	4611
891.98	4535
892.103	4660
892.226	4637
892.349	4500
892.471	4440
892.594	4538
892.717	4637
892.839	4561
892.962	4561
893.085	4687
893.207	4599
893.33	4470
893.452	4512
893.575	4637
893.697	4649
893.819	4820
893.941	4809
894.064	4801
894.186	4599
894.308	4558
894.43	4714
894.552	4820
894.674	4729
894.796	4527
894.918	4577
895.04	4554
895.161	4698
895.283	4679
895.405	4592
895.526	4679
895.648	4691
895.769	4683
895.891	4725
896.012	4706
896.134	4786
896.255	4691
896.376	4622
896.498	4622
896.619	4668
896.74	4618
896.861	4630
896.982	4919
897.103	5162
897.224	4881
897.345	4782
897.466	4672
897.587	4759
897.708	4927
897.828	4805
897.949	4660
898.07	4596
898.19	4668
898.311	4778
898.431	4679
898.552	4740
898.672	4881
898.792	4793
898.913	4782
899.033	4607
899.153	4474
899.273	4421
899.393	4508
899.513	4512
899.633	4538
899.753	4550
899.873	4546
899.993	4592
900.113	4550
900.232	4611
900.352	4531
900.472	4500
900.591	4413
900.711	4504
900.83	4421
900.95	4634
901.069	4691
901.189	4577
901.308	4375
901.427	4367
901.546	4371
901.665	4569
901.784	4519
901.904	4405
902.023	4333
902.141	4207
902.26	4150
902.379	4318
902.498	4246
902.617	4284
902.735	4394
902.854	4417
902.973	4344
903.091	4253
903.21	4253
903.328	4337
903.446	4291
903.565	4246
903.683	4367
903.801	4341
903.919	4417
904.038	4443
904.156	4329
904.274	4459
904.392	4379
904.51	4398
904.627	4542
904.745	4592
904.863	4668
904.981	4413
905.098	4333
905.216	4390
905.334	4367
905.451	4432
905.569	4474
905.686	4573
905.803	4580
905.921	4459
906.038	4550
906.155	4489
906.272	4383
906.389	4500
906.506	4337
906.623	4375
906.74	4409
906.857	4344
906.974	4379
907.091	4546
907.208	4672
907.324	4577
907.441	4470
907.557	4383
907.674	4363
907.79	4348
907.907	4432
908.023	4512
908.139	4478
908.256	4485
908.372	4443
908.488	4428
908.604	4325
908.72	4299
908.836	4394
908.952	4398
909.068	4459
909.184	4577
909.3	4519
909.415	4599
909.531	4588
909.647	4352
909.762	4371
909.878	4363
909.993	4443
910.108	4386
910.224	4516
910.339	4493
910.454	4436
910.57	4367
910.685	4333
910.8	4641
910.915	4554
911.03	4504
911.145	4337
911.259	4356
911.374	4363
911.489	4310
911.604	4291
911.718	4120
911.833	4204
911.947	4097
912.062	4059
912.176	4227
912.291	4234
912.405	4299
912.519	4512
912.633	4542
912.748	4402
912.862	4303
912.976	4188
913.09	4128
913.204	4162
913.318	4272
913.431	4417
913.545	4375
913.659	4413
913.772	4367
913.886	4272
914	4268
914.113	4386
914.226	4443
914.34	4379
914.453	4230
914.566	4474
914.68	4314
914.793	4363
914.906	4249
915.019	4097
915.132	4109
915.245	4200
915.358	4200
915.47	4246
915.583	4383
915.696	4318
915.809	4459
915.921	4451
916.034	4261
916.146	4257
916.259	4242
916.371	4409
916.483	4360
916.595	4257
916.708	4413
916.82	4314
916.932	4360
917.044	4337
917.156	4306
917.268	4238
917.38	4303
917.491	4272
917.603	4341
917.715	4478
917.826	4470
917.938	4371
918.049	4230
918.161	4375
918.272	4584
918.384	4546
918.495	4481
918.606	4272
918.717	4242
918.828	4303
918.939	4329
919.05	4257
919.161	4337
919.272	4116
919.383	4223
919.494	4504
919.604	4641
919.715	4462
919.826	4394
919.936	4394
920.047	4485
920.157	4470
920.267	4714
920.378	4630
920.488	4516
920.598	4687
920.708	4908
920.818	4740
920.928	4759
921.038	4957
921.148	4930
921.258	4679
921.368	4573
921.477	4489
921.587	4462
921.697	4398
921.806	4554
921.916	4436
922.025	4291
922.134	4238
922.244	4230
922.353	4360
922.462	4166
922.571	4169
922.68	4074
922.789	3979
922.898	4074
923.007	3983
923.116	4112
923.224	4055
923.333	4093
923.442	4025
923.55	3983
923.659	4029
923.767	4093
923.876	4002
923.984	4116
924.092	4002
924.201	4093
924.309	4105
924.417	4109
924.525	4090
924.633	4112
924.741	4877
924.849	3949
924.956	4143
925.064	3949
925.172	3960
925.279	3949
925.387	4063
925.494	4055
925.602	4223
925.709	4177
925.816	4063
925.924	4154
926.031	4223
926.138	4211
926.245	4257
926.352	4135
926.459	4295
926.566	4306
926.673	4188
926.779	4093
926.886	4082
926.993	3979
927.099	3968
927.206	3945
927.312	3991
927.419	4051
927.525	4044
927.631	4120
927.737	3941
927.843	3994
927.95	3873
928.056	3956
928.162	3983
928.267	4036
928.373	4698
928.479	4135
928.585	3896
928.69	4055
928.796	4112
928.901	3964
929.007	3888
929.112	4036
929.218	3979
929.323	3960
929.428	3956
929.533	4135
929.638	3911
929.743	3972
929.848	4010
929.953	4051
930.058	3991
930.163	3846
930.267	3846
930.372	3991
930.477	3778
930.581	4105
930.685	3968
930.79	3846
930.894	3899
930.998	3880
931.103	4071
931.207	3736
931.311	3713
931.415	3694
931.519	3553
931.623	3545
