Data from test_V78500241_1158.txt Node
Date: Fri Mar 25 16:57:03 CST 2022
User: usil
Spectrometer: V785-0024
Trigger mode: 0
Integration Time (sec): 4.000000E-1
Scans to average: 1
Nonlinearity correction enabled: false
Boxcar width: 0
Storing dark spectrum: false
XAxis mode: Wavelengths
Number of Pixels in Spectrum: 1024
>>>>>Begin Spectral Data<<<<<
801.071	8081
801.214	8065
801.356	7894
801.499	7875
801.641	7750
801.783	7807
801.926	7932
802.068	7928
802.211	7928
802.353	7974
802.496	7780
802.638	7856
802.78	7852
802.923	7997
803.065	7890
803.208	7894
803.35	7963
803.492	8065
803.635	8210
803.777	8043
803.919	8103
804.061	8442
804.204	8153
804.346	8046
804.488	8031
804.63	8073
804.773	8016
804.915	8054
805.057	8244
805.199	8164
805.341	8267
805.483	8263
805.626	8275
805.768	8191
805.91	8183
806.052	8275
806.194	8119
806.336	8320
806.478	8126
806.62	8062
806.762	8218
806.904	8271
807.046	8431
807.188	8320
807.33	8237
807.472	8290
807.614	8058
807.756	8088
807.898	7993
808.04	7925
808.182	7875
808.324	7887
808.465	7902
808.607	8069
808.749	8081
808.891	8210
809.033	8259
809.174	8206
809.316	8065
809.458	8054
809.6	7951
809.741	8069
809.883	8016
810.025	8046
810.166	8043
810.308	8043
810.45	8027
810.591	7925
810.733	7704
810.875	7647
811.016	7559
811.158	7544
811.299	7597
811.441	7731
811.582	7712
811.724	7636
811.865	7499
812.007	7597
812.148	7563
812.29	7689
812.431	7776
812.573	7925
812.714	7974
812.855	8202
812.997	8259
813.138	8351
813.279	8305
813.421	8233
813.562	8088
813.703	7955
813.845	7772
813.986	7487
814.127	7301
814.268	7247
814.41	7206
814.551	7187
814.692	7209
814.833	7069
814.974	7107
815.115	7118
815.256	6951
815.397	6973
815.539	7069
815.68	6871
815.821	6878
815.962	6928
816.103	6829
816.244	6684
816.385	6681
816.526	6703
816.666	6517
816.807	6266
816.948	6513
817.089	6448
817.23	6509
817.371	6429
817.512	6433
817.653	6448
817.793	6384
817.934	6467
818.075	6464
818.216	6441
818.356	6486
818.497	6216
818.638	6175
818.778	6228
818.919	6148
819.06	6205
819.2	6353
819.341	6315
819.481	6372
819.622	6544
819.762	6730
819.903	6745
820.043	6627
820.184	6620
820.324	6654
820.465	6719
820.605	6662
820.746	6669
820.886	6574
821.026	6730
821.167	6700
821.307	6825
821.447	6745
821.588	6700
821.728	6593
821.868	6506
822.008	6353
822.149	6380
822.289	6414
822.429	6175
822.569	6133
822.709	6110
822.849	5931
822.99	5874
823.13	5885
823.27	5950
823.41	5798
823.55	5813
823.69	5794
823.83	5783
823.97	5638
824.11	5585
824.25	5471
824.389	5589
824.529	5577
824.669	5490
824.809	5672
824.949	5672
825.089	5623
825.228	5524
825.368	5433
825.508	5341
825.648	5318
825.787	5417
825.927	5406
826.067	5379
826.206	5284
826.346	5406
826.485	5406
826.625	5414
826.765	5558
826.904	5512
827.044	5303
827.183	5185
827.323	5143
827.462	5258
827.601	5223
827.741	5204
827.88	5246
828.02	5128
828.159	5269
828.298	5311
828.437	5421
828.577	5284
828.716	5532
828.855	5326
828.994	5136
829.134	5201
829.273	5201
829.412	5174
829.551	5185
829.69	5181
829.829	5254
829.968	5383
830.107	5307
830.246	5311
830.385	5201
830.524	5128
830.663	5102
830.802	5014
830.941	4889
831.08	4870
831.219	4968
831.357	4957
831.496	5170
831.635	4923
831.774	4847
831.913	4873
832.051	4793
832.19	4793
832.329	4831
832.467	4759
832.606	4668
832.744	4755
832.883	4793
833.022	4714
833.16	4786
833.299	4831
833.437	4847
833.576	4892
833.714	4892
833.852	4858
833.991	4881
834.129	4930
834.267	5018
834.406	4957
834.544	5014
834.682	5022
834.821	4946
834.959	5208
835.097	5022
835.235	5166
835.373	5147
835.511	5109
835.65	5071
835.788	5052
835.926	4892
836.064	4877
836.202	4946
836.34	5162
836.478	5258
836.615	5105
836.753	5216
836.891	5315
837.029	5254
837.167	5239
837.305	5121
837.443	5159
837.58	5105
837.718	5288
837.856	5204
837.993	5143
838.131	5223
838.269	5258
838.406	5208
838.544	5189
838.681	5033
838.819	4995
838.956	4908
839.094	4946
839.231	5029
839.369	5079
839.506	5463
839.643	5315
839.781	5113
839.918	5071
840.055	5124
840.193	5083
840.33	5121
840.467	5132
840.604	5162
840.742	5505
840.879	5083
841.016	5140
841.153	5185
841.29	5452
841.427	5345
841.564	5357
841.701	5402
841.838	5299
841.975	5280
842.112	5288
842.249	5151
842.385	5151
842.522	5372
842.659	5189
842.796	5143
842.933	5208
843.069	5178
843.206	5197
843.343	5330
843.479	5273
843.616	5273
843.752	5045
843.889	5025
844.025	5227
844.162	4995
844.298	5227
844.435	5124
844.571	5052
844.708	5193
844.844	5284
844.98	5353
845.117	5265
845.253	5147
845.389	5094
845.525	5185
845.661	5155
845.798	4972
845.934	5140
846.07	5018
846.206	5201
846.342	5315
846.478	5151
846.614	5033
846.75	4938
846.886	4953
847.022	5124
847.158	5045
847.294	5067
847.429	5086
847.565	5064
847.701	5307
847.837	4828
847.972	4812
848.108	5003
848.244	4949
848.379	4805
848.515	4771
848.65	4752
848.786	4736
848.921	4790
849.057	4904
849.192	4946
849.328	4793
849.463	4892
849.598	4786
849.734	4774
849.869	4706
850.004	4645
850.14	4691
850.275	4641
850.41	4538
850.545	4618
850.68	4577
850.815	4641
850.95	4596
851.085	4809
851.22	4790
851.355	4618
851.49	4618
851.625	4626
851.76	4672
851.895	4577
852.03	4558
852.165	4656
852.299	4698
852.434	4778
852.569	4714
852.703	4759
852.838	4843
852.973	4896
853.107	4919
853.242	4752
853.376	4611
853.511	4531
853.645	4675
853.78	4839
853.914	4668
854.048	4630
854.183	4668
854.317	4710
854.451	4824
854.585	4664
854.72	4626
854.854	4793
854.988	4603
855.122	4691
855.256	4512
855.39	4687
855.524	4782
855.658	4759
855.792	4714
855.926	4736
856.06	4767
856.194	4790
856.327	4679
856.461	4618
856.595	4634
856.729	4622
856.862	4706
856.996	4755
857.13	4729
857.263	4759
857.397	4812
857.53	4687
857.664	4706
857.797	4755
857.931	4786
858.064	4702
858.197	4759
858.331	4615
858.464	4634
858.597	4561
858.731	4637
858.864	4660
858.997	4626
859.13	4630
859.263	4679
859.396	4702
859.529	4584
859.662	4577
859.795	4558
859.928	4618
860.061	4740
860.194	4763
860.327	4584
860.46	4573
860.592	4725
860.725	4698
860.858	4706
860.99	4580
861.123	4523
861.256	4531
861.388	4668
861.521	5296
861.653	4523
861.786	4481
861.918	4516
862.05	4523
862.183	4573
862.315	4584
862.447	4675
862.58	4531
862.712	4352
862.844	4329
862.976	4500
863.108	4485
863.24	4850
863.372	4329
863.504	4413
863.636	4394
863.768	4470
863.9	4440
864.032	4394
864.164	4424
864.296	4455
864.428	4561
864.559	4538
864.691	4554
864.823	4550
864.954	4504
865.086	4500
865.217	4455
865.349	4455
865.48	4451
865.612	4500
865.743	4649
865.875	4493
866.006	4440
866.137	4478
866.269	4443
866.4	4447
866.531	4383
866.662	4398
866.793	4432
866.924	4413
867.055	4500
867.186	4478
867.317	4375
867.448	4394
867.579	4428
867.71	4402
867.841	4348
867.972	4436
868.103	4478
868.233	4424
868.364	4466
868.495	4489
868.625	4679
868.756	4748
868.886	4573
869.017	4630
869.147	4782
869.278	4774
869.408	4698
869.539	4618
869.669	4733
869.799	4618
869.929	4820
870.06	4740
870.19	4908
870.32	4885
870.45	4957
870.58	5060
870.71	5102
870.84	5079
870.97	4896
871.1	4854
871.23	5132
871.36	5113
871.489	5045
871.619	5064
871.749	5094
871.879	5151
872.008	5151
872.138	5060
872.267	4946
872.397	4866
872.526	4786
872.656	4714
872.785	4805
872.915	4942
873.044	4987
873.173	4927
873.303	4927
873.432	4976
873.561	4995
873.69	4889
873.819	4843
873.948	4900
874.077	4809
874.206	4755
874.335	4816
874.464	4946
874.593	5086
874.722	4984
874.851	5090
874.979	5079
875.108	5006
875.237	4908
875.365	4892
875.494	4885
875.623	4961
875.751	4771
875.88	4854
876.008	5041
876.136	5037
876.265	5174
876.393	5311
876.521	5258
876.65	5246
876.778	5155
876.906	5010
877.034	5003
877.162	5033
877.29	5003
877.418	5056
877.546	5048
877.674	5022
877.802	5006
877.93	4991
878.058	4915
878.185	4938
878.313	4953
878.441	4942
878.568	4805
878.696	4866
878.824	4972
878.951	5010
879.079	5105
879.206	5296
879.333	5064
879.461	4961
879.588	4991
879.715	5083
879.842	5261
879.97	5022
880.097	4805
880.224	4763
880.351	4820
880.478	4820
880.605	4831
880.732	4824
880.859	5128
880.986	4896
881.112	4908
881.239	4828
881.366	4714
881.493	4611
881.619	4592
881.746	4660
881.872	4687
881.999	4641
882.125	4714
882.252	4752
882.378	4797
882.505	5003
882.631	4755
882.757	4710
882.883	4710
883.01	4721
883.136	4660
883.262	4580
883.388	4618
883.514	4854
883.64	4930
883.766	4748
883.892	4691
884.018	4782
884.143	4873
884.269	5048
884.395	4683
884.52	4656
884.646	4653
884.772	4630
884.897	4569
885.023	4599
885.148	4778
885.274	4885
885.399	4847
885.524	4706
885.65	4683
885.775	4755
885.9	4656
886.025	4889
886.15	4873
886.275	4717
886.4	4656
886.525	4706
886.65	4672
886.775	4683
886.9	4908
887.025	5071
887.149	4824
887.274	4706
887.399	4554
887.523	4603
887.648	4580
887.773	4599
887.897	4714
888.021	4774
888.146	4641
888.27	4820
888.395	4870
888.519	4786
888.643	4793
888.767	4793
888.891	4694
889.015	4592
889.139	4653
889.263	4588
889.387	4710
889.511	4816
889.635	4759
889.759	4649
889.883	4660
890.006	4710
890.13	4771
890.254	4634
890.377	4672
890.501	4577
890.624	4527
890.748	4580
890.871	4527
890.995	4436
891.118	4375
891.241	4531
891.364	4478
891.488	4599
891.611	4508
891.734	4504
891.857	4634
891.98	4542
892.103	4607
892.226	4615
892.349	4497
892.471	4428
892.594	4531
892.717	4577
892.839	4615
892.962	4607
893.085	4668
893.207	4603
893.33	4478
893.452	4466
893.575	4634
893.697	4599
893.819	4797
893.941	4797
894.064	4744
894.186	4637
894.308	4550
894.43	4687
894.552	4831
894.674	4748
894.796	4538
894.918	4637
895.04	4546
895.161	4656
895.283	4611
895.405	4584
895.526	4645
895.648	4653
895.769	4691
895.891	4733
896.012	4729
896.134	4767
896.255	4664
896.376	4622
896.498	4634
896.619	4653
896.74	4653
896.861	4645
896.982	4930
897.103	5128
897.224	4831
897.345	4725
897.466	4672
897.587	4721
897.708	4877
897.828	4782
897.949	4660
898.07	4588
898.19	4626
898.311	4820
898.431	4702
898.552	4721
898.672	4774
898.792	4744
898.913	4744
899.033	4630
899.153	4500
899.273	4428
899.393	4466
899.513	4527
899.633	4546
899.753	4569
899.873	4527
899.993	4558
900.113	4519
900.232	4596
900.352	4550
900.472	4455
900.591	4375
900.711	4481
900.83	4421
900.95	4592
901.069	4691
901.189	4546
901.308	4413
901.427	4356
901.546	4383
901.665	4455
901.784	4558
901.904	4363
902.023	4272
902.141	4162
902.26	4185
902.379	4318
902.498	4268
902.617	4215
902.735	4356
902.854	4375
902.973	4341
903.091	4223
903.21	4227
903.328	4276
903.446	4268
903.565	4246
903.683	4383
903.801	4268
903.919	4394
904.038	4428
904.156	4314
904.274	4436
904.392	4383
904.51	4436
904.627	4428
904.745	4573
904.863	4645
904.981	4333
905.098	4314
905.216	4379
905.334	4428
905.451	4436
905.569	4470
905.686	4519
905.803	4554
905.921	4440
906.038	4565
906.155	4447
906.272	4402
906.389	4493
906.506	4329
906.623	4333
906.74	4379
906.857	4257
906.974	4367
907.091	4561
907.208	4622
907.324	4603
907.441	4489
907.557	4333
907.674	4383
907.79	4303
907.907	4356
908.023	4459
908.139	4485
908.256	4417
908.372	4424
908.488	4417
908.604	4356
908.72	4268
908.836	4348
908.952	4405
909.068	4485
909.184	4550
909.3	4474
909.415	4558
909.531	4558
909.647	4344
909.762	4394
909.878	4337
909.993	4436
910.108	4409
910.224	4447
910.339	4493
910.454	4375
910.57	4337
910.685	4303
910.8	4675
910.915	4573
911.03	4531
911.145	4341
911.259	4352
911.374	4363
911.489	4303
911.604	4261
911.718	4150
911.833	4188
911.947	4063
912.062	4021
912.176	4169
912.291	4234
912.405	4215
912.519	4447
912.633	4485
912.748	4367
912.862	4287
912.976	4230
913.09	4059
913.204	4177
913.318	4219
913.431	4371
913.545	4409
913.659	4443
913.772	4363
913.886	4284
914	4253
914.113	4291
914.226	4367
914.34	4394
914.453	4284
914.566	4459
914.68	4299
914.793	4303
914.906	4128
915.019	4101
915.132	4078
915.245	4192
915.358	4196
915.47	4211
915.583	4284
915.696	4291
915.809	4451
915.921	4436
916.034	4223
916.146	4204
916.259	4188
916.371	4363
916.483	4356
916.595	4257
916.708	4333
916.82	4295
916.932	4337
917.044	4352
917.156	4333
917.268	4211
917.38	4325
917.491	4276
917.603	4356
917.715	4402
917.826	4428
917.938	4333
918.049	4219
918.161	4402
918.272	4504
918.384	4569
918.495	4436
918.606	4257
918.717	4211
918.828	4325
918.939	4383
919.05	4219
919.161	4341
919.272	4112
919.383	4185
919.494	4459
919.604	4622
919.715	4455
919.826	4344
919.936	4432
920.047	4531
920.157	4455
920.267	4683
920.378	4558
920.488	4481
920.598	4691
920.708	4953
920.818	4755
920.928	4744
921.038	4957
921.148	4904
921.258	4573
921.368	4538
921.477	4500
921.587	4447
921.697	4352
921.806	4558
921.916	4451
922.025	4257
922.134	4242
922.244	4188
922.353	4329
922.462	4200
922.571	4090
922.68	4010
922.789	3972
922.898	4025
923.007	3972
923.116	4143
923.224	4063
923.333	4093
923.442	4006
923.55	3968
923.659	4029
923.767	4029
923.876	4032
923.984	4169
924.092	3975
924.201	4071
924.309	4120
924.417	4109
924.525	4048
924.633	4078
924.741	5041
924.849	3911
924.956	4120
925.064	3934
925.172	3918
925.279	3968
925.387	4055
925.494	4040
925.602	4207
925.709	4169
925.816	4067
925.924	4166
926.031	4234
926.138	4181
926.245	4238
926.352	4067
926.459	4272
926.566	4348
926.673	4135
926.779	4032
926.886	4059
926.993	4017
927.099	3945
927.206	3918
927.312	3949
927.419	4071
927.525	4017
927.631	4078
927.737	3998
927.843	3937
927.95	3800
928.056	3899
928.162	3968
928.267	4059
928.373	4683
928.479	4105
928.585	3876
928.69	4013
928.796	4071
928.901	3972
929.007	3861
929.112	4044
929.218	3983
929.323	3903
929.428	3991
929.533	4128
929.638	3899
929.743	3945
929.848	4029
929.953	3975
930.058	3903
930.163	3740
930.267	3831
930.372	3991
930.477	3774
930.581	4078
930.685	3892
930.79	3812
930.894	3857
930.998	3823
931.103	4013
931.207	3675
931.311	3682
931.415	3686
931.519	3511
931.623	3534
