Data from test_V78500241_1489.txt Node
Date: Fri Mar 25 16:59:21 CST 2022
User: usil
Spectrometer: V785-0024
Trigger mode: 0
Integration Time (sec): 4.000000E-1
Scans to average: 1
Nonlinearity correction enabled: false
Boxcar width: 0
Storing dark spectrum: false
XAxis mode: Wavelengths
Number of Pixels in Spectrum: 1024
>>>>>Begin Spectral Data<<<<<
801.071	7997
801.214	7959
801.356	7883
801.499	7822
801.641	7757
801.783	7769
801.926	7925
802.068	7906
802.211	7959
802.353	7997
802.496	7822
802.638	7822
802.78	7913
802.923	7879
803.065	7898
803.208	7875
803.35	7940
803.492	8058
803.635	8111
803.777	7989
803.919	8130
804.061	8396
804.204	8115
804.346	8005
804.488	7940
804.63	8046
804.773	7947
804.915	8134
805.057	8237
805.199	8103
805.341	8187
805.483	8263
805.626	8172
805.768	8126
805.91	8183
806.052	8172
806.194	8081
806.336	8328
806.478	7986
806.62	8031
806.762	8050
806.904	8279
807.046	8518
807.188	8381
807.33	8309
807.472	8248
807.614	8164
807.756	8058
807.898	8012
808.04	7887
808.182	7879
808.324	7822
808.465	7906
808.607	8100
808.749	8073
808.891	8149
809.033	8286
809.174	8187
809.316	8020
809.458	8046
809.6	8027
809.741	8058
809.883	8031
810.025	8103
810.166	8084
810.308	8062
810.45	7993
810.591	7837
810.733	7757
810.875	7658
811.016	7441
811.158	7483
811.299	7571
811.441	7734
811.582	7677
811.724	7571
811.865	7441
812.007	7575
812.148	7563
812.29	7575
812.431	7734
812.573	7959
812.714	7967
812.855	8123
812.997	8180
813.138	8290
813.279	8161
813.421	8081
813.562	8039
813.703	7841
813.845	7689
813.986	7388
814.127	7270
814.268	7171
814.41	7228
814.551	7114
814.692	7114
814.833	7050
814.974	7095
815.115	7046
815.256	6932
815.397	6924
815.539	6882
815.68	6787
815.821	6779
815.962	6882
816.103	6825
816.244	6692
816.385	6646
816.526	6589
816.666	6490
816.807	6315
816.948	6445
817.089	6410
817.23	6338
817.371	6357
817.512	6422
817.653	6338
817.793	6361
817.934	6327
818.075	6403
818.216	6399
818.356	6357
818.497	6224
818.638	6106
818.778	6136
818.919	6083
819.06	6152
819.2	6292
819.341	6239
819.481	6384
819.622	6536
819.762	6726
819.903	6719
820.043	6574
820.184	6528
820.324	6544
820.465	6665
820.605	6669
820.746	6627
820.886	6494
821.026	6623
821.167	6650
821.307	6772
821.447	6772
821.588	6597
821.728	6578
821.868	6506
822.008	6353
822.149	6323
822.289	6391
822.429	6144
822.569	6083
822.709	6095
822.849	5939
822.99	5897
823.13	5828
823.27	5920
823.41	5741
823.55	5745
823.69	5737
823.83	5756
823.97	5703
824.11	5535
824.25	5501
824.389	5573
824.529	5573
824.669	5516
824.809	5596
824.949	5665
825.089	5623
825.228	5592
825.368	5417
825.508	5315
825.648	5326
825.787	5406
825.927	5360
826.067	5322
826.206	5288
826.346	5357
826.485	5406
826.625	5376
826.765	5486
826.904	5463
827.044	5204
827.183	5227
827.323	5067
827.462	5307
827.601	5155
827.741	5174
827.88	5227
828.02	5045
828.159	5273
828.298	5258
828.437	5341
828.577	5265
828.716	5459
828.855	5261
828.994	5155
829.134	5128
829.273	5128
829.412	5181
829.551	5109
829.69	5193
829.829	5174
829.968	5353
830.107	5239
830.246	5242
830.385	5204
830.524	5124
830.663	5041
830.802	4976
830.941	4824
831.08	4820
831.219	4991
831.357	4976
831.496	5147
831.635	4870
831.774	4835
831.913	4835
832.051	4672
832.19	4702
832.329	4812
832.467	4668
832.606	4645
832.744	4698
832.883	4740
833.022	4710
833.16	4733
833.299	4847
833.437	4790
833.576	4782
833.714	4870
833.852	4835
833.991	4870
834.129	4881
834.267	4946
834.406	4980
834.544	4976
834.682	4942
834.821	4987
834.959	5159
835.097	4968
835.235	5121
835.373	5086
835.511	5140
835.65	5014
835.788	5003
835.926	4881
836.064	4881
836.202	4942
836.34	5208
836.478	5258
836.615	5178
836.753	5265
836.891	5261
837.029	5254
837.167	5178
837.305	5162
837.443	5170
837.58	5121
837.718	5311
837.856	5242
837.993	5174
838.131	5284
838.269	5265
838.406	5201
838.544	5216
838.681	5041
838.819	5048
838.956	4908
839.094	4911
839.231	4984
839.369	5117
839.506	5417
839.643	5280
839.781	5079
839.918	5079
840.055	5113
840.193	5083
840.33	5159
840.467	5204
840.604	5231
840.742	5467
840.879	5113
841.016	5113
841.153	5170
841.29	5459
841.427	5368
841.564	5398
841.701	5360
841.838	5360
841.975	5273
842.112	5280
842.249	5159
842.385	5140
842.522	5357
842.659	5212
842.796	5128
842.933	5204
843.069	5208
843.206	5189
843.343	5349
843.479	5254
843.616	5288
843.752	5090
843.889	5045
844.025	5242
844.162	5022
844.298	5258
844.435	5098
844.571	5079
844.708	5250
844.844	5315
844.98	5368
845.117	5318
845.253	5136
845.389	5105
845.525	5220
845.661	5223
845.798	5075
845.934	5140
846.07	5064
846.206	5159
846.342	5330
846.478	5231
846.614	5045
846.75	5006
846.886	4923
847.022	5140
847.158	5006
847.294	5113
847.429	5136
847.565	5056
847.701	5318
847.837	4885
847.972	4870
848.108	4991
848.244	5003
848.379	4767
848.515	4774
848.65	4733
848.786	4733
848.921	4839
849.057	4873
849.192	4946
849.328	4828
849.463	4877
849.598	4850
849.734	4740
849.869	4702
850.004	4660
850.14	4675
850.275	4675
850.41	4546
850.545	4603
850.68	4615
850.815	4656
850.95	4630
851.085	4824
851.22	4729
851.355	4694
851.49	4634
851.625	4683
851.76	4694
851.895	4577
852.03	4550
852.165	4702
852.299	4717
852.434	4801
852.569	4812
852.703	4774
852.838	4858
852.973	4927
853.107	4946
853.242	4778
853.376	4645
853.511	4615
853.645	4649
853.78	4820
853.914	4710
854.048	4683
854.183	4733
854.317	4721
854.451	4870
854.585	4683
854.72	4683
854.854	4786
854.988	4622
855.122	4672
855.256	4531
855.39	4694
855.524	4809
855.658	4767
855.792	4759
855.926	4736
856.06	4774
856.194	4744
856.327	4691
856.461	4660
856.595	4622
856.729	4653
856.862	4831
856.996	4740
857.13	4744
857.263	4748
857.397	4797
857.53	4660
857.664	4725
857.797	4778
857.931	4839
858.064	4710
858.197	4858
858.331	4637
858.464	4622
858.597	4577
858.731	4679
858.864	4664
858.997	4641
859.13	4736
859.263	4717
859.396	4725
859.529	4596
859.662	4603
859.795	4577
859.928	4618
860.061	4744
860.194	4778
860.327	4645
860.46	4569
860.592	4733
860.725	4725
860.858	4820
860.99	4592
861.123	4523
861.256	4504
861.388	4637
861.521	5444
861.653	4481
861.786	4424
861.918	4470
862.05	4542
862.183	4603
862.315	4637
862.447	4706
862.58	4519
862.712	4421
862.844	4337
862.976	4443
863.108	4462
863.24	4812
863.372	4344
863.504	4455
863.636	4390
863.768	4481
863.9	4485
864.032	4398
864.164	4455
864.296	4474
864.428	4607
864.559	4577
864.691	4535
864.823	4508
864.954	4512
865.086	4535
865.217	4512
865.349	4493
865.48	4493
865.612	4550
865.743	4607
865.875	4451
866.006	4459
866.137	4478
866.269	4474
866.4	4447
866.531	4424
866.662	4398
866.793	4474
866.924	4417
867.055	4508
867.186	4489
867.317	4462
867.448	4394
867.579	4417
867.71	4386
867.841	4386
867.972	4443
868.103	4497
868.233	4474
868.364	4459
868.495	4504
868.625	4710
868.756	4748
868.886	4580
869.017	4611
869.147	4763
869.278	4797
869.408	4660
869.539	4672
869.669	4774
869.799	4679
869.929	4759
870.06	4755
870.19	5010
870.32	4938
870.45	4980
870.58	5079
870.71	5124
870.84	5140
870.97	4976
871.1	4904
871.23	5090
871.36	5140
871.489	5037
871.619	5064
871.749	5174
871.879	5109
872.008	5132
872.138	5052
872.267	4972
872.397	4930
872.526	4790
872.656	4790
872.785	4809
872.915	4919
873.044	5037
873.173	4965
873.303	4953
873.432	4946
873.561	5025
873.69	4919
873.819	4850
873.948	4889
874.077	4774
874.206	4816
874.335	4831
874.464	4892
874.593	5117
874.722	4968
874.851	5117
874.979	5075
875.108	5113
875.237	4946
875.365	4847
875.494	4873
875.623	5033
875.751	4870
875.88	4862
876.008	5037
876.136	5060
876.265	5223
876.393	5383
876.521	5288
876.65	5204
876.778	5170
876.906	5071
877.034	5041
877.162	5086
877.29	5029
877.418	5090
877.546	5014
877.674	5045
877.802	5037
877.93	5041
878.058	4949
878.185	4896
878.313	5022
878.441	4949
878.568	4809
878.696	4934
878.824	4949
878.951	4991
879.079	5151
879.206	5307
879.333	5201
879.461	5025
879.588	5071
879.715	5140
879.842	5246
879.97	5060
880.097	4820
880.224	4714
880.351	4824
880.478	4892
880.605	4793
880.732	4820
880.859	5086
880.986	4900
881.112	4923
881.239	4824
881.366	4710
881.493	4645
881.619	4618
881.746	4706
881.872	4645
881.999	4668
882.125	4725
882.252	4801
882.378	4835
882.505	4946
882.631	4828
882.757	4675
882.883	4698
883.01	4774
883.136	4702
883.262	4577
883.388	4664
883.514	4778
883.64	4870
883.766	4782
883.892	4706
884.018	4710
884.143	4911
884.269	5006
884.395	4698
884.52	4634
884.646	4626
884.772	4550
884.897	4550
885.023	4656
885.148	4809
885.274	4934
885.399	4862
885.524	4755
885.65	4710
885.775	4774
885.9	4706
886.025	4866
886.15	4774
886.275	4740
886.4	4668
886.525	4694
886.65	4729
886.775	4679
886.9	4927
887.025	5045
887.149	4828
887.274	4668
887.399	4599
887.523	4580
887.648	4645
887.773	4630
887.897	4778
888.021	4805
888.146	4649
888.27	4816
888.395	4900
888.519	4816
888.643	4858
888.767	4835
888.891	4698
889.015	4607
889.139	4653
889.263	4641
889.387	4782
889.511	4904
889.635	4793
889.759	4630
889.883	4615
890.006	4763
890.13	4828
890.254	4626
890.377	4656
890.501	4531
890.624	4565
890.748	4611
890.871	4550
890.995	4436
891.118	4409
891.241	4561
891.364	4558
891.488	4691
891.611	4493
891.734	4577
891.857	4630
891.98	4615
892.103	4694
892.226	4607
892.349	4554
892.471	4440
892.594	4512
892.717	4558
892.839	4584
892.962	4607
893.085	4649
893.207	4607
893.33	4462
893.452	4523
893.575	4691
893.697	4599
893.819	4885
893.941	4873
894.064	4752
894.186	4645
894.308	4645
894.43	4748
894.552	4778
894.674	4763
894.796	4531
894.918	4653
895.04	4561
895.161	4687
895.283	4641
895.405	4580
895.526	4603
895.648	4721
895.769	4664
895.891	4714
896.012	4702
896.134	4687
896.255	4672
896.376	4664
896.498	4668
896.619	4653
896.74	4634
896.861	4634
896.982	4953
897.103	5098
897.224	4862
897.345	4729
897.466	4717
897.587	4691
897.708	4900
897.828	4801
897.949	4706
898.07	4504
898.19	4637
898.311	4843
898.431	4675
898.552	4740
898.672	4812
898.792	4843
898.913	4710
899.033	4649
899.153	4535
899.273	4413
899.393	4489
899.513	4519
899.633	4512
899.753	4550
899.873	4512
899.993	4565
900.113	4558
900.232	4596
900.352	4580
900.472	4474
900.591	4417
900.711	4489
900.83	4432
900.95	4656
901.069	4691
901.189	4527
901.308	4348
901.427	4322
901.546	4455
901.665	4485
901.784	4527
901.904	4390
902.023	4329
902.141	4177
902.26	4196
902.379	4310
902.498	4215
902.617	4219
902.735	4405
902.854	4371
902.973	4379
903.091	4215
903.21	4238
903.328	4341
903.446	4272
903.565	4287
903.683	4360
903.801	4303
903.919	4352
904.038	4405
904.156	4291
904.274	4428
904.392	4424
904.51	4459
904.627	4447
904.745	4580
904.863	4615
904.981	4367
905.098	4314
905.216	4363
905.334	4424
905.451	4440
905.569	4443
905.686	4542
905.803	4535
905.921	4383
906.038	4508
906.155	4432
906.272	4390
906.389	4466
906.506	4379
906.623	4394
906.74	4322
906.857	4268
906.974	4405
907.091	4550
907.208	4656
907.324	4580
907.441	4542
907.557	4367
907.674	4344
907.79	4325
907.907	4409
908.023	4512
908.139	4436
908.256	4462
908.372	4485
908.488	4466
908.604	4371
908.72	4341
908.836	4394
908.952	4424
909.068	4462
909.184	4599
909.3	4497
909.415	4599
909.531	4584
909.647	4402
909.762	4383
909.878	4360
909.993	4478
910.108	4451
910.224	4459
910.339	4489
910.454	4394
910.57	4402
910.685	4333
910.8	4675
910.915	4691
911.03	4512
911.145	4413
911.259	4352
911.374	4405
911.489	4314
911.604	4318
911.718	4196
911.833	4246
911.947	4139
912.062	4051
912.176	4284
912.291	4276
912.405	4299
912.519	4440
912.633	4546
912.748	4459
912.862	4348
912.976	4268
913.09	4150
913.204	4211
913.318	4230
913.431	4405
913.545	4424
913.659	4516
913.772	4383
913.886	4272
914	4265
914.113	4443
914.226	4485
914.34	4428
914.453	4287
914.566	4402
914.68	4344
914.793	4367
914.906	4196
915.019	4128
915.132	4097
915.245	4154
915.358	4261
915.47	4280
915.583	4318
915.696	4337
915.809	4428
915.921	4440
916.034	4310
916.146	4284
916.259	4280
916.371	4398
916.483	4367
916.595	4287
916.708	4417
916.82	4386
916.932	4337
917.044	4375
917.156	4379
917.268	4253
917.38	4360
917.491	4360
917.603	4371
917.715	4466
917.826	4462
917.938	4383
918.049	4314
918.161	4432
918.272	4580
918.384	4573
918.495	4440
918.606	4379
918.717	4280
918.828	4367
918.939	4405
919.05	4280
919.161	4371
919.272	4185
919.383	4265
919.494	4500
919.604	4679
919.715	4508
919.826	4390
919.936	4432
920.047	4558
920.157	4516
920.267	4687
920.378	4584
920.488	4535
920.598	4759
920.708	4889
920.818	4778
920.928	4809
921.038	5014
921.148	4961
921.258	4634
921.368	4573
921.477	4493
921.587	4466
921.697	4390
921.806	4584
921.916	4474
922.025	4299
922.134	4310
922.244	4249
922.353	4375
922.462	4238
922.571	4181
922.68	4002
922.789	4040
922.898	4040
923.007	4063
923.116	4128
923.224	4120
923.333	4074
923.442	4010
923.55	4044
923.659	4086
923.767	4112
923.876	4051
923.984	4162
924.092	4074
924.201	4078
924.309	4162
924.417	4173
924.525	4063
924.633	4173
924.741	4946
924.849	3953
924.956	4112
925.064	4025
925.172	3922
925.279	4063
925.387	4105
925.494	4097
925.602	4284
925.709	4173
925.816	4086
925.924	4162
926.031	4303
926.138	4230
926.245	4242
926.352	4124
926.459	4303
926.566	4303
926.673	4147
926.779	4181
926.886	4109
926.993	4025
927.099	3968
927.206	4002
927.312	3911
927.419	4112
927.525	4063
927.631	4109
927.737	4036
927.843	3975
927.95	3869
928.056	4010
928.162	4044
928.267	4082
928.373	4622
928.479	4135
928.585	3865
928.69	4036
928.796	4120
928.901	3998
929.007	3888
929.112	4013
929.218	3960
929.323	3953
929.428	3975
929.533	4116
929.638	3975
929.743	3968
929.848	4093
929.953	3956
930.058	3960
930.163	3819
930.267	3854
930.372	4010
930.477	3869
930.581	4109
930.685	3998
930.79	3842
930.894	3926
930.998	3869
931.103	4067
931.207	3762
931.311	3713
931.415	3713
931.519	3576
931.623	3576
