Data from test_V78500241_2482.txt Node
Date: Fri Mar 25 17:06:15 CST 2022
User: usil
Spectrometer: V785-0024
Trigger mode: 0
Integration Time (sec): 4.000000E-1
Scans to average: 1
Nonlinearity correction enabled: false
Boxcar width: 0
Storing dark spectrum: false
XAxis mode: Wavelengths
Number of Pixels in Spectrum: 1024
>>>>>Begin Spectral Data<<<<<
801.071	8005
801.214	7955
801.356	7807
801.499	7871
801.641	7822
801.783	7753
801.926	7883
802.068	7890
802.211	8016
802.353	7963
802.496	7849
802.638	7890
802.78	7887
802.923	7947
803.065	7864
803.208	7818
803.35	7925
803.492	8054
803.635	8142
803.777	7993
803.919	8092
804.061	8393
804.204	8126
804.346	7997
804.488	7978
804.63	7951
804.773	8024
804.915	8126
805.057	8263
805.199	8157
805.341	8180
805.483	8229
805.626	8180
805.768	8092
805.91	8157
806.052	8187
806.194	8092
806.336	8290
806.478	8123
806.62	8054
806.762	8119
806.904	8279
807.046	8454
807.188	8374
807.33	8332
807.472	8374
807.614	8084
807.756	8126
807.898	8043
808.04	7849
808.182	7868
808.324	7879
808.465	7845
808.607	8073
808.749	8145
808.891	8221
809.033	8317
809.174	8240
809.316	8123
809.458	8081
809.6	8008
809.741	7997
809.883	7989
810.025	8077
810.166	8024
810.308	8001
810.45	7970
810.591	7841
810.733	7750
810.875	7632
811.016	7483
811.158	7540
811.299	7624
811.441	7704
811.582	7677
811.724	7552
811.865	7552
812.007	7575
812.148	7636
812.29	7616
812.431	7723
812.573	7925
812.714	7970
812.855	8092
812.997	8180
813.138	8259
813.279	8157
813.421	8024
813.562	7940
813.703	7795
813.845	7719
813.986	7426
814.127	7247
814.268	7194
814.41	7209
814.551	7202
814.692	7202
814.833	7057
814.974	7091
815.115	7190
815.256	6951
815.397	6951
815.539	6962
815.68	6764
815.821	6791
815.962	6871
816.103	6859
816.244	6642
816.385	6574
816.526	6616
816.666	6475
816.807	6357
816.948	6429
817.089	6502
817.23	6456
817.371	6376
817.512	6418
817.653	6308
817.793	6331
817.934	6395
818.075	6448
818.216	6429
818.356	6399
818.497	6228
818.638	6205
818.778	6152
818.919	6186
819.06	6171
819.2	6327
819.341	6369
819.481	6399
819.622	6517
819.762	6764
819.903	6722
820.043	6665
820.184	6627
820.324	6559
820.465	6627
820.605	6684
820.746	6639
820.886	6517
821.026	6719
821.167	6635
821.307	6825
821.447	6791
821.588	6631
821.728	6604
821.868	6479
822.008	6334
822.149	6384
822.289	6323
822.429	6232
822.569	6072
822.709	6171
822.849	5931
822.99	5908
823.13	5942
823.27	5916
823.41	5824
823.55	5756
823.69	5767
823.83	5824
823.97	5646
824.11	5543
824.25	5520
824.389	5630
824.529	5558
824.669	5554
824.809	5646
824.949	5657
825.089	5608
825.228	5562
825.368	5341
825.508	5364
825.648	5357
825.787	5372
825.927	5440
826.067	5250
826.206	5280
826.346	5391
826.485	5387
826.625	5398
826.765	5566
826.904	5471
827.044	5254
827.183	5201
827.323	5105
827.462	5269
827.601	5162
827.741	5178
827.88	5231
828.02	5155
828.159	5208
828.298	5322
828.437	5315
828.577	5227
828.716	5467
828.855	5315
828.994	5117
829.134	5090
829.273	5174
829.412	5178
829.551	5136
829.69	5174
829.829	5254
829.968	5402
830.107	5246
830.246	5315
830.385	5181
830.524	5121
830.663	5079
830.802	4957
830.941	4858
831.08	4812
831.219	4980
831.357	5006
831.496	5201
831.635	4908
831.774	4839
831.913	4831
832.051	4767
832.19	4744
832.329	4850
832.467	4698
832.606	4675
832.744	4694
832.883	4706
833.022	4725
833.16	4778
833.299	4801
833.437	4839
833.576	4812
833.714	4812
833.852	4873
833.991	4908
834.129	4946
834.267	4896
834.406	4892
834.544	4976
834.682	4965
834.821	5006
834.959	5201
835.097	5018
835.235	5159
835.373	5071
835.511	5090
835.65	5037
835.788	5064
835.926	4831
836.064	4854
836.202	4908
836.34	5140
836.478	5307
836.615	5151
836.753	5159
836.891	5299
837.029	5235
837.167	5223
837.305	5136
837.443	5109
837.58	5147
837.718	5220
837.856	5174
837.993	5124
838.131	5292
838.269	5227
838.406	5189
838.544	5189
838.681	5029
838.819	4942
838.956	4923
839.094	4885
839.231	4930
839.369	5060
839.506	5410
839.643	5212
839.781	5090
839.918	4995
840.055	5113
840.193	5071
840.33	5109
840.467	5159
840.604	5204
840.742	5440
840.879	5105
841.016	5155
841.153	5143
841.29	5391
841.427	5303
841.564	5284
841.701	5318
841.838	5220
841.975	5201
842.112	5258
842.249	5170
842.385	5121
842.522	5296
842.659	5162
842.796	5151
842.933	5201
843.069	5109
843.206	5094
843.343	5277
843.479	5204
843.616	5231
843.752	5079
843.889	4991
844.025	5254
844.162	5025
844.298	5212
844.435	5048
844.571	5064
844.708	5162
844.844	5353
844.98	5284
845.117	5265
845.253	5132
845.389	5045
845.525	5170
845.661	5136
845.798	5060
845.934	5136
846.07	5037
846.206	5151
846.342	5288
846.478	5113
846.614	5048
846.75	4915
846.886	4923
847.022	5170
847.158	5056
847.294	5094
847.429	5071
847.565	5064
847.701	5277
847.837	4858
847.972	4820
848.108	4885
848.244	4923
848.379	4805
848.515	4729
848.65	4714
848.786	4687
848.921	4763
849.057	4870
849.192	4877
849.328	4759
849.463	4866
849.598	4763
849.734	4786
849.869	4687
850.004	4615
850.14	4664
850.275	4641
850.41	4523
850.545	4599
850.68	4607
850.815	4649
850.95	4603
851.085	4831
851.22	4790
851.355	4683
851.49	4634
851.625	4607
851.76	4653
851.895	4561
852.03	4516
852.165	4660
852.299	4729
852.434	4793
852.569	4755
852.703	4771
852.838	4828
852.973	4900
853.107	4927
853.242	4740
853.376	4675
853.511	4512
853.645	4664
853.78	4767
853.914	4683
854.048	4634
854.183	4637
854.317	4729
854.451	4816
854.585	4672
854.72	4656
854.854	4744
854.988	4637
855.122	4641
855.256	4542
855.39	4653
855.524	4774
855.658	4687
855.792	4710
855.926	4717
856.06	4771
856.194	4801
856.327	4698
856.461	4656
856.595	4607
856.729	4580
856.862	4717
856.996	4687
857.13	4717
857.263	4774
857.397	4797
857.53	4656
857.664	4721
857.797	4763
857.931	4763
858.064	4668
858.197	4752
858.331	4691
858.464	4653
858.597	4523
858.731	4592
858.864	4637
858.997	4592
859.13	4649
859.263	4679
859.396	4710
859.529	4565
859.662	4542
859.795	4546
859.928	4630
860.061	4755
860.194	4774
860.327	4580
860.46	4622
860.592	4694
860.725	4691
860.858	4672
860.99	4565
861.123	4542
861.256	4504
861.388	4618
861.521	5189
861.653	4554
861.786	4417
861.918	4405
862.05	4542
862.183	4565
862.315	4626
862.447	4622
862.58	4550
862.712	4421
862.844	4322
862.976	4474
863.108	4455
863.24	4877
863.372	4363
863.504	4424
863.636	4383
863.768	4478
863.9	4413
864.032	4371
864.164	4413
864.296	4432
864.428	4569
864.559	4542
864.691	4516
864.823	4516
864.954	4504
865.086	4478
865.217	4462
865.349	4432
865.48	4440
865.612	4485
865.743	4626
865.875	4497
866.006	4409
866.137	4413
866.269	4451
866.4	4455
866.531	4417
866.662	4394
866.793	4398
866.924	4451
867.055	4485
867.186	4440
867.317	4459
867.448	4363
867.579	4367
867.71	4360
867.841	4363
867.972	4402
868.103	4402
868.233	4447
868.364	4428
868.495	4462
868.625	4664
868.756	4752
868.886	4580
869.017	4622
869.147	4759
869.278	4748
869.408	4649
869.539	4630
869.669	4694
869.799	4615
869.929	4774
870.06	4725
870.19	4953
870.32	4870
870.45	4965
870.58	5048
870.71	5075
870.84	5060
870.97	4980
871.1	4873
871.23	5162
871.36	5124
871.489	5022
871.619	5029
871.749	5041
871.879	5132
872.008	5128
872.138	4976
872.267	4984
872.397	4835
872.526	4786
872.656	4717
872.785	4759
872.915	4930
873.044	4991
873.173	4957
873.303	4942
873.432	4968
873.561	4927
873.69	4873
873.819	4828
873.948	4934
874.077	4835
874.206	4755
874.335	4786
874.464	4881
874.593	5060
874.722	4999
874.851	5102
874.979	4999
875.108	5041
875.237	4904
875.365	4835
875.494	4870
875.623	4976
875.751	4847
875.88	4881
876.008	4961
876.136	5052
876.265	5181
876.393	5296
876.521	5193
876.65	5208
876.778	5128
876.906	5113
877.034	4980
877.162	5014
877.29	5010
877.418	5083
877.546	5079
877.674	5018
877.802	5041
877.93	5018
878.058	4923
878.185	4896
878.313	4972
878.441	4995
878.568	4801
878.696	4873
878.824	5037
878.951	4987
879.079	5094
879.206	5322
879.333	5132
879.461	4976
879.588	4980
879.715	5109
879.842	5201
879.97	5014
880.097	4809
880.224	4748
880.351	4858
880.478	4831
880.605	4835
880.732	4774
880.859	5113
880.986	4831
881.112	4908
881.239	4809
881.366	4683
881.493	4618
881.619	4634
881.746	4618
881.872	4637
881.999	4668
882.125	4710
882.252	4801
882.378	4828
882.505	5010
882.631	4790
882.757	4698
882.883	4786
883.01	4752
883.136	4710
883.262	4630
883.388	4687
883.514	4835
883.64	4889
883.766	4809
883.892	4702
884.018	4725
884.143	4976
884.269	5003
884.395	4721
884.52	4740
884.646	4691
884.772	4569
884.897	4660
885.023	4725
885.148	4835
885.274	4889
885.399	4839
885.524	4736
885.65	4717
885.775	4805
885.9	4710
886.025	4877
886.15	4866
886.275	4774
886.4	4702
886.525	4748
886.65	4721
886.775	4774
886.9	4934
887.025	5075
887.149	4820
887.274	4679
887.399	4641
887.523	4675
887.648	4580
887.773	4664
887.897	4812
888.021	4866
888.146	4744
888.27	4858
888.395	4930
888.519	4835
888.643	4866
888.767	4847
888.891	4714
889.015	4615
889.139	4679
889.263	4656
889.387	4793
889.511	4889
889.635	4820
889.759	4656
889.883	4691
890.006	4774
890.13	4877
890.254	4702
890.377	4736
890.501	4577
890.624	4535
890.748	4634
890.871	4516
890.995	4424
891.118	4455
891.241	4538
891.364	4611
891.488	4664
891.611	4538
891.734	4573
891.857	4660
891.98	4603
892.103	4691
892.226	4675
892.349	4584
892.471	4512
892.594	4584
892.717	4668
892.839	4622
892.962	4603
893.085	4729
893.207	4634
893.33	4500
893.452	4573
893.575	4694
893.697	4679
893.819	4793
893.941	4816
894.064	4793
894.186	4596
894.308	4569
894.43	4759
894.552	4831
894.674	4767
894.796	4630
894.918	4637
895.04	4611
895.161	4725
895.283	4736
895.405	4577
895.526	4672
895.648	4736
895.769	4748
895.891	4714
896.012	4778
896.134	4786
896.255	4694
896.376	4664
896.498	4675
896.619	4714
896.74	4672
896.861	4710
896.982	4949
897.103	5102
897.224	4866
897.345	4828
897.466	4687
897.587	4740
897.708	4839
897.828	4801
897.949	4721
898.07	4569
898.19	4679
898.311	4930
898.431	4698
898.552	4782
898.672	4805
898.792	4862
898.913	4714
899.033	4630
899.153	4558
899.273	4440
899.393	4519
899.513	4519
899.633	4546
899.753	4580
899.873	4546
899.993	4611
900.113	4584
900.232	4603
900.352	4538
900.472	4554
900.591	4462
900.711	4558
900.83	4497
900.95	4630
901.069	4729
901.189	4592
901.308	4413
901.427	4390
901.546	4394
901.665	4470
901.784	4588
901.904	4421
902.023	4371
902.141	4200
902.26	4192
902.379	4383
902.498	4295
902.617	4253
902.735	4394
902.854	4421
902.973	4386
903.091	4246
903.21	4204
903.328	4306
903.446	4322
903.565	4261
903.683	4352
903.801	4333
903.919	4443
904.038	4516
904.156	4360
904.274	4489
904.392	4474
904.51	4459
904.627	4474
904.745	4611
904.863	4649
904.981	4440
905.098	4295
905.216	4413
905.334	4478
905.451	4504
905.569	4493
905.686	4569
905.803	4618
905.921	4424
906.038	4622
906.155	4474
906.272	4459
906.389	4508
906.506	4421
906.623	4421
906.74	4428
906.857	4295
906.974	4436
907.091	4603
907.208	4725
907.324	4622
907.441	4489
907.557	4341
907.674	4360
907.79	4344
907.907	4402
908.023	4470
908.139	4504
908.256	4470
908.372	4489
908.488	4481
908.604	4390
908.72	4337
908.836	4386
908.952	4398
909.068	4466
909.184	4577
909.3	4504
909.415	4588
909.531	4527
909.647	4356
909.762	4405
909.878	4344
909.993	4485
910.108	4455
910.224	4424
910.339	4497
910.454	4409
910.57	4383
910.685	4329
910.8	4675
910.915	4626
911.03	4527
911.145	4443
911.259	4360
911.374	4440
911.489	4325
911.604	4337
911.718	4162
911.833	4227
911.947	4093
912.062	4051
912.176	4238
912.291	4272
912.405	4280
912.519	4447
912.633	4542
912.748	4413
912.862	4367
912.976	4261
913.09	4128
913.204	4215
913.318	4272
913.431	4379
913.545	4375
913.659	4451
913.772	4383
913.886	4257
914	4196
914.113	4329
914.226	4466
914.34	4459
914.453	4253
914.566	4447
914.68	4295
914.793	4344
914.906	4185
915.019	4124
915.132	4124
915.245	4200
915.358	4211
915.47	4261
915.583	4333
915.696	4333
915.809	4432
915.921	4462
916.034	4265
916.146	4287
916.259	4242
916.371	4432
916.483	4402
916.595	4337
916.708	4363
916.82	4367
916.932	4341
917.044	4352
917.156	4341
917.268	4227
917.38	4310
917.491	4284
917.603	4371
917.715	4459
917.826	4481
917.938	4405
918.049	4238
918.161	4409
918.272	4546
918.384	4538
918.495	4500
918.606	4341
918.717	4268
918.828	4367
918.939	4417
919.05	4287
919.161	4356
919.272	4147
919.383	4246
919.494	4489
919.604	4622
919.715	4542
919.826	4329
919.936	4443
920.047	4538
920.157	4558
920.267	4706
920.378	4554
920.488	4504
920.598	4736
920.708	4892
920.818	4691
920.928	4801
921.038	4911
921.148	4999
921.258	4645
921.368	4569
921.477	4497
921.587	4470
921.697	4360
921.806	4542
921.916	4504
922.025	4261
922.134	4287
922.244	4242
922.353	4379
922.462	4227
922.571	4158
922.68	4040
922.789	3956
922.898	4067
923.007	3979
923.116	4090
923.224	4055
923.333	4097
923.442	4013
923.55	3975
923.659	4044
923.767	4101
923.876	4044
923.984	4128
924.092	4010
924.201	4101
924.309	4116
924.417	4154
924.525	4071
924.633	4105
924.741	4968
924.849	3945
924.956	4177
925.064	3994
925.172	3903
925.279	3937
925.387	4097
925.494	4074
925.602	4230
925.709	4246
925.816	4074
925.924	4154
926.031	4249
926.138	4196
926.245	4230
926.352	4131
926.459	4253
926.566	4363
926.673	4211
926.779	4154
926.886	4109
926.993	3994
927.099	4002
927.206	3960
927.312	3994
927.419	4097
927.525	4055
927.631	4109
927.737	3960
927.843	3998
927.95	3880
928.056	3945
928.162	3994
928.267	4112
928.373	4748
928.479	4128
928.585	3880
928.69	4071
928.796	4124
928.901	3968
929.007	3873
929.112	4013
929.218	3968
929.323	3994
929.428	3945
929.533	4093
929.638	3949
929.743	4032
929.848	4055
929.953	4013
930.058	3915
930.163	3774
930.267	3819
930.372	3998
930.477	3812
930.581	4131
930.685	3968
930.79	3797
930.894	3876
930.998	3911
931.103	4048
931.207	3717
931.311	3736
931.415	3682
931.519	3492
931.623	3545
