Data from test_V78500241_2610.txt Node
Date: Fri Mar 25 17:07:09 CST 2022
User: usil
Spectrometer: V785-0024
Trigger mode: 0
Integration Time (sec): 4.000000E-1
Scans to average: 1
Nonlinearity correction enabled: false
Boxcar width: 0
Storing dark spectrum: false
XAxis mode: Wavelengths
Number of Pixels in Spectrum: 1024
>>>>>Begin Spectral Data<<<<<
801.071	7997
801.214	8065
801.356	7898
801.499	7811
801.641	7822
801.783	7807
801.926	7928
802.068	7906
802.211	7986
802.353	7970
802.496	7845
802.638	7902
802.78	7909
802.923	7871
803.065	7887
803.208	7890
803.35	8001
803.492	8107
803.635	8145
803.777	8035
803.919	8107
804.061	8427
804.204	8183
804.346	8024
804.488	7951
804.63	8092
804.773	7978
804.915	8142
805.057	8263
805.199	8187
805.341	8214
805.483	8267
805.626	8290
805.768	8103
805.91	8187
806.052	8199
806.194	8115
806.336	8214
806.478	8084
806.62	8050
806.762	8103
806.904	8248
807.046	8465
807.188	8301
807.33	8320
807.472	8294
807.614	8206
807.756	8096
807.898	8016
808.04	7830
808.182	7898
808.324	7875
808.465	7932
808.607	8092
808.749	8134
808.891	8221
809.033	8389
809.174	8256
809.316	8069
809.458	8005
809.6	8001
809.741	8008
809.883	8050
810.025	8092
810.166	8111
810.308	7974
810.45	8001
810.591	7818
810.733	7761
810.875	7632
811.016	7506
811.158	7499
811.299	7578
811.441	7696
811.582	7723
811.724	7632
811.865	7525
812.007	7597
812.148	7620
812.29	7632
812.431	7685
812.573	7849
812.714	7986
812.855	8069
812.997	8202
813.138	8377
813.279	8161
813.421	8031
813.562	7932
813.703	7864
813.845	7776
813.986	7411
814.127	7228
814.268	7305
814.41	7217
814.551	7183
814.692	7236
814.833	7110
814.974	7072
815.115	7156
815.256	6958
815.397	6932
815.539	6943
815.68	6764
815.821	6825
815.962	6856
816.103	6844
816.244	6696
816.385	6642
816.526	6631
816.666	6544
816.807	6315
816.948	6391
817.089	6494
817.23	6448
817.371	6445
817.512	6429
817.653	6331
817.793	6277
817.934	6475
818.075	6456
818.216	6372
818.356	6407
818.497	6258
818.638	6064
818.778	6098
818.919	6175
819.06	6175
819.2	6361
819.341	6388
819.481	6395
819.622	6570
819.762	6783
819.903	6745
820.043	6639
820.184	6623
820.324	6578
820.465	6684
820.605	6658
820.746	6677
820.886	6566
821.026	6639
821.167	6772
821.307	6859
821.447	6795
821.588	6665
821.728	6570
821.868	6540
822.008	6353
822.149	6410
822.289	6391
822.429	6186
822.569	6155
822.709	6243
822.849	5908
822.99	5870
823.13	5973
823.27	5939
823.41	5817
823.55	5794
823.69	5771
823.83	5760
823.97	5611
824.11	5558
824.25	5570
824.389	5501
824.529	5668
824.669	5554
824.809	5638
824.949	5668
825.089	5653
825.228	5535
825.368	5410
825.508	5364
825.648	5307
825.787	5357
825.927	5318
826.067	5353
826.206	5303
826.346	5322
826.485	5417
826.625	5357
826.765	5551
826.904	5410
827.044	5239
827.183	5155
827.323	5136
827.462	5258
827.601	5117
827.741	5155
827.88	5258
828.02	5090
828.159	5223
828.298	5296
828.437	5406
828.577	5303
828.716	5551
828.855	5318
828.994	5143
829.134	5166
829.273	5223
829.412	5189
829.551	5056
829.69	5159
829.829	5208
829.968	5334
830.107	5288
830.246	5341
830.385	5178
830.524	5140
830.663	5098
830.802	4991
830.941	4919
831.08	4873
831.219	4957
831.357	4999
831.496	5117
831.635	4942
831.774	4866
831.913	4843
832.051	4736
832.19	4771
832.329	4862
832.467	4710
832.606	4622
832.744	4694
832.883	4786
833.022	4744
833.16	4755
833.299	4774
833.437	4771
833.576	4812
833.714	4896
833.852	4850
833.991	4889
834.129	4980
834.267	4938
834.406	4854
834.544	4980
834.682	4946
834.821	5003
834.959	5086
835.097	4995
835.235	5147
835.373	5102
835.511	5121
835.65	5041
835.788	5018
835.926	4927
836.064	4870
836.202	4866
836.34	5227
836.478	5239
836.615	5117
836.753	5189
836.891	5284
837.029	5307
837.167	5170
837.305	5140
837.443	5189
837.58	5079
837.718	5227
837.856	5159
837.993	5124
838.131	5284
838.269	5277
838.406	5204
838.544	5181
838.681	5003
838.819	4984
838.956	4877
839.094	4946
839.231	4995
839.369	5056
839.506	5440
839.643	5280
839.781	5071
839.918	4991
840.055	5128
840.193	5086
840.33	5098
840.467	5083
840.604	5178
840.742	5429
840.879	5086
841.016	5045
841.153	5113
841.29	5353
841.427	5296
841.564	5288
841.701	5360
841.838	5246
841.975	5204
842.112	5220
842.249	5098
842.385	5109
842.522	5311
842.659	5124
842.796	5155
842.933	5208
843.069	5143
843.206	5170
843.343	5349
843.479	5261
843.616	5231
843.752	5060
843.889	5033
844.025	5166
844.162	5006
844.298	5162
844.435	5033
844.571	5029
844.708	5231
844.844	5326
844.98	5277
845.117	5280
845.253	5147
845.389	5071
845.525	5159
845.661	5117
845.798	5090
845.934	5098
846.07	5014
846.206	5201
846.342	5174
846.478	5220
846.614	5048
846.75	4980
846.886	4946
847.022	5064
847.158	5029
847.294	5014
847.429	5094
847.565	5052
847.701	5318
847.837	4828
847.972	4831
848.108	4980
848.244	4953
848.379	4805
848.515	4805
848.65	4725
848.786	4763
848.921	4820
849.057	4858
849.192	4930
849.328	4786
849.463	4835
849.598	4755
849.734	4725
849.869	4687
850.004	4592
850.14	4649
850.275	4588
850.41	4580
850.545	4580
850.68	4611
850.815	4622
850.95	4607
851.085	4797
851.22	4805
851.355	4683
851.49	4641
851.625	4618
851.76	4626
851.895	4565
852.03	4531
852.165	4691
852.299	4729
852.434	4801
852.569	4729
852.703	4782
852.838	4866
852.973	4953
853.107	4942
853.242	4774
853.376	4706
853.511	4584
853.645	4630
853.78	4786
853.914	4702
854.048	4675
854.183	4717
854.317	4698
854.451	4862
854.585	4653
854.72	4656
854.854	4733
854.988	4615
855.122	4603
855.256	4474
855.39	4668
855.524	4729
855.658	4675
855.792	4714
855.926	4740
856.06	4778
856.194	4767
856.327	4729
856.461	4607
856.595	4565
856.729	4584
856.862	4774
856.996	4672
857.13	4694
857.263	4748
857.397	4782
857.53	4637
857.664	4736
857.797	4717
857.931	4767
858.064	4683
858.197	4675
858.331	4622
858.464	4596
858.597	4451
858.731	4611
858.864	4660
858.997	4592
859.13	4702
859.263	4637
859.396	4706
859.529	4603
859.662	4554
859.795	4516
859.928	4630
860.061	4748
860.194	4733
860.327	4630
860.46	4516
860.592	4694
860.725	4691
860.858	4744
860.99	4558
861.123	4512
861.256	4546
861.388	4580
861.521	5318
861.653	4489
861.786	4470
861.918	4455
862.05	4489
862.183	4523
862.315	4512
862.447	4630
862.58	4558
862.712	4371
862.844	4306
862.976	4497
863.108	4421
863.24	4733
863.372	4280
863.504	4405
863.636	4383
863.768	4383
863.9	4436
864.032	4356
864.164	4390
864.296	4421
864.428	4546
864.559	4592
864.691	4561
864.823	4497
864.954	4523
865.086	4523
865.217	4527
865.349	4451
865.48	4459
865.612	4516
865.743	4603
865.875	4451
866.006	4440
866.137	4493
866.269	4455
866.4	4474
866.531	4462
866.662	4383
866.793	4394
866.924	4394
867.055	4493
867.186	4478
867.317	4409
867.448	4363
867.579	4436
867.71	4462
867.841	4386
867.972	4466
868.103	4531
868.233	4504
868.364	4493
868.495	4554
868.625	4691
868.756	4805
868.886	4588
869.017	4656
869.147	4782
869.278	4755
869.408	4675
869.539	4706
869.669	4717
869.799	4683
869.929	4778
870.06	4767
870.19	5018
870.32	4946
870.45	5014
870.58	5067
870.71	5121
870.84	5124
870.97	4991
871.1	4934
871.23	5174
871.36	5124
871.489	5041
871.619	5124
871.749	5143
871.879	5178
872.008	5254
872.138	5162
872.267	5045
872.397	4911
872.526	4854
872.656	4790
872.785	4816
872.915	5006
873.044	5048
873.173	4999
873.303	4968
873.432	4938
873.561	4995
873.69	4892
873.819	4911
873.948	4999
874.077	4927
874.206	4820
874.335	4847
874.464	4995
874.593	5124
874.722	5014
874.851	5121
874.979	5071
875.108	5102
875.237	4938
875.365	4900
875.494	4904
875.623	5006
875.751	4854
875.88	4911
876.008	5037
876.136	5064
876.265	5246
876.393	5326
876.521	5303
876.65	5277
876.778	5174
876.906	5102
877.034	5090
877.162	5124
877.29	5052
877.418	5098
877.546	5086
877.674	5052
877.802	5121
877.93	5056
878.058	4949
878.185	4930
878.313	4972
878.441	4972
878.568	4854
878.696	4889
878.824	4968
878.951	5025
879.079	5197
879.206	5360
879.333	5170
879.461	4984
879.588	5041
879.715	5143
879.842	5235
879.97	5048
880.097	4862
880.224	4771
880.351	4786
880.478	4873
880.605	4816
880.732	4843
880.859	5147
880.986	4908
881.112	4942
881.239	4786
881.366	4702
881.493	4641
881.619	4577
881.746	4664
881.872	4694
881.999	4702
882.125	4725
882.252	4816
882.378	4862
882.505	4995
882.631	4847
882.757	4698
882.883	4729
883.01	4714
883.136	4687
883.262	4634
883.388	4664
883.514	4854
883.64	4877
883.766	4847
883.892	4702
884.018	4790
884.143	4942
884.269	5014
884.395	4683
884.52	4653
884.646	4683
884.772	4622
884.897	4577
885.023	4706
885.148	4805
885.274	4930
885.399	4854
885.524	4797
885.65	4744
885.775	4755
885.9	4740
886.025	4843
886.15	4801
886.275	4744
886.4	4672
886.525	4793
886.65	4729
886.775	4721
886.9	4946
887.025	5075
887.149	4809
887.274	4687
887.399	4599
887.523	4649
887.648	4641
887.773	4679
887.897	4729
888.021	4797
888.146	4710
888.27	4858
888.395	4930
888.519	4862
888.643	4866
888.767	4904
888.891	4675
889.015	4653
889.139	4733
889.263	4664
889.387	4793
889.511	4934
889.635	4866
889.759	4611
889.883	4687
890.006	4759
890.13	4843
890.254	4672
890.377	4691
890.501	4615
890.624	4592
890.748	4679
890.871	4580
890.995	4447
891.118	4398
891.241	4554
891.364	4607
891.488	4687
891.611	4546
891.734	4580
891.857	4618
891.98	4599
892.103	4653
892.226	4603
892.349	4542
892.471	4451
892.594	4542
892.717	4603
892.839	4668
892.962	4675
893.085	4721
893.207	4637
893.33	4489
893.452	4523
893.575	4683
893.697	4637
893.819	4801
893.941	4847
894.064	4858
894.186	4615
894.308	4622
894.43	4710
894.552	4858
894.674	4744
894.796	4656
894.918	4653
895.04	4599
895.161	4767
895.283	4755
895.405	4607
895.526	4721
895.648	4752
895.769	4755
895.891	4710
896.012	4755
896.134	4767
896.255	4675
896.376	4649
896.498	4645
896.619	4691
896.74	4679
896.861	4679
896.982	4896
897.103	5147
897.224	4835
897.345	4714
897.466	4710
897.587	4748
897.708	4877
897.828	4782
897.949	4748
898.07	4596
898.19	4672
898.311	4816
898.431	4672
898.552	4790
898.672	4824
898.792	4809
898.913	4790
899.033	4649
899.153	4561
899.273	4481
899.393	4531
899.513	4561
899.633	4584
899.753	4573
899.873	4516
899.993	4618
900.113	4573
900.232	4611
900.352	4542
900.472	4527
900.591	4428
900.711	4504
900.83	4470
900.95	4554
901.069	4710
901.189	4584
901.308	4417
901.427	4363
901.546	4417
901.665	4489
901.784	4554
901.904	4443
902.023	4352
902.141	4215
902.26	4207
902.379	4310
902.498	4272
902.617	4246
902.735	4440
902.854	4455
902.973	4409
903.091	4196
903.21	4234
903.328	4318
903.446	4295
903.565	4287
903.683	4405
903.801	4287
903.919	4413
904.038	4409
904.156	4337
904.274	4500
904.392	4443
904.51	4462
904.627	4481
904.745	4558
904.863	4675
904.981	4417
905.098	4333
905.216	4367
905.334	4447
905.451	4447
905.569	4451
905.686	4561
905.803	4607
905.921	4417
906.038	4523
906.155	4512
906.272	4421
906.389	4455
906.506	4341
906.623	4363
906.74	4390
906.857	4367
906.974	4383
907.091	4573
907.208	4634
907.324	4573
907.441	4504
907.557	4360
907.674	4413
907.79	4341
907.907	4443
908.023	4546
908.139	4474
908.256	4443
908.372	4508
908.488	4497
908.604	4325
908.72	4394
908.836	4405
908.952	4352
909.068	4481
909.184	4565
909.3	4462
909.415	4649
909.531	4577
909.647	4390
909.762	4379
909.878	4352
909.993	4481
910.108	4455
910.224	4455
910.339	4493
910.454	4424
910.57	4371
910.685	4379
910.8	4649
910.915	4641
911.03	4459
911.145	4386
911.259	4383
911.374	4402
911.489	4276
911.604	4246
911.718	4173
911.833	4169
911.947	4082
912.062	4059
912.176	4242
912.291	4238
912.405	4318
912.519	4466
912.633	4470
912.748	4394
912.862	4291
912.976	4211
913.09	4139
913.204	4227
913.318	4333
913.431	4409
913.545	4371
913.659	4451
913.772	4375
913.886	4257
914	4196
914.113	4394
914.226	4455
914.34	4413
914.453	4249
914.566	4424
914.68	4341
914.793	4371
914.906	4158
915.019	4124
915.132	4074
915.245	4215
915.358	4265
915.47	4238
915.583	4265
915.696	4322
915.809	4436
915.921	4409
916.034	4249
916.146	4306
916.259	4227
916.371	4379
916.483	4436
916.595	4310
916.708	4363
916.82	4329
916.932	4348
917.044	4344
917.156	4333
917.268	4257
917.38	4325
917.491	4314
917.603	4303
917.715	4398
917.826	4451
917.938	4379
918.049	4257
918.161	4451
918.272	4565
918.384	4531
918.495	4485
918.606	4306
918.717	4219
918.828	4383
918.939	4371
919.05	4287
919.161	4367
919.272	4162
919.383	4219
919.494	4485
919.604	4675
919.715	4440
919.826	4333
919.936	4409
920.047	4546
920.157	4569
920.267	4717
920.378	4546
920.488	4535
920.598	4714
920.708	4927
920.818	4763
920.928	4763
921.038	4938
921.148	4900
921.258	4656
921.368	4546
921.477	4508
921.587	4451
921.697	4386
921.806	4550
921.916	4443
922.025	4310
922.134	4276
922.244	4295
922.353	4398
922.462	4177
922.571	4154
922.68	4048
922.789	4006
922.898	4051
923.007	4048
923.116	4105
923.224	4074
923.333	4044
923.442	4044
923.55	3983
923.659	4063
923.767	4101
923.876	3983
923.984	4090
924.092	3987
924.201	4067
924.309	4097
924.417	4135
924.525	4071
924.633	4101
924.741	5048
924.849	3956
924.956	4135
925.064	3998
925.172	3888
925.279	3994
925.387	4044
925.494	4078
925.602	4227
925.709	4166
925.816	4048
925.924	4116
926.031	4219
926.138	4181
926.245	4234
926.352	4086
926.459	4284
926.566	4265
926.673	4166
926.779	4090
926.886	4093
926.993	4010
927.099	3968
927.206	3979
927.312	3964
927.419	4055
927.525	4078
927.631	4071
927.737	4010
927.843	4006
927.95	3869
928.056	3972
928.162	3998
928.267	4025
928.373	4599
928.479	4154
928.585	3903
928.69	4063
928.796	4097
928.901	3987
929.007	3903
929.112	3964
929.218	3972
929.323	3956
929.428	3922
929.533	4109
929.638	3892
929.743	3964
929.848	4044
929.953	4013
930.058	3934
930.163	3740
930.267	3816
930.372	3994
930.477	3827
930.581	4029
930.685	3930
930.79	3816
930.894	3949
930.998	3896
931.103	4048
931.207	3736
931.311	3720
931.415	3709
931.519	3526
931.623	3572
