Data from test_V78500241_2236.txt Node
Date: Fri Mar 25 17:04:33 CST 2022
User: usil
Spectrometer: V785-0024
Trigger mode: 0
Integration Time (sec): 4.000000E-1
Scans to average: 1
Nonlinearity correction enabled: false
Boxcar width: 0
Storing dark spectrum: false
XAxis mode: Wavelengths
Number of Pixels in Spectrum: 1024
>>>>>Begin Spectral Data<<<<<
801.071	8024
801.214	7902
801.356	7849
801.499	7826
801.641	7822
801.783	7792
801.926	7978
802.068	7955
802.211	7944
802.353	7963
802.496	7871
802.638	7837
802.78	7830
802.923	7837
803.065	7868
803.208	7818
803.35	7913
803.492	8024
803.635	8161
803.777	8027
803.919	8161
804.061	8431
804.204	8172
804.346	7997
804.488	7955
804.63	8088
804.773	7967
804.915	8096
805.057	8313
805.199	8153
805.341	8240
805.483	8237
805.626	8183
805.768	8062
805.91	8191
806.052	8164
806.194	8138
806.336	8271
806.478	8123
806.62	7963
806.762	8142
806.904	8267
807.046	8377
807.188	8328
807.33	8309
807.472	8343
807.614	8183
807.756	8115
807.898	7997
808.04	7883
808.182	7826
808.324	7883
808.465	7849
808.607	8065
808.749	8134
808.891	8244
809.033	8309
809.174	8180
809.316	8115
809.458	8126
809.6	8111
809.741	7970
809.883	7997
810.025	8039
810.166	8050
810.308	8058
810.45	7974
810.591	7864
810.733	7624
810.875	7643
811.016	7445
811.158	7464
811.299	7499
811.441	7700
811.582	7647
811.724	7559
811.865	7533
812.007	7563
812.148	7616
812.29	7578
812.431	7746
812.573	7906
812.714	8005
812.855	8145
812.997	8225
813.138	8275
813.279	8077
813.421	7970
813.562	7928
813.703	7772
813.845	7719
813.986	7411
814.127	7206
814.268	7175
814.41	7152
814.551	7209
814.692	7202
814.833	7046
814.974	7072
815.115	7141
815.256	6985
815.397	6916
815.539	6875
815.68	6852
815.821	6798
815.962	6863
816.103	6837
816.244	6726
816.385	6563
816.526	6547
816.666	6483
816.807	6338
816.948	6429
817.089	6433
817.23	6395
817.371	6369
817.512	6292
817.653	6414
817.793	6395
817.934	6441
818.075	6448
818.216	6365
818.356	6407
818.497	6235
818.638	6057
818.778	6148
818.919	6133
819.06	6129
819.2	6296
819.341	6285
819.481	6380
819.622	6517
819.762	6749
819.903	6650
820.043	6601
820.184	6563
820.324	6540
820.465	6688
820.605	6623
820.746	6612
820.886	6574
821.026	6623
821.167	6760
821.307	6760
821.447	6760
821.588	6707
821.728	6627
821.868	6490
822.008	6342
822.149	6304
822.289	6304
822.429	6152
822.569	6072
822.709	6114
822.849	5969
822.99	5942
823.13	5882
823.27	5916
823.41	5794
823.55	5752
823.69	5767
823.83	5760
823.97	5688
824.11	5581
824.25	5512
824.389	5520
824.529	5581
824.669	5509
824.809	5619
824.949	5623
825.089	5592
825.228	5520
825.368	5368
825.508	5315
825.648	5353
825.787	5326
825.927	5368
826.067	5292
826.206	5292
826.346	5360
826.485	5376
826.625	5429
826.765	5512
826.904	5459
827.044	5273
827.183	5208
827.323	5170
827.462	5280
827.601	5124
827.741	5189
827.88	5174
828.02	5086
828.159	5201
828.298	5318
828.437	5364
828.577	5341
828.716	5478
828.855	5307
828.994	5147
829.134	5223
829.273	5159
829.412	5136
829.551	5136
829.69	5136
829.829	5197
829.968	5334
830.107	5311
830.246	5246
830.385	5147
830.524	5136
830.663	5105
830.802	5006
830.941	4870
831.08	4873
831.219	5010
831.357	4980
831.496	5128
831.635	4923
831.774	4771
831.913	4805
832.051	4774
832.19	4729
832.329	4820
832.467	4733
832.606	4588
832.744	4668
832.883	4710
833.022	4721
833.16	4763
833.299	4782
833.437	4850
833.576	4782
833.714	4881
833.852	4839
833.991	4896
834.129	4965
834.267	4953
834.406	4885
834.544	4957
834.682	5014
834.821	4934
834.959	5128
835.097	4987
835.235	5117
835.373	5064
835.511	5098
835.65	5022
835.788	4999
835.926	4862
836.064	4870
836.202	4885
836.34	5178
836.478	5178
836.615	5117
836.753	5189
836.891	5307
837.029	5216
837.167	5212
837.305	5166
837.443	5178
837.58	5102
837.718	5258
837.856	5178
837.993	5067
838.131	5242
838.269	5193
838.406	5189
838.544	5117
838.681	5075
838.819	4953
838.956	4877
839.094	4877
839.231	4961
839.369	5071
839.506	5436
839.643	5254
839.781	5052
839.918	5056
840.055	5109
840.193	5064
840.33	5109
840.467	5105
840.604	5151
840.742	5452
840.879	5113
841.016	5083
841.153	5143
841.29	5353
841.427	5349
841.564	5318
841.701	5341
841.838	5296
841.975	5212
842.112	5254
842.249	5117
842.385	5105
842.522	5288
842.659	5159
842.796	5121
842.933	5193
843.069	5140
843.206	5159
843.343	5299
843.479	5227
843.616	5296
843.752	5052
843.889	4991
844.025	5235
844.162	5025
844.298	5178
844.435	5033
844.571	5045
844.708	5170
844.844	5216
844.98	5307
845.117	5280
845.253	5132
845.389	5022
845.525	5174
845.661	5090
845.798	5022
845.934	5098
846.07	5064
846.206	5166
846.342	5303
846.478	5181
846.614	4999
846.75	4961
846.886	4889
847.022	5064
847.158	5025
847.294	5033
847.429	5109
847.565	5033
847.701	5368
847.837	4885
847.972	4828
848.108	4911
848.244	4911
848.379	4786
848.515	4683
848.65	4698
848.786	4736
848.921	4729
849.057	4850
849.192	4889
849.328	4831
849.463	4812
849.598	4797
849.734	4740
849.869	4687
850.004	4626
850.14	4637
850.275	4580
850.41	4527
850.545	4550
850.68	4569
850.815	4645
850.95	4603
851.085	4835
851.22	4698
851.355	4641
851.49	4538
851.625	4649
851.76	4622
851.895	4531
852.03	4504
852.165	4641
852.299	4683
852.434	4748
852.569	4763
852.703	4683
852.838	4831
852.973	4923
853.107	4923
853.242	4755
853.376	4645
853.511	4519
853.645	4577
853.78	4809
853.914	4694
854.048	4653
854.183	4679
854.317	4725
854.451	4858
854.585	4706
854.72	4618
854.854	4771
854.988	4599
855.122	4698
855.256	4527
855.39	4634
855.524	4774
855.658	4736
855.792	4706
855.926	4725
856.06	4725
856.194	4835
856.327	4721
856.461	4641
856.595	4706
856.729	4679
856.862	4759
856.996	4736
857.13	4778
857.263	4736
857.397	4828
857.53	4637
857.664	4763
857.797	4801
857.931	4805
858.064	4740
858.197	4801
858.331	4679
858.464	4637
858.597	4584
858.731	4717
858.864	4683
858.997	4634
859.13	4702
859.263	4679
859.396	4717
859.529	4618
859.662	4607
859.795	4542
859.928	4607
860.061	4759
860.194	4816
860.327	4672
860.46	4592
860.592	4698
860.725	4752
860.858	4752
860.99	4618
861.123	4588
861.256	4538
861.388	4637
861.521	5326
861.653	4546
861.786	4512
861.918	4531
862.05	4558
862.183	4580
862.315	4618
862.447	4717
862.58	4569
862.712	4424
862.844	4390
862.976	4485
863.108	4550
863.24	4896
863.372	4348
863.504	4470
863.636	4421
863.768	4481
863.9	4493
864.032	4325
864.164	4405
864.296	4519
864.428	4592
864.559	4622
864.691	4519
864.823	4542
864.954	4535
865.086	4565
865.217	4497
865.349	4493
865.48	4504
865.612	4561
865.743	4679
865.875	4497
866.006	4470
866.137	4485
866.269	4466
866.4	4451
866.531	4478
866.662	4432
866.793	4478
866.924	4390
867.055	4504
867.186	4531
867.317	4466
867.448	4386
867.579	4451
867.71	4379
867.841	4379
867.972	4500
868.103	4516
868.233	4497
868.364	4523
868.495	4519
868.625	4656
868.756	4809
868.886	4565
869.017	4653
869.147	4816
869.278	4805
869.408	4664
869.539	4653
869.669	4736
869.799	4694
869.929	4824
870.06	4752
870.19	4961
870.32	4991
870.45	4927
870.58	5067
870.71	5117
870.84	5159
870.97	4957
871.1	4900
871.23	5166
871.36	5162
871.489	5083
871.619	5098
871.749	5128
871.879	5128
872.008	5159
872.138	5075
872.267	5006
872.397	4881
872.526	4870
872.656	4755
872.785	4793
872.915	4965
873.044	5086
873.173	4949
873.303	4953
873.432	5037
873.561	4995
873.69	4911
873.819	4923
873.948	4957
874.077	4850
874.206	4839
874.335	4828
874.464	4946
874.593	5067
874.722	4972
874.851	5136
874.979	5128
875.108	5041
875.237	5003
875.365	4900
875.494	4900
875.623	4934
875.751	4873
875.88	4919
876.008	5006
876.136	5117
876.265	5216
876.393	5303
876.521	5299
876.65	5269
876.778	5185
876.906	5162
877.034	5025
877.162	5045
877.29	4972
877.418	5083
877.546	5094
877.674	5060
877.802	5086
877.93	5037
878.058	4968
878.185	4930
878.313	4984
878.441	5018
878.568	4873
878.696	4930
878.824	4980
878.951	5041
879.079	5147
879.206	5330
879.333	5113
879.461	4965
879.588	5029
879.715	5136
879.842	5254
879.97	5018
880.097	4839
880.224	4786
880.351	4877
880.478	4892
880.605	4881
880.732	4839
880.859	5079
880.986	4911
881.112	4934
881.239	4843
881.366	4698
881.493	4656
881.619	4630
881.746	4641
881.872	4698
881.999	4660
882.125	4786
882.252	4843
882.378	4831
882.505	4984
882.631	4866
882.757	4687
882.883	4763
883.01	4714
883.136	4714
883.262	4615
883.388	4641
883.514	4858
883.64	4889
883.766	4774
883.892	4649
884.018	4771
884.143	4885
884.269	5052
884.395	4687
884.52	4626
884.646	4694
884.772	4626
884.897	4554
885.023	4660
885.148	4801
885.274	4892
885.399	4790
885.524	4714
885.65	4687
885.775	4752
885.9	4725
886.025	4885
886.15	4805
886.275	4736
886.4	4687
886.525	4725
886.65	4752
886.775	4710
886.9	4923
887.025	4999
887.149	4824
887.274	4698
887.399	4603
887.523	4615
887.648	4618
887.773	4584
887.897	4835
888.021	4763
888.146	4748
888.27	4790
888.395	4877
888.519	4801
888.643	4850
888.767	4790
888.891	4683
889.015	4634
889.139	4675
889.263	4637
889.387	4812
889.511	4984
889.635	4805
889.759	4649
889.883	4679
890.006	4721
890.13	4847
890.254	4645
890.377	4672
890.501	4493
890.624	4565
890.748	4679
890.871	4561
890.995	4478
891.118	4356
891.241	4531
891.364	4611
891.488	4634
891.611	4516
891.734	4558
891.857	4596
891.98	4580
892.103	4672
892.226	4618
892.349	4577
892.471	4443
892.594	4618
892.717	4664
892.839	4569
892.962	4615
893.085	4714
893.207	4558
893.33	4493
893.452	4508
893.575	4656
893.697	4596
893.819	4812
893.941	4816
894.064	4812
894.186	4618
894.308	4603
894.43	4763
894.552	4805
894.674	4755
894.796	4607
894.918	4626
895.04	4584
895.161	4721
895.283	4683
895.405	4603
895.526	4683
895.648	4717
895.769	4744
895.891	4740
896.012	4748
896.134	4702
896.255	4702
896.376	4672
896.498	4626
896.619	4717
896.74	4630
896.861	4653
896.982	4908
897.103	5117
897.224	4911
897.345	4812
897.466	4645
897.587	4771
897.708	4892
897.828	4801
897.949	4702
898.07	4577
898.19	4637
898.311	4831
898.431	4733
898.552	4744
898.672	4858
898.792	4805
898.913	4774
899.033	4668
899.153	4512
899.273	4474
899.393	4542
899.513	4516
899.633	4558
899.753	4554
899.873	4519
899.993	4588
900.113	4603
900.232	4622
900.352	4603
900.472	4466
900.591	4409
900.711	4516
900.83	4466
900.95	4615
901.069	4717
901.189	4577
901.308	4386
901.427	4329
901.546	4390
901.665	4459
901.784	4508
901.904	4352
902.023	4329
902.141	4238
902.26	4215
902.379	4329
902.498	4215
902.617	4265
902.735	4344
902.854	4394
902.973	4367
903.091	4246
903.21	4265
903.328	4409
903.446	4303
903.565	4215
903.683	4363
903.801	4325
903.919	4417
904.038	4474
904.156	4325
904.274	4455
904.392	4367
904.51	4497
904.627	4485
904.745	4588
904.863	4645
904.981	4443
905.098	4310
905.216	4371
905.334	4470
905.451	4436
905.569	4478
905.686	4542
905.803	4607
905.921	4424
906.038	4580
906.155	4447
906.272	4455
906.389	4485
906.506	4344
906.623	4379
906.74	4390
906.857	4306
906.974	4344
907.091	4599
907.208	4706
907.324	4535
907.441	4519
907.557	4413
907.674	4325
907.79	4390
907.907	4398
908.023	4443
908.139	4478
908.256	4409
908.372	4421
908.488	4451
908.604	4341
908.72	4363
908.836	4394
908.952	4398
909.068	4455
909.184	4573
909.3	4493
909.415	4615
909.531	4603
909.647	4394
909.762	4383
909.878	4363
909.993	4459
910.108	4436
910.224	4428
910.339	4432
910.454	4417
910.57	4344
910.685	4333
910.8	4702
910.915	4580
911.03	4508
911.145	4325
911.259	4329
911.374	4386
911.489	4314
911.604	4295
911.718	4181
911.833	4215
911.947	4112
912.062	4048
912.176	4211
912.291	4230
912.405	4265
912.519	4478
912.633	4546
912.748	4344
912.862	4310
912.976	4211
913.09	4112
913.204	4215
913.318	4268
913.431	4379
913.545	4383
913.659	4440
913.772	4417
913.886	4303
914	4280
914.113	4421
914.226	4371
914.34	4398
914.453	4227
914.566	4432
914.68	4287
914.793	4333
914.906	4139
915.019	4124
915.132	4131
915.245	4230
915.358	4230
915.47	4246
915.583	4276
915.696	4265
915.809	4402
915.921	4436
916.034	4253
916.146	4291
916.259	4211
916.371	4394
916.483	4325
916.595	4227
916.708	4348
916.82	4322
916.932	4318
917.044	4337
917.156	4337
917.268	4207
917.38	4318
917.491	4322
917.603	4329
917.715	4390
917.826	4459
917.938	4360
918.049	4249
918.161	4371
918.272	4535
918.384	4504
918.495	4485
918.606	4325
918.717	4265
918.828	4356
918.939	4322
919.05	4257
919.161	4314
919.272	4150
919.383	4265
919.494	4443
919.604	4637
919.715	4432
919.826	4367
919.936	4394
920.047	4538
920.157	4538
920.267	4698
920.378	4516
920.488	4493
920.598	4740
920.708	4927
920.818	4786
920.928	4759
921.038	4908
921.148	4885
921.258	4622
921.368	4542
921.477	4493
921.587	4440
921.697	4405
921.806	4569
921.916	4462
922.025	4265
922.134	4295
922.244	4242
922.353	4383
922.462	4196
922.571	4196
922.68	3998
922.789	3991
922.898	4090
923.007	3994
923.116	4124
923.224	4067
923.333	4067
923.442	4040
923.55	4010
923.659	4067
923.767	4139
923.876	3998
923.984	4185
924.092	3994
924.201	4093
924.309	4158
924.417	4120
924.525	4109
924.633	4131
924.741	5128
924.849	3972
924.956	4181
925.064	3972
925.172	3941
925.279	3987
925.387	4101
925.494	4082
925.602	4257
925.709	4207
925.816	4048
925.924	4169
926.031	4284
926.138	4207
926.245	4257
926.352	4158
926.459	4287
926.566	4409
926.673	4249
926.779	4116
926.886	4154
926.993	4051
927.099	4010
927.206	3972
927.312	3994
927.419	4078
927.525	4090
927.631	4093
927.737	4017
927.843	4006
927.95	3876
928.056	3991
928.162	4044
928.267	4124
928.373	4740
928.479	4143
928.585	3941
928.69	4097
928.796	4135
928.901	4002
929.007	3915
929.112	4128
929.218	3953
929.323	3991
929.428	4021
929.533	4150
929.638	3953
929.743	4025
929.848	4040
929.953	4074
930.058	3960
930.163	3816
930.267	3926
930.372	4010
930.477	3915
930.581	4128
930.685	3972
930.79	3896
930.894	3964
930.998	3911
931.103	4078
931.207	3766
931.311	3740
931.415	3709
931.519	3603
931.623	3591
