Data from test_V78500241_754.txt Node
Date: Fri Mar 25 16:54:14 CST 2022
User: usil
Spectrometer: V785-0024
Trigger mode: 0
Integration Time (sec): 4.000000E-1
Scans to average: 1
Nonlinearity correction enabled: false
Boxcar width: 0
Storing dark spectrum: false
XAxis mode: Wavelengths
Number of Pixels in Spectrum: 1024
>>>>>Begin Spectral Data<<<<<
801.071	7978
801.214	8031
801.356	7856
801.499	7849
801.641	7795
801.783	7830
801.926	8008
802.068	7925
802.211	7902
802.353	7951
802.496	7883
802.638	7879
802.78	7928
802.923	7906
803.065	7814
803.208	7795
803.35	7951
803.492	8058
803.635	8115
803.777	8012
803.919	8123
804.061	8446
804.204	8149
804.346	8012
804.488	7970
804.63	8138
804.773	8054
804.915	8077
805.057	8275
805.199	8126
805.341	8252
805.483	8305
805.626	8187
805.768	8130
805.91	8145
806.052	8206
806.194	8092
806.336	8298
806.478	8012
806.62	8069
806.762	8126
806.904	8355
807.046	8450
807.188	8324
807.33	8355
807.472	8317
807.614	8183
807.756	8096
807.898	8016
808.04	7852
808.182	7909
808.324	7894
808.465	7921
808.607	8039
808.749	8069
808.891	8202
809.033	8282
809.174	8237
809.316	8069
809.458	8073
809.6	7967
809.741	8008
809.883	8020
810.025	8069
810.166	8107
810.308	8008
810.45	8115
810.591	7906
810.733	7689
810.875	7731
811.016	7518
811.158	7502
811.299	7597
811.441	7712
811.582	7677
811.724	7578
811.865	7537
812.007	7586
812.148	7525
812.29	7601
812.431	7708
812.573	7799
812.714	7974
812.855	8126
812.997	8126
813.138	8263
813.279	8221
813.421	8115
813.562	7986
813.703	7792
813.845	7769
813.986	7396
814.127	7274
814.268	7270
814.41	7183
814.551	7149
814.692	7156
814.833	6966
814.974	7061
815.115	7122
815.256	6913
815.397	6958
815.539	6859
815.68	6852
815.821	6757
815.962	6894
816.103	6802
816.244	6703
816.385	6631
816.526	6650
816.666	6486
816.807	6331
816.948	6395
817.089	6441
817.23	6456
817.371	6357
817.512	6399
817.653	6399
817.793	6372
817.934	6448
818.075	6445
818.216	6403
818.356	6380
818.497	6216
818.638	6026
818.778	6106
818.919	6144
819.06	6110
819.2	6323
819.341	6311
819.481	6353
819.622	6471
819.762	6662
819.903	6745
820.043	6570
820.184	6498
820.324	6570
820.465	6696
820.605	6608
820.746	6623
820.886	6445
821.026	6677
821.167	6669
821.307	6783
821.447	6787
821.588	6639
821.728	6570
821.868	6490
822.008	6262
822.149	6365
822.289	6353
822.429	6148
822.569	6076
822.709	6117
822.849	5897
822.99	5889
823.13	5935
823.27	5885
823.41	5832
823.55	5760
823.69	5745
823.83	5783
823.97	5623
824.11	5535
824.25	5463
824.389	5535
824.529	5535
824.669	5520
824.809	5676
824.949	5684
825.089	5585
825.228	5539
825.368	5402
825.508	5383
825.648	5349
825.787	5383
825.927	5360
826.067	5277
826.206	5261
826.346	5421
826.485	5379
826.625	5406
826.765	5566
826.904	5425
827.044	5212
827.183	5151
827.323	5113
827.462	5231
827.601	5170
827.741	5220
827.88	5189
828.02	5075
828.159	5204
828.298	5269
828.437	5307
828.577	5280
828.716	5486
828.855	5277
828.994	5216
829.134	5143
829.273	5162
829.412	5155
829.551	5124
829.69	5109
829.829	5223
829.968	5303
830.107	5269
830.246	5261
830.385	5185
830.524	5105
830.663	5090
830.802	4976
830.941	4881
831.08	4854
831.219	4995
831.357	4965
831.496	5132
831.635	4911
831.774	4839
831.913	4824
832.051	4721
832.19	4748
832.329	4824
832.467	4672
832.606	4649
832.744	4714
832.883	4691
833.022	4687
833.16	4782
833.299	4831
833.437	4824
833.576	4877
833.714	4801
833.852	4881
833.991	4892
834.129	4980
834.267	4968
834.406	4904
834.544	4911
834.682	4942
834.821	4984
834.959	5105
835.097	5006
835.235	5147
835.373	5018
835.511	5071
835.65	5033
835.788	5029
835.926	4927
836.064	4911
836.202	4915
836.34	5201
836.478	5223
836.615	5151
836.753	5254
836.891	5303
837.029	5311
837.167	5162
837.305	5143
837.443	5140
837.58	5083
837.718	5189
837.856	5227
837.993	5109
838.131	5201
838.269	5239
838.406	5239
838.544	5147
838.681	5014
838.819	5041
838.956	4900
839.094	4885
839.231	5014
839.369	5090
839.506	5440
839.643	5235
839.781	5083
839.918	4995
840.055	5094
840.193	5056
840.33	5056
840.467	5136
840.604	5166
840.742	5406
840.879	5086
841.016	5083
841.153	5166
841.29	5387
841.427	5307
841.564	5288
841.701	5360
841.838	5277
841.975	5223
842.112	5265
842.249	5086
842.385	5048
842.522	5311
842.659	5170
842.796	5113
842.933	5235
843.069	5136
843.206	5140
843.343	5273
843.479	5261
843.616	5261
843.752	4972
843.889	5041
844.025	5227
844.162	4991
844.298	5216
844.435	5064
844.571	5041
844.708	5201
844.844	5334
844.98	5280
845.117	5235
845.253	5143
845.389	5060
845.525	5136
845.661	5159
845.798	5033
845.934	5079
846.07	5014
846.206	5189
846.342	5311
846.478	5193
846.614	5003
846.75	4957
846.886	4911
847.022	5105
847.158	5010
847.294	5079
847.429	5113
847.565	5025
847.701	5261
847.837	4828
847.972	4816
848.108	4904
848.244	4900
848.379	4786
848.515	4717
848.65	4717
848.786	4717
848.921	4801
849.057	4828
849.192	4862
849.328	4778
849.463	4831
849.598	4801
849.734	4771
849.869	4672
850.004	4656
850.14	4611
850.275	4592
850.41	4535
850.545	4577
850.68	4580
850.815	4634
850.95	4618
851.085	4824
851.22	4744
851.355	4675
851.49	4577
851.625	4592
851.76	4603
851.895	4588
852.03	4569
852.165	4664
852.299	4702
852.434	4748
852.569	4694
852.703	4744
852.838	4866
852.973	4949
853.107	4873
853.242	4672
853.376	4656
853.511	4542
853.645	4634
853.78	4790
853.914	4656
854.048	4679
854.183	4599
854.317	4664
854.451	4854
854.585	4672
854.72	4622
854.854	4733
854.988	4569
855.122	4588
855.256	4493
855.39	4668
855.524	4767
855.658	4714
855.792	4618
855.926	4725
856.06	4759
856.194	4771
856.327	4706
856.461	4649
856.595	4599
856.729	4622
856.862	4767
856.996	4641
857.13	4702
857.263	4744
857.397	4767
857.53	4630
857.664	4679
857.797	4721
857.931	4774
858.064	4702
858.197	4729
858.331	4660
858.464	4615
858.597	4508
858.731	4611
858.864	4656
858.997	4580
859.13	4637
859.263	4717
859.396	4679
859.529	4596
859.662	4519
859.795	4500
859.928	4596
860.061	4744
860.194	4763
860.327	4611
860.46	4584
860.592	4698
860.725	4683
860.858	4687
860.99	4603
861.123	4500
861.256	4573
861.388	4668
861.521	5414
861.653	4519
861.786	4436
861.918	4481
862.05	4481
862.183	4538
862.315	4577
862.447	4615
862.58	4558
862.712	4413
862.844	4280
862.976	4485
863.108	4440
863.24	4877
863.372	4299
863.504	4371
863.636	4375
863.768	4470
863.9	4390
864.032	4344
864.164	4394
864.296	4428
864.428	4523
864.559	4558
864.691	4550
864.823	4523
864.954	4538
865.086	4527
865.217	4478
865.349	4489
865.48	4447
865.612	4504
865.743	4630
865.875	4466
866.006	4421
866.137	4447
866.269	4413
866.4	4409
866.531	4417
866.662	4371
866.793	4383
866.924	4371
867.055	4485
867.186	4493
867.317	4417
867.448	4329
867.579	4405
867.71	4413
867.841	4375
867.972	4432
868.103	4474
868.233	4424
868.364	4409
868.495	4443
868.625	4599
868.756	4694
868.886	4577
869.017	4634
869.147	4786
869.278	4771
869.408	4618
869.539	4607
869.669	4698
869.799	4599
869.929	4778
870.06	4702
870.19	4987
870.32	4911
870.45	4927
870.58	5006
870.71	5052
870.84	5132
870.97	4980
871.1	4900
871.23	5170
871.36	5151
871.489	4991
871.619	5029
871.749	5029
871.879	5102
872.008	5170
872.138	5083
872.267	4968
872.397	4866
872.526	4812
872.656	4778
872.785	4793
872.915	4934
873.044	4980
873.173	4930
873.303	4938
873.432	4984
873.561	4961
873.69	4889
873.819	4843
873.948	4866
874.077	4805
874.206	4752
874.335	4805
874.464	4930
874.593	5033
874.722	4991
874.851	5083
874.979	5056
875.108	5045
875.237	4938
875.365	4843
875.494	4790
875.623	4987
875.751	4847
875.88	4911
876.008	4934
876.136	5033
876.265	5197
876.393	5360
876.521	5204
876.65	5227
876.778	5124
876.906	5083
877.034	5010
877.162	5064
877.29	4987
877.418	5045
877.546	5018
877.674	5052
877.802	5022
877.93	5018
878.058	4896
878.185	4896
878.313	4946
878.441	4999
878.568	4782
878.696	4828
878.824	4915
878.951	4999
879.079	5136
879.206	5258
879.333	5098
879.461	5003
879.588	4980
879.715	5136
879.842	5166
879.97	4965
880.097	4778
880.224	4698
880.351	4771
880.478	4854
880.605	4778
880.732	4790
880.859	5113
880.986	4908
881.112	4938
881.239	4820
881.366	4641
881.493	4599
881.619	4561
881.746	4599
881.872	4649
881.999	4668
882.125	4653
882.252	4759
882.378	4801
882.505	4942
882.631	4774
882.757	4729
882.883	4729
883.01	4717
883.136	4668
883.262	4618
883.388	4668
883.514	4786
883.64	4816
883.766	4786
883.892	4645
884.018	4710
884.143	4877
884.269	4965
884.395	4679
884.52	4622
884.646	4626
884.772	4577
884.897	4550
885.023	4664
885.148	4763
885.274	4850
885.399	4759
885.524	4706
885.65	4679
885.775	4717
885.9	4672
886.025	4858
886.15	4733
886.275	4687
886.4	4622
886.525	4714
886.65	4683
886.775	4706
886.9	4927
887.025	5056
887.149	4801
887.274	4630
887.399	4607
887.523	4592
887.648	4596
887.773	4599
887.897	4752
888.021	4771
888.146	4687
888.27	4828
888.395	4870
888.519	4790
888.643	4812
888.767	4828
888.891	4649
889.015	4580
889.139	4668
889.263	4588
889.387	4725
889.511	4904
889.635	4797
889.759	4622
889.883	4611
890.006	4755
890.13	4877
890.254	4637
890.377	4710
890.501	4516
890.624	4531
890.748	4660
890.871	4554
890.995	4447
891.118	4337
891.241	4512
891.364	4565
891.488	4649
891.611	4512
891.734	4519
891.857	4596
891.98	4558
892.103	4622
892.226	4558
892.349	4508
892.471	4459
892.594	4565
892.717	4599
892.839	4569
892.962	4573
893.085	4698
893.207	4607
893.33	4440
893.452	4512
893.575	4660
893.697	4546
893.819	4744
893.941	4782
894.064	4717
894.186	4546
894.308	4565
894.43	4714
894.552	4828
894.674	4744
894.796	4531
894.918	4618
895.04	4535
895.161	4698
895.283	4649
895.405	4531
895.526	4637
895.648	4687
895.769	4733
895.891	4660
896.012	4691
896.134	4694
896.255	4683
896.376	4630
896.498	4599
896.619	4618
896.74	4634
896.861	4630
896.982	4938
897.103	5025
897.224	4858
897.345	4744
897.466	4637
897.587	4729
897.708	4812
897.828	4812
897.949	4653
898.07	4569
898.19	4630
898.311	4805
898.431	4653
898.552	4675
898.672	4774
898.792	4786
898.913	4736
899.033	4607
899.153	4447
899.273	4394
899.393	4554
899.513	4542
899.633	4558
899.753	4535
899.873	4523
899.993	4584
900.113	4546
900.232	4565
900.352	4542
900.472	4493
900.591	4413
900.711	4493
900.83	4451
900.95	4558
901.069	4664
901.189	4481
901.308	4394
901.427	4348
901.546	4386
901.665	4459
901.784	4519
901.904	4402
902.023	4329
902.141	4166
902.26	4150
902.379	4310
902.498	4230
902.617	4249
902.735	4360
902.854	4333
902.973	4314
903.091	4181
903.21	4234
903.328	4318
903.446	4246
903.565	4219
903.683	4333
903.801	4268
903.919	4409
904.038	4443
904.156	4348
904.274	4428
904.392	4383
904.51	4424
904.627	4470
904.745	4546
904.863	4626
904.981	4443
905.098	4295
905.216	4383
905.334	4443
905.451	4417
905.569	4413
905.686	4481
905.803	4546
905.921	4390
906.038	4538
906.155	4451
906.272	4405
906.389	4478
906.506	4352
906.623	4379
906.74	4360
906.857	4268
906.974	4360
907.091	4584
907.208	4679
907.324	4603
907.441	4478
907.557	4303
907.674	4344
907.79	4322
907.907	4379
908.023	4489
908.139	4527
908.256	4440
908.372	4447
908.488	4440
908.604	4333
908.72	4303
908.836	4356
908.952	4375
909.068	4428
909.184	4538
909.3	4485
909.415	4538
909.531	4554
909.647	4356
909.762	4333
909.878	4360
909.993	4462
910.108	4379
910.224	4436
910.339	4459
910.454	4394
910.57	4375
910.685	4284
910.8	4668
910.915	4618
911.03	4512
911.145	4341
911.259	4318
911.374	4398
911.489	4295
911.604	4284
911.718	4173
911.833	4204
911.947	4067
912.062	4029
912.176	4177
912.291	4215
912.405	4253
912.519	4470
912.633	4485
912.748	4367
912.862	4352
912.976	4188
913.09	4059
913.204	4192
913.318	4238
913.431	4367
913.545	4318
913.659	4447
913.772	4379
913.886	4242
914	4211
914.113	4375
914.226	4409
914.34	4379
914.453	4207
914.566	4470
914.68	4287
914.793	4371
914.906	4177
915.019	4116
915.132	4093
915.245	4204
915.358	4200
915.47	4223
915.583	4272
915.696	4280
915.809	4402
915.921	4405
916.034	4227
916.146	4287
916.259	4196
916.371	4394
916.483	4356
916.595	4253
916.708	4280
916.82	4284
916.932	4295
917.044	4303
917.156	4314
917.268	4230
917.38	4268
917.491	4306
917.603	4348
917.715	4413
917.826	4417
917.938	4337
918.049	4249
918.161	4443
918.272	4508
918.384	4550
918.495	4455
918.606	4303
918.717	4253
918.828	4280
918.939	4344
919.05	4188
919.161	4325
919.272	4162
919.383	4177
919.494	4432
919.604	4668
919.715	4417
919.826	4341
919.936	4375
920.047	4519
920.157	4474
920.267	4710
920.378	4527
920.488	4481
920.598	4729
920.708	4889
920.818	4782
920.928	4721
921.038	4942
921.148	4930
921.258	4637
921.368	4523
921.477	4489
921.587	4421
921.697	4363
921.806	4535
921.916	4421
922.025	4223
922.134	4265
922.244	4200
922.353	4329
922.462	4204
922.571	4128
922.68	3983
922.789	3956
922.898	4051
923.007	3956
923.116	4048
923.224	4040
923.333	4097
923.442	3960
923.55	3994
923.659	4032
923.767	4067
923.876	3998
923.984	4128
924.092	4021
924.201	4109
924.309	4135
924.417	4074
924.525	4010
924.633	4135
924.741	4930
924.849	3892
924.956	4093
925.064	3926
925.172	3899
925.279	3941
925.387	4006
925.494	4051
925.602	4238
925.709	4185
925.816	4086
925.924	4124
926.031	4223
926.138	4173
926.245	4188
926.352	4090
926.459	4272
926.566	4295
926.673	4185
926.779	4044
926.886	4074
926.993	3991
927.099	3945
927.206	3941
927.312	3937
927.419	4063
927.525	4010
927.631	4082
927.737	3991
927.843	3979
927.95	3842
928.056	3907
928.162	3968
928.267	4044
928.373	4626
928.479	4128
928.585	3876
928.69	4013
928.796	4063
928.901	3949
929.007	3808
929.112	4013
929.218	3983
929.323	3926
929.428	3926
929.533	4086
929.638	3907
929.743	3941
929.848	4063
929.953	3991
930.058	3941
930.163	3778
930.267	3827
930.372	3953
930.477	3797
930.581	4086
930.685	3922
930.79	3838
930.894	3899
930.998	3842
931.103	4048
931.207	3709
931.311	3682
931.415	3656
931.519	3568
931.623	3515
