Data from test_V78500241_1087.txt Node
Date: Fri Mar 25 16:56:33 CST 2022
User: usil
Spectrometer: V785-0024
Trigger mode: 0
Integration Time (sec): 4.000000E-1
Scans to average: 1
Nonlinearity correction enabled: false
Boxcar width: 0
Storing dark spectrum: false
XAxis mode: Wavelengths
Number of Pixels in Spectrum: 1024
>>>>>Begin Spectral Data<<<<<
801.071	8103
801.214	8062
801.356	7890
801.499	7856
801.641	7769
801.783	7837
801.926	7936
802.068	7917
802.211	7997
802.353	7967
802.496	7852
802.638	7875
802.78	7925
802.923	7944
803.065	7902
803.208	7921
803.35	8058
803.492	8092
803.635	8164
803.777	8050
803.919	8225
804.061	8469
804.204	8134
804.346	8024
804.488	7982
804.63	8103
804.773	8039
804.915	8153
805.057	8290
805.199	8153
805.341	8202
805.483	8263
805.626	8202
805.768	8138
805.91	8195
806.052	8191
806.194	8039
806.336	8202
806.478	8084
806.62	8096
806.762	8157
806.904	8332
807.046	8522
807.188	8343
807.33	8313
807.472	8221
807.614	8180
807.756	8164
807.898	7997
808.04	7986
808.182	7925
808.324	7883
808.465	7936
808.607	8062
808.749	8153
808.891	8168
809.033	8279
809.174	8183
809.316	8096
809.458	7978
809.6	8005
809.741	8069
809.883	8069
810.025	8084
810.166	8062
810.308	8054
810.45	7986
810.591	7906
810.733	7753
810.875	7636
811.016	7457
811.158	7525
811.299	7620
811.441	7742
811.582	7708
811.724	7567
811.865	7510
812.007	7483
812.148	7552
812.29	7628
812.431	7765
812.573	7890
812.714	7997
812.855	8062
812.997	8210
813.138	8309
813.279	8233
813.421	8073
813.562	8115
813.703	7849
813.845	7734
813.986	7502
814.127	7225
814.268	7244
814.41	7126
814.551	7149
814.692	7202
814.833	7000
814.974	7114
815.115	7053
815.256	6993
815.397	6935
815.539	6871
815.68	6840
815.821	6764
815.962	6901
816.103	6837
816.244	6692
816.385	6620
816.526	6665
816.666	6494
816.807	6220
816.948	6456
817.089	6456
817.23	6422
817.371	6376
817.512	6319
817.653	6395
817.793	6376
817.934	6433
818.075	6506
818.216	6452
818.356	6395
818.497	6186
818.638	6152
818.778	6197
818.919	6087
819.06	6167
819.2	6281
819.341	6300
819.481	6331
819.622	6502
819.762	6719
819.903	6688
820.043	6642
820.184	6582
820.324	6540
820.465	6738
820.605	6650
820.746	6623
820.886	6475
821.026	6559
821.167	6665
821.307	6776
821.447	6787
821.588	6646
821.728	6574
821.868	6460
822.008	6331
822.149	6323
822.289	6353
822.429	6098
822.569	6106
822.709	6095
822.849	5916
822.99	5935
823.13	5885
823.27	5878
823.41	5752
823.55	5764
823.69	5790
823.83	5764
823.97	5665
824.11	5543
824.25	5535
824.389	5573
824.529	5570
824.669	5528
824.809	5608
824.949	5638
825.089	5649
825.228	5497
825.368	5341
825.508	5326
825.648	5337
825.787	5395
825.927	5357
826.067	5326
826.206	5273
826.346	5353
826.485	5421
826.625	5391
826.765	5554
826.904	5444
827.044	5223
827.183	5181
827.323	5113
827.462	5204
827.601	5178
827.741	5216
827.88	5201
828.02	5140
828.159	5208
828.298	5288
828.437	5357
828.577	5235
828.716	5452
828.855	5307
828.994	5117
829.134	5140
829.273	5181
829.412	5060
829.551	5151
829.69	5113
829.829	5204
829.968	5337
830.107	5235
830.246	5280
830.385	5189
830.524	5121
830.663	4987
830.802	4961
830.941	4881
831.08	4870
831.219	4957
831.357	4984
831.496	5143
831.635	4919
831.774	4816
831.913	4812
832.051	4710
832.19	4702
832.329	4793
832.467	4660
832.606	4675
832.744	4717
832.883	4740
833.022	4721
833.16	4744
833.299	4843
833.437	4805
833.576	4801
833.714	4816
833.852	4908
833.991	4854
834.129	4938
834.267	4972
834.406	4900
834.544	4968
834.682	4957
834.821	4961
834.959	5098
835.097	4976
835.235	5128
835.373	5014
835.511	5067
835.65	4999
835.788	4984
835.926	4896
836.064	4923
836.202	4881
836.34	5128
836.478	5235
836.615	5109
836.753	5193
836.891	5242
837.029	5242
837.167	5235
837.305	5136
837.443	5113
837.58	5056
837.718	5273
837.856	5143
837.993	5117
838.131	5189
838.269	5174
838.406	5231
838.544	5216
838.681	5018
838.819	4968
838.956	4862
839.094	4870
839.231	4965
839.369	5083
839.506	5360
839.643	5254
839.781	5056
839.918	5014
840.055	5067
840.193	5094
840.33	5094
840.467	5094
840.604	5109
840.742	5444
840.879	5102
841.016	5064
841.153	5197
841.29	5360
841.427	5360
841.564	5357
841.701	5299
841.838	5273
841.975	5227
842.112	5239
842.249	5197
842.385	5094
842.522	5341
842.659	5185
842.796	5166
842.933	5235
843.069	5151
843.206	5121
843.343	5273
843.479	5235
843.616	5197
843.752	5090
843.889	4972
844.025	5197
844.162	5029
844.298	5216
844.435	5086
844.571	5003
844.708	5155
844.844	5261
844.98	5345
845.117	5326
845.253	5159
845.389	5048
845.525	5124
845.661	5147
845.798	5029
845.934	5109
846.07	5045
846.206	5212
846.342	5239
846.478	5143
846.614	5003
846.75	4911
846.886	4923
847.022	5136
847.158	5033
847.294	5014
847.429	5105
847.565	5067
847.701	5353
847.837	4858
847.972	4771
848.108	4987
848.244	4938
848.379	4778
848.515	4702
848.65	4653
848.786	4752
848.921	4767
849.057	4839
849.192	4892
849.328	4797
849.463	4797
849.598	4755
849.734	4733
849.869	4683
850.004	4592
850.14	4653
850.275	4592
850.41	4504
850.545	4550
850.68	4599
850.815	4615
850.95	4599
851.085	4843
851.22	4733
851.355	4622
851.49	4599
851.625	4653
851.76	4611
851.895	4546
852.03	4527
852.165	4618
852.299	4694
852.434	4793
852.569	4717
852.703	4740
852.838	4816
852.973	4885
853.107	4919
853.242	4683
853.376	4683
853.511	4546
853.645	4584
853.78	4778
853.914	4683
854.048	4687
854.183	4615
854.317	4714
854.451	4839
854.585	4653
854.72	4634
854.854	4710
854.988	4554
855.122	4668
855.256	4500
855.39	4675
855.524	4763
855.658	4694
855.792	4668
855.926	4717
856.06	4763
856.194	4771
856.327	4649
856.461	4626
856.595	4603
856.729	4584
856.862	4748
856.996	4683
857.13	4698
857.263	4763
857.397	4805
857.53	4626
857.664	4717
857.797	4752
857.931	4771
858.064	4694
858.197	4744
858.331	4664
858.464	4592
858.597	4512
858.731	4660
858.864	4649
858.997	4607
859.13	4626
859.263	4641
859.396	4653
859.529	4550
859.662	4504
859.795	4519
859.928	4622
860.061	4736
860.194	4706
860.327	4565
860.46	4558
860.592	4702
860.725	4668
860.858	4725
860.99	4546
861.123	4519
861.256	4542
861.388	4580
861.521	5299
861.653	4466
861.786	4481
861.918	4455
862.05	4519
862.183	4592
862.315	4607
862.447	4649
862.58	4580
862.712	4386
862.844	4341
862.976	4459
863.108	4402
863.24	4870
863.372	4360
863.504	4440
863.636	4413
863.768	4440
863.9	4405
864.032	4337
864.164	4390
864.296	4443
864.428	4516
864.559	4573
864.691	4538
864.823	4504
864.954	4478
865.086	4485
865.217	4451
865.349	4409
865.48	4405
865.612	4462
865.743	4656
865.875	4481
866.006	4432
866.137	4451
866.269	4478
866.4	4405
866.531	4455
866.662	4405
866.793	4375
866.924	4428
867.055	4470
867.186	4428
867.317	4390
867.448	4375
867.579	4360
867.71	4405
867.841	4371
867.972	4440
868.103	4436
868.233	4432
868.364	4440
868.495	4462
868.625	4641
868.756	4744
868.886	4580
869.017	4603
869.147	4763
869.278	4797
869.408	4603
869.539	4637
869.669	4679
869.799	4672
869.929	4740
870.06	4733
870.19	4942
870.32	4854
870.45	4881
870.58	4999
870.71	5094
870.84	5075
870.97	4946
871.1	4919
871.23	5067
871.36	5090
871.489	5029
871.619	5048
871.749	5056
871.879	5166
872.008	5162
872.138	5056
872.267	4980
872.397	4847
872.526	4782
872.656	4706
872.785	4805
872.915	4961
873.044	4972
873.173	4919
873.303	4946
873.432	4934
873.561	4938
873.69	4839
873.819	4877
873.948	4908
874.077	4786
874.206	4748
874.335	4782
874.464	4900
874.593	5018
874.722	4942
874.851	5098
874.979	5010
875.108	5052
875.237	4835
875.365	4866
875.494	4889
875.623	4984
875.751	4831
875.88	4854
876.008	5006
876.136	4987
876.265	5166
876.393	5368
876.521	5216
876.65	5201
876.778	5121
876.906	5060
877.034	5010
877.162	5041
877.29	4965
877.418	5064
877.546	5014
877.674	5041
877.802	4991
877.93	4987
878.058	4938
878.185	4892
878.313	4900
878.441	4961
878.568	4801
878.696	4873
878.824	4972
878.951	4987
879.079	5128
879.206	5288
879.333	5056
879.461	4953
879.588	4911
879.715	5117
879.842	5193
879.97	4976
880.097	4759
880.224	4774
880.351	4824
880.478	4805
880.605	4752
880.732	4733
880.859	5079
880.986	4927
881.112	4904
881.239	4790
881.366	4710
881.493	4596
881.619	4542
881.746	4649
881.872	4653
881.999	4626
882.125	4649
882.252	4786
882.378	4797
882.505	4949
882.631	4812
882.757	4626
882.883	4717
883.01	4717
883.136	4656
883.262	4584
883.388	4634
883.514	4801
883.64	4881
883.766	4733
883.892	4637
884.018	4744
884.143	4816
884.269	5018
884.395	4660
884.52	4611
884.646	4622
884.772	4584
884.897	4577
885.023	4660
885.148	4763
885.274	4847
885.399	4816
885.524	4679
885.65	4675
885.775	4706
885.9	4691
886.025	4862
886.15	4771
886.275	4714
886.4	4683
886.525	4721
886.65	4664
886.775	4714
886.9	4854
887.025	5010
887.149	4767
887.274	4645
887.399	4535
887.523	4588
887.648	4558
887.773	4592
887.897	4725
888.021	4782
888.146	4660
888.27	4778
888.395	4866
888.519	4778
888.643	4786
888.767	4801
888.891	4687
889.015	4603
889.139	4656
889.263	4584
889.387	4752
889.511	4877
889.635	4809
889.759	4618
889.883	4626
890.006	4714
890.13	4831
890.254	4641
890.377	4656
890.501	4561
890.624	4538
890.748	4637
890.871	4512
890.995	4413
891.118	4409
891.241	4459
891.364	4527
891.488	4664
891.611	4474
891.734	4558
891.857	4626
891.98	4481
892.103	4607
892.226	4588
892.349	4527
892.471	4383
892.594	4508
892.717	4580
892.839	4618
892.962	4588
893.085	4714
893.207	4542
893.33	4474
893.452	4519
893.575	4679
893.697	4592
893.819	4740
893.941	4843
894.064	4721
894.186	4523
894.308	4523
894.43	4729
894.552	4805
894.674	4717
894.796	4485
894.918	4580
895.04	4584
895.161	4691
895.283	4664
895.405	4603
895.526	4577
895.648	4702
895.769	4706
895.891	4725
896.012	4649
896.134	4717
896.255	4615
896.376	4611
896.498	4615
896.619	4664
896.74	4592
896.861	4653
896.982	4938
897.103	5083
897.224	4767
897.345	4733
897.466	4656
897.587	4729
897.708	4831
897.828	4733
897.949	4630
898.07	4554
898.19	4596
898.311	4824
898.431	4721
898.552	4736
898.672	4744
898.792	4748
898.913	4736
899.033	4607
899.153	4519
899.273	4398
899.393	4489
899.513	4527
899.633	4516
899.753	4504
899.873	4493
899.993	4550
900.113	4527
900.232	4584
900.352	4459
900.472	4451
900.591	4379
900.711	4455
900.83	4409
900.95	4618
901.069	4626
901.189	4504
901.308	4363
901.427	4318
901.546	4436
901.665	4489
901.784	4535
901.904	4379
902.023	4325
902.141	4154
902.26	4211
902.379	4265
902.498	4234
902.617	4238
902.735	4371
902.854	4394
902.973	4333
903.091	4181
903.21	4268
903.328	4272
903.446	4276
903.565	4219
903.683	4356
903.801	4230
903.919	4421
904.038	4417
904.156	4329
904.274	4466
904.392	4390
904.51	4432
904.627	4497
904.745	4542
904.863	4577
904.981	4379
905.098	4276
905.216	4344
905.334	4409
905.451	4451
905.569	4386
905.686	4565
905.803	4554
905.921	4413
906.038	4531
906.155	4481
906.272	4375
906.389	4459
906.506	4367
906.623	4398
906.74	4394
906.857	4303
906.974	4322
907.091	4546
907.208	4687
907.324	4523
907.441	4459
907.557	4314
907.674	4306
907.79	4295
907.907	4390
908.023	4474
908.139	4443
908.256	4455
908.372	4428
908.488	4405
908.604	4375
908.72	4303
908.836	4341
908.952	4322
909.068	4436
909.184	4558
909.3	4455
909.415	4561
909.531	4542
909.647	4344
909.762	4356
909.878	4379
909.993	4462
910.108	4413
910.224	4440
910.339	4485
910.454	4390
910.57	4394
910.685	4280
910.8	4641
910.915	4584
911.03	4485
911.145	4306
911.259	4325
911.374	4344
911.489	4268
911.604	4280
911.718	4215
911.833	4215
911.947	4078
912.062	4010
912.176	4150
912.291	4181
912.405	4234
912.519	4462
912.633	4478
912.748	4356
912.862	4303
912.976	4223
913.09	4093
913.204	4128
913.318	4253
913.431	4341
913.545	4356
913.659	4375
913.772	4348
913.886	4246
914	4185
914.113	4367
914.226	4402
914.34	4390
914.453	4227
914.566	4428
914.68	4325
914.793	4314
914.906	4090
915.019	4124
915.132	4105
915.245	4139
915.358	4177
915.47	4238
915.583	4223
915.696	4287
915.809	4405
915.921	4443
916.034	4242
916.146	4238
916.259	4227
916.371	4409
916.483	4337
916.595	4249
916.708	4280
916.82	4325
916.932	4337
917.044	4333
917.156	4306
917.268	4223
917.38	4284
917.491	4268
917.603	4344
917.715	4383
917.826	4409
917.938	4303
918.049	4242
918.161	4398
918.272	4523
918.384	4500
918.495	4493
918.606	4295
918.717	4230
918.828	4344
918.939	4344
919.05	4219
919.161	4318
919.272	4109
919.383	4234
919.494	4451
919.604	4607
919.715	4394
919.826	4348
919.936	4394
920.047	4508
920.157	4447
920.267	4725
920.378	4523
920.488	4500
920.598	4702
920.708	4900
920.818	4759
920.928	4714
921.038	4938
921.148	4923
921.258	4611
921.368	4569
921.477	4504
921.587	4478
921.697	4402
921.806	4554
921.916	4436
922.025	4295
922.134	4268
922.244	4227
922.353	4284
922.462	4143
922.571	4154
922.68	4013
922.789	3979
922.898	4048
923.007	3975
923.116	4097
923.224	4067
923.333	4055
923.442	3979
923.55	4010
923.659	4055
923.767	4090
923.876	3987
923.984	4128
924.092	4010
924.201	4067
924.309	4120
924.417	4120
924.525	4032
924.633	4067
924.741	5018
924.849	3892
924.956	4067
925.064	3968
925.172	3918
925.279	3964
925.387	4063
925.494	4025
925.602	4219
925.709	4188
925.816	4036
925.924	4124
926.031	4230
926.138	4162
926.245	4200
926.352	4139
926.459	4257
926.566	4303
926.673	4154
926.779	4071
926.886	4071
926.993	3930
927.099	3949
927.206	3926
927.312	3873
927.419	4021
927.525	3987
927.631	4078
927.737	3937
927.843	3960
927.95	3816
928.056	3949
928.162	3983
928.267	4036
928.373	4660
928.479	4120
928.585	3869
928.69	4025
928.796	4063
928.901	3941
929.007	3846
929.112	3979
929.218	3987
929.323	3907
929.428	3956
929.533	4120
929.638	3896
929.743	3956
929.848	4040
929.953	3979
930.058	3983
930.163	3781
930.267	3770
930.372	3945
930.477	3759
930.581	4036
930.685	3888
930.79	3789
930.894	3850
930.998	3835
931.103	4067
931.207	3682
931.311	3675
931.415	3667
931.519	3515
931.623	3568
