Data from test_V78500241_335.txt Node
Date: Fri Mar 25 16:51:19 CST 2022
User: usil
Spectrometer: V785-0024
Trigger mode: 0
Integration Time (sec): 4.000000E-1
Scans to average: 1
Nonlinearity correction enabled: false
Boxcar width: 0
Storing dark spectrum: false
XAxis mode: Wavelengths
Number of Pixels in Spectrum: 1024
>>>>>Begin Spectral Data<<<<<
801.071	8020
801.214	8054
801.356	7982
801.499	7909
801.641	7841
801.783	7875
801.926	8008
802.068	7898
802.211	7978
802.353	7989
802.496	7909
802.638	7925
802.78	7989
802.923	7997
803.065	7807
803.208	7860
803.35	7970
803.492	8058
803.635	8115
803.777	7955
803.919	8164
804.061	8415
804.204	8107
804.346	8024
804.488	8027
804.63	8126
804.773	8008
804.915	8031
805.057	8358
805.199	8164
805.341	8183
805.483	8256
805.626	8172
805.768	8062
805.91	8107
806.052	8221
806.194	8115
806.336	8294
806.478	8142
806.62	8153
806.762	8157
806.904	8279
807.046	8503
807.188	8393
807.33	8271
807.472	8347
807.614	8142
807.756	8149
807.898	8039
808.04	7940
808.182	7944
808.324	7951
808.465	7925
808.607	8107
808.749	8145
808.891	8244
809.033	8366
809.174	8130
809.316	8088
809.458	8058
809.6	7997
809.741	8008
809.883	8020
810.025	8100
810.166	8081
810.308	8050
810.45	8103
810.591	7833
810.733	7750
810.875	7655
811.016	7586
811.158	7518
811.299	7597
811.441	7795
811.582	7651
811.724	7613
811.865	7628
812.007	7696
812.148	7643
812.29	7624
812.431	7792
812.573	7883
812.714	7947
812.855	8145
812.997	8168
813.138	8282
813.279	8199
813.421	8050
813.562	8088
813.703	7864
813.845	7814
813.986	7430
814.127	7312
814.268	7278
814.41	7259
814.551	7198
814.692	7236
814.833	7118
814.974	7095
815.115	7099
815.256	6947
815.397	6920
815.539	6954
815.68	6798
815.821	6768
815.962	6848
816.103	6837
816.244	6776
816.385	6745
816.526	6654
816.666	6513
816.807	6369
816.948	6464
817.089	6437
817.23	6414
817.371	6338
817.512	6365
817.653	6399
817.793	6372
817.934	6384
818.075	6460
818.216	6494
818.356	6452
818.497	6319
818.638	6102
818.778	6182
818.919	6133
819.06	6167
819.2	6300
819.341	6350
819.481	6346
819.622	6525
819.762	6700
819.903	6730
820.043	6597
820.184	6582
820.324	6601
820.465	6707
820.605	6673
820.746	6566
820.886	6513
821.026	6665
821.167	6642
821.307	6840
821.447	6806
821.588	6692
821.728	6620
821.868	6555
822.008	6319
822.149	6388
822.289	6361
822.429	6152
822.569	6079
822.709	6102
822.849	5885
822.99	5889
823.13	5973
823.27	5885
823.41	5779
823.55	5748
823.69	5783
823.83	5817
823.97	5646
824.11	5539
824.25	5509
824.389	5570
824.529	5630
824.669	5520
824.809	5611
824.949	5642
825.089	5684
825.228	5562
825.368	5455
825.508	5402
825.648	5334
825.787	5360
825.927	5357
826.067	5334
826.206	5242
826.346	5364
826.485	5410
826.625	5440
826.765	5551
826.904	5478
827.044	5235
827.183	5155
827.323	5162
827.462	5239
827.601	5231
827.741	5189
827.88	5242
828.02	5121
828.159	5254
828.298	5250
828.437	5379
828.577	5315
828.716	5490
828.855	5322
828.994	5155
829.134	5136
829.273	5151
829.412	5151
829.551	5132
829.69	5170
829.829	5250
829.968	5410
830.107	5303
830.246	5269
830.385	5216
830.524	5193
830.663	5086
830.802	4980
830.941	4915
831.08	4930
831.219	5041
831.357	4999
831.496	5155
831.635	4972
831.774	4885
831.913	4889
832.051	4710
832.19	4740
832.329	4847
832.467	4687
832.606	4649
832.744	4748
832.883	4702
833.022	4729
833.16	4763
833.299	4854
833.437	4812
833.576	4828
833.714	4850
833.852	4889
833.991	4911
834.129	5010
834.267	4987
834.406	4934
834.544	4980
834.682	4968
834.821	4961
834.959	5166
835.097	5006
835.235	5170
835.373	5090
835.511	5090
835.65	5010
835.788	5010
835.926	4877
836.064	4858
836.202	4942
836.34	5159
836.478	5227
836.615	5067
836.753	5227
836.891	5299
837.029	5242
837.167	5258
837.305	5193
837.443	5143
837.58	5056
837.718	5231
837.856	5239
837.993	5147
838.131	5254
838.269	5220
838.406	5231
838.544	5143
838.681	5079
838.819	5003
838.956	4892
839.094	4904
839.231	4999
839.369	5109
839.506	5452
839.643	5307
839.781	5117
839.918	4953
840.055	5128
840.193	5113
840.33	5109
840.467	5147
840.604	5273
840.742	5478
840.879	5117
841.016	5079
841.153	5151
841.29	5360
841.427	5349
841.564	5334
841.701	5353
841.838	5254
841.975	5296
842.112	5265
842.249	5155
842.385	5136
842.522	5334
842.659	5208
842.796	5140
842.933	5208
843.069	5181
843.206	5170
843.343	5185
843.479	5246
843.616	5280
843.752	5025
843.889	4991
844.025	5265
844.162	5064
844.298	5220
844.435	5113
844.571	5071
844.708	5189
844.844	5299
844.98	5353
845.117	5258
845.253	5128
845.389	5121
845.525	5220
845.661	5124
845.798	5056
845.934	5159
846.07	5083
846.206	5193
846.342	5292
846.478	5174
846.614	5075
846.75	4980
846.886	4934
847.022	5174
847.158	5014
847.294	5094
847.429	5113
847.565	5079
847.701	5357
847.837	4862
847.972	4847
848.108	4976
848.244	4885
848.379	4778
848.515	4759
848.65	4748
848.786	4771
848.921	4812
849.057	4854
849.192	4972
849.328	4820
849.463	4828
849.598	4782
849.734	4771
849.869	4710
850.004	4630
850.14	4694
850.275	4634
850.41	4523
850.545	4596
850.68	4615
850.815	4622
850.95	4653
851.085	4820
851.22	4725
851.355	4679
851.49	4634
851.625	4607
851.76	4592
851.895	4516
852.03	4538
852.165	4664
852.299	4691
852.434	4767
852.569	4744
852.703	4759
852.838	4850
852.973	4934
853.107	4915
853.242	4740
853.376	4664
853.511	4538
853.645	4645
853.78	4824
853.914	4656
854.048	4653
854.183	4645
854.317	4767
854.451	4824
854.585	4672
854.72	4710
854.854	4714
854.988	4622
855.122	4622
855.256	4504
855.39	4653
855.524	4778
855.658	4752
855.792	4706
855.926	4782
856.06	4740
856.194	4805
856.327	4653
856.461	4634
856.595	4603
856.729	4653
856.862	4774
856.996	4687
857.13	4771
857.263	4729
857.397	4816
857.53	4641
857.664	4752
857.797	4790
857.931	4771
858.064	4725
858.197	4774
858.331	4691
858.464	4618
858.597	4508
858.731	4649
858.864	4626
858.997	4691
859.13	4656
859.263	4672
859.396	4710
859.529	4603
859.662	4596
859.795	4550
859.928	4622
860.061	4793
860.194	4812
860.327	4592
860.46	4580
860.592	4717
860.725	4771
860.858	4717
860.99	4531
861.123	4577
861.256	4535
861.388	4607
861.521	5318
861.653	4451
861.786	4390
861.918	4474
862.05	4527
862.183	4596
862.315	4622
862.447	4653
862.58	4516
862.712	4405
862.844	4344
862.976	4504
863.108	4413
863.24	4763
863.372	4329
863.504	4447
863.636	4432
863.768	4523
863.9	4432
864.032	4409
864.164	4459
864.296	4481
864.428	4573
864.559	4584
864.691	4512
864.823	4512
864.954	4504
865.086	4538
865.217	4489
865.349	4424
865.48	4466
865.612	4508
865.743	4645
865.875	4489
866.006	4428
866.137	4512
866.269	4386
866.4	4436
866.531	4386
866.662	4386
866.793	4455
866.924	4390
867.055	4527
867.186	4459
867.317	4478
867.448	4379
867.579	4394
867.71	4379
867.841	4402
867.972	4459
868.103	4398
868.233	4428
868.364	4443
868.495	4512
868.625	4687
868.756	4759
868.886	4516
869.017	4577
869.147	4797
869.278	4793
869.408	4656
869.539	4618
869.669	4698
869.799	4729
869.929	4774
870.06	4748
870.19	4972
870.32	4953
870.45	4961
870.58	5018
870.71	5113
870.84	5124
870.97	4927
871.1	4870
871.23	5109
871.36	5128
871.489	5022
871.619	5052
871.749	5117
871.879	5178
872.008	5124
872.138	5071
872.267	4984
872.397	4877
872.526	4824
872.656	4725
872.785	4839
872.915	4965
873.044	5010
873.173	4961
873.303	5006
873.432	4965
873.561	4942
873.69	4889
873.819	4942
873.948	4965
874.077	4801
874.206	4752
874.335	4790
874.464	4908
874.593	5083
874.722	4965
874.851	5136
874.979	5064
875.108	5029
875.237	4881
875.365	4847
875.494	4900
875.623	4968
875.751	4843
875.88	4858
876.008	5010
876.136	4991
876.265	5212
876.393	5357
876.521	5223
876.65	5193
876.778	5140
876.906	5041
877.034	5022
877.162	5041
877.29	5045
877.418	5083
877.546	5037
877.674	5048
877.802	5048
877.93	4991
878.058	4885
878.185	4915
878.313	4915
878.441	4919
878.568	4820
878.696	4915
878.824	4946
878.951	4995
879.079	5166
879.206	5277
879.333	5128
879.461	5029
879.588	5006
879.715	5166
879.842	5239
879.97	5071
880.097	4812
880.224	4759
880.351	4809
880.478	4820
880.605	4866
880.732	4782
880.859	5159
880.986	4934
881.112	4934
881.239	4862
881.366	4679
881.493	4641
881.619	4561
881.746	4675
881.872	4679
881.999	4679
882.125	4691
882.252	4797
882.378	4896
882.505	4980
882.631	4797
882.757	4668
882.883	4759
883.01	4774
883.136	4675
883.262	4584
883.388	4611
883.514	4835
883.64	4870
883.766	4828
883.892	4698
884.018	4698
884.143	4915
884.269	5003
884.395	4717
884.52	4630
884.646	4641
884.772	4588
884.897	4592
885.023	4717
885.148	4782
885.274	4835
885.399	4854
885.524	4702
885.65	4725
885.775	4698
885.9	4733
886.025	4805
886.15	4801
886.275	4702
886.4	4615
886.525	4721
886.65	4717
886.775	4733
886.9	4949
887.025	5056
887.149	4782
887.274	4683
887.399	4588
887.523	4615
887.648	4546
887.773	4634
887.897	4778
888.021	4805
888.146	4698
888.27	4767
888.395	4900
888.519	4790
888.643	4816
888.767	4835
888.891	4660
889.015	4649
889.139	4668
889.263	4637
889.387	4733
889.511	4858
889.635	4797
889.759	4634
889.883	4656
890.006	4729
890.13	4805
890.254	4641
890.377	4672
890.501	4519
890.624	4523
890.748	4626
890.871	4504
890.995	4440
891.118	4421
891.241	4474
891.364	4558
891.488	4618
891.611	4481
891.734	4546
891.857	4573
891.98	4577
892.103	4702
892.226	4596
892.349	4523
892.471	4436
892.594	4565
892.717	4565
892.839	4565
892.962	4611
893.085	4668
893.207	4645
893.33	4478
893.452	4516
893.575	4672
893.697	4584
893.819	4824
893.941	4782
894.064	4755
894.186	4584
894.308	4527
894.43	4767
894.552	4820
894.674	4763
894.796	4569
894.918	4634
895.04	4573
895.161	4717
895.283	4694
895.405	4577
895.526	4656
895.648	4679
895.769	4672
895.891	4736
896.012	4828
896.134	4717
896.255	4649
896.376	4649
896.498	4630
896.619	4698
896.74	4664
896.861	4630
896.982	4919
897.103	5045
897.224	4820
897.345	4786
897.466	4653
897.587	4767
897.708	4850
897.828	4801
897.949	4664
898.07	4561
898.19	4687
898.311	4835
898.431	4653
898.552	4767
898.672	4847
898.792	4755
898.913	4763
899.033	4630
899.153	4512
899.273	4413
899.393	4500
899.513	4569
899.633	4542
899.753	4584
899.873	4512
899.993	4584
900.113	4565
900.232	4641
900.352	4504
900.472	4474
900.591	4447
900.711	4497
900.83	4417
900.95	4615
901.069	4683
901.189	4554
901.308	4341
901.427	4337
901.546	4447
901.665	4504
901.784	4504
901.904	4409
902.023	4272
902.141	4181
902.26	4158
902.379	4287
902.498	4284
902.617	4246
902.735	4409
902.854	4451
902.973	4379
903.091	4284
903.21	4253
903.328	4348
903.446	4246
903.565	4272
903.683	4356
903.801	4280
903.919	4447
904.038	4451
904.156	4337
904.274	4470
904.392	4356
904.51	4405
904.627	4481
904.745	4607
904.863	4622
904.981	4409
905.098	4318
905.216	4371
905.334	4386
905.451	4443
905.569	4466
905.686	4577
905.803	4584
905.921	4428
906.038	4546
906.155	4497
906.272	4421
906.389	4500
906.506	4379
906.623	4375
906.74	4398
906.857	4303
906.974	4413
907.091	4577
907.208	4668
907.324	4630
907.441	4478
907.557	4386
907.674	4386
907.79	4341
907.907	4402
908.023	4516
908.139	4451
908.256	4462
908.372	4489
908.488	4478
908.604	4390
908.72	4306
908.836	4428
908.952	4424
909.068	4417
909.184	4538
909.3	4466
909.415	4554
909.531	4588
909.647	4344
909.762	4390
909.878	4314
909.993	4459
910.108	4432
910.224	4402
910.339	4481
910.454	4383
910.57	4386
910.685	4306
910.8	4675
910.915	4618
911.03	4443
911.145	4390
911.259	4329
911.374	4405
911.489	4295
911.604	4284
911.718	4143
911.833	4246
911.947	4101
912.062	4006
912.176	4196
912.291	4211
912.405	4249
912.519	4447
912.633	4512
912.748	4363
912.862	4303
912.976	4192
913.09	4124
913.204	4162
913.318	4246
913.431	4348
913.545	4356
913.659	4459
913.772	4348
913.886	4238
914	4242
914.113	4360
914.226	4447
914.34	4428
914.453	4242
914.566	4436
914.68	4303
914.793	4356
914.906	4154
915.019	4112
915.132	4124
915.245	4223
915.358	4223
915.47	4242
915.583	4261
915.696	4306
915.809	4394
915.921	4394
916.034	4268
916.146	4268
916.259	4261
916.371	4402
916.483	4344
916.595	4284
916.708	4329
916.82	4329
916.932	4348
917.044	4383
917.156	4329
917.268	4211
917.38	4284
917.491	4314
917.603	4352
917.715	4459
917.826	4451
917.938	4363
918.049	4234
918.161	4417
918.272	4523
918.384	4500
918.495	4474
918.606	4291
918.717	4280
918.828	4356
918.939	4360
919.05	4234
919.161	4375
919.272	4154
919.383	4188
919.494	4474
919.604	4618
919.715	4398
919.826	4363
919.936	4394
920.047	4512
920.157	4489
920.267	4679
920.378	4573
920.488	4489
920.598	4740
920.708	4877
920.818	4744
920.928	4755
921.038	4885
921.148	4923
921.258	4660
921.368	4580
921.477	4516
921.587	4519
921.697	4379
921.806	4531
921.916	4451
922.025	4329
922.134	4265
922.244	4204
922.353	4329
922.462	4162
922.571	4093
922.68	4006
922.789	3949
922.898	4044
923.007	3983
923.116	4097
923.224	4105
923.333	4086
923.442	4048
923.55	3998
923.659	4002
923.767	4093
923.876	3941
923.984	4071
924.092	3979
924.201	4109
924.309	4139
924.417	4166
924.525	4029
924.633	4078
924.741	4938
924.849	3964
924.956	4090
925.064	3975
925.172	3896
925.279	3956
925.387	4116
925.494	4040
925.602	4169
925.709	4147
925.816	4055
925.924	4128
926.031	4223
926.138	4173
926.245	4219
926.352	4090
926.459	4257
926.566	4310
926.673	4147
926.779	4082
926.886	4074
926.993	3968
927.099	3968
927.206	3964
927.312	3941
927.419	4029
927.525	4010
927.631	4078
927.737	3956
927.843	3975
927.95	3850
928.056	3922
928.162	3991
928.267	4082
928.373	4603
928.479	4139
928.585	3823
928.69	4017
928.796	4086
928.901	3998
929.007	3869
929.112	4029
929.218	3964
929.323	3945
929.428	3956
929.533	4150
929.638	3930
929.743	3926
929.848	4063
929.953	4010
930.058	3922
930.163	3785
930.267	3831
930.372	3987
930.477	3812
930.581	4101
930.685	3964
930.79	3808
930.894	3899
930.998	3842
931.103	4021
931.207	3675
931.311	3736
931.415	3679
931.519	3534
931.623	3534
