Data from test_V78500241_780.txt Node
Date: Fri Mar 25 16:54:25 CST 2022
User: usil
Spectrometer: V785-0024
Trigger mode: 0
Integration Time (sec): 4.000000E-1
Scans to average: 1
Nonlinearity correction enabled: false
Boxcar width: 0
Storing dark spectrum: false
XAxis mode: Wavelengths
Number of Pixels in Spectrum: 1024
>>>>>Begin Spectral Data<<<<<
801.071	8001
801.214	7978
801.356	7864
801.499	7887
801.641	7833
801.783	7788
801.926	8031
802.068	7967
802.211	7959
802.353	7959
802.496	7898
802.638	7909
802.78	7887
802.923	7909
803.065	7951
803.208	7852
803.35	7974
803.492	8062
803.635	8183
803.777	7906
803.919	8081
804.061	8328
804.204	8043
804.346	8050
804.488	7997
804.63	8081
804.773	8081
804.915	8058
805.057	8279
805.199	8157
805.341	8157
805.483	8313
805.626	8191
805.768	8100
805.91	8180
806.052	8176
806.194	8081
806.336	8328
806.478	8123
806.62	8027
806.762	8187
806.904	8282
807.046	8412
807.188	8377
807.33	8301
807.472	8286
807.614	8149
807.756	8123
807.898	8024
808.04	7860
808.182	7917
808.324	7902
808.465	7959
808.607	7967
808.749	8046
808.891	8069
809.033	8358
809.174	8271
809.316	7974
809.458	8115
809.6	7978
809.741	8020
809.883	7978
810.025	8142
810.166	8126
810.308	8096
810.45	8065
810.591	7833
810.733	7746
810.875	7681
811.016	7518
811.158	7499
811.299	7628
811.441	7742
811.582	7628
811.724	7563
811.865	7510
812.007	7559
812.148	7506
812.29	7578
812.431	7670
812.573	7776
812.714	7913
812.855	8058
812.997	8180
813.138	8305
813.279	8126
813.421	8046
813.562	8016
813.703	7807
813.845	7826
813.986	7434
814.127	7266
814.268	7255
814.41	7206
814.551	7133
814.692	7168
814.833	7080
814.974	7084
815.115	7088
815.256	6897
815.397	6962
815.539	6966
815.68	6852
815.821	6776
815.962	6856
816.103	6871
816.244	6719
816.385	6662
816.526	6665
816.666	6467
816.807	6319
816.948	6384
817.089	6441
817.23	6456
817.371	6338
817.512	6342
817.653	6441
817.793	6365
817.934	6422
818.075	6410
818.216	6399
818.356	6376
818.497	6228
818.638	6110
818.778	6102
818.919	6098
819.06	6167
819.2	6289
819.341	6308
819.481	6418
819.622	6502
819.762	6738
819.903	6749
820.043	6601
820.184	6593
820.324	6555
820.465	6654
820.605	6639
820.746	6665
820.886	6445
821.026	6719
821.167	6673
821.307	6779
821.447	6806
821.588	6665
821.728	6608
821.868	6456
822.008	6311
822.149	6353
822.289	6361
822.429	6178
822.569	6060
822.709	6087
822.849	5874
822.99	5923
823.13	5939
823.27	5958
823.41	5767
823.55	5771
823.69	5798
823.83	5775
823.97	5676
824.11	5535
824.25	5478
824.389	5551
824.529	5566
824.669	5573
824.809	5634
824.949	5649
825.089	5619
825.228	5554
825.368	5387
825.508	5383
825.648	5334
825.787	5387
825.927	5417
826.067	5288
826.206	5299
826.346	5368
826.485	5417
826.625	5387
826.765	5551
826.904	5482
827.044	5220
827.183	5231
827.323	5132
827.462	5258
827.601	5174
827.741	5155
827.88	5181
828.02	5098
828.159	5265
828.298	5246
828.437	5372
828.577	5280
828.716	5474
828.855	5311
828.994	5151
829.134	5178
829.273	5193
829.412	5113
829.551	5159
829.69	5212
829.829	5231
829.968	5391
830.107	5258
830.246	5322
830.385	5166
830.524	5128
830.663	5083
830.802	5025
830.941	4896
831.08	4896
831.219	4995
831.357	4976
831.496	5117
831.635	4908
831.774	4870
831.913	4904
832.051	4744
832.19	4744
832.329	4858
832.467	4706
832.606	4641
832.744	4649
832.883	4774
833.022	4691
833.16	4782
833.299	4843
833.437	4812
833.576	4831
833.714	4843
833.852	4870
833.991	4877
834.129	4972
834.267	4984
834.406	4923
834.544	4957
834.682	5018
834.821	4923
834.959	5174
835.097	4991
835.235	5128
835.373	5132
835.511	5033
835.65	5025
835.788	5037
835.926	4911
836.064	4881
836.202	4877
836.34	5193
836.478	5159
836.615	5136
836.753	5208
836.891	5269
837.029	5204
837.167	5201
837.305	5174
837.443	5174
837.58	5079
837.718	5185
837.856	5166
837.993	5121
838.131	5258
838.269	5212
838.406	5136
838.544	5155
838.681	4995
838.819	4976
838.956	4847
839.094	4919
839.231	4995
839.369	5102
839.506	5379
839.643	5277
839.781	5075
839.918	5010
840.055	5128
840.193	5109
840.33	5094
840.467	5113
840.604	5155
840.742	5406
840.879	5079
841.016	5117
841.153	5132
841.29	5353
841.427	5337
841.564	5345
841.701	5341
841.838	5261
841.975	5216
842.112	5254
842.249	5189
842.385	5075
842.522	5334
842.659	5201
842.796	5155
842.933	5250
843.069	5136
843.206	5159
843.343	5318
843.479	5239
843.616	5242
843.752	5037
843.889	4984
844.025	5250
844.162	5029
844.298	5162
844.435	5090
844.571	5018
844.708	5136
844.844	5307
844.98	5337
845.117	5318
845.253	5117
845.389	5102
845.525	5166
845.661	5113
845.798	5006
845.934	5159
846.07	5025
846.206	5185
846.342	5250
846.478	5227
846.614	5045
846.75	4957
846.886	4972
847.022	5094
847.158	4987
847.294	5075
847.429	5079
847.565	5052
847.701	5288
847.837	4835
847.972	4828
848.108	4984
848.244	4957
848.379	4774
848.515	4706
848.65	4736
848.786	4790
848.921	4809
849.057	4877
849.192	4908
849.328	4839
849.463	4847
849.598	4835
849.734	4706
849.869	4736
850.004	4603
850.14	4645
850.275	4607
850.41	4546
850.545	4561
850.68	4615
850.815	4588
850.95	4634
851.085	4824
851.22	4691
851.355	4637
851.49	4588
851.625	4607
851.76	4683
851.895	4538
852.03	4516
852.165	4649
852.299	4660
852.434	4786
852.569	4721
852.703	4763
852.838	4831
852.973	4911
853.107	4911
853.242	4736
853.376	4672
853.511	4497
853.645	4596
853.78	4812
853.914	4702
854.048	4649
854.183	4641
854.317	4714
854.451	4809
854.585	4637
854.72	4634
854.854	4755
854.988	4588
855.122	4607
855.256	4531
855.39	4660
855.524	4767
855.658	4698
855.792	4721
855.926	4725
856.06	4793
856.194	4759
856.327	4698
856.461	4611
856.595	4565
856.729	4592
856.862	4793
856.996	4653
857.13	4691
857.263	4702
857.397	4752
857.53	4664
857.664	4672
857.797	4763
857.931	4767
858.064	4637
858.197	4748
858.331	4630
858.464	4584
858.597	4504
858.731	4577
858.864	4615
858.997	4588
859.13	4702
859.263	4672
859.396	4748
859.529	4584
859.662	4527
859.795	4542
859.928	4599
860.061	4786
860.194	4805
860.327	4592
860.46	4550
860.592	4660
860.725	4672
860.858	4694
860.99	4565
861.123	4538
861.256	4485
861.388	4584
861.521	5258
861.653	4462
861.786	4447
861.918	4470
862.05	4516
862.183	4516
862.315	4607
862.447	4607
862.58	4561
862.712	4375
862.844	4383
862.976	4428
863.108	4440
863.24	4820
863.372	4325
863.504	4421
863.636	4413
863.768	4497
863.9	4478
864.032	4337
864.164	4432
864.296	4447
864.428	4516
864.559	4584
864.691	4523
864.823	4512
864.954	4504
865.086	4478
865.217	4417
865.349	4432
865.48	4485
865.612	4462
865.743	4618
865.875	4481
866.006	4432
866.137	4462
866.269	4413
866.4	4417
866.531	4428
866.662	4375
866.793	4409
866.924	4443
867.055	4497
867.186	4440
867.317	4428
867.448	4383
867.579	4405
867.71	4409
867.841	4363
867.972	4462
868.103	4470
868.233	4424
868.364	4428
868.495	4481
868.625	4668
868.756	4748
868.886	4527
869.017	4630
869.147	4729
869.278	4778
869.408	4630
869.539	4615
869.669	4767
869.799	4660
869.929	4793
870.06	4740
870.19	4892
870.32	4900
870.45	4915
870.58	5052
870.71	5098
870.84	5064
870.97	4972
871.1	4877
871.23	5151
871.36	5124
871.489	5029
871.619	5045
871.749	5060
871.879	5117
872.008	5174
872.138	5060
872.267	4923
872.397	4850
872.526	4850
872.656	4702
872.785	4790
872.915	4885
873.044	5045
873.173	4957
873.303	4938
873.432	4965
873.561	4972
873.69	4896
873.819	4862
873.948	4904
874.077	4828
874.206	4698
874.335	4801
874.464	4881
874.593	5075
874.722	4999
874.851	5056
874.979	5006
875.108	5025
875.237	4889
875.365	4904
875.494	4854
875.623	4980
875.751	4790
875.88	4858
876.008	4965
876.136	5067
876.265	5193
876.393	5337
876.521	5239
876.65	5197
876.778	5147
876.906	5041
877.034	4991
877.162	5079
877.29	5010
877.418	5006
877.546	5056
877.674	5033
877.802	5075
877.93	4995
878.058	4919
878.185	4854
878.313	4892
878.441	4972
878.568	4797
878.696	4854
878.824	4965
878.951	4972
879.079	5143
879.206	5292
879.333	5121
879.461	4934
879.588	4946
879.715	5124
879.842	5193
879.97	5003
880.097	4782
880.224	4729
880.351	4774
880.478	4805
880.605	4774
880.732	4755
880.859	5071
880.986	4881
881.112	4904
881.239	4774
881.366	4641
881.493	4584
881.619	4596
881.746	4668
881.872	4675
881.999	4672
882.125	4710
882.252	4767
882.378	4858
882.505	4965
882.631	4790
882.757	4645
882.883	4702
883.01	4710
883.136	4656
883.262	4603
883.388	4599
883.514	4778
883.64	4809
883.766	4793
883.892	4687
884.018	4698
884.143	4892
884.269	4980
884.395	4675
884.52	4626
884.646	4679
884.772	4592
884.897	4577
885.023	4679
885.148	4820
885.274	4812
885.399	4767
885.524	4702
885.65	4725
885.775	4721
885.9	4698
886.025	4850
886.15	4793
886.275	4733
886.4	4664
886.525	4687
886.65	4603
886.775	4725
886.9	4927
887.025	5014
887.149	4812
887.274	4656
887.399	4611
887.523	4599
887.648	4577
887.773	4607
887.897	4694
888.021	4824
888.146	4672
888.27	4793
888.395	4889
888.519	4774
888.643	4790
888.767	4843
888.891	4694
889.015	4607
889.139	4653
889.263	4584
889.387	4736
889.511	4866
889.635	4790
889.759	4653
889.883	4653
890.006	4653
890.13	4820
890.254	4599
890.377	4668
890.501	4565
890.624	4508
890.748	4615
890.871	4504
890.995	4447
891.118	4413
891.241	4558
891.364	4550
891.488	4634
891.611	4512
891.734	4508
891.857	4596
891.98	4558
892.103	4649
892.226	4561
892.349	4504
892.471	4459
892.594	4542
892.717	4599
892.839	4580
892.962	4630
893.085	4641
893.207	4611
893.33	4440
893.452	4554
893.575	4649
893.697	4573
893.819	4778
893.941	4862
894.064	4805
894.186	4542
894.308	4569
894.43	4702
894.552	4793
894.674	4725
894.796	4554
894.918	4596
895.04	4580
895.161	4721
895.283	4622
895.405	4527
895.526	4634
895.648	4679
895.769	4664
895.891	4691
896.012	4717
896.134	4793
896.255	4668
896.376	4622
896.498	4569
896.619	4694
896.74	4596
896.861	4615
896.982	4911
897.103	5090
897.224	4843
897.345	4740
897.466	4641
897.587	4740
897.708	4831
897.828	4729
897.949	4694
898.07	4546
898.19	4611
898.311	4828
898.431	4675
898.552	4683
898.672	4805
898.792	4824
898.913	4717
899.033	4668
899.153	4462
899.273	4436
899.393	4462
899.513	4519
899.633	4519
899.753	4500
899.873	4485
899.993	4580
900.113	4527
900.232	4618
900.352	4497
900.472	4478
900.591	4394
900.711	4519
900.83	4421
900.95	4630
901.069	4656
901.189	4462
901.308	4356
901.427	4333
901.546	4341
901.665	4485
901.784	4523
901.904	4337
902.023	4341
902.141	4177
902.26	4158
902.379	4291
902.498	4230
902.617	4223
902.735	4383
902.854	4386
902.973	4367
903.091	4223
903.21	4230
903.328	4306
903.446	4253
903.565	4276
903.683	4333
903.801	4280
903.919	4356
904.038	4443
904.156	4291
904.274	4447
904.392	4409
904.51	4462
904.627	4474
904.745	4546
904.863	4618
904.981	4421
905.098	4265
905.216	4356
905.334	4409
905.451	4447
905.569	4436
905.686	4512
905.803	4577
905.921	4405
906.038	4535
906.155	4455
906.272	4451
906.389	4462
906.506	4333
906.623	4379
906.74	4432
906.857	4344
906.974	4322
907.091	4523
907.208	4702
907.324	4611
907.441	4535
907.557	4352
907.674	4352
907.79	4299
907.907	4428
908.023	4512
908.139	4504
908.256	4409
908.372	4485
908.488	4447
908.604	4318
908.72	4363
908.836	4325
908.952	4390
909.068	4402
909.184	4584
909.3	4481
909.415	4558
909.531	4554
909.647	4333
909.762	4379
909.878	4310
909.993	4432
910.108	4398
910.224	4367
910.339	4493
910.454	4379
910.57	4337
910.685	4291
910.8	4706
910.915	4565
911.03	4493
911.145	4314
911.259	4310
911.374	4352
911.489	4268
911.604	4238
911.718	4200
911.833	4196
911.947	4055
912.062	3991
912.176	4230
912.291	4272
912.405	4227
912.519	4451
912.633	4542
912.748	4352
912.862	4284
912.976	4211
913.09	4078
913.204	4173
913.318	4306
913.431	4375
913.545	4333
913.659	4398
913.772	4341
913.886	4200
914	4246
914.113	4390
914.226	4436
914.34	4398
914.453	4227
914.566	4409
914.68	4268
914.793	4303
914.906	4223
915.019	4071
915.132	4055
915.245	4166
915.358	4227
915.47	4253
915.583	4291
915.696	4291
915.809	4413
915.921	4462
916.034	4227
916.146	4280
916.259	4215
916.371	4417
916.483	4390
916.595	4276
916.708	4314
916.82	4299
916.932	4284
917.044	4337
917.156	4303
917.268	4242
917.38	4249
917.491	4272
917.603	4379
917.715	4432
917.826	4440
917.938	4344
918.049	4230
918.161	4462
918.272	4527
918.384	4588
918.495	4417
918.606	4295
918.717	4188
918.828	4337
918.939	4371
919.05	4284
919.161	4341
919.272	4135
919.383	4230
919.494	4447
919.604	4634
919.715	4443
919.826	4337
919.936	4394
920.047	4512
920.157	4478
920.267	4694
920.378	4531
920.488	4542
920.598	4653
920.708	4824
920.818	4744
920.928	4733
921.038	4927
921.148	4915
921.258	4626
921.368	4527
921.477	4519
921.587	4462
921.697	4413
921.806	4497
921.916	4428
922.025	4265
922.134	4287
922.244	4227
922.353	4314
922.462	4143
922.571	4105
922.68	4036
922.789	3991
922.898	4036
923.007	3972
923.116	4071
923.224	4063
923.333	4048
923.442	4006
923.55	3941
923.659	4017
923.767	4071
923.876	3987
923.984	4128
924.092	4002
924.201	4078
924.309	4059
924.417	4086
924.525	4067
924.633	4093
924.741	4843
924.849	3911
924.956	4105
925.064	3972
925.172	3911
925.279	3953
925.387	4017
925.494	4029
925.602	4181
925.709	4181
925.816	4078
925.924	4139
926.031	4204
926.138	4185
926.245	4185
926.352	4059
926.459	4253
926.566	4303
926.673	4169
926.779	4082
926.886	4025
926.993	3987
927.099	3934
927.206	3930
927.312	3945
927.419	4071
927.525	3983
927.631	4044
927.737	3972
927.843	3960
927.95	3827
928.056	3994
928.162	4032
928.267	4044
928.373	4672
928.479	4158
928.585	3876
928.69	4002
928.796	4101
928.901	4010
929.007	3869
929.112	3972
929.218	3991
929.323	3949
929.428	3922
929.533	4071
929.638	3869
929.743	3983
929.848	4040
929.953	3960
930.058	3876
930.163	3789
930.267	3789
930.372	3960
930.477	3823
930.581	4078
930.685	3972
930.79	3835
930.894	3880
930.998	3899
931.103	4116
931.207	3751
931.311	3671
931.415	3675
931.519	3538
931.623	3545
