Data from test_V78500241_1745.txt Node
Date: Fri Mar 25 17:01:08 CST 2022
User: usil
Spectrometer: V785-0024
Trigger mode: 0
Integration Time (sec): 4.000000E-1
Scans to average: 1
Nonlinearity correction enabled: false
Boxcar width: 0
Storing dark spectrum: false
XAxis mode: Wavelengths
Number of Pixels in Spectrum: 1024
>>>>>Begin Spectral Data<<<<<
801.071	8016
801.214	7955
801.356	7871
801.499	7830
801.641	7776
801.783	7811
801.926	7951
802.068	7856
802.211	7947
802.353	8005
802.496	7864
802.638	7894
802.78	7917
802.923	7906
803.065	7841
803.208	7841
803.35	7993
803.492	8077
803.635	8096
803.777	7951
803.919	8065
804.061	8434
804.204	8103
804.346	8016
804.488	7951
804.63	8065
804.773	7986
804.915	8039
805.057	8259
805.199	8206
805.341	8084
805.483	8206
805.626	8180
805.768	8130
805.91	8248
806.052	8180
806.194	8115
806.336	8298
806.478	8069
806.62	8069
806.762	8081
806.904	8279
807.046	8450
807.188	8309
807.33	8336
807.472	8339
807.614	8142
807.756	8180
807.898	8024
808.04	7852
808.182	7909
808.324	7883
808.465	7906
808.607	8062
808.749	8096
808.891	8168
809.033	8263
809.174	8206
809.316	8005
809.458	8012
809.6	7974
809.741	8024
809.883	8016
810.025	8088
810.166	8046
810.308	7989
810.45	7963
810.591	7833
810.733	7712
810.875	7636
811.016	7548
811.158	7441
811.299	7586
811.441	7723
811.582	7636
811.724	7529
811.865	7567
812.007	7544
812.148	7510
812.29	7632
812.431	7723
812.573	7830
812.714	8016
812.855	8134
812.997	8142
813.138	8298
813.279	8183
813.421	8065
813.562	7928
813.703	7822
813.845	7799
813.986	7430
814.127	7240
814.268	7190
814.41	7240
814.551	7228
814.692	7270
814.833	7114
814.974	7122
815.115	7168
815.256	6966
815.397	6916
815.539	6935
815.68	6776
815.821	6791
815.962	6821
816.103	6833
816.244	6738
816.385	6639
816.526	6578
816.666	6464
816.807	6273
816.948	6380
817.089	6429
817.23	6418
817.371	6334
817.512	6372
817.653	6369
817.793	6365
817.934	6361
818.075	6437
818.216	6407
818.356	6471
818.497	6216
818.638	6125
818.778	6152
818.919	6117
819.06	6129
819.2	6338
819.341	6304
819.481	6369
819.622	6570
819.762	6707
819.903	6703
820.043	6616
820.184	6582
820.324	6612
820.465	6677
820.605	6700
820.746	6601
820.886	6464
821.026	6669
821.167	6719
821.307	6837
821.447	6757
821.588	6684
821.728	6570
821.868	6441
822.008	6346
822.149	6369
822.289	6323
822.429	6182
822.569	6110
822.709	6125
822.849	5885
822.99	5889
823.13	5908
823.27	5912
823.41	5760
823.55	5783
823.69	5767
823.83	5745
823.97	5676
824.11	5524
824.25	5471
824.389	5551
824.529	5619
824.669	5532
824.809	5634
824.949	5668
825.089	5592
825.228	5581
825.368	5326
825.508	5360
825.648	5299
825.787	5406
825.927	5341
826.067	5330
826.206	5322
826.346	5349
826.485	5387
826.625	5345
826.765	5493
826.904	5478
827.044	5258
827.183	5128
827.323	5132
827.462	5181
827.601	5159
827.741	5216
827.88	5204
828.02	5128
828.159	5189
828.298	5265
828.437	5330
828.577	5258
828.716	5490
828.855	5296
828.994	5113
829.134	5117
829.273	5155
829.412	5151
829.551	5098
829.69	5132
829.829	5227
829.968	5414
830.107	5212
830.246	5311
830.385	5159
830.524	5121
830.663	5071
830.802	4961
830.941	4896
831.08	4839
831.219	4919
831.357	4976
831.496	5128
831.635	4938
831.774	4873
831.913	4866
832.051	4740
832.19	4752
832.329	4831
832.467	4687
832.606	4626
832.744	4702
832.883	4714
833.022	4702
833.16	4771
833.299	4812
833.437	4847
833.576	4854
833.714	4831
833.852	4835
833.991	4923
834.129	4942
834.267	4900
834.406	4877
834.544	5006
834.682	4965
834.821	4938
834.959	5162
835.097	5006
835.235	5128
835.373	5037
835.511	5136
835.65	5037
835.788	5014
835.926	4835
836.064	4858
836.202	4889
836.34	5132
836.478	5201
836.615	5098
836.753	5242
836.891	5246
837.029	5231
837.167	5181
837.305	5197
837.443	5147
837.58	5098
837.718	5220
837.856	5166
837.993	5136
838.131	5185
838.269	5204
838.406	5185
838.544	5159
838.681	5033
838.819	5045
838.956	4900
839.094	4881
839.231	4961
839.369	5067
839.506	5414
839.643	5258
839.781	5064
839.918	4968
840.055	5079
840.193	5124
840.33	5079
840.467	5121
840.604	5140
840.742	5440
840.879	5102
841.016	5090
841.153	5174
841.29	5334
841.427	5360
841.564	5280
841.701	5318
841.838	5239
841.975	5246
842.112	5273
842.249	5140
842.385	5113
842.522	5307
842.659	5166
842.796	5155
842.933	5185
843.069	5162
843.206	5178
843.343	5284
843.479	5250
843.616	5258
843.752	5022
843.889	4995
844.025	5189
844.162	4999
844.298	5140
844.435	5094
844.571	5071
844.708	5162
844.844	5296
844.98	5315
845.117	5296
845.253	5162
845.389	5003
845.525	5128
845.661	5143
845.798	5056
845.934	5140
846.07	4938
846.206	5147
846.342	5307
846.478	5201
846.614	4999
846.75	4976
846.886	4919
847.022	5052
847.158	5022
847.294	5075
847.429	5143
847.565	5045
847.701	5349
847.837	4835
847.972	4843
848.108	4946
848.244	4892
848.379	4767
848.515	4702
848.65	4698
848.786	4717
848.921	4828
849.057	4809
849.192	4862
849.328	4774
849.463	4854
849.598	4759
849.734	4744
849.869	4694
850.004	4626
850.14	4645
850.275	4558
850.41	4531
850.545	4599
850.68	4626
850.815	4637
850.95	4573
851.085	4790
851.22	4752
851.355	4641
851.49	4630
851.625	4577
851.76	4630
851.895	4561
852.03	4535
852.165	4607
852.299	4683
852.434	4767
852.569	4771
852.703	4805
852.838	4854
852.973	4968
853.107	4885
853.242	4759
853.376	4656
853.511	4558
853.645	4618
853.78	4786
853.914	4649
854.048	4702
854.183	4599
854.317	4664
854.451	4828
854.585	4683
854.72	4641
854.854	4752
854.988	4592
855.122	4675
855.256	4523
855.39	4599
855.524	4797
855.658	4733
855.792	4694
855.926	4740
856.06	4755
856.194	4793
856.327	4649
856.461	4603
856.595	4622
856.729	4649
856.862	4729
856.996	4714
857.13	4714
857.263	4774
857.397	4786
857.53	4645
857.664	4729
857.797	4763
857.931	4725
858.064	4710
858.197	4710
858.331	4630
858.464	4649
858.597	4523
858.731	4630
858.864	4672
858.997	4584
859.13	4653
859.263	4664
859.396	4702
859.529	4550
859.662	4569
859.795	4538
859.928	4599
860.061	4752
860.194	4740
860.327	4592
860.46	4527
860.592	4668
860.725	4714
860.858	4736
860.99	4573
861.123	4500
861.256	4516
861.388	4599
861.521	5322
861.653	4474
861.786	4424
861.918	4455
862.05	4554
862.183	4497
862.315	4649
862.447	4653
862.58	4535
862.712	4432
862.844	4318
862.976	4489
863.108	4440
863.24	4892
863.372	4344
863.504	4447
863.636	4409
863.768	4462
863.9	4383
864.032	4344
864.164	4379
864.296	4478
864.428	4504
864.559	4550
864.691	4523
864.823	4561
864.954	4516
865.086	4481
865.217	4424
865.349	4462
865.48	4459
865.612	4500
865.743	4577
865.875	4462
866.006	4493
866.137	4405
866.269	4436
866.4	4409
866.531	4413
866.662	4379
866.793	4428
866.924	4455
867.055	4565
867.186	4466
867.317	4489
867.448	4405
867.579	4367
867.71	4360
867.841	4428
867.972	4409
868.103	4443
868.233	4440
868.364	4474
868.495	4481
868.625	4679
868.756	4721
868.886	4542
869.017	4584
869.147	4801
869.278	4793
869.408	4683
869.539	4618
869.669	4694
869.799	4649
869.929	4710
870.06	4714
870.19	4987
870.32	4946
870.45	4938
870.58	4995
870.71	5071
870.84	5090
870.97	4961
871.1	4870
871.23	5124
871.36	5140
871.489	5094
871.619	5018
871.749	5071
871.879	5128
872.008	5143
872.138	5071
872.267	4987
872.397	4854
872.526	4797
872.656	4714
872.785	4812
872.915	4942
873.044	5048
873.173	4942
873.303	4949
873.432	4991
873.561	4949
873.69	4900
873.819	4870
873.948	4919
874.077	4793
874.206	4767
874.335	4790
874.464	4896
874.593	4999
874.722	4968
874.851	5117
874.979	5022
875.108	5041
875.237	4938
875.365	4881
875.494	4877
875.623	5014
875.751	4816
875.88	4873
876.008	5003
876.136	5010
876.265	5189
876.393	5311
876.521	5223
876.65	5223
876.778	5136
876.906	5083
877.034	4991
877.162	5083
877.29	4938
877.418	5094
877.546	5006
877.674	5029
877.802	5041
877.93	4995
878.058	4911
878.185	4858
878.313	4930
878.441	4942
878.568	4790
878.696	4923
878.824	4938
878.951	4957
879.079	5136
879.206	5265
879.333	5109
879.461	4999
879.588	4999
879.715	5132
879.842	5185
879.97	5006
880.097	4786
880.224	4702
880.351	4774
880.478	4805
880.605	4881
880.732	4820
880.859	5105
880.986	4881
881.112	4938
881.239	4782
881.366	4634
881.493	4607
881.619	4565
881.746	4630
881.872	4607
881.999	4622
882.125	4668
882.252	4782
882.378	4816
882.505	4961
882.631	4771
882.757	4615
882.883	4687
883.01	4672
883.136	4645
883.262	4634
883.388	4588
883.514	4831
883.64	4862
883.766	4782
883.892	4626
884.018	4790
884.143	4889
884.269	4972
884.395	4683
884.52	4626
884.646	4653
884.772	4599
884.897	4512
885.023	4618
885.148	4809
885.274	4870
885.399	4812
885.524	4694
885.65	4656
885.775	4748
885.9	4691
886.025	4862
886.15	4767
886.275	4698
886.4	4656
886.525	4717
886.65	4691
886.775	4668
886.9	4892
887.025	5045
887.149	4835
887.274	4626
887.399	4580
887.523	4573
887.648	4584
887.773	4607
887.897	4740
888.021	4782
888.146	4694
888.27	4828
888.395	4892
888.519	4809
888.643	4828
888.767	4828
888.891	4664
889.015	4592
889.139	4634
889.263	4554
889.387	4744
889.511	4866
889.635	4774
889.759	4622
889.883	4615
890.006	4740
890.13	4782
890.254	4588
890.377	4668
890.501	4561
890.624	4546
890.748	4626
890.871	4504
890.995	4447
891.118	4383
891.241	4569
891.364	4550
891.488	4660
891.611	4508
891.734	4493
891.857	4603
891.98	4535
892.103	4656
892.226	4637
892.349	4516
892.471	4402
892.594	4569
892.717	4542
892.839	4558
892.962	4592
893.085	4668
893.207	4584
893.33	4462
893.452	4561
893.575	4649
893.697	4577
893.819	4831
893.941	4854
894.064	4740
894.186	4603
894.308	4603
894.43	4729
894.552	4782
894.674	4752
894.796	4527
894.918	4577
895.04	4523
895.161	4714
895.283	4637
895.405	4554
895.526	4645
895.648	4698
895.769	4706
895.891	4691
896.012	4733
896.134	4694
896.255	4691
896.376	4630
896.498	4641
896.619	4694
896.74	4618
896.861	4634
896.982	4904
897.103	5102
897.224	4824
897.345	4714
897.466	4672
897.587	4710
897.708	4858
897.828	4801
897.949	4626
898.07	4611
898.19	4584
898.311	4816
898.431	4664
898.552	4675
898.672	4797
898.792	4801
898.913	4694
899.033	4622
899.153	4504
899.273	4409
899.393	4504
899.513	4519
899.633	4497
899.753	4554
899.873	4489
899.993	4580
900.113	4527
900.232	4554
900.352	4535
900.472	4485
900.591	4352
900.711	4447
900.83	4424
900.95	4645
901.069	4729
901.189	4500
901.308	4405
901.427	4341
901.546	4363
901.665	4462
901.784	4516
901.904	4428
902.023	4322
902.141	4238
902.26	4211
902.379	4322
902.498	4257
902.617	4234
902.735	4367
902.854	4383
902.973	4386
903.091	4192
903.21	4196
903.328	4310
903.446	4234
903.565	4253
903.683	4337
903.801	4268
903.919	4367
904.038	4462
904.156	4360
904.274	4459
904.392	4428
904.51	4470
904.627	4485
904.745	4592
904.863	4634
904.981	4344
905.098	4295
905.216	4390
905.334	4405
905.451	4405
905.569	4443
905.686	4569
905.803	4531
905.921	4432
906.038	4588
906.155	4440
906.272	4383
906.389	4417
906.506	4417
906.623	4379
906.74	4379
906.857	4265
906.974	4356
907.091	4584
907.208	4660
907.324	4588
907.441	4508
907.557	4325
907.674	4329
907.79	4341
907.907	4424
908.023	4443
908.139	4504
908.256	4405
908.372	4421
908.488	4405
908.604	4348
908.72	4341
908.836	4375
908.952	4356
909.068	4470
909.184	4558
909.3	4474
909.415	4577
909.531	4474
909.647	4386
909.762	4379
909.878	4337
909.993	4417
910.108	4386
910.224	4352
910.339	4455
910.454	4390
910.57	4310
910.685	4318
910.8	4664
910.915	4535
911.03	4478
911.145	4348
911.259	4299
911.374	4390
911.489	4310
911.604	4280
911.718	4162
911.833	4211
911.947	4036
912.062	3994
912.176	4211
912.291	4219
912.405	4253
912.519	4504
912.633	4504
912.748	4333
912.862	4325
912.976	4230
913.09	4116
913.204	4169
913.318	4242
913.431	4367
913.545	4325
913.659	4409
913.772	4383
913.886	4246
914	4238
914.113	4405
914.226	4436
914.34	4417
914.453	4215
914.566	4436
914.68	4318
914.793	4314
914.906	4139
915.019	4067
915.132	4051
915.245	4147
915.358	4238
915.47	4223
915.583	4276
915.696	4291
915.809	4394
915.921	4428
916.034	4268
916.146	4242
916.259	4207
916.371	4371
916.483	4356
916.595	4246
916.708	4337
916.82	4276
916.932	4325
917.044	4360
917.156	4325
917.268	4246
917.38	4265
917.491	4299
917.603	4379
917.715	4394
917.826	4413
917.938	4379
918.049	4261
918.161	4337
918.272	4485
918.384	4519
918.495	4432
918.606	4246
918.717	4246
918.828	4383
918.939	4337
919.05	4200
919.161	4280
919.272	4112
919.383	4215
919.494	4428
919.604	4626
919.715	4398
919.826	4268
919.936	4375
920.047	4504
920.157	4470
920.267	4729
920.378	4531
920.488	4512
920.598	4656
920.708	4866
920.818	4714
920.928	4752
921.038	4934
921.148	4919
921.258	4584
921.368	4531
921.477	4527
921.587	4436
921.697	4318
921.806	4535
921.916	4379
922.025	4272
922.134	4211
922.244	4192
922.353	4306
922.462	4105
922.571	4097
922.68	3991
922.789	3960
922.898	4055
923.007	4002
923.116	4101
923.224	4097
923.333	4055
923.442	4032
923.55	3964
923.659	4013
923.767	4059
923.876	4040
923.984	4093
924.092	3975
924.201	4059
924.309	4105
924.417	4101
924.525	4063
924.633	4078
924.741	4866
924.849	3934
924.956	4093
925.064	3937
925.172	3888
925.279	3945
925.387	4071
925.494	4071
925.602	4223
925.709	4192
925.816	3991
925.924	4139
926.031	4196
926.138	4185
926.245	4223
926.352	4112
926.459	4314
926.566	4318
926.673	4147
926.779	4128
926.886	4090
926.993	3949
927.099	3953
927.206	3941
927.312	3964
927.419	4048
927.525	4006
927.631	4044
927.737	3953
927.843	3896
927.95	3838
928.056	3949
928.162	4002
928.267	4067
928.373	4694
928.479	4082
928.585	3899
928.69	3987
928.796	4162
928.901	3991
929.007	3808
929.112	4044
929.218	3991
929.323	3987
929.428	3979
929.533	4105
929.638	3880
929.743	4002
929.848	4048
929.953	4067
930.058	3953
930.163	3869
930.267	3884
930.372	4036
930.477	3880
930.581	4135
930.685	3987
930.79	3884
930.894	3915
930.998	3915
931.103	4120
931.207	3766
931.311	3774
931.415	3694
931.519	3549
931.623	3629
