Data from test_V78500241_1313.txt Node
Date: Fri Mar 25 16:58:07 CST 2022
User: usil
Spectrometer: V785-0024
Trigger mode: 0
Integration Time (sec): 4.000000E-1
Scans to average: 1
Nonlinearity correction enabled: false
Boxcar width: 0
Storing dark spectrum: false
XAxis mode: Wavelengths
Number of Pixels in Spectrum: 1024
>>>>>Begin Spectral Data<<<<<
801.071	8005
801.214	7997
801.356	7875
801.499	7894
801.641	7723
801.783	7818
801.926	7913
802.068	7898
802.211	7944
802.353	7967
802.496	7814
802.638	7909
802.78	7871
802.923	7902
803.065	7951
803.208	7902
803.35	7989
803.492	8073
803.635	8138
803.777	8031
803.919	8153
804.061	8434
804.204	8149
804.346	8081
804.488	7947
804.63	8043
804.773	8001
804.915	8050
805.057	8286
805.199	8180
805.341	8229
805.483	8271
805.626	8176
805.768	8168
805.91	8187
806.052	8180
806.194	8077
806.336	8290
806.478	8069
806.62	8039
806.762	8088
806.904	8233
807.046	8507
807.188	8396
807.33	8267
807.472	8301
807.614	8126
807.756	8191
807.898	8027
808.04	7875
808.182	7879
808.324	7879
808.465	7925
808.607	8012
808.749	8027
808.891	8180
809.033	8313
809.174	8191
809.316	8107
809.458	8039
809.6	7936
809.741	8035
809.883	7970
810.025	8088
810.166	8077
810.308	8008
810.45	8001
810.591	7871
810.733	7708
810.875	7594
811.016	7506
811.158	7438
811.299	7605
811.441	7772
811.582	7681
811.724	7609
811.865	7487
812.007	7590
812.148	7594
812.29	7670
812.431	7677
812.573	7898
812.714	7982
812.855	8081
812.997	8164
813.138	8309
813.279	8195
813.421	8065
813.562	8031
813.703	7864
813.845	7750
813.986	7457
814.127	7183
814.268	7198
814.41	7213
814.551	7145
814.692	7114
814.833	7061
814.974	7053
815.115	7080
815.256	6894
815.397	6905
815.539	6897
815.68	6825
815.821	6787
815.962	6871
816.103	6825
816.244	6703
816.385	6585
816.526	6589
816.666	6513
816.807	6270
816.948	6410
817.089	6494
817.23	6399
817.371	6311
817.512	6365
817.653	6361
817.793	6380
817.934	6426
818.075	6422
818.216	6410
818.356	6410
818.497	6239
818.638	6144
818.778	6163
818.919	6102
819.06	6114
819.2	6251
819.341	6296
819.481	6346
819.622	6525
819.762	6760
819.903	6707
820.043	6570
820.184	6563
820.324	6566
820.465	6677
820.605	6688
820.746	6612
820.886	6502
821.026	6597
821.167	6639
821.307	6810
821.447	6787
821.588	6639
821.728	6544
821.868	6570
822.008	6338
822.149	6311
822.289	6323
822.429	6148
822.569	6091
822.709	6041
822.849	5920
822.99	5923
823.13	5942
823.27	5935
823.41	5775
823.55	5802
823.69	5798
823.83	5783
823.97	5710
824.11	5512
824.25	5528
824.389	5566
824.529	5619
824.669	5471
824.809	5600
824.949	5627
825.089	5600
825.228	5570
825.368	5387
825.508	5269
825.648	5299
825.787	5299
825.927	5357
826.067	5288
826.206	5261
826.346	5360
826.485	5372
826.625	5455
826.765	5554
826.904	5474
827.044	5254
827.183	5151
827.323	5147
827.462	5273
827.601	5159
827.741	5151
827.88	5166
828.02	5071
828.159	5216
828.298	5299
828.437	5364
828.577	5303
828.716	5444
828.855	5341
828.994	5113
829.134	5136
829.273	5174
829.412	5162
829.551	5113
829.69	5136
829.829	5220
829.968	5364
830.107	5269
830.246	5242
830.385	5197
830.524	5140
830.663	5010
830.802	4968
830.941	4889
831.08	4839
831.219	4987
831.357	4957
831.496	5136
831.635	4915
831.774	4809
831.913	4850
832.051	4675
832.19	4702
832.329	4866
832.467	4710
832.606	4599
832.744	4710
832.883	4679
833.022	4759
833.16	4763
833.299	4782
833.437	4850
833.576	4790
833.714	4831
833.852	4877
833.991	4812
834.129	4930
834.267	4938
834.406	4873
834.544	4980
834.682	4965
834.821	4949
834.959	5105
835.097	5010
835.235	5193
835.373	5045
835.511	5094
835.65	5037
835.788	4972
835.926	4885
836.064	4885
836.202	4908
836.34	5254
836.478	5193
836.615	5090
836.753	5204
836.891	5246
837.029	5227
837.167	5151
837.305	5140
837.443	5109
837.58	5071
837.718	5174
837.856	5212
837.993	5105
838.131	5162
838.269	5170
838.406	5235
838.544	5181
838.681	5067
838.819	4976
838.956	4911
839.094	4835
839.231	4968
839.369	5029
839.506	5436
839.643	5208
839.781	5083
839.918	5037
840.055	5102
840.193	5102
840.33	5109
840.467	5136
840.604	5178
840.742	5410
840.879	5067
841.016	5041
841.153	5102
841.29	5349
841.427	5307
841.564	5280
841.701	5311
841.838	5227
841.975	5242
842.112	5273
842.249	5136
842.385	5117
842.522	5326
842.659	5181
842.796	5166
842.933	5170
843.069	5121
843.206	5162
843.343	5254
843.479	5261
843.616	5212
843.752	5025
843.889	4984
844.025	5185
844.162	5060
844.298	5189
844.435	5128
844.571	4949
844.708	5174
844.844	5280
844.98	5372
845.117	5254
845.253	5151
845.389	5060
845.525	5143
845.661	5132
845.798	5060
845.934	5109
846.07	4949
846.206	5201
846.342	5212
846.478	5124
846.614	5014
846.75	4972
846.886	4972
847.022	5113
847.158	4999
847.294	5064
847.429	5052
847.565	5056
847.701	5273
847.837	4824
847.972	4771
848.108	4953
848.244	4942
848.379	4752
848.515	4763
848.65	4748
848.786	4710
848.921	4782
849.057	4873
849.192	4866
849.328	4828
849.463	4805
849.598	4767
849.734	4702
849.869	4694
850.004	4626
850.14	4660
850.275	4588
850.41	4489
850.545	4519
850.68	4649
850.815	4565
850.95	4622
851.085	4820
851.22	4706
851.355	4660
851.49	4599
851.625	4630
851.76	4660
851.895	4565
852.03	4531
852.165	4615
852.299	4736
852.434	4793
852.569	4740
852.703	4748
852.838	4812
852.973	4911
853.107	4930
853.242	4714
853.376	4664
853.511	4542
853.645	4592
853.78	4767
853.914	4675
854.048	4630
854.183	4607
854.317	4710
854.451	4774
854.585	4653
854.72	4641
854.854	4797
854.988	4622
855.122	4611
855.256	4500
855.39	4645
855.524	4714
855.658	4710
855.792	4675
855.926	4710
856.06	4755
856.194	4755
856.327	4630
856.461	4592
856.595	4554
856.729	4611
856.862	4736
856.996	4649
857.13	4672
857.263	4752
857.397	4824
857.53	4607
857.664	4702
857.797	4778
857.931	4782
858.064	4664
858.197	4748
858.331	4580
858.464	4535
858.597	4508
858.731	4641
858.864	4584
858.997	4626
859.13	4622
859.263	4611
859.396	4668
859.529	4573
859.662	4535
859.795	4531
859.928	4599
860.061	4706
860.194	4809
860.327	4653
860.46	4489
860.592	4706
860.725	4721
860.858	4691
860.99	4573
861.123	4478
861.256	4497
861.388	4596
861.521	5178
861.653	4455
861.786	4466
861.918	4417
862.05	4493
862.183	4538
862.315	4577
862.447	4558
862.58	4535
862.712	4398
862.844	4306
862.976	4462
863.108	4459
863.24	4870
863.372	4337
863.504	4383
863.636	4379
863.768	4440
863.9	4409
864.032	4306
864.164	4402
864.296	4462
864.428	4558
864.559	4516
864.691	4478
864.823	4508
864.954	4493
865.086	4451
865.217	4413
865.349	4462
865.48	4466
865.612	4443
865.743	4630
865.875	4443
866.006	4375
866.137	4459
866.269	4428
866.4	4375
866.531	4360
866.662	4348
866.793	4409
866.924	4398
867.055	4478
867.186	4447
867.317	4390
867.448	4344
867.579	4402
867.71	4428
867.841	4383
867.972	4428
868.103	4481
868.233	4432
868.364	4443
868.495	4493
868.625	4710
868.756	4759
868.886	4561
869.017	4626
869.147	4790
869.278	4793
869.408	4630
869.539	4664
869.669	4706
869.799	4649
869.929	4786
870.06	4752
870.19	4946
870.32	4904
870.45	4930
870.58	4999
870.71	5102
870.84	5124
870.97	4972
871.1	4976
871.23	5136
871.36	5140
871.489	5029
871.619	5064
871.749	5132
871.879	5193
872.008	5204
872.138	5075
872.267	4995
872.397	4927
872.526	4839
872.656	4809
872.785	4900
872.915	5018
873.044	5037
873.173	4949
873.303	4987
873.432	4953
873.561	4942
873.69	4911
873.819	4911
873.948	4896
874.077	4843
874.206	4778
874.335	4831
874.464	4949
874.593	5086
874.722	4965
874.851	5094
874.979	5105
875.108	5071
875.237	4965
875.365	4919
875.494	4915
875.623	4991
875.751	4843
875.88	4934
876.008	5048
876.136	5041
876.265	5220
876.393	5376
876.521	5254
876.65	5280
876.778	5181
876.906	5060
877.034	5071
877.162	5060
877.29	4987
877.418	5105
877.546	5064
877.674	5037
877.802	5105
877.93	5056
878.058	4934
878.185	4889
878.313	4984
878.441	4972
878.568	4809
878.696	4866
878.824	4980
878.951	4995
879.079	5181
879.206	5334
879.333	5102
879.461	5056
879.588	5022
879.715	5109
879.842	5227
879.97	5045
880.097	4892
880.224	4820
880.351	4801
880.478	4877
880.605	4847
880.732	4843
880.859	5147
880.986	4957
881.112	4904
881.239	4793
881.366	4656
881.493	4672
881.619	4584
881.746	4645
881.872	4664
881.999	4664
882.125	4702
882.252	4812
882.378	4858
882.505	5006
882.631	4801
882.757	4721
882.883	4744
883.01	4729
883.136	4675
883.262	4641
883.388	4660
883.514	4809
883.64	4824
883.766	4881
883.892	4675
884.018	4763
884.143	4930
884.269	4961
884.395	4675
884.52	4611
884.646	4702
884.772	4611
884.897	4592
885.023	4660
885.148	4828
885.274	4892
885.399	4778
885.524	4664
885.65	4755
885.775	4778
885.9	4683
886.025	4870
886.15	4809
886.275	4740
886.4	4656
886.525	4748
886.65	4729
886.775	4771
886.9	4923
887.025	5075
887.149	4873
887.274	4675
887.399	4596
887.523	4664
887.648	4664
887.773	4577
887.897	4763
888.021	4790
888.146	4649
888.27	4839
888.395	4900
888.519	4767
888.643	4812
888.767	4858
888.891	4698
889.015	4626
889.139	4717
889.263	4599
889.387	4793
889.511	4892
889.635	4778
889.759	4656
889.883	4672
890.006	4755
890.13	4843
890.254	4634
890.377	4740
890.501	4565
890.624	4569
890.748	4672
890.871	4538
890.995	4447
891.118	4436
891.241	4561
891.364	4542
891.488	4694
891.611	4573
891.734	4603
891.857	4630
891.98	4554
892.103	4664
892.226	4687
892.349	4535
892.471	4421
892.594	4577
892.717	4607
892.839	4584
892.962	4603
893.085	4721
893.207	4641
893.33	4459
893.452	4512
893.575	4668
893.697	4611
893.819	4858
893.941	4850
894.064	4748
894.186	4588
894.308	4535
894.43	4740
894.552	4866
894.674	4771
894.796	4538
894.918	4615
895.04	4645
895.161	4729
895.283	4687
895.405	4588
895.526	4694
895.648	4694
895.769	4698
895.891	4733
896.012	4782
896.134	4782
896.255	4687
896.376	4763
896.498	4626
896.619	4691
896.74	4637
896.861	4622
896.982	4976
897.103	5121
897.224	4854
897.345	4752
897.466	4668
897.587	4774
897.708	4847
897.828	4812
897.949	4679
898.07	4584
898.19	4611
898.311	4839
898.431	4725
898.552	4748
898.672	4870
898.792	4870
898.913	4771
899.033	4618
899.153	4485
899.273	4440
899.393	4558
899.513	4592
899.633	4512
899.753	4554
899.873	4516
899.993	4626
900.113	4599
900.232	4588
900.352	4596
900.472	4542
900.591	4417
900.711	4512
900.83	4504
900.95	4607
901.069	4710
901.189	4577
901.308	4341
901.427	4318
901.546	4390
901.665	4527
901.784	4542
901.904	4383
902.023	4333
902.141	4268
902.26	4227
902.379	4341
902.498	4261
902.617	4230
902.735	4356
902.854	4383
902.973	4413
903.091	4265
903.21	4230
903.328	4295
903.446	4295
903.565	4223
903.683	4428
903.801	4333
903.919	4375
904.038	4440
904.156	4356
904.274	4451
904.392	4432
904.51	4451
904.627	4489
904.745	4599
904.863	4641
904.981	4421
905.098	4314
905.216	4413
905.334	4413
905.451	4462
905.569	4466
905.686	4554
905.803	4596
905.921	4451
906.038	4611
906.155	4466
906.272	4447
906.389	4519
906.506	4344
906.623	4386
906.74	4428
906.857	4341
906.974	4379
907.091	4592
907.208	4691
907.324	4634
907.441	4504
907.557	4325
907.674	4356
907.79	4306
907.907	4428
908.023	4504
908.139	4504
908.256	4489
908.372	4512
908.488	4455
908.604	4356
908.72	4325
908.836	4352
908.952	4398
909.068	4394
909.184	4531
909.3	4470
909.415	4592
909.531	4558
909.647	4367
909.762	4417
909.878	4344
909.993	4447
910.108	4440
910.224	4462
910.339	4508
910.454	4402
910.57	4390
910.685	4303
910.8	4672
910.915	4611
911.03	4470
911.145	4348
911.259	4284
911.374	4402
911.489	4322
911.604	4318
911.718	4173
911.833	4196
911.947	4139
912.062	4048
912.176	4242
912.291	4287
912.405	4265
912.519	4455
912.633	4500
912.748	4386
912.862	4314
912.976	4219
913.09	4128
913.204	4200
913.318	4295
913.431	4386
913.545	4398
913.659	4462
913.772	4371
913.886	4238
914	4238
914.113	4344
914.226	4470
914.34	4417
914.453	4234
914.566	4451
914.68	4344
914.793	4318
914.906	4150
915.019	4166
915.132	4101
915.245	4162
915.358	4230
915.47	4268
915.583	4284
915.696	4360
915.809	4417
915.921	4417
916.034	4276
916.146	4261
916.259	4207
916.371	4402
916.483	4379
916.595	4325
916.708	4379
916.82	4333
916.932	4299
917.044	4383
917.156	4325
917.268	4291
917.38	4272
917.491	4272
917.603	4333
917.715	4424
917.826	4447
917.938	4322
918.049	4299
918.161	4402
918.272	4542
918.384	4497
918.495	4447
918.606	4314
918.717	4272
918.828	4367
918.939	4371
919.05	4287
919.161	4356
919.272	4116
919.383	4249
919.494	4466
919.604	4630
919.715	4390
919.826	4337
919.936	4421
920.047	4519
920.157	4523
920.267	4675
920.378	4542
920.488	4512
920.598	4725
920.708	4908
920.818	4755
920.928	4790
921.038	4980
921.148	4946
921.258	4573
921.368	4538
921.477	4481
921.587	4447
921.697	4398
921.806	4569
921.916	4455
922.025	4257
922.134	4268
922.244	4230
922.353	4333
922.462	4181
922.571	4143
922.68	4036
922.789	3983
922.898	4025
923.007	4013
923.116	4093
923.224	4082
923.333	4082
923.442	4025
923.55	4021
923.659	4051
923.767	4097
923.876	3991
923.984	4120
924.092	4006
924.201	4074
924.309	4120
924.417	4166
924.525	4040
924.633	4109
924.741	4896
924.849	3899
924.956	4166
925.064	3983
925.172	3930
925.279	3994
925.387	4044
925.494	4029
925.602	4200
925.709	4200
925.816	4078
925.924	4166
926.031	4234
926.138	4162
926.245	4196
926.352	4101
926.459	4280
926.566	4295
926.673	4192
926.779	4097
926.886	4093
926.993	3983
927.099	3964
927.206	3922
927.312	3941
927.419	4029
927.525	4040
927.631	4112
927.737	3972
927.843	3953
927.95	3873
928.056	3937
928.162	3991
928.267	4063
928.373	4675
928.479	4139
928.585	3884
928.69	4063
928.796	4074
928.901	4006
929.007	3778
929.112	3994
929.218	3998
929.323	3930
929.428	3956
929.533	4086
929.638	3918
929.743	3949
929.848	4006
929.953	3972
930.058	3945
930.163	3816
930.267	3816
930.372	3994
930.477	3869
930.581	4082
930.685	3964
930.79	3823
930.894	3888
930.998	3876
931.103	4025
931.207	3690
931.311	3724
931.415	3656
931.519	3511
931.623	3545
