Data from test_V78500241_2361.txt Node
Date: Fri Mar 25 17:05:25 CST 2022
User: usil
Spectrometer: V785-0024
Trigger mode: 0
Integration Time (sec): 4.000000E-1
Scans to average: 1
Nonlinearity correction enabled: false
Boxcar width: 0
Storing dark spectrum: false
XAxis mode: Wavelengths
Number of Pixels in Spectrum: 1024
>>>>>Begin Spectral Data<<<<<
801.071	8058
801.214	7909
801.356	7837
801.499	7906
801.641	7788
801.783	7883
801.926	7959
802.068	7947
802.211	7913
802.353	8008
802.496	7795
802.638	7875
802.78	7875
802.923	7906
803.065	7868
803.208	7864
803.35	7925
803.492	8100
803.635	8142
803.777	8065
803.919	8130
804.061	8427
804.204	8111
804.346	8043
804.488	7982
804.63	8039
804.773	8065
804.915	8081
805.057	8358
805.199	8183
805.341	8126
805.483	8275
805.626	8263
805.768	8153
805.91	8214
806.052	8199
806.194	8107
806.336	8279
806.478	8088
806.62	8103
806.762	8081
806.904	8225
807.046	8492
807.188	8370
807.33	8275
807.472	8305
807.614	8157
807.756	8168
807.898	8016
808.04	7902
808.182	7883
808.324	7879
808.465	7887
808.607	8100
808.749	8084
808.891	8210
809.033	8305
809.174	8218
809.316	8092
809.458	8073
809.6	7970
809.741	8058
809.883	8050
810.025	8065
810.166	8065
810.308	7925
810.45	7978
810.591	7811
810.733	7742
810.875	7639
811.016	7510
811.158	7495
811.299	7537
811.441	7647
811.582	7613
811.724	7525
811.865	7533
812.007	7571
812.148	7578
812.29	7552
812.431	7674
812.573	7894
812.714	7986
812.855	8145
812.997	8229
813.138	8317
813.279	8115
813.421	8062
813.562	8012
813.703	7811
813.845	7799
813.986	7415
814.127	7274
814.268	7168
814.41	7202
814.551	7217
814.692	7213
814.833	7076
814.974	7072
815.115	7107
815.256	6973
815.397	6939
815.539	6962
815.68	6859
815.821	6749
815.962	6848
816.103	6829
816.244	6684
816.385	6665
816.526	6563
816.666	6464
816.807	6296
816.948	6448
817.089	6422
817.23	6410
817.371	6380
817.512	6361
817.653	6403
817.793	6388
817.934	6513
818.075	6456
818.216	6414
818.356	6418
818.497	6273
818.638	6155
818.778	6148
818.919	6121
819.06	6110
819.2	6319
819.341	6357
819.481	6403
819.622	6517
819.762	6783
819.903	6726
820.043	6536
820.184	6570
820.324	6574
820.465	6722
820.605	6726
820.746	6646
820.886	6528
821.026	6707
821.167	6692
821.307	6795
821.447	6821
821.588	6623
821.728	6494
821.868	6521
822.008	6331
822.149	6357
822.289	6407
822.429	6235
822.569	6095
822.709	6087
822.849	5980
822.99	5954
823.13	5908
823.27	5958
823.41	5760
823.55	5760
823.69	5748
823.83	5745
823.97	5672
824.11	5547
824.25	5482
824.389	5482
824.529	5577
824.669	5532
824.809	5653
824.949	5627
825.089	5649
825.228	5577
825.368	5391
825.508	5322
825.648	5334
825.787	5376
825.927	5353
826.067	5277
826.206	5254
826.346	5391
826.485	5410
826.625	5391
826.765	5528
826.904	5463
827.044	5239
827.183	5208
827.323	5162
827.462	5277
827.601	5113
827.741	5170
827.88	5174
828.02	5086
828.159	5246
828.298	5311
828.437	5353
828.577	5303
828.716	5467
828.855	5311
828.994	5162
829.134	5124
829.273	5204
829.412	5102
829.551	5147
829.69	5090
829.829	5223
829.968	5353
830.107	5254
830.246	5296
830.385	5155
830.524	5143
830.663	5071
830.802	4987
830.941	4904
831.08	4847
831.219	4972
831.357	4953
831.496	5151
831.635	4968
831.774	4866
831.913	4816
832.051	4763
832.19	4717
832.329	4850
832.467	4656
832.606	4649
832.744	4694
832.883	4752
833.022	4710
833.16	4729
833.299	4824
833.437	4847
833.576	4805
833.714	4835
833.852	4927
833.991	4873
834.129	4930
834.267	4927
834.406	4900
834.544	4934
834.682	5006
834.821	4942
834.959	5174
835.097	4961
835.235	5178
835.373	5102
835.511	5105
835.65	5006
835.788	4976
835.926	4904
836.064	4862
836.202	4942
836.34	5189
836.478	5227
836.615	5143
836.753	5204
836.891	5239
837.029	5227
837.167	5277
837.305	5159
837.443	5136
837.58	5079
837.718	5269
837.856	5162
837.993	5121
838.131	5239
838.269	5197
838.406	5204
838.544	5181
838.681	5041
838.819	5045
838.956	4839
839.094	4843
839.231	5006
839.369	5083
839.506	5410
839.643	5239
839.781	5083
839.918	4972
840.055	5094
840.193	5117
840.33	5105
840.467	5124
840.604	5166
840.742	5444
840.879	5041
841.016	5098
841.153	5140
841.29	5345
841.427	5395
841.564	5277
841.701	5334
841.838	5322
841.975	5216
842.112	5254
842.249	5079
842.385	5090
842.522	5303
842.659	5178
842.796	5132
842.933	5181
843.069	5143
843.206	5151
843.343	5299
843.479	5288
843.616	5284
843.752	4976
843.889	5071
844.025	5220
844.162	4972
844.298	5189
844.435	5128
844.571	5048
844.708	5246
844.844	5299
844.98	5330
845.117	5334
845.253	5124
845.389	5052
845.525	5105
845.661	5121
845.798	5022
845.934	5098
846.07	5025
846.206	5170
846.342	5261
846.478	5140
846.614	4965
846.75	4938
846.886	4938
847.022	5166
847.158	5060
847.294	5113
847.429	5086
847.565	5029
847.701	5341
847.837	4839
847.972	4835
848.108	4961
848.244	4930
848.379	4790
848.515	4714
848.65	4717
848.786	4721
848.921	4786
849.057	4835
849.192	4866
849.328	4771
849.463	4793
849.598	4759
849.734	4729
849.869	4656
850.004	4596
850.14	4672
850.275	4641
850.41	4580
850.545	4577
850.68	4580
850.815	4634
850.95	4660
851.085	4854
851.22	4733
851.355	4691
851.49	4660
851.625	4687
851.76	4622
851.895	4523
852.03	4542
852.165	4615
852.299	4694
852.434	4763
852.569	4744
852.703	4744
852.838	4850
852.973	4877
853.107	4892
853.242	4729
853.376	4725
853.511	4542
853.645	4607
853.78	4797
853.914	4675
854.048	4672
854.183	4622
854.317	4683
854.451	4835
854.585	4668
854.72	4637
854.854	4733
854.988	4599
855.122	4683
855.256	4493
855.39	4641
855.524	4755
855.658	4740
855.792	4717
855.926	4714
856.06	4797
856.194	4774
856.327	4706
856.461	4607
856.595	4618
856.729	4645
856.862	4752
856.996	4664
857.13	4767
857.263	4748
857.397	4793
857.53	4649
857.664	4725
857.797	4748
857.931	4774
858.064	4714
858.197	4782
858.331	4725
858.464	4611
858.597	4481
858.731	4672
858.864	4626
858.997	4573
859.13	4672
859.263	4649
859.396	4694
859.529	4580
859.662	4546
859.795	4527
859.928	4615
860.061	4786
860.194	4752
860.327	4672
860.46	4592
860.592	4725
860.725	4656
860.858	4744
860.99	4573
861.123	4481
861.256	4527
861.388	4649
861.521	5239
861.653	4512
861.786	4432
861.918	4500
862.05	4523
862.183	4580
862.315	4573
862.447	4717
862.58	4550
862.712	4371
862.844	4322
862.976	4462
863.108	4417
863.24	4854
863.372	4322
863.504	4413
863.636	4405
863.768	4516
863.9	4432
864.032	4333
864.164	4356
864.296	4516
864.428	4504
864.559	4527
864.691	4527
864.823	4508
864.954	4500
865.086	4512
865.217	4497
865.349	4413
865.48	4455
865.612	4512
865.743	4641
865.875	4402
866.006	4466
866.137	4459
866.269	4432
866.4	4413
866.531	4424
866.662	4371
866.793	4375
866.924	4428
867.055	4523
867.186	4451
867.317	4459
867.448	4367
867.579	4443
867.71	4409
867.841	4390
867.972	4455
868.103	4440
868.233	4413
868.364	4462
868.495	4485
868.625	4679
868.756	4767
868.886	4588
869.017	4679
869.147	4774
869.278	4771
869.408	4694
869.539	4660
869.669	4698
869.799	4656
869.929	4725
870.06	4740
870.19	4999
870.32	4930
870.45	4927
870.58	5056
870.71	5098
870.84	5113
870.97	4942
871.1	4881
871.23	5113
871.36	5151
871.489	5014
871.619	5033
871.749	5067
871.879	5113
872.008	5170
872.138	5045
872.267	5006
872.397	4854
872.526	4801
872.656	4687
872.785	4797
872.915	4995
873.044	5010
873.173	4934
873.303	4927
873.432	4972
873.561	5029
873.69	4881
873.819	4831
873.948	4946
874.077	4835
874.206	4790
874.335	4801
874.464	4908
874.593	5064
874.722	4938
874.851	5094
874.979	5083
875.108	4961
875.237	4904
875.365	4908
875.494	4938
875.623	4942
875.751	4854
875.88	4877
876.008	4949
876.136	5098
876.265	5189
876.393	5337
876.521	5284
876.65	5246
876.778	5124
876.906	5022
877.034	5018
877.162	5071
877.29	4984
877.418	5045
877.546	5025
877.674	5056
877.802	5083
877.93	5048
878.058	4949
878.185	4892
878.313	4999
878.441	4984
878.568	4847
878.696	4854
878.824	5006
878.951	5022
879.079	5151
879.206	5337
879.333	5086
879.461	4976
879.588	4987
879.715	5071
879.842	5231
879.97	4987
880.097	4755
880.224	4717
880.351	4801
880.478	4828
880.605	4721
880.732	4816
880.859	5075
880.986	4850
881.112	4908
881.239	4797
881.366	4626
881.493	4569
881.619	4588
881.746	4615
881.872	4645
881.999	4634
882.125	4672
882.252	4824
882.378	4805
882.505	4938
882.631	4767
882.757	4664
882.883	4725
883.01	4710
883.136	4698
883.262	4596
883.388	4596
883.514	4786
883.64	4858
883.766	4809
883.892	4653
884.018	4714
884.143	4892
884.269	4946
884.395	4668
884.52	4664
884.646	4687
884.772	4561
884.897	4546
885.023	4691
885.148	4702
885.274	4805
885.399	4812
885.524	4706
885.65	4698
885.775	4714
885.9	4725
886.025	4828
886.15	4797
886.275	4679
886.4	4641
886.525	4744
886.65	4702
886.775	4664
886.9	4866
887.025	5006
887.149	4854
887.274	4691
887.399	4599
887.523	4584
887.648	4546
887.773	4569
887.897	4744
888.021	4774
888.146	4683
888.27	4801
888.395	4858
888.519	4843
888.643	4805
888.767	4790
888.891	4725
889.015	4607
889.139	4630
889.263	4615
889.387	4774
889.511	4847
889.635	4873
889.759	4645
889.883	4683
890.006	4691
890.13	4862
890.254	4641
890.377	4721
890.501	4558
890.624	4527
890.748	4630
890.871	4504
890.995	4462
891.118	4386
891.241	4573
891.364	4546
891.488	4630
891.611	4489
891.734	4531
891.857	4615
891.98	4504
892.103	4672
892.226	4519
892.349	4512
892.471	4417
892.594	4535
892.717	4577
892.839	4508
892.962	4546
893.085	4653
893.207	4611
893.33	4481
893.452	4550
893.575	4668
893.697	4558
893.819	4778
893.941	4824
894.064	4736
894.186	4664
894.308	4573
894.43	4748
894.552	4812
894.674	4729
894.796	4523
894.918	4554
895.04	4580
895.161	4736
895.283	4656
895.405	4542
895.526	4611
895.648	4664
895.769	4691
895.891	4714
896.012	4687
896.134	4752
896.255	4630
896.376	4664
896.498	4588
896.619	4653
896.74	4641
896.861	4649
896.982	4927
897.103	5117
897.224	4866
897.345	4714
897.466	4683
897.587	4698
897.708	4873
897.828	4771
897.949	4645
898.07	4561
898.19	4622
898.311	4877
898.431	4622
898.552	4740
898.672	4839
898.792	4774
898.913	4774
899.033	4645
899.153	4519
899.273	4413
899.393	4497
899.513	4508
899.633	4512
899.753	4550
899.873	4538
899.993	4550
900.113	4558
900.232	4561
900.352	4561
900.472	4481
900.591	4352
900.711	4493
900.83	4413
900.95	4603
901.069	4717
901.189	4573
901.308	4394
901.427	4295
901.546	4352
901.665	4455
901.784	4481
901.904	4398
902.023	4299
902.141	4169
902.26	4124
902.379	4284
902.498	4246
902.617	4188
902.735	4329
902.854	4356
902.973	4337
903.091	4207
903.21	4215
903.328	4291
903.446	4227
903.565	4246
903.683	4356
903.801	4261
903.919	4413
904.038	4443
904.156	4303
904.274	4402
904.392	4371
904.51	4394
904.627	4485
904.745	4554
904.863	4641
904.981	4367
905.098	4276
905.216	4398
905.334	4432
905.451	4455
905.569	4428
905.686	4588
905.803	4580
905.921	4432
906.038	4596
906.155	4459
906.272	4375
906.389	4481
906.506	4356
906.623	4383
906.74	4409
906.857	4287
906.974	4363
907.091	4588
907.208	4710
907.324	4588
907.441	4497
907.557	4360
907.674	4360
907.79	4352
907.907	4417
908.023	4516
908.139	4500
908.256	4500
908.372	4485
908.488	4497
908.604	4360
908.72	4325
908.836	4390
908.952	4432
909.068	4497
909.184	4622
909.3	4478
909.415	4618
909.531	4599
909.647	4375
909.762	4417
909.878	4375
909.993	4497
910.108	4493
910.224	4478
910.339	4481
910.454	4409
910.57	4436
910.685	4325
910.8	4691
910.915	4634
911.03	4573
911.145	4360
911.259	4413
911.374	4413
911.489	4348
911.604	4337
911.718	4196
911.833	4310
911.947	4097
912.062	4036
912.176	4246
912.291	4265
912.405	4344
912.519	4478
912.633	4554
912.748	4428
912.862	4383
912.976	4238
913.09	4154
913.204	4215
913.318	4299
913.431	4402
913.545	4451
913.659	4447
913.772	4428
913.886	4318
914	4215
914.113	4417
914.226	4508
914.34	4428
914.453	4230
914.566	4481
914.68	4337
914.793	4341
914.906	4181
915.019	4200
915.132	4135
915.245	4265
915.358	4291
915.47	4261
915.583	4337
915.696	4325
915.809	4443
915.921	4443
916.034	4322
916.146	4310
916.259	4242
916.371	4421
916.483	4436
916.595	4291
916.708	4337
916.82	4348
916.932	4367
917.044	4375
917.156	4398
917.268	4318
917.38	4280
917.491	4306
917.603	4337
917.715	4443
917.826	4512
917.938	4394
918.049	4257
918.161	4462
918.272	4577
918.384	4580
918.495	4497
918.606	4322
918.717	4276
918.828	4367
918.939	4344
919.05	4306
919.161	4310
919.272	4181
919.383	4249
919.494	4466
919.604	4634
919.715	4493
919.826	4383
919.936	4428
920.047	4561
920.157	4558
920.267	4714
920.378	4584
920.488	4542
920.598	4763
920.708	4930
920.818	4752
920.928	4805
921.038	4980
921.148	4911
921.258	4679
921.368	4634
921.477	4474
921.587	4561
921.697	4405
921.806	4584
921.916	4485
922.025	4287
922.134	4257
922.244	4223
922.353	4352
922.462	4204
922.571	4150
922.68	4051
922.789	4036
922.898	4036
923.007	4029
923.116	4074
923.224	4090
923.333	4086
923.442	3994
923.55	4036
923.659	4090
923.767	4128
923.876	4029
923.984	4093
924.092	4029
924.201	4086
924.309	4124
924.417	4131
924.525	4078
924.633	4143
924.741	5083
924.849	3899
924.956	4173
925.064	3964
925.172	3945
925.279	3994
925.387	4082
925.494	4086
925.602	4246
925.709	4173
925.816	4116
925.924	4185
926.031	4246
926.138	4215
926.245	4223
926.352	4150
926.459	4303
926.566	4299
926.673	4147
926.779	4097
926.886	4169
926.993	4002
927.099	3998
927.206	3979
927.312	3991
927.419	4112
927.525	4067
927.631	4131
927.737	4029
927.843	3941
927.95	3884
928.056	3960
928.162	4032
928.267	4105
928.373	4607
928.479	4166
928.585	3907
928.69	4010
928.796	4128
928.901	4002
929.007	3880
929.112	4036
929.218	4010
929.323	3975
929.428	3991
929.533	4154
929.638	3941
929.743	3979
929.848	4078
929.953	4010
930.058	3972
930.163	3797
930.267	3819
930.372	4006
930.477	3892
930.581	4131
930.685	4021
930.79	3865
930.894	3918
930.998	3880
931.103	4048
931.207	3781
931.311	3732
931.415	3682
931.519	3553
931.623	3603
