Data from test_V78500241_375.txt Node
Date: Fri Mar 25 16:51:36 CST 2022
User: usil
Spectrometer: V785-0024
Trigger mode: 0
Integration Time (sec): 4.000000E-1
Scans to average: 1
Nonlinearity correction enabled: false
Boxcar width: 0
Storing dark spectrum: false
XAxis mode: Wavelengths
Number of Pixels in Spectrum: 1024
>>>>>Begin Spectral Data<<<<<
801.071	8138
801.214	8054
801.356	7970
801.499	7974
801.641	7795
801.783	7871
801.926	7944
802.068	7951
802.211	8005
802.353	8027
802.496	7879
802.638	7967
802.78	7932
802.923	8005
803.065	7928
803.208	7898
803.35	7959
803.492	8111
803.635	8126
803.777	7913
803.919	8172
804.061	8427
804.204	8206
804.346	8058
804.488	8016
804.63	8062
804.773	8031
804.915	8073
805.057	8309
805.199	8153
805.341	8214
805.483	8240
805.626	8180
805.768	8084
805.91	8123
806.052	8271
806.194	8183
806.336	8309
806.478	8183
806.62	8172
806.762	8240
806.904	8248
807.046	8461
807.188	8362
807.33	8294
807.472	8221
807.614	8164
807.756	8214
807.898	8103
808.04	7898
808.182	7890
808.324	7970
808.465	7955
808.607	8092
808.749	8157
808.891	8237
809.033	8320
809.174	8191
809.316	7989
809.458	8073
809.6	8088
809.741	8027
809.883	7970
810.025	8073
810.166	8142
810.308	8031
810.45	7959
810.591	7898
810.733	7845
810.875	7700
811.016	7563
811.158	7613
811.299	7674
811.441	7761
811.582	7693
811.724	7613
811.865	7578
812.007	7624
812.148	7624
812.29	7609
812.431	7807
812.573	7921
812.714	8024
812.855	8202
812.997	8279
813.138	8259
813.279	8183
813.421	8161
813.562	8039
813.703	7909
813.845	7753
813.986	7480
814.127	7381
814.268	7266
814.41	7255
814.551	7164
814.692	7255
814.833	7126
814.974	7129
815.115	7156
815.256	7050
815.397	6890
815.539	7031
815.68	6791
815.821	6749
815.962	6890
816.103	6871
816.244	6753
816.385	6650
816.526	6665
816.666	6536
816.807	6315
816.948	6475
817.089	6513
817.23	6483
817.371	6376
817.512	6479
817.653	6460
817.793	6414
817.934	6464
818.075	6426
818.216	6399
818.356	6403
818.497	6273
818.638	6159
818.778	6194
818.919	6171
819.06	6133
819.2	6369
819.341	6323
819.481	6403
819.622	6528
819.762	6825
819.903	6772
820.043	6623
820.184	6623
820.324	6642
820.465	6703
820.605	6677
820.746	6703
820.886	6540
821.026	6730
821.167	6700
821.307	6757
821.447	6848
821.588	6658
821.728	6662
821.868	6544
822.008	6365
822.149	6456
822.289	6418
822.429	6167
822.569	6095
822.709	6167
822.849	5965
822.99	5969
823.13	5942
823.27	5912
823.41	5874
823.55	5824
823.69	5824
823.83	5802
823.97	5729
824.11	5615
824.25	5524
824.389	5615
824.529	5657
824.669	5592
824.809	5684
824.949	5665
825.089	5653
825.228	5604
825.368	5478
825.508	5440
825.648	5395
825.787	5368
825.927	5398
826.067	5318
826.206	5334
826.346	5398
826.485	5448
826.625	5417
826.765	5592
826.904	5524
827.044	5345
827.183	5239
827.323	5185
827.462	5299
827.601	5223
827.741	5239
827.88	5330
828.02	5132
828.159	5246
828.298	5364
828.437	5387
828.577	5368
828.716	5497
828.855	5383
828.994	5239
829.134	5231
829.273	5269
829.412	5227
829.551	5159
829.69	5223
829.829	5318
829.968	5410
830.107	5330
830.246	5345
830.385	5235
830.524	5166
830.663	5151
830.802	5064
830.941	4938
831.08	4968
831.219	5006
831.357	5052
831.496	5197
831.635	5014
831.774	4896
831.913	4877
832.051	4839
832.19	4752
832.329	4919
832.467	4729
832.606	4694
832.744	4714
832.883	4805
833.022	4774
833.16	4828
833.299	4889
833.437	4885
833.576	4911
833.714	4968
833.852	4896
833.991	4904
834.129	4961
834.267	4991
834.406	4972
834.544	5052
834.682	5010
834.821	5010
834.959	5212
835.097	5037
835.235	5223
835.373	5136
835.511	5201
835.65	5094
835.788	5041
835.926	4930
836.064	4889
836.202	5022
836.34	5220
836.478	5265
836.615	5201
836.753	5273
836.891	5364
837.029	5318
837.167	5239
837.305	5174
837.443	5204
837.58	5083
837.718	5330
837.856	5235
837.993	5178
838.131	5242
838.269	5265
838.406	5220
838.544	5216
838.681	5102
838.819	5105
838.956	4995
839.094	4968
839.231	4995
839.369	5113
839.506	5433
839.643	5288
839.781	5052
839.918	5071
840.055	5151
840.193	5124
840.33	5174
840.467	5189
840.604	5220
840.742	5497
840.879	5109
841.016	5170
841.153	5147
841.29	5398
841.427	5330
841.564	5334
841.701	5429
841.838	5307
841.975	5315
842.112	5269
842.249	5189
842.385	5170
842.522	5368
842.659	5197
842.796	5174
842.933	5208
843.069	5143
843.206	5201
843.343	5326
843.479	5299
843.616	5265
843.752	5102
843.889	5006
844.025	5239
844.162	5025
844.298	5254
844.435	5155
844.571	5098
844.708	5246
844.844	5330
844.98	5398
845.117	5296
845.253	5212
845.389	5124
845.525	5155
845.661	5140
845.798	5079
845.934	5170
846.07	5143
846.206	5166
846.342	5288
846.478	5261
846.614	5041
846.75	4976
846.886	4953
847.022	5178
847.158	5014
847.294	5105
847.429	5113
847.565	5067
847.701	5349
847.837	4885
847.972	4854
848.108	4995
848.244	4976
848.379	4858
848.515	4736
848.65	4767
848.786	4774
848.921	4771
849.057	4862
849.192	4892
849.328	4873
849.463	4892
849.598	4870
849.734	4778
849.869	4752
850.004	4694
850.14	4702
850.275	4653
850.41	4607
850.545	4622
850.68	4649
850.815	4683
850.95	4679
851.085	4915
851.22	4809
851.355	4675
851.49	4645
851.625	4672
851.76	4698
851.895	4618
852.03	4580
852.165	4725
852.299	4805
852.434	4828
852.569	4797
852.703	4763
852.838	4885
852.973	5022
853.107	4980
853.242	4774
853.376	4683
853.511	4611
853.645	4637
853.78	4767
853.914	4744
854.048	4714
854.183	4729
854.317	4679
854.451	4885
854.585	4725
854.72	4660
854.854	4805
854.988	4618
855.122	4626
855.256	4546
855.39	4656
855.524	4809
855.658	4759
855.792	4702
855.926	4710
856.06	4755
856.194	4843
856.327	4733
856.461	4664
856.595	4668
856.729	4649
856.862	4763
856.996	4698
857.13	4801
857.263	4809
857.397	4824
857.53	4656
857.664	4812
857.797	4824
857.931	4820
858.064	4774
858.197	4786
858.331	4656
858.464	4649
858.597	4565
858.731	4687
858.864	4687
858.997	4675
859.13	4725
859.263	4759
859.396	4755
859.529	4592
859.662	4535
859.795	4588
859.928	4691
860.061	4793
860.194	4748
860.327	4637
860.46	4592
860.592	4717
860.725	4759
860.858	4721
860.99	4565
861.123	4558
861.256	4531
861.388	4679
861.521	5395
861.653	4527
861.786	4451
861.918	4493
862.05	4550
862.183	4599
862.315	4634
862.447	4637
862.58	4565
862.712	4424
862.844	4383
862.976	4538
863.108	4474
863.24	4790
863.372	4375
863.504	4485
863.636	4436
863.768	4531
863.9	4398
864.032	4371
864.164	4447
864.296	4508
864.428	4565
864.559	4554
864.691	4554
864.823	4561
864.954	4546
865.086	4550
865.217	4493
865.349	4451
865.48	4443
865.612	4569
865.743	4683
865.875	4508
866.006	4447
866.137	4538
866.269	4474
866.4	4489
866.531	4508
866.662	4466
866.793	4421
866.924	4500
867.055	4527
867.186	4474
867.317	4462
867.448	4398
867.579	4417
867.71	4443
867.841	4421
867.972	4485
868.103	4512
868.233	4489
868.364	4478
868.495	4550
868.625	4710
868.756	4870
868.886	4607
869.017	4603
869.147	4790
869.278	4767
869.408	4691
869.539	4687
869.669	4725
869.799	4740
869.929	4797
870.06	4748
870.19	4980
870.32	4927
870.45	5003
870.58	5064
870.71	5113
870.84	5132
870.97	4961
871.1	4972
871.23	5143
871.36	5166
871.489	5041
871.619	5090
871.749	5132
871.879	5162
872.008	5239
872.138	5094
872.267	5029
872.397	4923
872.526	4831
872.656	4736
872.785	4828
872.915	5010
873.044	5079
873.173	5037
873.303	4987
873.432	4999
873.561	5006
873.69	4873
873.819	4881
873.948	4980
874.077	4847
874.206	4786
874.335	4839
874.464	4908
874.593	5090
874.722	4987
874.851	5117
874.979	5132
875.108	5071
875.237	4961
875.365	4911
875.494	4919
875.623	4995
875.751	4854
875.88	4862
876.008	5003
876.136	5003
876.265	5231
876.393	5410
876.521	5235
876.65	5258
876.778	5189
876.906	5098
877.034	5018
877.162	5064
877.29	5064
877.418	5117
877.546	5105
877.674	5079
877.802	5086
877.93	5029
878.058	4965
878.185	4892
878.313	5033
878.441	4946
878.568	4831
878.696	4908
878.824	4972
878.951	5029
879.079	5159
879.206	5341
879.333	5109
879.461	4961
879.588	5052
879.715	5117
879.842	5284
879.97	5045
880.097	4858
880.224	4812
880.351	4850
880.478	4831
880.605	4809
880.732	4828
880.859	5113
880.986	4900
881.112	4904
881.239	4831
881.366	4763
881.493	4615
881.619	4588
881.746	4649
881.872	4656
881.999	4649
882.125	4698
882.252	4767
882.378	4862
882.505	4938
882.631	4812
882.757	4702
882.883	4774
883.01	4767
883.136	4725
883.262	4622
883.388	4660
883.514	4839
883.64	4892
883.766	4870
883.892	4691
884.018	4725
884.143	4881
884.269	5064
884.395	4710
884.52	4672
884.646	4653
884.772	4577
884.897	4603
885.023	4748
885.148	4755
885.274	4877
885.399	4824
885.524	4759
885.65	4733
885.775	4824
885.9	4698
886.025	4911
886.15	4809
886.275	4736
886.4	4668
886.525	4778
886.65	4691
886.775	4672
886.9	4911
887.025	5064
887.149	4816
887.274	4683
887.399	4607
887.523	4622
887.648	4649
887.773	4607
887.897	4778
888.021	4759
888.146	4721
888.27	4847
888.395	4923
888.519	4812
888.643	4793
888.767	4854
888.891	4691
889.015	4649
889.139	4664
889.263	4603
889.387	4759
889.511	4870
889.635	4816
889.759	4630
889.883	4683
890.006	4763
890.13	4843
890.254	4637
890.377	4691
890.501	4607
890.624	4538
890.748	4679
890.871	4493
890.995	4436
891.118	4424
891.241	4519
891.364	4584
891.488	4679
891.611	4535
891.734	4561
891.857	4641
891.98	4558
892.103	4668
892.226	4649
892.349	4577
892.471	4432
892.594	4558
892.717	4588
892.839	4687
892.962	4611
893.085	4645
893.207	4615
893.33	4466
893.452	4542
893.575	4691
893.697	4611
893.819	4755
893.941	4858
894.064	4778
894.186	4599
894.308	4599
894.43	4786
894.552	4847
894.674	4755
894.796	4561
894.918	4641
895.04	4634
895.161	4702
895.283	4668
895.405	4535
895.526	4641
895.648	4664
895.769	4698
895.891	4740
896.012	4721
896.134	4691
896.255	4675
896.376	4637
896.498	4626
896.619	4725
896.74	4664
896.861	4660
896.982	4919
897.103	5090
897.224	4805
897.345	4778
897.466	4683
897.587	4748
897.708	4904
897.828	4839
897.949	4634
898.07	4634
898.19	4611
898.311	4843
898.431	4717
898.552	4721
898.672	4786
898.792	4797
898.913	4771
899.033	4637
899.153	4550
899.273	4447
899.393	4519
899.513	4531
899.633	4500
899.753	4546
899.873	4554
899.993	4577
900.113	4531
900.232	4584
900.352	4577
900.472	4512
900.591	4390
900.711	4497
900.83	4451
900.95	4607
901.069	4672
901.189	4550
901.308	4375
901.427	4360
901.546	4367
901.665	4478
901.784	4531
901.904	4402
902.023	4337
902.141	4166
902.26	4207
902.379	4314
902.498	4227
902.617	4219
902.735	4402
902.854	4413
902.973	4367
903.091	4211
903.21	4265
903.328	4306
903.446	4310
903.565	4287
903.683	4371
903.801	4333
903.919	4371
904.038	4447
904.156	4303
904.274	4451
904.392	4383
904.51	4466
904.627	4523
904.745	4558
904.863	4626
904.981	4383
905.098	4303
905.216	4394
905.334	4497
905.451	4447
905.569	4470
905.686	4596
905.803	4573
905.921	4421
906.038	4565
906.155	4489
906.272	4409
906.389	4455
906.506	4363
906.623	4413
906.74	4402
906.857	4310
906.974	4379
907.091	4577
907.208	4649
907.324	4607
907.441	4508
907.557	4379
907.674	4356
907.79	4341
907.907	4405
908.023	4519
908.139	4497
908.256	4440
908.372	4455
908.488	4466
908.604	4356
908.72	4287
908.836	4402
908.952	4344
909.068	4519
909.184	4580
909.3	4481
909.415	4573
909.531	4565
909.647	4337
909.762	4348
909.878	4333
909.993	4421
910.108	4424
910.224	4440
910.339	4504
910.454	4459
910.57	4394
910.685	4249
910.8	4675
910.915	4618
911.03	4516
911.145	4333
911.259	4299
911.374	4383
911.489	4276
911.604	4310
911.718	4188
911.833	4215
911.947	4109
912.062	4025
912.176	4268
912.291	4249
912.405	4280
912.519	4516
912.633	4516
912.748	4386
912.862	4306
912.976	4192
913.09	4131
913.204	4181
913.318	4265
913.431	4386
913.545	4375
913.659	4470
913.772	4398
913.886	4310
914	4230
914.113	4379
914.226	4481
914.34	4405
914.453	4268
914.566	4462
914.68	4341
914.793	4284
914.906	4166
915.019	4139
915.132	4097
915.245	4196
915.358	4268
915.47	4242
915.583	4246
915.696	4291
915.809	4421
915.921	4421
916.034	4280
916.146	4272
916.259	4223
916.371	4424
916.483	4383
916.595	4306
916.708	4352
916.82	4348
916.932	4356
917.044	4333
917.156	4314
917.268	4265
917.38	4257
917.491	4322
917.603	4363
917.715	4447
917.826	4470
917.938	4337
918.049	4257
918.161	4405
918.272	4554
918.384	4554
918.495	4478
918.606	4249
918.717	4272
918.828	4352
918.939	4344
919.05	4306
919.161	4329
919.272	4158
919.383	4238
919.494	4462
919.604	4645
919.715	4459
919.826	4375
919.936	4413
920.047	4527
920.157	4508
920.267	4668
920.378	4550
920.488	4504
920.598	4691
920.708	4930
920.818	4793
920.928	4763
921.038	4980
921.148	4953
921.258	4634
921.368	4550
921.477	4546
921.587	4470
921.697	4386
921.806	4561
921.916	4493
922.025	4246
922.134	4314
922.244	4272
922.353	4303
922.462	4207
922.571	4154
922.68	3987
922.789	4017
922.898	4074
923.007	4032
923.116	4109
923.224	4067
923.333	4097
923.442	3983
923.55	3941
923.659	4029
923.767	4112
923.876	4006
923.984	4059
924.092	4002
924.201	4074
924.309	4074
924.417	4097
924.525	4101
924.633	4105
924.741	4896
924.849	3941
924.956	4128
925.064	3949
925.172	3934
925.279	3945
925.387	4078
925.494	4055
925.602	4200
925.709	4207
925.816	4029
925.924	4105
926.031	4219
926.138	4196
926.245	4204
926.352	4120
926.459	4299
926.566	4303
926.673	4158
926.779	4105
926.886	4090
926.993	3983
927.099	3968
927.206	3937
927.312	3968
927.419	4090
927.525	4063
927.631	4090
927.737	3956
927.843	3968
927.95	3846
928.056	3934
928.162	4017
928.267	4048
928.373	4752
928.479	4162
928.585	3911
928.69	4006
928.796	4044
928.901	3937
929.007	3835
929.112	3991
929.218	3991
929.323	3911
929.428	3915
929.533	4097
929.638	3907
929.743	3915
929.848	4097
929.953	3998
930.058	3972
930.163	3724
930.267	3846
930.372	4006
930.477	3842
930.581	4074
930.685	3987
930.79	3892
930.894	3869
930.998	3835
931.103	4025
931.207	3736
931.311	3690
931.415	3694
931.519	3519
931.623	3584
