Data from test_V78500241_1882.txt Node
Date: Fri Mar 25 17:02:05 CST 2022
User: usil
Spectrometer: V785-0024
Trigger mode: 0
Integration Time (sec): 4.000000E-1
Scans to average: 1
Nonlinearity correction enabled: false
Boxcar width: 0
Storing dark spectrum: false
XAxis mode: Wavelengths
Number of Pixels in Spectrum: 1024
>>>>>Begin Spectral Data<<<<<
801.071	7963
801.214	7970
801.356	7833
801.499	7830
801.641	7776
801.783	7860
801.926	7925
802.068	7951
802.211	7917
802.353	7963
802.496	7795
802.638	7856
802.78	7883
802.923	7864
803.065	7868
803.208	7814
803.35	7967
803.492	8005
803.635	8161
803.777	7993
803.919	8138
804.061	8495
804.204	8084
804.346	8046
804.488	8008
804.63	8126
804.773	8035
804.915	8130
805.057	8294
805.199	8256
805.341	8172
805.483	8210
805.626	8187
805.768	8153
805.91	8275
806.052	8168
806.194	8077
806.336	8355
806.478	8126
806.62	8039
806.762	8199
806.904	8279
807.046	8461
807.188	8324
807.33	8290
807.472	8339
807.614	8096
807.756	8134
807.898	8001
808.04	7890
808.182	7879
808.324	7845
808.465	7913
808.607	8096
808.749	8054
808.891	8218
809.033	8301
809.174	8168
809.316	8058
809.458	8119
809.6	7978
809.741	8062
809.883	8077
810.025	8115
810.166	8065
810.308	8062
810.45	7989
810.591	7849
810.733	7704
810.875	7597
811.016	7483
811.158	7438
811.299	7563
811.441	7681
811.582	7715
811.724	7575
811.865	7575
812.007	7609
812.148	7567
812.29	7624
812.431	7704
812.573	7852
812.714	7959
812.855	8096
812.997	8183
813.138	8313
813.279	8134
813.421	8058
813.562	7940
813.703	7833
813.845	7753
813.986	7438
814.127	7232
814.268	7225
814.41	7213
814.551	7206
814.692	7217
814.833	7145
814.974	7050
815.115	7095
815.256	6951
815.397	6939
815.539	6939
815.68	6840
815.821	6749
815.962	6837
816.103	6837
816.244	6677
816.385	6582
816.526	6631
816.666	6532
816.807	6258
816.948	6467
817.089	6395
817.23	6376
817.371	6384
817.512	6311
817.653	6372
817.793	6311
817.934	6391
818.075	6422
818.216	6426
818.356	6380
818.497	6262
818.638	6114
818.778	6171
818.919	6197
819.06	6243
819.2	6270
819.341	6300
819.481	6414
819.622	6479
819.762	6730
819.903	6669
820.043	6585
820.184	6563
820.324	6566
820.465	6753
820.605	6684
820.746	6662
820.886	6540
821.026	6669
821.167	6696
821.307	6776
821.447	6741
821.588	6639
821.728	6559
821.868	6460
822.008	6334
822.149	6357
822.289	6296
822.429	6178
822.569	6125
822.709	6114
822.849	5939
822.99	5920
823.13	5923
823.27	5920
823.41	5764
823.55	5798
823.69	5756
823.83	5752
823.97	5672
824.11	5554
824.25	5493
824.389	5551
824.529	5592
824.669	5497
824.809	5570
824.949	5672
825.089	5623
825.228	5501
825.368	5360
825.508	5341
825.648	5372
825.787	5341
825.927	5337
826.067	5288
826.206	5216
826.346	5353
826.485	5391
826.625	5387
826.765	5516
826.904	5463
827.044	5288
827.183	5261
827.323	5109
827.462	5235
827.601	5147
827.741	5212
827.88	5212
828.02	5090
828.159	5216
828.298	5303
828.437	5387
828.577	5303
828.716	5467
828.855	5334
828.994	5132
829.134	5151
829.273	5204
829.412	5113
829.551	5071
829.69	5121
829.829	5193
829.968	5337
830.107	5280
830.246	5269
830.385	5197
830.524	5162
830.663	5045
830.802	4961
830.941	4892
831.08	4831
831.219	5003
831.357	4938
831.496	5189
831.635	4965
831.774	4850
831.913	4824
832.051	4729
832.19	4812
832.329	4843
832.467	4653
832.606	4634
832.744	4702
832.883	4691
833.022	4717
833.16	4786
833.299	4896
833.437	4850
833.576	4797
833.714	4866
833.852	4843
833.991	4904
834.129	4927
834.267	4961
834.406	4919
834.544	4961
834.682	4991
834.821	4915
834.959	5174
835.097	4942
835.235	5174
835.373	5083
835.511	5098
835.65	5045
835.788	5033
835.926	4908
836.064	4892
836.202	4881
836.34	5117
836.478	5212
836.615	5124
836.753	5204
836.891	5220
837.029	5231
837.167	5151
837.305	5216
837.443	5124
837.58	5105
837.718	5223
837.856	5223
837.993	5140
838.131	5227
838.269	5216
838.406	5193
838.544	5162
838.681	5018
838.819	4987
838.956	4915
839.094	4873
839.231	4942
839.369	5022
839.506	5433
839.643	5269
839.781	5033
839.918	4980
840.055	5033
840.193	5117
840.33	5067
840.467	5132
840.604	5151
840.742	5383
840.879	5045
841.016	5064
841.153	5151
841.29	5379
841.427	5330
841.564	5353
841.701	5311
841.838	5261
841.975	5246
842.112	5231
842.249	5140
842.385	5136
842.522	5326
842.659	5174
842.796	5181
842.933	5128
843.069	5102
843.206	5155
843.343	5307
843.479	5231
843.616	5296
843.752	4961
843.889	4965
844.025	5197
844.162	5018
844.298	5162
844.435	5048
844.571	5041
844.708	5170
844.844	5280
844.98	5258
845.117	5288
845.253	5109
845.389	5064
845.525	5071
845.661	5128
845.798	5033
845.934	5204
846.07	4995
846.206	5174
846.342	5265
846.478	5204
846.614	5003
846.75	4965
846.886	4911
847.022	5117
847.158	4980
847.294	5033
847.429	5075
847.565	4984
847.701	5277
847.837	4828
847.972	4839
848.108	4961
848.244	4896
848.379	4786
848.515	4736
848.65	4679
848.786	4729
848.921	4755
849.057	4858
849.192	4930
849.328	4828
849.463	4866
849.598	4786
849.734	4740
849.869	4668
850.004	4634
850.14	4668
850.275	4573
850.41	4561
850.545	4527
850.68	4569
850.815	4649
850.95	4615
851.085	4816
851.22	4725
851.355	4679
851.49	4603
851.625	4622
851.76	4630
851.895	4584
852.03	4504
852.165	4675
852.299	4653
852.434	4778
852.569	4736
852.703	4790
852.838	4793
852.973	4930
853.107	4900
853.242	4660
853.376	4630
853.511	4561
853.645	4538
853.78	4774
853.914	4694
854.048	4653
854.183	4554
854.317	4698
854.451	4858
854.585	4656
854.72	4573
854.854	4733
854.988	4584
855.122	4630
855.256	4519
855.39	4702
855.524	4755
855.658	4694
855.792	4714
855.926	4717
856.06	4748
856.194	4771
856.327	4683
856.461	4607
856.595	4596
856.729	4565
856.862	4778
856.996	4744
857.13	4721
857.263	4748
857.397	4816
857.53	4656
857.664	4714
857.797	4782
857.931	4752
858.064	4645
858.197	4721
858.331	4668
858.464	4599
858.597	4558
858.731	4622
858.864	4660
858.997	4588
859.13	4607
859.263	4698
859.396	4694
859.529	4569
859.662	4508
859.795	4531
859.928	4592
860.061	4721
860.194	4744
860.327	4626
860.46	4512
860.592	4656
860.725	4736
860.858	4691
860.99	4554
861.123	4531
861.256	4531
861.388	4626
861.521	5391
861.653	4508
861.786	4421
861.918	4398
862.05	4508
862.183	4493
862.315	4550
862.447	4599
862.58	4508
862.712	4409
862.844	4284
862.976	4432
863.108	4428
863.24	4858
863.372	4295
863.504	4413
863.636	4424
863.768	4485
863.9	4421
864.032	4337
864.164	4363
864.296	4508
864.428	4493
864.559	4535
864.691	4538
864.823	4508
864.954	4485
865.086	4504
865.217	4424
865.349	4379
865.48	4409
865.612	4497
865.743	4569
865.875	4519
866.006	4383
866.137	4489
866.269	4436
866.4	4466
866.531	4428
866.662	4390
866.793	4402
866.924	4371
867.055	4470
867.186	4436
867.317	4402
867.448	4379
867.579	4322
867.71	4413
867.841	4360
867.972	4508
868.103	4459
868.233	4462
868.364	4386
868.495	4459
868.625	4607
868.756	4793
868.886	4512
869.017	4599
869.147	4782
869.278	4755
869.408	4702
869.539	4615
869.669	4755
869.799	4687
869.929	4782
870.06	4710
870.19	4999
870.32	4896
870.45	4934
870.58	5064
870.71	5102
870.84	5136
870.97	4968
871.1	4915
871.23	5212
871.36	5204
871.489	5079
871.619	5132
871.749	5124
871.879	5151
872.008	5204
872.138	5075
872.267	5041
872.397	4850
872.526	4839
872.656	4752
872.785	4873
872.915	4987
873.044	5090
873.173	5003
873.303	5014
873.432	4976
873.561	4991
873.69	4919
873.819	4889
873.948	4934
874.077	4858
874.206	4767
874.335	4873
874.464	4919
874.593	5094
874.722	5048
874.851	5109
874.979	5067
875.108	5064
875.237	4923
875.365	4877
875.494	5006
875.623	5006
875.751	4831
875.88	4892
876.008	5022
876.136	5086
876.265	5193
876.393	5433
876.521	5322
876.65	5258
876.778	5181
876.906	5102
877.034	5064
877.162	5006
877.29	5029
877.418	5037
877.546	5075
877.674	5041
877.802	5064
877.93	5052
878.058	4957
878.185	4892
878.313	5018
878.441	4946
878.568	4809
878.696	4923
878.824	4972
878.951	5048
879.079	5178
879.206	5311
879.333	5162
879.461	5006
879.588	5041
879.715	5109
879.842	5273
879.97	5041
880.097	4850
880.224	4771
880.351	4858
880.478	4885
880.605	4801
880.732	4812
880.859	5075
880.986	4919
881.112	4873
881.239	4831
881.366	4698
881.493	4630
881.619	4596
881.746	4622
881.872	4687
881.999	4679
882.125	4679
882.252	4847
882.378	4835
882.505	4980
882.631	4858
882.757	4687
882.883	4774
883.01	4778
883.136	4725
883.262	4611
883.388	4626
883.514	4824
883.64	4828
883.766	4812
883.892	4721
884.018	4767
884.143	4961
884.269	5041
884.395	4694
884.52	4584
884.646	4675
884.772	4618
884.897	4630
885.023	4698
885.148	4828
885.274	4866
885.399	4824
885.524	4759
885.65	4729
885.775	4744
885.9	4733
886.025	4881
886.15	4854
886.275	4763
886.4	4694
886.525	4763
886.65	4702
886.775	4706
886.9	4946
887.025	5064
887.149	4820
887.274	4679
887.399	4599
887.523	4588
887.648	4565
887.773	4618
887.897	4854
888.021	4755
888.146	4725
888.27	4847
888.395	4942
888.519	4828
888.643	4831
888.767	4816
888.891	4729
889.015	4653
889.139	4675
889.263	4672
889.387	4767
889.511	4885
889.635	4831
889.759	4672
889.883	4588
890.006	4797
890.13	4885
890.254	4641
890.377	4736
890.501	4573
890.624	4580
890.748	4664
890.871	4565
890.995	4459
891.118	4474
891.241	4493
891.364	4584
891.488	4668
891.611	4504
891.734	4573
891.857	4630
891.98	4542
892.103	4679
892.226	4615
892.349	4531
892.471	4443
892.594	4588
892.717	4649
892.839	4588
892.962	4626
893.085	4672
893.207	4599
893.33	4443
893.452	4558
893.575	4683
893.697	4592
893.819	4824
893.941	4866
894.064	4820
894.186	4588
894.308	4573
894.43	4797
894.552	4866
894.674	4744
894.796	4569
894.918	4634
895.04	4630
895.161	4740
895.283	4733
895.405	4611
895.526	4656
895.648	4736
895.769	4694
895.891	4752
896.012	4774
896.134	4694
896.255	4691
896.376	4664
896.498	4615
896.619	4710
896.74	4607
896.861	4725
896.982	4915
897.103	5147
897.224	4858
897.345	4767
897.466	4645
897.587	4763
897.708	4850
897.828	4816
897.949	4714
898.07	4592
898.19	4675
898.311	4854
898.431	4752
898.552	4763
898.672	4805
898.792	4820
898.913	4748
899.033	4653
899.153	4542
899.273	4424
899.393	4565
899.513	4546
899.633	4542
899.753	4531
899.873	4538
899.993	4637
900.113	4584
900.232	4603
900.352	4535
900.472	4527
900.591	4451
900.711	4519
900.83	4504
900.95	4592
901.069	4694
901.189	4577
901.308	4363
901.427	4356
901.546	4447
901.665	4508
901.784	4561
901.904	4462
902.023	4341
902.141	4238
902.26	4200
902.379	4344
902.498	4261
902.617	4261
902.735	4405
902.854	4383
902.973	4371
903.091	4192
903.21	4253
903.328	4295
903.446	4299
903.565	4211
903.683	4386
903.801	4306
903.919	4424
904.038	4462
904.156	4341
904.274	4512
904.392	4409
904.51	4451
904.627	4504
904.745	4588
904.863	4660
904.981	4451
905.098	4352
905.216	4436
905.334	4481
905.451	4459
905.569	4481
905.686	4599
905.803	4603
905.921	4481
906.038	4531
906.155	4523
906.272	4386
906.389	4470
906.506	4413
906.623	4421
906.74	4405
906.857	4329
906.974	4356
907.091	4573
907.208	4714
907.324	4592
907.441	4580
907.557	4360
907.674	4383
907.79	4352
907.907	4421
908.023	4531
908.139	4512
908.256	4409
908.372	4451
908.488	4504
908.604	4398
908.72	4348
908.836	4398
908.952	4352
909.068	4451
909.184	4584
909.3	4504
909.415	4573
909.531	4588
909.647	4424
909.762	4341
909.878	4371
909.993	4417
910.108	4386
910.224	4409
910.339	4474
910.454	4424
910.57	4337
910.685	4306
910.8	4634
910.915	4622
911.03	4535
911.145	4371
911.259	4360
911.374	4417
911.489	4306
911.604	4310
911.718	4185
911.833	4181
911.947	4128
912.062	4051
912.176	4188
912.291	4287
912.405	4230
912.519	4500
912.633	4531
912.748	4367
912.862	4371
912.976	4227
913.09	4086
913.204	4215
913.318	4257
913.431	4417
913.545	4413
913.659	4504
913.772	4363
913.886	4295
914	4215
914.113	4428
914.226	4440
914.34	4440
914.453	4257
914.566	4436
914.68	4379
914.793	4363
914.906	4154
915.019	4162
915.132	4093
915.245	4192
915.358	4230
915.47	4211
915.583	4299
915.696	4363
915.809	4474
915.921	4462
916.034	4265
916.146	4242
916.259	4230
916.371	4386
916.483	4325
916.595	4261
916.708	4360
916.82	4310
916.932	4314
917.044	4318
917.156	4379
917.268	4227
917.38	4268
917.491	4303
917.603	4375
917.715	4436
917.826	4455
917.938	4405
918.049	4299
918.161	4413
918.272	4565
918.384	4558
918.495	4478
918.606	4322
918.717	4238
918.828	4344
918.939	4390
919.05	4268
919.161	4379
919.272	4188
919.383	4223
919.494	4455
919.604	4649
919.715	4466
919.826	4360
919.936	4424
920.047	4516
920.157	4466
920.267	4702
920.378	4500
920.488	4516
920.598	4691
920.708	4877
920.818	4786
920.928	4729
921.038	4976
921.148	4923
921.258	4641
921.368	4554
921.477	4512
921.587	4474
921.697	4356
921.806	4607
921.916	4424
922.025	4291
922.134	4280
922.244	4188
922.353	4329
922.462	4188
922.571	4147
922.68	4021
922.789	3953
922.898	4071
923.007	4021
923.116	4112
923.224	4051
923.333	4120
923.442	4040
923.55	3991
923.659	4067
923.767	4116
923.876	4002
923.984	4173
924.092	3975
924.201	4154
924.309	4048
924.417	4215
924.525	4074
924.633	4131
924.741	5018
924.849	3934
924.956	4147
925.064	4032
925.172	3987
925.279	3979
925.387	4082
925.494	4071
925.602	4234
925.709	4204
925.816	4086
925.924	4158
926.031	4234
926.138	4150
926.245	4211
926.352	4124
926.459	4280
926.566	4337
926.673	4158
926.779	4090
926.886	4131
926.993	3987
927.099	3911
927.206	3926
927.312	3945
927.419	4067
927.525	4040
927.631	4097
927.737	3972
927.843	3934
927.95	3808
928.056	3945
928.162	4051
928.267	4082
928.373	4580
928.479	4139
928.585	3899
928.69	4002
928.796	4078
928.901	3983
929.007	3854
929.112	3991
929.218	4013
929.323	3975
929.428	3956
929.533	4147
929.638	3915
929.743	4013
929.848	4040
929.953	4006
930.058	3930
930.163	3797
930.267	3842
930.372	3934
930.477	3781
930.581	4109
930.685	3979
930.79	3812
930.894	3873
930.998	3857
931.103	4055
931.207	3740
931.311	3701
931.415	3701
931.519	3538
931.623	3561
