Data from test_V78500241_964.txt Node
Date: Fri Mar 25 16:55:42 CST 2022
User: usil
Spectrometer: V785-0024
Trigger mode: 0
Integration Time (sec): 4.000000E-1
Scans to average: 1
Nonlinearity correction enabled: false
Boxcar width: 0
Storing dark spectrum: false
XAxis mode: Wavelengths
Number of Pixels in Spectrum: 1024
>>>>>Begin Spectral Data<<<<<
801.071	8005
801.214	8008
801.356	7894
801.499	7978
801.641	7776
801.783	7803
801.926	8020
802.068	7947
802.211	7970
802.353	7993
802.496	7898
802.638	7925
802.78	7909
802.923	8008
803.065	7879
803.208	7887
803.35	8050
803.492	8111
803.635	8161
803.777	8050
803.919	8084
804.061	8461
804.204	8168
804.346	8073
804.488	7997
804.63	8176
804.773	8008
804.915	8138
805.057	8263
805.199	8183
805.341	8229
805.483	8199
805.626	8180
805.768	8103
805.91	8214
806.052	8199
806.194	8058
806.336	8252
806.478	8142
806.62	8096
806.762	8164
806.904	8252
807.046	8480
807.188	8381
807.33	8351
807.472	8256
807.614	8084
807.756	8123
807.898	8062
808.04	7894
808.182	7906
808.324	7849
808.465	7890
808.607	8058
808.749	8164
808.891	8153
809.033	8218
809.174	8145
809.316	8168
809.458	8024
809.6	7997
809.741	7982
809.883	8035
810.025	8130
810.166	8119
810.308	8005
810.45	8027
810.591	7921
810.733	7742
810.875	7696
811.016	7518
811.158	7540
811.299	7582
811.441	7772
811.582	7689
811.724	7567
811.865	7575
812.007	7552
812.148	7563
812.29	7601
812.431	7757
812.573	7837
812.714	7982
812.855	8081
812.997	8237
813.138	8282
813.279	8202
813.421	8096
813.562	8039
813.703	7909
813.845	7807
813.986	7449
814.127	7301
814.268	7228
814.41	7217
814.551	7118
814.692	7175
814.833	7069
814.974	7076
815.115	7099
815.256	6970
815.397	6947
815.539	6943
815.68	6829
815.821	6787
815.962	6897
816.103	6852
816.244	6703
816.385	6551
816.526	6612
816.666	6460
816.807	6323
816.948	6399
817.089	6422
817.23	6456
817.371	6384
817.512	6384
817.653	6342
817.793	6372
817.934	6391
818.075	6410
818.216	6403
818.356	6407
818.497	6209
818.638	6102
818.778	6129
818.919	6098
819.06	6155
819.2	6376
819.341	6350
819.481	6361
819.622	6528
819.762	6722
819.903	6768
820.043	6608
820.184	6547
820.324	6597
820.465	6650
820.605	6662
820.746	6635
820.886	6498
821.026	6707
821.167	6757
821.307	6791
821.447	6787
821.588	6677
821.728	6578
821.868	6513
822.008	6327
822.149	6372
822.289	6346
822.429	6190
822.569	6125
822.709	6106
822.849	5939
822.99	5931
823.13	5923
823.27	5912
823.41	5809
823.55	5779
823.69	5745
823.83	5775
823.97	5748
824.11	5543
824.25	5474
824.389	5611
824.529	5592
824.669	5524
824.809	5665
824.949	5657
825.089	5634
825.228	5539
825.368	5353
825.508	5360
825.648	5330
825.787	5421
825.927	5406
826.067	5292
826.206	5318
826.346	5372
826.485	5425
826.625	5353
826.765	5535
826.904	5482
827.044	5254
827.183	5170
827.323	5056
827.462	5216
827.601	5143
827.741	5143
827.88	5269
828.02	5151
828.159	5227
828.298	5307
828.437	5349
828.577	5307
828.716	5467
828.855	5330
828.994	5170
829.134	5162
829.273	5212
829.412	5083
829.551	5113
829.69	5181
829.829	5212
829.968	5357
830.107	5284
830.246	5296
830.385	5170
830.524	5143
830.663	5048
830.802	4965
830.941	4942
831.08	4896
831.219	5014
831.357	4972
831.496	5166
831.635	4904
831.774	4854
831.913	4831
832.051	4698
832.19	4706
832.329	4881
832.467	4675
832.606	4672
832.744	4733
832.883	4721
833.022	4710
833.16	4820
833.299	4816
833.437	4843
833.576	4843
833.714	4908
833.852	4908
833.991	4911
834.129	4949
834.267	4999
834.406	4915
834.544	4976
834.682	4972
834.821	4976
834.959	5174
835.097	4995
835.235	5155
835.373	5132
835.511	5090
835.65	5037
835.788	4972
835.926	4923
836.064	4896
836.202	4927
836.34	5128
836.478	5231
836.615	5136
836.753	5201
836.891	5254
837.029	5231
837.167	5166
837.305	5136
837.443	5109
837.58	5086
837.718	5273
837.856	5174
837.993	5147
838.131	5239
838.269	5185
838.406	5208
838.544	5212
838.681	5064
838.819	5006
838.956	4892
839.094	4889
839.231	4987
839.369	5102
839.506	5357
839.643	5242
839.781	5090
839.918	5010
840.055	5121
840.193	5052
840.33	5105
840.467	5136
840.604	5155
840.742	5436
840.879	5071
841.016	5079
841.153	5128
841.29	5345
841.427	5318
841.564	5326
841.701	5345
841.838	5265
841.975	5265
842.112	5303
842.249	5124
842.385	5109
842.522	5322
842.659	5124
842.796	5136
842.933	5235
843.069	5140
843.206	5174
843.343	5284
843.479	5265
843.616	5288
843.752	5048
843.889	4987
844.025	5239
844.162	5060
844.298	5231
844.435	5067
844.571	5048
844.708	5170
844.844	5311
844.98	5303
845.117	5261
845.253	5090
845.389	5033
845.525	5197
845.661	5143
845.798	4980
845.934	5147
846.07	5079
846.206	5212
846.342	5303
846.478	5174
846.614	5010
846.75	4976
846.886	4976
847.022	5136
847.158	5003
847.294	5029
847.429	5132
847.565	5025
847.701	5318
847.837	4839
847.972	4793
848.108	4927
848.244	4930
848.379	4809
848.515	4706
848.65	4675
848.786	4687
848.921	4744
849.057	4828
849.192	4858
849.328	4797
849.463	4847
849.598	4793
849.734	4763
849.869	4687
850.004	4603
850.14	4637
850.275	4622
850.41	4584
850.545	4527
850.68	4630
850.815	4634
850.95	4630
851.085	4847
851.22	4714
851.355	4611
851.49	4599
851.625	4573
851.76	4630
851.895	4558
852.03	4550
852.165	4622
852.299	4668
852.434	4767
852.569	4744
852.703	4763
852.838	4847
852.973	4889
853.107	4904
853.242	4702
853.376	4641
853.511	4577
853.645	4626
853.78	4740
853.914	4645
854.048	4645
854.183	4618
854.317	4714
854.451	4847
854.585	4649
854.72	4672
854.854	4717
854.988	4508
855.122	4653
855.256	4538
855.39	4592
855.524	4736
855.658	4698
855.792	4717
855.926	4664
856.06	4778
856.194	4805
856.327	4634
856.461	4637
856.595	4611
856.729	4615
856.862	4767
856.996	4714
857.13	4725
857.263	4759
857.397	4786
857.53	4668
857.664	4717
857.797	4759
857.931	4790
858.064	4668
858.197	4744
858.331	4618
858.464	4569
858.597	4546
858.731	4615
858.864	4656
858.997	4630
859.13	4630
859.263	4710
859.396	4656
859.529	4580
859.662	4577
859.795	4561
859.928	4645
860.061	4744
860.194	4801
860.327	4561
860.46	4577
860.592	4687
860.725	4687
860.858	4733
860.99	4573
861.123	4493
861.256	4478
861.388	4615
861.521	5242
861.653	4512
861.786	4417
861.918	4478
862.05	4478
862.183	4531
862.315	4603
862.447	4622
862.58	4577
862.712	4390
862.844	4299
862.976	4497
863.108	4459
863.24	4843
863.372	4329
863.504	4428
863.636	4379
863.768	4504
863.9	4455
864.032	4386
864.164	4398
864.296	4455
864.428	4516
864.559	4538
864.691	4527
864.823	4485
864.954	4504
865.086	4497
865.217	4504
865.349	4436
865.48	4394
865.612	4493
865.743	4592
865.875	4451
866.006	4405
866.137	4447
866.269	4417
866.4	4405
866.531	4417
866.662	4417
866.793	4386
866.924	4421
867.055	4516
867.186	4485
867.317	4371
867.448	4375
867.579	4413
867.71	4367
867.841	4390
867.972	4455
868.103	4516
868.233	4394
868.364	4440
868.495	4516
868.625	4641
868.756	4736
868.886	4554
869.017	4569
869.147	4771
869.278	4733
869.408	4687
869.539	4641
869.669	4687
869.799	4664
869.929	4725
870.06	4679
870.19	4930
870.32	4904
870.45	4877
870.58	4965
870.71	5060
870.84	5071
870.97	4949
871.1	4892
871.23	5102
871.36	5109
871.489	5006
871.619	5052
871.749	5067
871.879	5132
872.008	5166
872.138	5041
872.267	5006
872.397	4858
872.526	4805
872.656	4702
872.785	4782
872.915	4957
873.044	5022
873.173	4965
873.303	4957
873.432	4873
873.561	4927
873.69	4854
873.819	4854
873.948	4934
874.077	4824
874.206	4736
874.335	4816
874.464	4889
874.593	5025
874.722	4900
874.851	5067
874.979	5056
875.108	5041
875.237	4896
875.365	4900
875.494	4877
875.623	4889
875.751	4843
875.88	4870
876.008	4934
876.136	5037
876.265	5174
876.393	5303
876.521	5227
876.65	5181
876.778	5155
876.906	5022
877.034	5022
877.162	5075
877.29	4984
877.418	5003
877.546	5003
877.674	5052
877.802	5025
877.93	5025
878.058	4919
878.185	4866
878.313	4919
878.441	4942
878.568	4805
878.696	4862
878.824	4946
878.951	4972
879.079	5113
879.206	5296
879.333	5083
879.461	4900
879.588	5025
879.715	5151
879.842	5166
879.97	4987
880.097	4744
880.224	4706
880.351	4774
880.478	4850
880.605	4782
880.732	4790
880.859	5037
880.986	4889
881.112	4889
881.239	4774
881.366	4687
881.493	4599
881.619	4607
881.746	4637
881.872	4622
881.999	4672
882.125	4634
882.252	4816
882.378	4816
882.505	4961
882.631	4744
882.757	4668
882.883	4717
883.01	4710
883.136	4634
883.262	4584
883.388	4569
883.514	4812
883.64	4885
883.766	4763
883.892	4618
884.018	4668
884.143	4896
884.269	4995
884.395	4679
884.52	4611
884.646	4618
884.772	4565
884.897	4592
885.023	4668
885.148	4782
885.274	4873
885.399	4786
885.524	4694
885.65	4706
885.775	4702
885.9	4672
886.025	4820
886.15	4801
886.275	4683
886.4	4691
886.525	4694
886.65	4630
886.775	4710
886.9	4885
887.025	5041
887.149	4801
887.274	4675
887.399	4561
887.523	4596
887.648	4561
887.773	4569
887.897	4729
888.021	4797
888.146	4649
888.27	4763
888.395	4885
888.519	4752
888.643	4774
888.767	4835
888.891	4656
889.015	4596
889.139	4641
889.263	4599
889.387	4721
889.511	4866
889.635	4801
889.759	4615
889.883	4603
890.006	4729
890.13	4809
890.254	4653
890.377	4649
890.501	4580
890.624	4558
890.748	4599
890.871	4516
890.995	4443
891.118	4360
891.241	4474
891.364	4550
891.488	4645
891.611	4481
891.734	4546
891.857	4584
891.98	4519
892.103	4634
892.226	4596
892.349	4516
892.471	4421
892.594	4554
892.717	4573
892.839	4592
892.962	4561
893.085	4630
893.207	4580
893.33	4443
893.452	4504
893.575	4656
893.697	4527
893.819	4793
893.941	4850
894.064	4717
894.186	4577
894.308	4527
894.43	4675
894.552	4797
894.674	4721
894.796	4512
894.918	4550
895.04	4554
895.161	4725
895.283	4607
895.405	4558
895.526	4634
895.648	4634
895.769	4714
895.891	4672
896.012	4774
896.134	4736
896.255	4641
896.376	4603
896.498	4542
896.619	4641
896.74	4573
896.861	4618
896.982	4911
897.103	5018
897.224	4816
897.345	4748
897.466	4607
897.587	4702
897.708	4885
897.828	4782
897.949	4656
898.07	4565
898.19	4626
898.311	4812
898.431	4630
898.552	4748
898.672	4763
898.792	4748
898.913	4736
899.033	4656
899.153	4538
899.273	4432
899.393	4489
899.513	4523
899.633	4481
899.753	4546
899.873	4535
899.993	4561
900.113	4508
900.232	4527
900.352	4497
900.472	4474
900.591	4390
900.711	4504
900.83	4436
900.95	4561
901.069	4630
901.189	4512
901.308	4383
901.427	4303
901.546	4367
901.665	4481
901.784	4485
901.904	4405
902.023	4371
902.141	4150
902.26	4173
902.379	4291
902.498	4230
902.617	4204
902.735	4318
902.854	4383
902.973	4306
903.091	4169
903.21	4196
903.328	4303
903.446	4246
903.565	4268
903.683	4360
903.801	4322
903.919	4383
904.038	4436
904.156	4303
904.274	4390
904.392	4402
904.51	4398
904.627	4485
904.745	4569
904.863	4649
904.981	4409
905.098	4284
905.216	4348
905.334	4462
905.451	4455
905.569	4402
905.686	4603
905.803	4588
905.921	4394
906.038	4569
906.155	4485
906.272	4405
906.389	4390
906.506	4318
906.623	4375
906.74	4421
906.857	4265
906.974	4329
907.091	4577
907.208	4645
907.324	4634
907.441	4455
907.557	4314
907.674	4310
907.79	4295
907.907	4375
908.023	4489
908.139	4497
908.256	4424
908.372	4432
908.488	4459
908.604	4337
908.72	4341
908.836	4348
908.952	4333
909.068	4371
909.184	4558
909.3	4497
909.415	4599
909.531	4577
909.647	4344
909.762	4398
909.878	4371
909.993	4421
910.108	4386
910.224	4379
910.339	4443
910.454	4398
910.57	4360
910.685	4318
910.8	4607
910.915	4538
911.03	4508
911.145	4303
911.259	4310
911.374	4333
911.489	4261
911.604	4234
911.718	4169
911.833	4192
911.947	4078
912.062	3968
912.176	4211
912.291	4227
912.405	4185
912.519	4462
912.633	4508
912.748	4405
912.862	4276
912.976	4242
913.09	4101
913.204	4207
913.318	4219
913.431	4322
913.545	4352
913.659	4447
913.772	4352
913.886	4234
914	4200
914.113	4386
914.226	4455
914.34	4375
914.453	4246
914.566	4421
914.68	4306
914.793	4314
914.906	4147
915.019	4109
915.132	4078
915.245	4166
915.358	4200
915.47	4215
915.583	4276
915.696	4318
915.809	4409
915.921	4421
916.034	4234
916.146	4246
916.259	4215
916.371	4375
916.483	4371
916.595	4268
916.708	4356
916.82	4318
916.932	4306
917.044	4314
917.156	4325
917.268	4242
917.38	4310
917.491	4253
917.603	4303
917.715	4459
917.826	4405
917.938	4344
918.049	4192
918.161	4367
918.272	4531
918.384	4550
918.495	4421
918.606	4276
918.717	4291
918.828	4295
918.939	4341
919.05	4192
919.161	4375
919.272	4139
919.383	4211
919.494	4383
919.604	4626
919.715	4432
919.826	4367
919.936	4405
920.047	4535
920.157	4462
920.267	4645
920.378	4584
920.488	4478
920.598	4729
920.708	4889
920.818	4790
920.928	4740
921.038	4934
921.148	4923
921.258	4668
921.368	4554
921.477	4466
921.587	4459
921.697	4348
921.806	4523
921.916	4405
922.025	4261
922.134	4242
922.244	4230
922.353	4341
922.462	4200
922.571	4143
922.68	3991
922.789	3987
922.898	4036
923.007	3991
923.116	4101
923.224	4093
923.333	4051
923.442	4006
923.55	3987
923.659	4059
923.767	4082
923.876	3979
923.984	4105
924.092	3983
924.201	4048
924.309	4105
924.417	4105
924.525	4029
924.633	4074
924.741	5056
924.849	3934
924.956	4112
925.064	3979
925.172	3873
925.279	3911
925.387	4051
925.494	4013
925.602	4188
925.709	4181
925.816	4025
925.924	4135
926.031	4230
926.138	4162
926.245	4200
926.352	4124
926.459	4272
926.566	4261
926.673	4147
926.779	4105
926.886	4105
926.993	3964
927.099	3975
927.206	3949
927.312	3915
927.419	4032
927.525	4029
927.631	4086
927.737	3934
927.843	3975
927.95	3835
928.056	3922
928.162	4010
928.267	4067
928.373	4634
928.479	4116
928.585	3854
928.69	4025
928.796	4074
928.901	3968
929.007	3884
929.112	4025
929.218	3983
929.323	3949
929.428	3930
929.533	4071
929.638	3934
929.743	3972
929.848	4044
929.953	3975
930.058	3941
930.163	3789
930.267	3876
930.372	3991
930.477	3808
930.581	4082
930.685	3945
930.79	3827
930.894	3838
930.998	3854
931.103	4071
931.207	3679
931.311	3701
931.415	3648
931.519	3496
931.623	3507
