Data from test_V78500241_2614.txt Node
Date: Fri Mar 25 17:07:10 CST 2022
User: usil
Spectrometer: V785-0024
Trigger mode: 0
Integration Time (sec): 4.000000E-1
Scans to average: 1
Nonlinearity correction enabled: false
Boxcar width: 0
Storing dark spectrum: false
XAxis mode: Wavelengths
Number of Pixels in Spectrum: 1024
>>>>>Begin Spectral Data<<<<<
801.071	8058
801.214	8084
801.356	7833
801.499	7776
801.641	7792
801.783	7845
801.926	7955
802.068	7932
802.211	8012
802.353	8039
802.496	7913
802.638	7947
802.78	7898
802.923	7955
803.065	7890
803.208	7890
803.35	8058
803.492	8119
803.635	8195
803.777	8119
803.919	8065
804.061	8431
804.204	8107
804.346	8001
804.488	7909
804.63	8050
804.773	8016
804.915	8096
805.057	8366
805.199	8111
805.341	8229
805.483	8248
805.626	8286
805.768	8180
805.91	8172
806.052	8237
806.194	8100
806.336	8305
806.478	8126
806.62	8119
806.762	8123
806.904	8229
807.046	8461
807.188	8412
807.33	8313
807.472	8237
807.614	8172
807.756	8172
807.898	7963
808.04	7856
808.182	7841
808.324	7856
808.465	7906
808.607	8107
808.749	8115
808.891	8172
809.033	8294
809.174	8145
809.316	8058
809.458	8084
809.6	7993
809.741	7963
809.883	8081
810.025	8134
810.166	8111
810.308	8012
810.45	8005
810.591	7879
810.733	7734
810.875	7670
811.016	7563
811.158	7419
811.299	7518
811.441	7746
811.582	7746
811.724	7590
811.865	7537
812.007	7594
812.148	7613
812.29	7639
812.431	7769
812.573	7906
812.714	8035
812.855	8100
812.997	8164
813.138	8324
813.279	8168
813.421	8065
813.562	8001
813.703	7814
813.845	7780
813.986	7453
814.127	7259
814.268	7194
814.41	7221
814.551	7118
814.692	7187
814.833	7129
814.974	7107
815.115	7164
815.256	6954
815.397	6954
815.539	6970
815.68	6844
815.821	6810
815.962	6867
816.103	6829
816.244	6711
816.385	6589
816.526	6604
816.666	6475
816.807	6384
816.948	6437
817.089	6483
817.23	6429
817.371	6422
817.512	6365
817.653	6365
817.793	6372
817.934	6418
818.075	6486
818.216	6445
818.356	6395
818.497	6213
818.638	6167
818.778	6163
818.919	6136
819.06	6106
819.2	6327
819.341	6350
819.481	6353
819.622	6528
819.762	6715
819.903	6696
820.043	6639
820.184	6525
820.324	6559
820.465	6768
820.605	6730
820.746	6665
820.886	6532
821.026	6700
821.167	6791
821.307	6814
821.447	6783
821.588	6745
821.728	6604
821.868	6517
822.008	6331
822.149	6395
822.289	6380
822.429	6136
822.569	6125
822.709	6152
822.849	5965
822.99	5942
823.13	5954
823.27	5931
823.41	5851
823.55	5775
823.69	5760
823.83	5847
823.97	5726
824.11	5539
824.25	5524
824.389	5615
824.529	5649
824.669	5589
824.809	5680
824.949	5714
825.089	5668
825.228	5592
825.368	5455
825.508	5387
825.648	5417
825.787	5474
825.927	5402
826.067	5349
826.206	5341
826.346	5425
826.485	5459
826.625	5452
826.765	5570
826.904	5532
827.044	5315
827.183	5227
827.323	5170
827.462	5258
827.601	5162
827.741	5220
827.88	5254
828.02	5185
828.159	5261
828.298	5337
828.437	5387
828.577	5299
828.716	5463
828.855	5345
828.994	5254
829.134	5170
829.273	5212
829.412	5155
829.551	5193
829.69	5220
829.829	5265
829.968	5379
830.107	5280
830.246	5318
830.385	5220
830.524	5162
830.663	5113
830.802	4976
830.941	4949
831.08	4923
831.219	5003
831.357	5045
831.496	5136
831.635	4987
831.774	4873
831.913	4866
832.051	4774
832.19	4786
832.329	4843
832.467	4748
832.606	4714
832.744	4721
832.883	4744
833.022	4736
833.16	4809
833.299	4835
833.437	4847
833.576	4877
833.714	4835
833.852	4927
833.991	4930
834.129	5018
834.267	4957
834.406	4919
834.544	4995
834.682	4980
834.821	5037
834.959	5181
835.097	5022
835.235	5174
835.373	5162
835.511	5201
835.65	5067
835.788	5083
835.926	4923
836.064	4911
836.202	4968
836.34	5212
836.478	5277
836.615	5212
836.753	5254
836.891	5311
837.029	5246
837.167	5231
837.305	5216
837.443	5189
837.58	5166
837.718	5299
837.856	5201
837.993	5159
838.131	5261
838.269	5208
838.406	5280
838.544	5231
838.681	5117
838.819	5045
838.956	4900
839.094	4923
839.231	5045
839.369	5143
839.506	5459
839.643	5284
839.781	5083
839.918	4987
840.055	5132
840.193	5128
840.33	5117
840.467	5174
840.604	5265
840.742	5398
840.879	5094
841.016	5136
841.153	5147
841.29	5395
841.427	5379
841.564	5376
841.701	5353
841.838	5360
841.975	5227
842.112	5284
842.249	5151
842.385	5132
842.522	5406
842.659	5185
842.796	5208
842.933	5227
843.069	5140
843.206	5189
843.343	5372
843.479	5250
843.616	5311
843.752	5090
843.889	5025
844.025	5246
844.162	5045
844.298	5208
844.435	5117
844.571	5098
844.708	5250
844.844	5391
844.98	5330
845.117	5330
845.253	5143
845.389	5086
845.525	5181
845.661	5166
845.798	5056
845.934	5159
846.07	5105
846.206	5254
846.342	5345
846.478	5197
846.614	5109
846.75	5018
846.886	4984
847.022	5201
847.158	5048
847.294	5090
847.429	5128
847.565	5075
847.701	5334
847.837	4927
847.972	4862
848.108	5006
848.244	5022
848.379	4828
848.515	4782
848.65	4771
848.786	4767
848.921	4797
849.057	4892
849.192	4938
849.328	4835
849.463	4908
849.598	4797
849.734	4816
849.869	4679
850.004	4645
850.14	4710
850.275	4634
850.41	4546
850.545	4588
850.68	4679
850.815	4679
850.95	4630
851.085	4873
851.22	4755
851.355	4721
851.49	4683
851.625	4668
851.76	4664
851.895	4584
852.03	4584
852.165	4729
852.299	4771
852.434	4805
852.569	4801
852.703	4839
852.838	4847
852.973	4965
853.107	4927
853.242	4778
853.376	4740
853.511	4569
853.645	4630
853.78	4900
853.914	4717
854.048	4683
854.183	4683
854.317	4752
854.451	4911
854.585	4717
854.72	4637
854.854	4793
854.988	4626
855.122	4683
855.256	4577
855.39	4710
855.524	4797
855.658	4771
855.792	4763
855.926	4755
856.06	4790
856.194	4873
856.327	4729
856.461	4596
856.595	4637
856.729	4649
856.862	4797
856.996	4717
857.13	4748
857.263	4831
857.397	4809
857.53	4675
857.664	4763
857.797	4778
857.931	4812
858.064	4759
858.197	4778
858.331	4660
858.464	4584
858.597	4546
858.731	4656
858.864	4660
858.997	4626
859.13	4740
859.263	4668
859.396	4721
859.529	4615
859.662	4622
859.795	4584
859.928	4668
860.061	4828
860.194	4774
860.327	4630
860.46	4607
860.592	4725
860.725	4771
860.858	4767
860.99	4554
861.123	4554
861.256	4546
861.388	4615
861.521	5455
861.653	4516
861.786	4474
861.918	4485
862.05	4531
862.183	4584
862.315	4588
862.447	4694
862.58	4554
862.712	4405
862.844	4314
862.976	4474
863.108	4489
863.24	4767
863.372	4337
863.504	4428
863.636	4428
863.768	4523
863.9	4489
864.032	4398
864.164	4432
864.296	4519
864.428	4561
864.559	4592
864.691	4584
864.823	4577
864.954	4512
865.086	4558
865.217	4485
865.349	4413
865.48	4489
865.612	4546
865.743	4687
865.875	4466
866.006	4451
866.137	4512
866.269	4432
866.4	4455
866.531	4474
866.662	4455
866.793	4409
866.924	4443
867.055	4451
867.186	4493
867.317	4413
867.448	4352
867.579	4413
867.71	4478
867.841	4352
867.972	4508
868.103	4440
868.233	4481
868.364	4413
868.495	4538
868.625	4679
868.756	4763
868.886	4550
869.017	4599
869.147	4744
869.278	4805
869.408	4649
869.539	4683
869.669	4725
869.799	4706
869.929	4790
870.06	4763
870.19	4968
870.32	4915
870.45	4911
870.58	5048
870.71	5109
870.84	5105
870.97	4987
871.1	4930
871.23	5155
871.36	5185
871.489	5071
871.619	5083
871.749	5128
871.879	5132
872.008	5189
872.138	5079
872.267	5006
872.397	4877
872.526	4805
872.656	4729
872.785	4801
872.915	4908
873.044	5083
873.173	4957
873.303	4991
873.432	4984
873.561	4984
873.69	4889
873.819	4881
873.948	4942
874.077	4858
874.206	4793
874.335	4835
874.464	4999
874.593	5060
874.722	4987
874.851	5121
874.979	5113
875.108	5033
875.237	4938
875.365	4915
875.494	4923
875.623	4991
875.751	4854
875.88	4885
876.008	4968
876.136	5064
876.265	5231
876.393	5357
876.521	5330
876.65	5220
876.778	5178
876.906	5113
877.034	5067
877.162	5045
877.29	5014
877.418	5086
877.546	5109
877.674	5064
877.802	5010
877.93	5018
878.058	4934
878.185	4942
878.313	4999
878.441	4980
878.568	4831
878.696	4953
878.824	5025
878.951	4991
879.079	5197
879.206	5357
879.333	5102
879.461	5025
879.588	4999
879.715	5121
879.842	5246
879.97	5056
880.097	4835
880.224	4733
880.351	4854
880.478	4828
880.605	4790
880.732	4771
880.859	5090
880.986	4949
881.112	4892
881.239	4824
881.366	4687
881.493	4660
881.619	4596
881.746	4717
881.872	4694
881.999	4660
882.125	4714
882.252	4774
882.378	4824
882.505	4976
882.631	4839
882.757	4687
882.883	4782
883.01	4748
883.136	4706
883.262	4637
883.388	4664
883.514	4793
883.64	4839
883.766	4835
883.892	4687
884.018	4694
884.143	4892
884.269	5045
884.395	4675
884.52	4653
884.646	4660
884.772	4596
884.897	4554
885.023	4706
885.148	4793
885.274	4847
885.399	4885
885.524	4763
885.65	4733
885.775	4744
885.9	4733
886.025	4858
886.15	4801
886.275	4714
886.4	4702
886.525	4778
886.65	4698
886.775	4710
886.9	4930
887.025	5067
887.149	4850
887.274	4698
887.399	4622
887.523	4611
887.648	4577
887.773	4584
887.897	4786
888.021	4793
888.146	4664
888.27	4824
888.395	4961
888.519	4831
888.643	4870
888.767	4843
888.891	4702
889.015	4565
889.139	4691
889.263	4596
889.387	4774
889.511	4870
889.635	4820
889.759	4672
889.883	4656
890.006	4710
890.13	4843
890.254	4645
890.377	4679
890.501	4565
890.624	4531
890.748	4668
890.871	4554
890.995	4413
891.118	4398
891.241	4512
891.364	4546
891.488	4656
891.611	4516
891.734	4577
891.857	4592
891.98	4599
892.103	4675
892.226	4599
892.349	4531
892.471	4455
892.594	4538
892.717	4615
892.839	4618
892.962	4611
893.085	4660
893.207	4634
893.33	4500
893.452	4523
893.575	4717
893.697	4599
893.819	4828
893.941	4828
894.064	4755
894.186	4615
894.308	4596
894.43	4774
894.552	4843
894.674	4782
894.796	4573
894.918	4565
895.04	4641
895.161	4733
895.283	4622
895.405	4550
895.526	4660
895.648	4729
895.769	4744
895.891	4721
896.012	4729
896.134	4733
896.255	4683
896.376	4641
896.498	4599
896.619	4706
896.74	4649
896.861	4702
896.982	4915
897.103	5083
897.224	4801
897.345	4816
897.466	4714
897.587	4752
897.708	4866
897.828	4824
897.949	4675
898.07	4580
898.19	4649
898.311	4820
898.431	4660
898.552	4710
898.672	4809
898.792	4786
898.913	4725
899.033	4634
899.153	4565
899.273	4440
899.393	4504
899.513	4519
899.633	4504
899.753	4527
899.873	4535
899.993	4618
900.113	4546
900.232	4615
900.352	4565
900.472	4508
900.591	4432
900.711	4504
900.83	4432
900.95	4691
901.069	4714
901.189	4527
901.308	4356
901.427	4314
901.546	4394
901.665	4466
901.784	4516
901.904	4436
902.023	4329
902.141	4196
902.26	4135
902.379	4322
902.498	4242
902.617	4215
902.735	4356
902.854	4363
902.973	4348
903.091	4238
903.21	4227
903.328	4272
903.446	4276
903.565	4246
903.683	4383
903.801	4299
903.919	4367
904.038	4459
904.156	4318
904.274	4443
904.392	4428
904.51	4447
904.627	4447
904.745	4558
904.863	4630
904.981	4405
905.098	4310
905.216	4383
905.334	4440
905.451	4481
905.569	4436
905.686	4535
905.803	4603
905.921	4371
906.038	4531
906.155	4462
906.272	4394
906.389	4428
906.506	4352
906.623	4390
906.74	4417
906.857	4306
906.974	4390
907.091	4618
907.208	4698
907.324	4577
907.441	4462
907.557	4344
907.674	4371
907.79	4333
907.907	4424
908.023	4462
908.139	4432
908.256	4459
908.372	4462
908.488	4455
908.604	4383
908.72	4341
908.836	4375
908.952	4360
909.068	4436
909.184	4622
909.3	4485
909.415	4569
909.531	4588
909.647	4432
909.762	4344
909.878	4333
909.993	4470
910.108	4394
910.224	4409
910.339	4466
910.454	4432
910.57	4337
910.685	4322
910.8	4656
910.915	4626
911.03	4512
911.145	4306
911.259	4325
911.374	4344
911.489	4265
911.604	4306
911.718	4181
911.833	4207
911.947	4109
912.062	4051
912.176	4219
912.291	4242
912.405	4242
912.519	4470
912.633	4504
912.748	4363
912.862	4333
912.976	4238
913.09	4112
913.204	4131
913.318	4276
913.431	4341
913.545	4402
913.659	4489
913.772	4371
913.886	4291
914	4276
914.113	4333
914.226	4440
914.34	4386
914.453	4211
914.566	4379
914.68	4272
914.793	4329
914.906	4200
915.019	4097
915.132	4071
915.245	4177
915.358	4215
915.47	4223
915.583	4280
915.696	4265
915.809	4409
915.921	4402
916.034	4230
916.146	4280
916.259	4234
916.371	4390
916.483	4363
916.595	4249
916.708	4306
916.82	4371
916.932	4352
917.044	4318
917.156	4299
917.268	4219
917.38	4246
917.491	4242
917.603	4379
917.715	4383
917.826	4451
917.938	4383
918.049	4204
918.161	4436
918.272	4519
918.384	4558
918.495	4470
918.606	4295
918.717	4219
918.828	4360
918.939	4394
919.05	4314
919.161	4325
919.272	4173
919.383	4200
919.494	4409
919.604	4577
919.715	4413
919.826	4363
919.936	4390
920.047	4519
920.157	4447
920.267	4710
920.378	4538
920.488	4527
920.598	4664
920.708	4911
920.818	4733
920.928	4771
921.038	4995
921.148	4870
921.258	4599
921.368	4561
921.477	4466
921.587	4447
921.697	4348
921.806	4542
921.916	4405
922.025	4295
922.134	4295
922.244	4257
922.353	4329
922.462	4181
922.571	4120
922.68	3998
922.789	3983
922.898	4044
923.007	4002
923.116	4082
923.224	4090
923.333	4063
923.442	4013
923.55	4002
923.659	4021
923.767	4082
923.876	4013
923.984	4105
924.092	3968
924.201	4067
924.309	4109
924.417	4128
924.525	4059
924.633	4139
924.741	5083
924.849	3888
924.956	4097
925.064	3953
925.172	3880
925.279	3937
925.387	4093
925.494	4067
925.602	4200
925.709	4219
925.816	4044
925.924	4147
926.031	4242
926.138	4181
926.245	4211
926.352	4082
926.459	4249
926.566	4303
926.673	4120
926.779	4097
926.886	4101
926.993	4017
927.099	3991
927.206	3949
927.312	3945
927.419	4090
927.525	4017
927.631	4101
927.737	3956
927.843	3949
927.95	3819
928.056	3941
928.162	3968
928.267	4017
928.373	4599
928.479	4139
928.585	3854
928.69	4017
928.796	4097
928.901	3983
929.007	3854
929.112	3998
929.218	3922
929.323	3945
929.428	3876
929.533	4120
929.638	3949
929.743	3979
929.848	4036
929.953	3968
930.058	3941
930.163	3812
930.267	3831
930.372	3975
930.477	3785
930.581	4078
930.685	3956
930.79	3823
930.894	3880
930.998	3854
931.103	4063
931.207	3762
931.311	3648
931.415	3671
931.519	3515
931.623	3545
