Data from test_V78500241_2211.txt Node
Date: Fri Mar 25 17:04:22 CST 2022
User: usil
Spectrometer: V785-0024
Trigger mode: 0
Integration Time (sec): 4.000000E-1
Scans to average: 1
Nonlinearity correction enabled: false
Boxcar width: 0
Storing dark spectrum: false
XAxis mode: Wavelengths
Number of Pixels in Spectrum: 1024
>>>>>Begin Spectral Data<<<<<
801.071	8031
801.214	8069
801.356	7826
801.499	7856
801.641	7769
801.783	7826
801.926	7936
802.068	8001
802.211	8031
802.353	8062
802.496	7951
802.638	7875
802.78	7875
802.923	7963
803.065	7849
803.208	7871
803.35	7951
803.492	8145
803.635	8115
803.777	8012
803.919	8180
804.061	8389
804.204	8183
804.346	8172
804.488	7982
804.63	8134
804.773	8103
804.915	8111
805.057	8275
805.199	8237
805.341	8161
805.483	8290
805.626	8199
805.768	8157
805.91	8210
806.052	8199
806.194	8096
806.336	8294
806.478	8130
806.62	8069
806.762	8130
806.904	8313
807.046	8473
807.188	8366
807.33	8320
807.472	8267
807.614	8161
807.756	8195
807.898	8062
808.04	7959
808.182	7894
808.324	7852
808.465	7932
808.607	8031
808.749	8062
808.891	8199
809.033	8358
809.174	8191
809.316	8134
809.458	8115
809.6	8027
809.741	8130
809.883	8069
810.025	8157
810.166	8103
810.308	8039
810.45	8043
810.591	7864
810.733	7693
810.875	7662
811.016	7499
811.158	7499
811.299	7601
811.441	7731
811.582	7666
811.724	7578
811.865	7487
812.007	7597
812.148	7594
812.29	7620
812.431	7792
812.573	7894
812.714	7955
812.855	8161
812.997	8191
813.138	8328
813.279	8142
813.421	8107
813.562	7955
813.703	7894
813.845	7742
813.986	7430
814.127	7293
814.268	7225
814.41	7221
814.551	7183
814.692	7228
814.833	7076
814.974	7152
815.115	7168
815.256	7050
815.397	6920
815.539	6970
815.68	6821
815.821	6833
815.962	6882
816.103	6821
816.244	6722
816.385	6662
816.526	6635
816.666	6521
816.807	6369
816.948	6464
817.089	6486
817.23	6448
817.371	6445
817.512	6361
817.653	6448
817.793	6315
817.934	6467
818.075	6441
818.216	6433
818.356	6502
818.497	6315
818.638	6190
818.778	6182
818.919	6190
819.06	6163
819.2	6350
819.341	6323
819.481	6418
819.622	6536
819.762	6768
819.903	6688
820.043	6612
820.184	6589
820.324	6601
820.465	6700
820.605	6639
820.746	6681
820.886	6532
821.026	6654
821.167	6715
821.307	6821
821.447	6787
821.588	6741
821.728	6578
821.868	6456
822.008	6350
822.149	6391
822.289	6403
822.429	6216
822.569	6022
822.709	6121
822.849	5942
822.99	5961
823.13	5897
823.27	5954
823.41	5817
823.55	5790
823.69	5783
823.83	5783
823.97	5668
824.11	5532
824.25	5524
824.389	5577
824.529	5615
824.669	5512
824.809	5642
824.949	5703
825.089	5615
825.228	5577
825.368	5414
825.508	5345
825.648	5337
825.787	5349
825.927	5376
826.067	5330
826.206	5284
826.346	5379
826.485	5387
826.625	5436
826.765	5543
826.904	5509
827.044	5288
827.183	5170
827.323	5174
827.462	5254
827.601	5185
827.741	5155
827.88	5265
828.02	5117
828.159	5235
828.298	5349
828.437	5379
828.577	5292
828.716	5505
828.855	5337
828.994	5170
829.134	5147
829.273	5197
829.412	5178
829.551	5140
829.69	5201
829.829	5216
829.968	5379
830.107	5273
830.246	5357
830.385	5204
830.524	5117
830.663	5075
830.802	4965
830.941	4919
831.08	4900
831.219	4968
831.357	4976
831.496	5178
831.635	4927
831.774	4904
831.913	4885
832.051	4767
832.19	4790
832.329	4866
832.467	4714
832.606	4660
832.744	4706
832.883	4755
833.022	4733
833.16	4782
833.299	4744
833.437	4812
833.576	4850
833.714	4911
833.852	4885
833.991	4881
834.129	4961
834.267	4957
834.406	4877
834.544	4946
834.682	5014
834.821	4984
834.959	5128
835.097	5014
835.235	5121
835.373	5079
835.511	5105
835.65	4984
835.788	5018
835.926	4904
836.064	4877
836.202	4927
836.34	5193
836.478	5216
836.615	5102
836.753	5246
836.891	5296
837.029	5242
837.167	5223
837.305	5155
837.443	5162
837.58	5090
837.718	5258
837.856	5143
837.993	5208
838.131	5258
838.269	5197
838.406	5178
838.544	5155
838.681	5003
838.819	5014
838.956	4881
839.094	4934
839.231	4976
839.369	5064
839.506	5467
839.643	5269
839.781	5052
839.918	5022
840.055	5128
840.193	5132
840.33	5060
840.467	5113
840.604	5181
840.742	5455
840.879	5098
841.016	5159
841.153	5155
841.29	5379
841.427	5360
841.564	5391
841.701	5330
841.838	5284
841.975	5296
842.112	5258
842.249	5258
842.385	5147
842.522	5341
842.659	5166
842.796	5155
842.933	5208
843.069	5181
843.206	5178
843.343	5345
843.479	5254
843.616	5254
843.752	4991
843.889	5052
844.025	5242
844.162	5033
844.298	5242
844.435	5075
844.571	5010
844.708	5151
844.844	5315
844.98	5330
845.117	5303
845.253	5143
845.389	5064
845.525	5147
845.661	5113
845.798	5014
845.934	5143
846.07	5083
846.206	5193
846.342	5280
846.478	5246
846.614	5056
846.75	4984
846.886	4919
847.022	5151
847.158	4972
847.294	5075
847.429	5155
847.565	5075
847.701	5318
847.837	4919
847.972	4843
848.108	4984
848.244	4915
848.379	4786
848.515	4710
848.65	4691
848.786	4694
848.921	4767
849.057	4881
849.192	4892
849.328	4816
849.463	4862
849.598	4797
849.734	4740
849.869	4748
850.004	4641
850.14	4672
850.275	4618
850.41	4516
850.545	4596
850.68	4577
850.815	4603
850.95	4641
851.085	4881
851.22	4755
851.355	4653
851.49	4626
851.625	4592
851.76	4634
851.895	4531
852.03	4531
852.165	4668
852.299	4721
852.434	4831
852.569	4759
852.703	4793
852.838	4839
852.973	4904
853.107	4911
853.242	4752
853.376	4675
853.511	4580
853.645	4656
853.78	4847
853.914	4763
854.048	4675
854.183	4645
854.317	4778
854.451	4850
854.585	4717
854.72	4618
854.854	4755
854.988	4596
855.122	4637
855.256	4538
855.39	4698
855.524	4797
855.658	4725
855.792	4710
855.926	4767
856.06	4771
856.194	4748
856.327	4702
856.461	4641
856.595	4592
856.729	4611
856.862	4778
856.996	4725
857.13	4755
857.263	4748
857.397	4812
857.53	4645
857.664	4702
857.797	4752
857.931	4778
858.064	4694
858.197	4767
858.331	4653
858.464	4645
858.597	4535
858.731	4603
858.864	4668
858.997	4554
859.13	4630
859.263	4675
859.396	4725
859.529	4596
859.662	4592
859.795	4485
859.928	4611
860.061	4740
860.194	4767
860.327	4649
860.46	4569
860.592	4706
860.725	4717
860.858	4744
860.99	4561
861.123	4542
861.256	4561
861.388	4645
861.521	5254
861.653	4447
861.786	4432
861.918	4436
862.05	4485
862.183	4569
862.315	4637
862.447	4653
862.58	4527
862.712	4455
862.844	4363
862.976	4432
863.108	4474
863.24	4816
863.372	4367
863.504	4424
863.636	4402
863.768	4504
863.9	4405
864.032	4363
864.164	4394
864.296	4459
864.428	4550
864.559	4580
864.691	4523
864.823	4527
864.954	4455
865.086	4504
865.217	4481
865.349	4405
865.48	4478
865.612	4455
865.743	4626
865.875	4500
866.006	4455
866.137	4451
866.269	4428
866.4	4424
866.531	4443
866.662	4443
866.793	4386
866.924	4394
867.055	4565
867.186	4409
867.317	4383
867.448	4367
867.579	4398
867.71	4367
867.841	4398
867.972	4485
868.103	4421
868.233	4428
868.364	4428
868.495	4485
868.625	4687
868.756	4778
868.886	4577
869.017	4622
869.147	4782
869.278	4774
869.408	4660
869.539	4656
869.669	4733
869.799	4618
869.929	4786
870.06	4736
870.19	4934
870.32	4919
870.45	4957
870.58	5048
870.71	5128
870.84	5071
870.97	4953
871.1	4870
871.23	5117
871.36	5121
871.489	5022
871.619	5098
871.749	5071
871.879	5143
872.008	5189
872.138	5067
872.267	5018
872.397	4858
872.526	4805
872.656	4717
872.785	4782
872.915	4976
873.044	5003
873.173	4923
873.303	4877
873.432	4980
873.561	4938
873.69	4923
873.819	4850
873.948	4870
874.077	4820
874.206	4729
874.335	4828
874.464	4904
874.593	5033
874.722	4949
874.851	5079
874.979	5083
875.108	5022
875.237	4904
875.365	4881
875.494	4831
875.623	4984
875.751	4850
875.88	4850
876.008	4965
876.136	5048
876.265	5208
876.393	5349
876.521	5299
876.65	5258
876.778	5174
876.906	5105
877.034	5048
877.162	5052
877.29	5048
877.418	5064
877.546	5064
877.674	5083
877.802	5029
877.93	5064
878.058	4942
878.185	4862
878.313	4991
878.441	4915
878.568	4771
878.696	4881
878.824	4976
878.951	4999
879.079	5109
879.206	5250
879.333	5143
879.461	4938
879.588	4972
879.715	5151
879.842	5170
879.97	5033
880.097	4771
880.224	4755
880.351	4809
880.478	4828
880.605	4797
880.732	4824
880.859	4991
880.986	4900
881.112	4919
881.239	4748
881.366	4672
881.493	4603
881.619	4618
881.746	4630
881.872	4611
881.999	4611
882.125	4675
882.252	4831
882.378	4805
882.505	4976
882.631	4790
882.757	4641
882.883	4755
883.01	4683
883.136	4672
883.262	4599
883.388	4611
883.514	4801
883.64	4850
883.766	4805
883.892	4649
884.018	4702
884.143	4877
884.269	5029
884.395	4706
884.52	4592
884.646	4679
884.772	4580
884.897	4558
885.023	4645
885.148	4805
885.274	4850
885.399	4774
885.524	4733
885.65	4733
885.775	4767
885.9	4744
886.025	4858
886.15	4763
886.275	4752
886.4	4618
886.525	4698
886.65	4729
886.775	4694
886.9	4904
887.025	5003
887.149	4839
887.274	4653
887.399	4565
887.523	4622
887.648	4577
887.773	4611
887.897	4790
888.021	4744
888.146	4668
888.27	4793
888.395	4896
888.519	4805
888.643	4812
888.767	4828
888.891	4710
889.015	4618
889.139	4649
889.263	4577
889.387	4736
889.511	4862
889.635	4820
889.759	4660
889.883	4660
890.006	4706
890.13	4820
890.254	4607
890.377	4668
890.501	4527
890.624	4550
890.748	4577
890.871	4504
890.995	4443
891.118	4367
891.241	4504
891.364	4542
891.488	4660
891.611	4459
891.734	4565
891.857	4561
891.98	4535
892.103	4645
892.226	4622
892.349	4489
892.471	4443
892.594	4504
892.717	4580
892.839	4577
892.962	4584
893.085	4630
893.207	4611
893.33	4371
893.452	4531
893.575	4596
893.697	4607
893.819	4786
893.941	4816
894.064	4767
894.186	4519
894.308	4596
894.43	4664
894.552	4790
894.674	4752
894.796	4481
894.918	4592
895.04	4580
895.161	4702
895.283	4656
895.405	4554
895.526	4656
895.648	4679
895.769	4729
895.891	4698
896.012	4694
896.134	4733
896.255	4679
896.376	4626
896.498	4622
896.619	4637
896.74	4577
896.861	4660
896.982	4904
897.103	5067
897.224	4805
897.345	4774
897.466	4626
897.587	4778
897.708	4831
897.828	4782
897.949	4683
898.07	4504
898.19	4626
898.311	4828
898.431	4668
898.552	4740
898.672	4835
898.792	4782
898.913	4733
899.033	4592
899.153	4558
899.273	4440
899.393	4500
899.513	4531
899.633	4523
899.753	4508
899.873	4508
899.993	4596
900.113	4523
900.232	4592
900.352	4554
900.472	4485
900.591	4379
900.711	4478
900.83	4481
900.95	4653
901.069	4675
901.189	4523
901.308	4325
901.427	4329
901.546	4413
901.665	4489
901.784	4573
901.904	4379
902.023	4341
902.141	4192
902.26	4086
902.379	4299
902.498	4188
902.617	4223
902.735	4348
902.854	4394
902.973	4348
903.091	4169
903.21	4223
903.328	4276
903.446	4207
903.565	4223
903.683	4299
903.801	4272
903.919	4394
904.038	4409
904.156	4303
904.274	4413
904.392	4424
904.51	4402
904.627	4451
904.745	4580
904.863	4653
904.981	4390
905.098	4322
905.216	4383
905.334	4398
905.451	4421
905.569	4424
905.686	4554
905.803	4580
905.921	4421
906.038	4592
906.155	4497
906.272	4375
906.389	4455
906.506	4360
906.623	4379
906.74	4417
906.857	4322
906.974	4371
907.091	4538
907.208	4634
907.324	4584
907.441	4447
907.557	4352
907.674	4303
907.79	4337
907.907	4383
908.023	4481
908.139	4462
908.256	4443
908.372	4497
908.488	4470
908.604	4383
908.72	4329
908.836	4348
908.952	4337
909.068	4405
909.184	4516
909.3	4478
909.415	4554
909.531	4527
909.647	4318
909.762	4413
909.878	4318
909.993	4398
910.108	4363
910.224	4424
910.339	4470
910.454	4405
910.57	4367
910.685	4303
910.8	4675
910.915	4577
911.03	4481
911.145	4325
911.259	4303
911.374	4394
911.489	4242
911.604	4234
911.718	4192
911.833	4166
911.947	4055
912.062	3994
912.176	4242
912.291	4196
912.405	4234
912.519	4428
912.633	4523
912.748	4398
912.862	4291
912.976	4253
913.09	4090
913.204	4181
913.318	4192
913.431	4398
913.545	4379
913.659	4440
913.772	4348
913.886	4253
914	4230
914.113	4348
914.226	4440
914.34	4417
914.453	4257
914.566	4424
914.68	4322
914.793	4314
914.906	4135
915.019	4074
915.132	4090
915.245	4124
915.358	4230
915.47	4230
915.583	4253
915.696	4246
915.809	4424
915.921	4398
916.034	4265
916.146	4185
916.259	4200
916.371	4398
916.483	4344
916.595	4253
916.708	4341
916.82	4333
916.932	4352
917.044	4344
917.156	4356
917.268	4211
917.38	4299
917.491	4265
917.603	4318
917.715	4413
917.826	4383
917.938	4318
918.049	4215
918.161	4337
918.272	4531
918.384	4523
918.495	4428
918.606	4291
918.717	4215
918.828	4344
918.939	4379
919.05	4238
919.161	4314
919.272	4147
919.383	4207
919.494	4466
919.604	4603
919.715	4417
919.826	4333
919.936	4386
920.047	4512
920.157	4527
920.267	4733
920.378	4535
920.488	4592
920.598	4668
920.708	4889
920.818	4679
920.928	4767
921.038	4930
921.148	4919
921.258	4626
921.368	4508
921.477	4516
921.587	4470
921.697	4383
921.806	4550
921.916	4440
922.025	4276
922.134	4238
922.244	4265
922.353	4329
922.462	4181
922.571	4116
922.68	4017
922.789	3968
922.898	4025
923.007	3998
923.116	4135
923.224	4086
923.333	4040
923.442	3960
923.55	3983
923.659	4002
923.767	4071
923.876	3979
923.984	4101
924.092	3991
924.201	4051
924.309	4048
924.417	4150
924.525	4021
924.633	4116
924.741	5037
924.849	3930
924.956	4128
925.064	3915
925.172	3873
925.279	3972
925.387	4048
925.494	4071
925.602	4234
925.709	4169
925.816	4025
925.924	4120
926.031	4227
926.138	4185
926.245	4242
926.352	4090
926.459	4246
926.566	4265
926.673	4150
926.779	4063
926.886	4105
926.993	3987
927.099	3953
927.206	3911
927.312	3964
927.419	4051
927.525	4040
927.631	4105
927.737	3937
927.843	3945
927.95	3819
928.056	3918
928.162	4002
928.267	4109
928.373	4649
928.479	4093
928.585	3888
928.69	4013
928.796	4078
928.901	3926
929.007	3842
929.112	3953
929.218	3987
929.323	3949
929.428	3968
929.533	4101
929.638	3934
929.743	4021
929.848	4055
929.953	4021
930.058	3918
930.163	3747
930.267	3869
930.372	3960
930.477	3842
930.581	4109
930.685	4025
930.79	3838
930.894	3861
930.998	3854
931.103	4059
931.207	3762
931.311	3728
931.415	3660
931.519	3496
931.623	3564
