Data from test_V78500241_1872.txt Node
Date: Fri Mar 25 17:02:01 CST 2022
User: usil
Spectrometer: V785-0024
Trigger mode: 0
Integration Time (sec): 4.000000E-1
Scans to average: 1
Nonlinearity correction enabled: false
Boxcar width: 0
Storing dark spectrum: false
XAxis mode: Wavelengths
Number of Pixels in Spectrum: 1024
>>>>>Begin Spectral Data<<<<<
801.071	7974
801.214	7963
801.356	7807
801.499	7818
801.641	7727
801.783	7807
801.926	7932
802.068	7852
802.211	7993
802.353	8008
802.496	7879
802.638	7814
802.78	7849
802.923	7925
803.065	7860
803.208	7837
803.35	7947
803.492	8031
803.635	8142
803.777	8084
803.919	8077
804.061	8404
804.204	8138
804.346	8115
804.488	7909
804.63	8115
804.773	8008
804.915	8119
805.057	8271
805.199	8065
805.341	8221
805.483	8275
805.626	8176
805.768	8084
805.91	8202
806.052	8317
806.194	8119
806.336	8229
806.478	8050
806.62	8046
806.762	8138
806.904	8202
807.046	8446
807.188	8309
807.33	8259
807.472	8332
807.614	8157
807.756	8119
807.898	8035
808.04	7875
808.182	7906
808.324	7830
808.465	7875
808.607	8050
808.749	8100
808.891	8176
809.033	8248
809.174	8199
809.316	8088
809.458	8119
809.6	8058
809.741	8024
809.883	8008
810.025	8065
810.166	8005
810.308	8046
810.45	7986
810.591	7799
810.733	7696
810.875	7601
811.016	7472
811.158	7449
811.299	7613
811.441	7674
811.582	7677
811.724	7537
811.865	7472
812.007	7571
812.148	7521
812.29	7594
812.431	7746
812.573	7837
812.714	8035
812.855	8062
812.997	8149
813.138	8301
813.279	8164
813.421	8065
813.562	7959
813.703	7852
813.845	7753
813.986	7449
814.127	7270
814.268	7164
814.41	7198
814.551	7236
814.692	7137
814.833	7095
814.974	7095
815.115	7069
815.256	6947
815.397	6909
815.539	6966
815.68	6798
815.821	6749
815.962	6897
816.103	6787
816.244	6707
816.385	6620
816.526	6616
816.666	6494
816.807	6315
816.948	6429
817.089	6494
817.23	6350
817.371	6365
817.512	6334
817.653	6399
817.793	6311
817.934	6353
818.075	6464
818.216	6471
818.356	6433
818.497	6243
818.638	6159
818.778	6194
818.919	6098
819.06	6102
819.2	6308
819.341	6308
819.481	6346
819.622	6521
819.762	6711
819.903	6700
820.043	6601
820.184	6559
820.324	6563
820.465	6749
820.605	6662
820.746	6631
820.886	6513
821.026	6601
821.167	6722
821.307	6734
821.447	6768
821.588	6620
821.728	6578
821.868	6544
822.008	6342
822.149	6327
822.289	6353
822.429	6171
822.569	6091
822.709	6064
822.849	5916
822.99	5923
823.13	5866
823.27	5923
823.41	5741
823.55	5798
823.69	5767
823.83	5783
823.97	5653
824.11	5551
824.25	5562
824.389	5535
824.529	5615
824.669	5543
824.809	5573
824.949	5646
825.089	5665
825.228	5551
825.368	5372
825.508	5368
825.648	5307
825.787	5398
825.927	5372
826.067	5311
826.206	5250
826.346	5425
826.485	5379
826.625	5379
826.765	5623
826.904	5482
827.044	5239
827.183	5201
827.323	5083
827.462	5189
827.601	5223
827.741	5181
827.88	5227
828.02	5121
828.159	5242
828.298	5307
828.437	5364
828.577	5258
828.716	5440
828.855	5334
828.994	5121
829.134	5113
829.273	5155
829.412	5105
829.551	5159
829.69	5201
829.829	5212
829.968	5345
830.107	5231
830.246	5265
830.385	5147
830.524	5128
830.663	5079
830.802	4984
830.941	4866
831.08	4885
831.219	4957
831.357	4927
831.496	5155
831.635	4938
831.774	4854
831.913	4824
832.051	4679
832.19	4706
832.329	4839
832.467	4607
832.606	4618
832.744	4714
832.883	4736
833.022	4736
833.16	4752
833.299	4824
833.437	4854
833.576	4793
833.714	4854
833.852	4835
833.991	4858
834.129	4934
834.267	4919
834.406	4885
834.544	4980
834.682	4953
834.821	5010
834.959	5132
835.097	5025
835.235	5178
835.373	5064
835.511	5052
835.65	5018
835.788	5029
835.926	4854
836.064	4892
836.202	4923
836.34	5132
836.478	5227
836.615	5151
836.753	5231
836.891	5254
837.029	5220
837.167	5246
837.305	5147
837.443	5143
837.58	5083
837.718	5250
837.856	5170
837.993	5098
838.131	5231
838.269	5102
838.406	5162
838.544	5193
838.681	4999
838.819	4995
838.956	4919
839.094	4839
839.231	4946
839.369	5025
839.506	5406
839.643	5265
839.781	5064
839.918	5048
840.055	5083
840.193	5079
840.33	5117
840.467	5170
840.604	5178
840.742	5429
840.879	5090
841.016	5117
841.153	5189
841.29	5372
841.427	5303
841.564	5296
841.701	5337
841.838	5258
841.975	5208
842.112	5220
842.249	5128
842.385	5083
842.522	5318
842.659	5117
842.796	5185
842.933	5166
843.069	5174
843.206	5166
843.343	5307
843.479	5216
843.616	5296
843.752	5010
843.889	4915
844.025	5193
844.162	5025
844.298	5242
844.435	5121
844.571	5014
844.708	5170
844.844	5288
844.98	5330
845.117	5250
845.253	5132
845.389	5041
845.525	5204
845.661	5102
845.798	5094
845.934	5124
846.07	5052
846.206	5185
846.342	5292
846.478	5185
846.614	4968
846.75	4915
846.886	4923
847.022	5136
847.158	5022
847.294	5060
847.429	5060
847.565	4995
847.701	5322
847.837	4835
847.972	4786
848.108	4980
848.244	4900
848.379	4790
848.515	4694
848.65	4721
848.786	4733
848.921	4763
849.057	4828
849.192	4831
849.328	4843
849.463	4767
849.598	4717
849.734	4740
849.869	4664
850.004	4603
850.14	4672
850.275	4592
850.41	4558
850.545	4512
850.68	4615
850.815	4622
850.95	4630
851.085	4824
851.22	4706
851.355	4615
851.49	4607
851.625	4554
851.76	4603
851.895	4577
852.03	4493
852.165	4626
852.299	4714
852.434	4774
852.569	4721
852.703	4752
852.838	4812
852.973	4930
853.107	4965
853.242	4717
853.376	4672
853.511	4573
853.645	4615
853.78	4797
853.914	4656
854.048	4649
854.183	4653
854.317	4721
854.451	4782
854.585	4649
854.72	4656
854.854	4740
854.988	4596
855.122	4649
855.256	4478
855.39	4679
855.524	4748
855.658	4675
855.792	4717
855.926	4687
856.06	4786
856.194	4812
856.327	4717
856.461	4603
856.595	4615
856.729	4653
856.862	4691
856.996	4649
857.13	4691
857.263	4748
857.397	4786
857.53	4641
857.664	4656
857.797	4752
857.931	4740
858.064	4645
858.197	4744
858.331	4630
858.464	4596
858.597	4512
858.731	4622
858.864	4634
858.997	4558
859.13	4664
859.263	4660
859.396	4679
859.529	4535
859.662	4542
859.795	4516
859.928	4615
860.061	4710
860.194	4740
860.327	4554
860.46	4550
860.592	4679
860.725	4733
860.858	4729
860.99	4546
861.123	4519
861.256	4523
861.388	4603
861.521	5364
861.653	4428
861.786	4409
861.918	4455
862.05	4531
862.183	4508
862.315	4592
862.447	4607
862.58	4535
862.712	4390
862.844	4352
862.976	4489
863.108	4409
863.24	4889
863.372	4356
863.504	4371
863.636	4405
863.768	4436
863.9	4440
864.032	4360
864.164	4398
864.296	4466
864.428	4523
864.559	4592
864.691	4527
864.823	4519
864.954	4485
865.086	4500
865.217	4440
865.349	4379
865.48	4489
865.612	4481
865.743	4626
865.875	4478
866.006	4462
866.137	4489
866.269	4436
866.4	4462
866.531	4466
866.662	4413
866.793	4405
866.924	4443
867.055	4504
867.186	4455
867.317	4447
867.448	4363
867.579	4424
867.71	4398
867.841	4428
867.972	4508
868.103	4478
868.233	4474
868.364	4504
868.495	4523
868.625	4668
868.756	4816
868.886	4592
869.017	4615
869.147	4759
869.278	4748
869.408	4698
869.539	4740
869.669	4790
869.799	4698
869.929	4778
870.06	4782
870.19	4923
870.32	4980
870.45	4911
870.58	5010
870.71	5132
870.84	5098
870.97	4968
871.1	4919
871.23	5201
871.36	5170
871.489	5037
871.619	5147
871.749	5147
871.879	5174
872.008	5208
872.138	5109
872.267	4995
872.397	4919
872.526	4816
872.656	4759
872.785	4866
872.915	4968
873.044	5025
873.173	4957
873.303	5010
873.432	5022
873.561	5075
873.69	4915
873.819	4900
873.948	4965
874.077	4896
874.206	4790
874.335	4873
874.464	4961
874.593	5098
874.722	5003
874.851	5124
874.979	5151
875.108	5109
875.237	4957
875.365	5014
875.494	4938
875.623	4987
875.751	4843
875.88	4896
876.008	4984
876.136	5037
876.265	5227
876.393	5326
876.521	5326
876.65	5292
876.778	5197
876.906	5105
877.034	5025
877.162	5060
877.29	4949
877.418	5094
877.546	5067
877.674	5067
877.802	5094
877.93	5003
878.058	4972
878.185	4946
878.313	5022
878.441	4995
878.568	4835
878.696	4847
878.824	5022
878.951	5064
879.079	5201
879.206	5299
879.333	5117
879.461	5006
879.588	5075
879.715	5113
879.842	5258
879.97	5033
880.097	4847
880.224	4801
880.351	4908
880.478	4877
880.605	4793
880.732	4801
880.859	5098
880.986	4938
881.112	4984
881.239	4721
881.366	4752
881.493	4592
881.619	4622
881.746	4706
881.872	4733
881.999	4721
882.125	4706
882.252	4809
882.378	4873
882.505	4953
882.631	4790
882.757	4744
882.883	4752
883.01	4774
883.136	4691
883.262	4611
883.388	4656
883.514	4820
883.64	4889
883.766	4786
883.892	4687
884.018	4702
884.143	4908
884.269	4987
884.395	4740
884.52	4691
884.646	4717
884.772	4588
884.897	4577
885.023	4706
885.148	4812
885.274	4873
885.399	4870
885.524	4714
885.65	4694
885.775	4771
885.9	4748
886.025	4850
886.15	4843
886.275	4698
886.4	4679
886.525	4778
886.65	4698
886.775	4729
886.9	4938
887.025	5098
887.149	4862
887.274	4664
887.399	4622
887.523	4611
887.648	4634
887.773	4592
887.897	4786
888.021	4793
888.146	4694
888.27	4809
888.395	4915
888.519	4828
888.643	4850
888.767	4870
888.891	4683
889.015	4626
889.139	4653
889.263	4596
889.387	4774
889.511	4892
889.635	4793
889.759	4668
889.883	4656
890.006	4729
890.13	4850
890.254	4691
890.377	4717
890.501	4538
890.624	4588
890.748	4702
890.871	4554
890.995	4481
891.118	4417
891.241	4592
891.364	4523
891.488	4683
891.611	4489
891.734	4596
891.857	4645
891.98	4603
892.103	4683
892.226	4668
892.349	4504
892.471	4440
892.594	4569
892.717	4596
892.839	4550
892.962	4660
893.085	4691
893.207	4637
893.33	4500
893.452	4542
893.575	4694
893.697	4516
893.819	4843
893.941	4850
894.064	4824
894.186	4618
894.308	4588
894.43	4755
894.552	4847
894.674	4797
894.796	4584
894.918	4615
895.04	4577
895.161	4706
895.283	4740
895.405	4615
895.526	4641
895.648	4725
895.769	4714
895.891	4702
896.012	4729
896.134	4767
896.255	4717
896.376	4622
896.498	4702
896.619	4706
896.74	4634
896.861	4691
896.982	4961
897.103	5147
897.224	4839
897.345	4748
897.466	4744
897.587	4759
897.708	4908
897.828	4828
897.949	4744
898.07	4558
898.19	4672
898.311	4824
898.431	4721
898.552	4717
898.672	4847
898.792	4831
898.913	4755
899.033	4634
899.153	4535
899.273	4447
899.393	4516
899.513	4565
899.633	4603
899.753	4611
899.873	4504
899.993	4588
900.113	4527
900.232	4599
900.352	4546
900.472	4554
900.591	4489
900.711	4504
900.83	4459
900.95	4672
901.069	4675
901.189	4527
901.308	4398
901.427	4363
901.546	4432
901.665	4504
901.784	4573
901.904	4386
902.023	4360
902.141	4207
902.26	4173
902.379	4333
902.498	4295
902.617	4177
902.735	4360
902.854	4417
902.973	4394
903.091	4219
903.21	4211
903.328	4318
903.446	4287
903.565	4265
903.683	4424
903.801	4333
903.919	4405
904.038	4432
904.156	4333
904.274	4451
904.392	4409
904.51	4462
904.627	4538
904.745	4615
904.863	4618
904.981	4424
905.098	4322
905.216	4375
905.334	4402
905.451	4436
905.569	4470
905.686	4561
905.803	4519
905.921	4402
906.038	4561
906.155	4504
906.272	4447
906.389	4478
906.506	4379
906.623	4451
906.74	4440
906.857	4356
906.974	4402
907.091	4607
907.208	4725
907.324	4615
907.441	4493
907.557	4333
907.674	4348
907.79	4329
907.907	4409
908.023	4500
908.139	4538
908.256	4466
908.372	4470
908.488	4466
908.604	4383
908.72	4375
908.836	4386
908.952	4360
909.068	4466
909.184	4565
909.3	4466
909.415	4622
909.531	4554
909.647	4333
909.762	4390
909.878	4390
909.993	4413
910.108	4424
910.224	4405
910.339	4470
910.454	4398
910.57	4363
910.685	4318
910.8	4694
910.915	4660
911.03	4462
911.145	4306
911.259	4333
911.374	4352
911.489	4299
911.604	4322
911.718	4211
911.833	4238
911.947	4086
912.062	4048
912.176	4234
912.291	4249
912.405	4242
912.519	4474
912.633	4512
912.748	4375
912.862	4341
912.976	4230
913.09	4166
913.204	4188
913.318	4219
913.431	4367
913.545	4386
913.659	4493
913.772	4325
913.886	4253
914	4238
914.113	4371
914.226	4455
914.34	4375
914.453	4246
914.566	4424
914.68	4322
914.793	4356
914.906	4166
915.019	4135
915.132	4101
915.245	4158
915.358	4227
915.47	4306
915.583	4310
915.696	4333
915.809	4386
915.921	4447
916.034	4268
916.146	4303
916.259	4257
916.371	4451
916.483	4383
916.595	4268
916.708	4322
916.82	4306
916.932	4360
917.044	4310
917.156	4306
917.268	4295
917.38	4253
917.491	4276
917.603	4344
917.715	4409
917.826	4455
917.938	4344
918.049	4257
918.161	4394
918.272	4580
918.384	4512
918.495	4497
918.606	4322
918.717	4219
918.828	4367
918.939	4348
919.05	4268
919.161	4344
919.272	4177
919.383	4211
919.494	4440
919.604	4645
919.715	4398
919.826	4329
919.936	4409
920.047	4516
920.157	4546
920.267	4744
920.378	4542
920.488	4493
920.598	4725
920.708	4919
920.818	4793
920.928	4771
921.038	4942
921.148	4911
921.258	4611
921.368	4584
921.477	4512
921.587	4497
921.697	4383
921.806	4519
921.916	4478
922.025	4257
922.134	4253
922.244	4230
922.353	4360
922.462	4196
922.571	4154
922.68	4002
922.789	3979
922.898	4044
923.007	3998
923.116	4101
923.224	4063
923.333	4074
923.442	3972
923.55	3998
923.659	4032
923.767	4135
923.876	3983
923.984	4154
924.092	4010
924.201	4063
924.309	4112
924.417	4109
924.525	4051
924.633	4131
924.741	5018
924.849	3911
924.956	4124
925.064	3979
925.172	3915
925.279	4017
925.387	4059
925.494	4063
925.602	4223
925.709	4185
925.816	4010
925.924	4135
926.031	4272
926.138	4150
926.245	4200
926.352	4093
926.459	4253
926.566	4348
926.673	4158
926.779	4116
926.886	4116
926.993	3998
927.099	3953
927.206	3918
927.312	3930
927.419	4010
927.525	4036
927.631	4147
927.737	4025
927.843	3918
927.95	3907
928.056	3979
928.162	4029
928.267	4059
928.373	4584
928.479	4131
928.585	3899
928.69	4044
928.796	4032
928.901	3972
929.007	3808
929.112	4002
929.218	4002
929.323	3964
929.428	4010
929.533	4116
929.638	3934
929.743	3960
929.848	4059
929.953	4025
930.058	3945
930.163	3812
930.267	3812
930.372	3987
930.477	3781
930.581	4120
930.685	3953
930.79	3816
930.894	3861
930.998	3865
931.103	4013
931.207	3755
931.311	3705
931.415	3667
931.519	3553
931.623	3545
