Data from test_V78500241_1968.txt Node
Date: Fri Mar 25 17:02:41 CST 2022
User: usil
Spectrometer: V785-0024
Trigger mode: 0
Integration Time (sec): 4.000000E-1
Scans to average: 1
Nonlinearity correction enabled: false
Boxcar width: 0
Storing dark spectrum: false
XAxis mode: Wavelengths
Number of Pixels in Spectrum: 1024
>>>>>Begin Spectral Data<<<<<
801.071	7997
801.214	7925
801.356	7909
801.499	7864
801.641	7765
801.783	7807
801.926	7967
802.068	7898
802.211	7925
802.353	7967
802.496	7814
802.638	7792
802.78	7833
802.923	7845
803.065	7757
803.208	7849
803.35	7963
803.492	8027
803.635	8107
803.777	7993
803.919	8123
804.061	8396
804.204	8168
804.346	8043
804.488	7955
804.63	8100
804.773	7982
804.915	8157
805.057	8290
805.199	8039
805.341	8256
805.483	8244
805.626	8191
805.768	8126
805.91	8157
806.052	8267
806.194	8092
806.336	8221
806.478	8035
806.62	8111
806.762	8103
806.904	8305
807.046	8454
807.188	8396
807.33	8355
807.472	8320
807.614	8180
807.756	8107
807.898	8012
808.04	7845
808.182	7887
808.324	7830
808.465	7860
808.607	8005
808.749	8081
808.891	8210
809.033	8336
809.174	8191
809.316	8115
809.458	8008
809.6	8020
809.741	7970
809.883	8046
810.025	8058
810.166	8081
810.308	7951
810.45	7978
810.591	7830
810.733	7708
810.875	7655
811.016	7582
811.158	7415
811.299	7552
811.441	7689
811.582	7605
811.724	7609
811.865	7548
812.007	7632
812.148	7639
812.29	7670
812.431	7757
812.573	7864
812.714	7936
812.855	8126
812.997	8168
813.138	8271
813.279	8164
813.421	8031
813.562	7974
813.703	7814
813.845	7708
813.986	7354
814.127	7190
814.268	7217
814.41	7160
814.551	7137
814.692	7168
814.833	7114
814.974	7156
815.115	7114
815.256	6943
815.397	6894
815.539	7015
815.68	6795
815.821	6768
815.962	6840
816.103	6814
816.244	6719
816.385	6593
816.526	6665
816.666	6448
816.807	6281
816.948	6460
817.089	6433
817.23	6391
817.371	6391
817.512	6372
817.653	6403
817.793	6372
817.934	6407
818.075	6490
818.216	6479
818.356	6418
818.497	6251
818.638	6129
818.778	6144
818.919	6133
819.06	6186
819.2	6266
819.341	6331
819.481	6380
819.622	6544
819.762	6669
819.903	6692
820.043	6566
820.184	6566
820.324	6639
820.465	6703
820.605	6631
820.746	6627
820.886	6555
821.026	6703
821.167	6730
821.307	6806
821.447	6688
821.588	6627
821.728	6540
821.868	6490
822.008	6353
822.149	6384
822.289	6311
822.429	6186
822.569	6034
822.709	6152
822.849	5927
822.99	5920
823.13	5904
823.27	5889
823.41	5802
823.55	5748
823.69	5775
823.83	5760
823.97	5661
824.11	5520
824.25	5486
824.389	5490
824.529	5627
824.669	5524
824.809	5661
824.949	5653
825.089	5627
825.228	5547
825.368	5368
825.508	5364
825.648	5364
825.787	5391
825.927	5330
826.067	5265
826.206	5326
826.346	5425
826.485	5376
826.625	5364
826.765	5497
826.904	5482
827.044	5254
827.183	5216
827.323	5151
827.462	5239
827.601	5223
827.741	5128
827.88	5201
828.02	5102
828.159	5292
828.298	5296
828.437	5360
828.577	5261
828.716	5471
828.855	5311
828.994	5094
829.134	5113
829.273	5166
829.412	5174
829.551	5041
829.69	5162
829.829	5269
829.968	5379
830.107	5288
830.246	5239
830.385	5121
830.524	5143
830.663	5086
830.802	5010
830.941	4934
831.08	4850
831.219	4949
831.357	4949
831.496	5128
831.635	4904
831.774	4850
831.913	4831
832.051	4755
832.19	4725
832.329	4809
832.467	4710
832.606	4622
832.744	4702
832.883	4702
833.022	4759
833.16	4782
833.299	4847
833.437	4786
833.576	4812
833.714	4847
833.852	4877
833.991	4889
834.129	4900
834.267	4991
834.406	4908
834.544	4987
834.682	4972
834.821	4949
834.959	5136
835.097	4965
835.235	5113
835.373	5067
835.511	5102
835.65	5037
835.788	5018
835.926	4850
836.064	4870
836.202	4896
836.34	5216
836.478	5227
836.615	5109
836.753	5223
836.891	5303
837.029	5261
837.167	5185
837.305	5117
837.443	5166
837.58	5075
837.718	5223
837.856	5201
837.993	5143
838.131	5216
838.269	5216
838.406	5208
838.544	5193
838.681	5003
838.819	5006
838.956	4908
839.094	4885
839.231	4995
839.369	5071
839.506	5383
839.643	5315
839.781	5056
839.918	5006
840.055	5083
840.193	5060
840.33	5102
840.467	5178
840.604	5124
840.742	5345
840.879	5075
841.016	5083
841.153	5159
841.29	5349
841.427	5318
841.564	5318
841.701	5288
841.838	5277
841.975	5227
842.112	5269
842.249	5159
842.385	5117
842.522	5273
842.659	5143
842.796	5121
842.933	5166
843.069	5147
843.206	5124
843.343	5258
843.479	5216
843.616	5220
843.752	5022
843.889	5006
844.025	5246
844.162	5025
844.298	5250
844.435	5086
844.571	4984
844.708	5242
844.844	5322
844.98	5334
845.117	5280
845.253	5102
845.389	5048
845.525	5132
845.661	5155
845.798	5090
845.934	5094
846.07	5083
846.206	5189
846.342	5265
846.478	5197
846.614	4984
846.75	4942
846.886	4915
847.022	5140
847.158	5029
847.294	5060
847.429	5075
847.565	5090
847.701	5345
847.837	4847
847.972	4831
848.108	4949
848.244	4915
848.379	4805
848.515	4748
848.65	4698
848.786	4763
848.921	4816
849.057	4831
849.192	4877
849.328	4790
849.463	4847
849.598	4744
849.734	4778
849.869	4725
850.004	4656
850.14	4649
850.275	4592
850.41	4481
850.545	4580
850.68	4599
850.815	4618
850.95	4615
851.085	4828
851.22	4733
851.355	4634
851.49	4626
851.625	4607
851.76	4660
851.895	4596
852.03	4550
852.165	4653
852.299	4748
852.434	4759
852.569	4740
852.703	4771
852.838	4881
852.973	4904
853.107	4911
853.242	4725
853.376	4687
853.511	4504
853.645	4550
853.78	4755
853.914	4679
854.048	4653
854.183	4660
854.317	4694
854.451	4816
854.585	4649
854.72	4664
854.854	4771
854.988	4660
855.122	4653
855.256	4474
855.39	4599
855.524	4774
855.658	4714
855.792	4687
855.926	4778
856.06	4740
856.194	4778
856.327	4660
856.461	4626
856.595	4622
856.729	4641
856.862	4752
856.996	4656
857.13	4759
857.263	4767
857.397	4763
857.53	4683
857.664	4752
857.797	4717
857.931	4702
858.064	4706
858.197	4793
858.331	4668
858.464	4569
858.597	4516
858.731	4618
858.864	4584
858.997	4615
859.13	4641
859.263	4622
859.396	4698
859.529	4535
859.662	4546
859.795	4531
859.928	4615
860.061	4782
860.194	4786
860.327	4592
860.46	4561
860.592	4729
860.725	4694
860.858	4748
860.99	4519
861.123	4512
861.256	4527
861.388	4592
861.521	5273
861.653	4478
861.786	4466
861.918	4459
862.05	4519
862.183	4538
862.315	4599
862.447	4588
862.58	4550
862.712	4405
862.844	4367
862.976	4485
863.108	4440
863.24	4763
863.372	4363
863.504	4417
863.636	4379
863.768	4500
863.9	4421
864.032	4371
864.164	4424
864.296	4443
864.428	4516
864.559	4569
864.691	4588
864.823	4504
864.954	4508
865.086	4497
865.217	4440
865.349	4417
865.48	4436
865.612	4523
865.743	4634
865.875	4493
866.006	4417
866.137	4462
866.269	4462
866.4	4432
866.531	4428
866.662	4428
866.793	4417
866.924	4413
867.055	4455
867.186	4508
867.317	4413
867.448	4341
867.579	4371
867.71	4375
867.841	4383
867.972	4428
868.103	4459
868.233	4421
868.364	4443
868.495	4504
868.625	4702
868.756	4744
868.886	4588
869.017	4622
869.147	4774
869.278	4767
869.408	4672
869.539	4626
869.669	4721
869.799	4649
869.929	4744
870.06	4714
870.19	4915
870.32	4915
870.45	4987
870.58	4987
870.71	5136
870.84	5071
870.97	4949
871.1	4870
871.23	5094
871.36	5117
871.489	5056
871.619	5083
871.749	5090
871.879	5155
872.008	5147
872.138	5060
872.267	4904
872.397	4873
872.526	4854
872.656	4740
872.785	4820
872.915	4980
873.044	5022
873.173	4923
873.303	4934
873.432	4927
873.561	4965
873.69	4889
873.819	4885
873.948	4873
874.077	4790
874.206	4759
874.335	4828
874.464	4900
874.593	5090
874.722	4976
874.851	5056
874.979	5056
875.108	5010
875.237	4896
875.365	4877
875.494	4923
875.623	4953
875.751	4801
875.88	4881
876.008	4968
876.136	5022
876.265	5235
876.393	5345
876.521	5254
876.65	5261
876.778	5136
876.906	5037
877.034	5006
877.162	5025
877.29	4980
877.418	5052
877.546	5090
877.674	5014
877.802	4984
877.93	5060
878.058	4930
878.185	4915
878.313	4965
878.441	4923
878.568	4805
878.696	4881
878.824	4995
878.951	5006
879.079	5109
879.206	5258
879.333	5075
879.461	4987
879.588	5029
879.715	5075
879.842	5220
879.97	4999
880.097	4729
880.224	4736
880.351	4790
880.478	4793
880.605	4812
880.732	4809
880.859	5090
880.986	4896
881.112	4938
881.239	4809
881.366	4649
881.493	4622
881.619	4626
881.746	4641
881.872	4630
881.999	4637
882.125	4683
882.252	4809
882.378	4820
882.505	4938
882.631	4805
882.757	4679
882.883	4744
883.01	4702
883.136	4637
883.262	4618
883.388	4599
883.514	4850
883.64	4847
883.766	4809
883.892	4691
884.018	4702
884.143	4919
884.269	5018
884.395	4687
884.52	4615
884.646	4649
884.772	4607
884.897	4527
885.023	4656
885.148	4755
885.274	4866
885.399	4824
885.524	4774
885.65	4694
885.775	4736
885.9	4687
886.025	4850
886.15	4809
886.275	4729
886.4	4615
886.525	4771
886.65	4664
886.775	4645
886.9	4930
887.025	5014
887.149	4812
887.274	4714
887.399	4577
887.523	4558
887.648	4550
887.773	4596
887.897	4744
888.021	4740
888.146	4691
888.27	4839
888.395	4892
888.519	4759
888.643	4805
888.767	4850
888.891	4714
889.015	4584
889.139	4664
889.263	4618
889.387	4759
889.511	4835
889.635	4812
889.759	4683
889.883	4622
890.006	4767
890.13	4790
890.254	4592
890.377	4725
890.501	4538
890.624	4538
890.748	4596
890.871	4481
890.995	4432
891.118	4402
891.241	4558
891.364	4550
891.488	4660
891.611	4455
891.734	4546
891.857	4561
891.98	4554
892.103	4599
892.226	4599
892.349	4481
892.471	4375
892.594	4569
892.717	4641
892.839	4607
892.962	4611
893.085	4622
893.207	4573
893.33	4466
893.452	4504
893.575	4660
893.697	4569
893.819	4782
893.941	4816
894.064	4763
894.186	4565
894.308	4573
894.43	4694
894.552	4812
894.674	4771
894.796	4599
894.918	4611
895.04	4573
895.161	4714
895.283	4649
895.405	4577
895.526	4660
895.648	4691
895.769	4683
895.891	4694
896.012	4748
896.134	4679
896.255	4641
896.376	4645
896.498	4584
896.619	4664
896.74	4588
896.861	4679
896.982	4968
897.103	5105
897.224	4820
897.345	4736
897.466	4668
897.587	4714
897.708	4885
897.828	4835
897.949	4691
898.07	4588
898.19	4637
898.311	4805
898.431	4752
898.552	4717
898.672	4797
898.792	4793
898.913	4759
899.033	4622
899.153	4500
899.273	4409
899.393	4485
899.513	4546
899.633	4485
899.753	4550
899.873	4546
899.993	4577
900.113	4554
900.232	4588
900.352	4512
900.472	4527
900.591	4360
900.711	4504
900.83	4405
900.95	4599
901.069	4675
901.189	4558
901.308	4363
901.427	4306
901.546	4344
901.665	4481
901.784	4474
901.904	4421
902.023	4360
902.141	4181
902.26	4158
902.379	4287
902.498	4246
902.617	4238
902.735	4398
902.854	4421
902.973	4318
903.091	4227
903.21	4272
903.328	4268
903.446	4299
903.565	4291
903.683	4375
903.801	4242
903.919	4379
904.038	4481
904.156	4280
904.274	4424
904.392	4348
904.51	4398
904.627	4462
904.745	4580
904.863	4634
904.981	4436
905.098	4325
905.216	4356
905.334	4314
905.451	4417
905.569	4436
905.686	4550
905.803	4592
905.921	4417
906.038	4512
906.155	4516
906.272	4417
906.389	4500
906.506	4310
906.623	4371
906.74	4405
906.857	4276
906.974	4394
907.091	4569
907.208	4675
907.324	4561
907.441	4527
907.557	4306
907.674	4291
907.79	4261
907.907	4341
908.023	4493
908.139	4523
908.256	4455
908.372	4462
908.488	4459
908.604	4344
908.72	4337
908.836	4363
908.952	4375
909.068	4417
909.184	4538
909.3	4447
909.415	4584
909.531	4554
909.647	4386
909.762	4424
909.878	4322
909.993	4421
910.108	4409
910.224	4489
910.339	4500
910.454	4375
910.57	4356
910.685	4341
910.8	4637
910.915	4653
911.03	4451
911.145	4268
911.259	4306
911.374	4348
911.489	4272
911.604	4230
911.718	4166
911.833	4234
911.947	4059
912.062	4040
912.176	4188
912.291	4276
912.405	4219
912.519	4443
912.633	4478
912.748	4375
912.862	4341
912.976	4234
913.09	4048
913.204	4223
913.318	4204
913.431	4348
913.545	4367
913.659	4402
913.772	4402
913.886	4261
914	4227
914.113	4417
914.226	4394
914.34	4360
914.453	4188
914.566	4474
914.68	4272
914.793	4318
914.906	4135
915.019	4158
915.132	4097
915.245	4169
915.358	4234
915.47	4257
915.583	4261
915.696	4299
915.809	4390
915.921	4413
916.034	4268
916.146	4238
916.259	4257
916.371	4363
916.483	4337
916.595	4268
916.708	4299
916.82	4352
916.932	4333
917.044	4325
917.156	4348
917.268	4268
917.38	4287
917.491	4261
917.603	4325
917.715	4390
917.826	4440
917.938	4299
918.049	4234
918.161	4432
918.272	4531
918.384	4546
918.495	4398
918.606	4329
918.717	4242
918.828	4299
918.939	4325
919.05	4253
919.161	4299
919.272	4090
919.383	4249
919.494	4394
919.604	4637
919.715	4421
919.826	4337
919.936	4394
920.047	4493
920.157	4489
920.267	4687
920.378	4554
920.488	4470
920.598	4729
920.708	4862
920.818	4763
920.928	4725
921.038	4968
921.148	4892
921.258	4675
921.368	4523
921.477	4481
921.587	4455
921.697	4405
921.806	4558
921.916	4398
922.025	4287
922.134	4249
922.244	4230
922.353	4363
922.462	4211
922.571	4124
922.68	3960
922.789	3941
922.898	4025
923.007	4002
923.116	4074
923.224	4112
923.333	4101
923.442	4006
923.55	3968
923.659	3991
923.767	4074
923.876	3994
923.984	4128
924.092	3972
924.201	4078
924.309	4101
924.417	4166
924.525	4082
924.633	4120
924.741	5086
924.849	3941
924.956	4124
925.064	3934
925.172	3869
925.279	3975
925.387	4063
925.494	4029
925.602	4192
925.709	4162
925.816	4063
925.924	4109
926.031	4223
926.138	4166
926.245	4215
926.352	4082
926.459	4280
926.566	4265
926.673	4166
926.779	4029
926.886	4078
926.993	3987
927.099	3960
927.206	3979
927.312	3899
927.419	4074
927.525	4032
927.631	4101
927.737	3964
927.843	3937
927.95	3857
928.056	3960
928.162	3949
928.267	4078
928.373	4584
928.479	4078
928.585	3861
928.69	4002
928.796	4071
928.901	3998
929.007	3827
929.112	3987
929.218	3953
929.323	3979
929.428	3941
929.533	4097
929.638	3934
929.743	3960
929.848	4040
929.953	3998
930.058	3979
930.163	3778
930.267	3831
930.372	3972
930.477	3816
930.581	4051
930.685	3941
930.79	3835
930.894	3846
930.998	3865
931.103	4040
931.207	3755
931.311	3720
931.415	3637
931.519	3507
931.623	3568
