Data from test_V78500241_1540.txt Node
Date: Fri Mar 25 16:59:42 CST 2022
User: usil
Spectrometer: V785-0024
Trigger mode: 0
Integration Time (sec): 4.000000E-1
Scans to average: 1
Nonlinearity correction enabled: false
Boxcar width: 0
Storing dark spectrum: false
XAxis mode: Wavelengths
Number of Pixels in Spectrum: 1024
>>>>>Begin Spectral Data<<<<<
801.071	7955
801.214	7970
801.356	7932
801.499	7887
801.641	7792
801.783	7776
801.926	7917
802.068	7951
802.211	7967
802.353	7936
802.496	7833
802.638	7845
802.78	7875
802.923	7947
803.065	7830
803.208	7871
803.35	7986
803.492	8096
803.635	8172
803.777	8031
803.919	8107
804.061	8454
804.204	8119
804.346	8103
804.488	7989
804.63	8065
804.773	7970
804.915	8115
805.057	8313
805.199	8149
805.341	8210
805.483	8252
805.626	8218
805.768	8153
805.91	8233
806.052	8282
806.194	8081
806.336	8290
806.478	8050
806.62	8008
806.762	8142
806.904	8244
807.046	8537
807.188	8309
807.33	8286
807.472	8351
807.614	8176
807.756	8134
807.898	7967
808.04	7978
808.182	7925
808.324	7871
808.465	7940
808.607	8039
808.749	8153
808.891	8199
809.033	8275
809.174	8248
809.316	8054
809.458	8088
809.6	8043
809.741	7967
809.883	8031
810.025	8123
810.166	8027
810.308	8005
810.45	8065
810.591	7887
810.733	7780
810.875	7636
811.016	7575
811.158	7438
811.299	7514
811.441	7685
811.582	7734
811.724	7632
811.865	7483
812.007	7544
812.148	7624
812.29	7704
812.431	7772
812.573	7902
812.714	7890
812.855	8088
812.997	8149
813.138	8309
813.279	8145
813.421	8092
813.562	7967
813.703	7799
813.845	7738
813.986	7438
814.127	7282
814.268	7236
814.41	7232
814.551	7156
814.692	7213
814.833	7133
814.974	7122
815.115	7149
815.256	6973
815.397	6939
815.539	6954
815.68	6810
815.821	6806
815.962	6840
816.103	6798
816.244	6669
816.385	6627
816.526	6555
816.666	6498
816.807	6289
816.948	6448
817.089	6429
817.23	6456
817.371	6353
817.512	6361
817.653	6410
817.793	6285
817.934	6395
818.075	6456
818.216	6433
818.356	6426
818.497	6216
818.638	6110
818.778	6117
818.919	6144
819.06	6159
819.2	6311
819.341	6315
819.481	6353
819.622	6502
819.762	6639
819.903	6677
820.043	6608
820.184	6608
820.324	6540
820.465	6734
820.605	6726
820.746	6669
820.886	6547
821.026	6597
821.167	6662
821.307	6837
821.447	6840
821.588	6711
821.728	6597
821.868	6490
822.008	6296
822.149	6319
822.289	6384
822.429	6182
822.569	6064
822.709	6091
822.849	5889
822.99	5923
823.13	5927
823.27	5897
823.41	5794
823.55	5790
823.69	5756
823.83	5767
823.97	5619
824.11	5535
824.25	5539
824.389	5573
824.529	5638
824.669	5539
824.809	5638
824.949	5611
825.089	5547
825.228	5497
825.368	5410
825.508	5341
825.648	5330
825.787	5364
825.927	5368
826.067	5269
826.206	5277
826.346	5417
826.485	5391
826.625	5417
826.765	5532
826.904	5493
827.044	5250
827.183	5197
827.323	5155
827.462	5223
827.601	5220
827.741	5178
827.88	5170
828.02	5105
828.159	5193
828.298	5296
828.437	5364
828.577	5303
828.716	5486
828.855	5292
828.994	5117
829.134	5181
829.273	5147
829.412	5140
829.551	5113
829.69	5174
829.829	5204
829.968	5368
830.107	5292
830.246	5277
830.385	5185
830.524	5136
830.663	5086
830.802	4957
830.941	4915
831.08	4854
831.219	4991
831.357	4968
831.496	5147
831.635	4961
831.774	4809
831.913	4782
832.051	4725
832.19	4759
832.329	4828
832.467	4672
832.606	4656
832.744	4691
832.883	4706
833.022	4736
833.16	4721
833.299	4778
833.437	4824
833.576	4786
833.714	4854
833.852	4824
833.991	4862
834.129	4904
834.267	4965
834.406	4930
834.544	4976
834.682	5010
834.821	4938
834.959	5136
835.097	4968
835.235	5124
835.373	5098
835.511	5128
835.65	5025
835.788	4999
835.926	4824
836.064	4866
836.202	4953
836.34	5162
836.478	5242
836.615	5212
836.753	5193
836.891	5303
837.029	5261
837.167	5204
837.305	5181
837.443	5090
837.58	5033
837.718	5288
837.856	5151
837.993	5128
838.131	5212
838.269	5185
838.406	5223
838.544	5204
838.681	5033
838.819	5033
838.956	4862
839.094	4892
839.231	4957
839.369	5067
839.506	5417
839.643	5284
839.781	4995
839.918	4991
840.055	5109
840.193	5083
840.33	5121
840.467	5086
840.604	5181
840.742	5452
840.879	5086
841.016	5105
841.153	5124
841.29	5383
841.427	5341
841.564	5292
841.701	5269
841.838	5273
841.975	5216
842.112	5261
842.249	5128
842.385	5113
842.522	5341
842.659	5132
842.796	5178
842.933	5235
843.069	5174
843.206	5121
843.343	5258
843.479	5201
843.616	5288
843.752	4995
843.889	4972
844.025	5231
844.162	5014
844.298	5220
844.435	5037
844.571	5094
844.708	5181
844.844	5330
844.98	5311
845.117	5311
845.253	5121
845.389	5056
845.525	5086
845.661	5147
845.798	4980
845.934	5105
846.07	5014
846.206	5185
846.342	5208
846.478	5166
846.614	4976
846.75	4980
846.886	4938
847.022	5079
847.158	5048
847.294	5041
847.429	5083
847.565	5094
847.701	5334
847.837	4873
847.972	4831
848.108	4987
848.244	4999
848.379	4778
848.515	4706
848.65	4744
848.786	4778
848.921	4797
849.057	4862
849.192	4805
849.328	4793
849.463	4877
849.598	4778
849.734	4763
849.869	4653
850.004	4641
850.14	4630
850.275	4641
850.41	4493
850.545	4607
850.68	4596
850.815	4668
850.95	4622
851.085	4824
851.22	4771
851.355	4679
851.49	4626
851.625	4596
851.76	4630
851.895	4573
852.03	4546
852.165	4634
852.299	4687
852.434	4782
852.569	4736
852.703	4744
852.838	4809
852.973	4900
853.107	4896
853.242	4748
853.376	4679
853.511	4546
853.645	4603
853.78	4793
853.914	4698
854.048	4656
854.183	4664
854.317	4653
854.451	4820
854.585	4691
854.72	4656
854.854	4733
854.988	4596
855.122	4607
855.256	4523
855.39	4626
855.524	4820
855.658	4736
855.792	4656
855.926	4729
856.06	4755
856.194	4820
856.327	4641
856.461	4618
856.595	4664
856.729	4634
856.862	4755
856.996	4687
857.13	4710
857.263	4748
857.397	4778
857.53	4656
857.664	4683
857.797	4733
857.931	4740
858.064	4691
858.197	4706
858.331	4615
858.464	4607
858.597	4550
858.731	4546
858.864	4660
858.997	4577
859.13	4653
859.263	4698
859.396	4679
859.529	4622
859.662	4565
859.795	4519
859.928	4603
860.061	4786
860.194	4763
860.327	4577
860.46	4542
860.592	4641
860.725	4744
860.858	4706
860.99	4573
861.123	4550
861.256	4512
861.388	4573
861.521	5292
861.653	4485
861.786	4478
861.918	4474
862.05	4512
862.183	4550
862.315	4550
862.447	4668
862.58	4512
862.712	4417
862.844	4337
862.976	4459
863.108	4432
863.24	4752
863.372	4333
863.504	4440
863.636	4459
863.768	4462
863.9	4432
864.032	4367
864.164	4360
864.296	4504
864.428	4519
864.559	4535
864.691	4535
864.823	4512
864.954	4462
865.086	4508
865.217	4447
865.349	4436
865.48	4443
865.612	4474
865.743	4660
865.875	4466
866.006	4390
866.137	4436
866.269	4432
866.4	4428
866.531	4451
866.662	4386
866.793	4405
866.924	4375
867.055	4455
867.186	4470
867.317	4386
867.448	4383
867.579	4440
867.71	4428
867.841	4352
867.972	4447
868.103	4470
868.233	4447
868.364	4371
868.495	4470
868.625	4675
868.756	4759
868.886	4504
869.017	4611
869.147	4778
869.278	4771
869.408	4630
869.539	4634
869.669	4740
869.799	4679
869.929	4771
870.06	4725
870.19	4980
870.32	4911
870.45	4889
870.58	5025
870.71	5075
870.84	5075
870.97	4934
871.1	4908
871.23	5079
871.36	5098
871.489	5006
871.619	5022
871.749	5083
871.879	5174
872.008	5147
872.138	5075
872.267	4930
872.397	4854
872.526	4744
872.656	4679
872.785	4843
872.915	4938
873.044	5029
873.173	4953
873.303	4919
873.432	4987
873.561	4957
873.69	4854
873.819	4904
873.948	4904
874.077	4755
874.206	4763
874.335	4862
874.464	4915
874.593	5029
874.722	4923
874.851	5079
874.979	5048
875.108	5029
875.237	4915
875.365	4862
875.494	4873
875.623	4938
875.751	4774
875.88	4873
876.008	4930
876.136	4999
876.265	5250
876.393	5322
876.521	5239
876.65	5216
876.778	5121
876.906	5010
877.034	4987
877.162	5052
877.29	5041
877.418	5075
877.546	5014
877.674	4999
877.802	5037
877.93	4991
878.058	4946
878.185	4862
878.313	4930
878.441	4908
878.568	4805
878.696	4892
878.824	4946
878.951	4968
879.079	5159
879.206	5273
879.333	5067
879.461	5018
879.588	4972
879.715	5136
879.842	5189
879.97	4999
880.097	4812
880.224	4767
880.351	4790
880.478	4793
880.605	4820
880.732	4763
880.859	5094
880.986	4892
881.112	4915
881.239	4771
881.366	4706
881.493	4630
881.619	4569
881.746	4588
881.872	4672
881.999	4622
882.125	4740
882.252	4790
882.378	4771
882.505	4919
882.631	4786
882.757	4668
882.883	4736
883.01	4767
883.136	4717
883.262	4607
883.388	4622
883.514	4778
883.64	4858
883.766	4771
883.892	4683
884.018	4706
884.143	4919
884.269	4991
884.395	4710
884.52	4618
884.646	4641
884.772	4588
884.897	4538
885.023	4675
885.148	4786
885.274	4904
885.399	4729
885.524	4736
885.65	4691
885.775	4736
885.9	4656
886.025	4858
886.15	4828
886.275	4698
886.4	4637
886.525	4729
886.65	4668
886.775	4694
886.9	4892
887.025	5014
887.149	4797
887.274	4634
887.399	4538
887.523	4580
887.648	4569
887.773	4588
887.897	4763
888.021	4793
888.146	4660
888.27	4771
888.395	4896
888.519	4755
888.643	4801
888.767	4835
888.891	4698
889.015	4615
889.139	4653
889.263	4599
889.387	4759
889.511	4854
889.635	4786
889.759	4664
889.883	4630
890.006	4714
890.13	4771
890.254	4626
890.377	4668
890.501	4546
890.624	4542
890.748	4615
890.871	4516
890.995	4424
891.118	4386
891.241	4497
891.364	4531
891.488	4645
891.611	4542
891.734	4535
891.857	4573
891.98	4508
892.103	4660
892.226	4599
892.349	4504
892.471	4390
892.594	4573
892.717	4573
892.839	4569
892.962	4577
893.085	4645
893.207	4637
893.33	4489
893.452	4512
893.575	4630
893.697	4588
893.819	4820
893.941	4748
894.064	4725
894.186	4622
894.308	4535
894.43	4675
894.552	4824
894.674	4691
894.796	4596
894.918	4603
895.04	4565
895.161	4698
895.283	4622
895.405	4607
895.526	4596
895.648	4706
895.769	4660
895.891	4679
896.012	4740
896.134	4755
896.255	4675
896.376	4611
896.498	4577
896.619	4717
896.74	4569
896.861	4679
896.982	4968
897.103	5132
897.224	4793
897.345	4748
897.466	4668
897.587	4736
897.708	4847
897.828	4774
897.949	4691
898.07	4561
898.19	4649
898.311	4835
898.431	4634
898.552	4721
898.672	4793
898.792	4771
898.913	4748
899.033	4588
899.153	4550
899.273	4462
899.393	4489
899.513	4531
899.633	4546
899.753	4481
899.873	4519
899.993	4542
900.113	4489
900.232	4603
900.352	4519
900.472	4440
900.591	4413
900.711	4504
900.83	4405
900.95	4615
901.069	4668
901.189	4565
901.308	4348
901.427	4234
901.546	4341
901.665	4489
901.784	4519
901.904	4367
902.023	4333
902.141	4166
902.26	4135
902.379	4341
902.498	4196
902.617	4223
902.735	4329
902.854	4428
902.973	4337
903.091	4204
903.21	4253
903.328	4276
903.446	4246
903.565	4246
903.683	4371
903.801	4261
903.919	4344
904.038	4432
904.156	4306
904.274	4409
904.392	4386
904.51	4398
904.627	4447
904.745	4542
904.863	4603
904.981	4386
905.098	4344
905.216	4318
905.334	4436
905.451	4421
905.569	4398
905.686	4538
905.803	4527
905.921	4459
906.038	4569
906.155	4474
906.272	4383
906.389	4485
906.506	4394
906.623	4367
906.74	4363
906.857	4314
906.974	4356
907.091	4558
907.208	4656
907.324	4577
907.441	4493
907.557	4394
907.674	4318
907.79	4310
907.907	4352
908.023	4443
908.139	4493
908.256	4417
908.372	4417
908.488	4474
908.604	4333
908.72	4348
908.836	4363
908.952	4386
909.068	4402
909.184	4573
909.3	4470
909.415	4569
909.531	4584
909.647	4344
909.762	4390
909.878	4318
909.993	4432
910.108	4405
910.224	4409
910.339	4481
910.454	4398
910.57	4348
910.685	4314
910.8	4656
910.915	4538
911.03	4478
911.145	4341
911.259	4360
911.374	4367
911.489	4280
911.604	4249
911.718	4147
911.833	4215
911.947	3998
912.062	4017
912.176	4166
912.291	4230
912.405	4234
912.519	4466
912.633	4466
912.748	4371
912.862	4333
912.976	4204
913.09	4120
913.204	4162
913.318	4257
913.431	4367
913.545	4371
913.659	4421
913.772	4333
913.886	4257
914	4230
914.113	4386
914.226	4436
914.34	4424
914.453	4242
914.566	4440
914.68	4314
914.793	4291
914.906	4147
915.019	4135
915.132	4086
915.245	4169
915.358	4223
915.47	4230
915.583	4265
915.696	4265
915.809	4394
915.921	4421
916.034	4249
916.146	4238
916.259	4204
916.371	4371
916.483	4379
916.595	4230
916.708	4352
916.82	4325
916.932	4318
917.044	4287
917.156	4337
917.268	4219
917.38	4306
917.491	4280
917.603	4284
917.715	4405
917.826	4447
917.938	4363
918.049	4211
918.161	4360
918.272	4542
918.384	4538
918.495	4371
918.606	4249
918.717	4230
918.828	4367
918.939	4344
919.05	4249
919.161	4261
919.272	4109
919.383	4242
919.494	4485
919.604	4588
919.715	4417
919.826	4363
919.936	4405
920.047	4542
920.157	4447
920.267	4660
920.378	4516
920.488	4459
920.598	4694
920.708	4828
920.818	4752
920.928	4755
921.038	4972
921.148	4892
921.258	4645
921.368	4588
921.477	4500
921.587	4424
921.697	4322
921.806	4558
921.916	4341
922.025	4299
922.134	4230
922.244	4173
922.353	4363
922.462	4131
922.571	4124
922.68	4010
922.789	3987
922.898	3983
923.007	3994
923.116	4086
923.224	4021
923.333	4082
923.442	4025
923.55	3994
923.659	4025
923.767	4055
923.876	4010
923.984	4082
924.092	3975
924.201	4071
924.309	4090
924.417	4173
924.525	4067
924.633	4086
924.741	4862
924.849	3930
924.956	4112
925.064	3979
925.172	3873
925.279	3941
925.387	4044
925.494	4040
925.602	4173
925.709	4192
925.816	4040
925.924	4101
926.031	4230
926.138	4192
926.245	4238
926.352	4101
926.459	4249
926.566	4268
926.673	4169
926.779	4032
926.886	4067
926.993	3960
927.099	3956
927.206	3915
927.312	3903
927.419	4040
927.525	4021
927.631	4112
927.737	3968
927.843	3956
927.95	3770
928.056	3949
928.162	3994
928.267	4071
928.373	4588
928.479	4101
928.585	3850
928.69	4051
928.796	4086
928.901	3964
929.007	3831
929.112	4036
929.218	3987
929.323	3968
929.428	3937
929.533	4105
929.638	3888
929.743	3934
929.848	4036
929.953	4006
930.058	3953
930.163	3759
930.267	3785
930.372	3998
930.477	3842
930.581	4120
930.685	3896
930.79	3835
930.894	3930
930.998	3793
931.103	3991
931.207	3720
931.311	3709
931.415	3633
931.519	3549
931.623	3553
