Data from test_V78500241_2565.txt Node
Date: Fri Mar 25 17:06:50 CST 2022
User: usil
Spectrometer: V785-0024
Trigger mode: 0
Integration Time (sec): 4.000000E-1
Scans to average: 1
Nonlinearity correction enabled: false
Boxcar width: 0
Storing dark spectrum: false
XAxis mode: Wavelengths
Number of Pixels in Spectrum: 1024
>>>>>Begin Spectral Data<<<<<
801.071	8012
801.214	8054
801.356	7894
801.499	7849
801.641	7727
801.783	7822
801.926	7944
802.068	7951
802.211	8001
802.353	8050
802.496	7887
802.638	7811
802.78	7978
802.923	7947
803.065	7837
803.208	7845
803.35	7928
803.492	8073
803.635	8142
803.777	8012
803.919	8183
804.061	8408
804.204	8130
804.346	7974
804.488	7967
804.63	8100
804.773	7989
804.915	8062
805.057	8237
805.199	8161
805.341	8149
805.483	8279
805.626	8305
805.768	8161
805.91	8240
806.052	8225
806.194	8119
806.336	8279
806.478	8134
806.62	8096
806.762	8123
806.904	8225
807.046	8545
807.188	8370
807.33	8271
807.472	8294
807.614	8153
807.756	8134
807.898	8039
808.04	7852
808.182	7852
808.324	7860
808.465	7887
808.607	8084
808.749	7986
808.891	8237
809.033	8328
809.174	8130
809.316	8164
809.458	8134
809.6	8008
809.741	8054
809.883	8073
810.025	8077
810.166	8050
810.308	8005
810.45	8012
810.591	7890
810.733	7666
810.875	7647
811.016	7472
811.158	7495
811.299	7620
811.441	7780
811.582	7685
811.724	7632
811.865	7544
812.007	7609
812.148	7594
812.29	7605
812.431	7731
812.573	7875
812.714	7993
812.855	8157
812.997	8199
813.138	8290
813.279	8191
813.421	8043
813.562	7989
813.703	7967
813.845	7826
813.986	7480
814.127	7232
814.268	7194
814.41	7221
814.551	7202
814.692	7194
814.833	7088
814.974	7088
815.115	7160
815.256	7008
815.397	6977
815.539	6935
815.68	6787
815.821	6776
815.962	6886
816.103	6886
816.244	6741
816.385	6578
816.526	6616
816.666	6506
816.807	6308
816.948	6403
817.089	6528
817.23	6433
817.371	6471
817.512	6327
817.653	6391
817.793	6315
817.934	6403
818.075	6494
818.216	6433
818.356	6407
818.497	6262
818.638	6136
818.778	6125
818.919	6178
819.06	6152
819.2	6289
819.341	6395
819.481	6384
819.622	6547
819.762	6779
819.903	6749
820.043	6563
820.184	6559
820.324	6589
820.465	6764
820.605	6700
820.746	6669
820.886	6479
821.026	6597
821.167	6669
821.307	6806
821.447	6814
821.588	6711
821.728	6570
821.868	6494
822.008	6342
822.149	6338
822.289	6346
822.429	6087
822.569	6079
822.709	6167
822.849	5977
822.99	5901
823.13	5923
823.27	5908
823.41	5813
823.55	5745
823.69	5726
823.83	5798
823.97	5699
824.11	5528
824.25	5528
824.389	5543
824.529	5634
824.669	5528
824.809	5627
824.949	5657
825.089	5619
825.228	5558
825.368	5391
825.508	5368
825.648	5349
825.787	5372
825.927	5341
826.067	5258
826.206	5277
826.346	5364
826.485	5455
826.625	5414
826.765	5524
826.904	5505
827.044	5292
827.183	5231
827.323	5079
827.462	5254
827.601	5227
827.741	5159
827.88	5174
828.02	5098
828.159	5242
828.298	5330
828.437	5357
828.577	5299
828.716	5512
828.855	5318
828.994	5185
829.134	5136
829.273	5204
829.412	5109
829.551	5113
829.69	5193
829.829	5235
829.968	5379
830.107	5288
830.246	5254
830.385	5143
830.524	5121
830.663	5105
830.802	4968
830.941	4911
831.08	4843
831.219	4976
831.357	5014
831.496	5098
831.635	4873
831.774	4873
831.913	4908
832.051	4755
832.19	4771
832.329	4828
832.467	4702
832.606	4637
832.744	4725
832.883	4721
833.022	4733
833.16	4782
833.299	4767
833.437	4812
833.576	4877
833.714	4809
833.852	4843
833.991	4934
834.129	4957
834.267	4927
834.406	4892
834.544	4995
834.682	4961
834.821	4915
834.959	5181
835.097	5022
835.235	5098
835.373	5083
835.511	5140
835.65	5033
835.788	5033
835.926	4938
836.064	4847
836.202	4881
836.34	5174
836.478	5239
836.615	5132
836.753	5220
836.891	5261
837.029	5212
837.167	5204
837.305	5136
837.443	5201
837.58	5067
837.718	5322
837.856	5143
837.993	5143
838.131	5231
838.269	5235
838.406	5181
838.544	5189
838.681	5064
838.819	5045
838.956	4934
839.094	4915
839.231	4991
839.369	5083
839.506	5448
839.643	5277
839.781	5075
839.918	5022
840.055	5037
840.193	5155
840.33	5109
840.467	5128
840.604	5166
840.742	5478
840.879	5098
841.016	5109
841.153	5174
841.29	5368
841.427	5376
841.564	5303
841.701	5326
841.838	5307
841.975	5208
842.112	5246
842.249	5109
842.385	5117
842.522	5318
842.659	5155
842.796	5132
842.933	5185
843.069	5094
843.206	5174
843.343	5292
843.479	5220
843.616	5269
843.752	4961
843.889	5025
844.025	5227
844.162	4968
844.298	5197
844.435	5029
844.571	5006
844.708	5166
844.844	5357
844.98	5311
845.117	5307
845.253	5140
845.389	5109
845.525	5162
845.661	5121
845.798	4995
845.934	5109
846.07	5064
846.206	5201
846.342	5239
846.478	5155
846.614	4995
846.75	4984
846.886	4919
847.022	5174
847.158	5014
847.294	5052
847.429	5121
847.565	5014
847.701	5311
847.837	4854
847.972	4805
848.108	4968
848.244	4946
848.379	4790
848.515	4767
848.65	4725
848.786	4740
848.921	4797
849.057	4881
849.192	4911
849.328	4835
849.463	4790
849.598	4824
849.734	4733
849.869	4694
850.004	4660
850.14	4691
850.275	4596
850.41	4516
850.545	4580
850.68	4584
850.815	4626
850.95	4641
851.085	4835
851.22	4774
851.355	4656
851.49	4599
851.625	4645
851.76	4641
851.895	4546
852.03	4565
852.165	4653
852.299	4714
852.434	4771
852.569	4748
852.703	4755
852.838	4824
852.973	4915
853.107	4927
853.242	4740
853.376	4634
853.511	4523
853.645	4584
853.78	4801
853.914	4714
854.048	4641
854.183	4584
854.317	4675
854.451	4812
854.585	4607
854.72	4649
854.854	4752
854.988	4592
855.122	4668
855.256	4542
855.39	4664
855.524	4721
855.658	4736
855.792	4698
855.926	4744
856.06	4801
856.194	4812
856.327	4721
856.461	4660
856.595	4573
856.729	4637
856.862	4725
856.996	4721
857.13	4755
857.263	4744
857.397	4797
857.53	4691
857.664	4710
857.797	4786
857.931	4812
858.064	4694
858.197	4733
858.331	4668
858.464	4584
858.597	4508
858.731	4641
858.864	4664
858.997	4603
859.13	4637
859.263	4717
859.396	4660
859.529	4550
859.662	4577
859.795	4542
859.928	4675
860.061	4744
860.194	4759
860.327	4569
860.46	4531
860.592	4694
860.725	4725
860.858	4694
860.99	4626
861.123	4554
861.256	4493
861.388	4630
861.521	5292
861.653	4538
861.786	4485
861.918	4409
862.05	4523
862.183	4500
862.315	4622
862.447	4683
862.58	4531
862.712	4379
862.844	4329
862.976	4481
863.108	4466
863.24	4725
863.372	4341
863.504	4413
863.636	4417
863.768	4493
863.9	4398
864.032	4322
864.164	4421
864.296	4459
864.428	4558
864.559	4584
864.691	4577
864.823	4569
864.954	4569
865.086	4474
865.217	4443
865.349	4440
865.48	4417
865.612	4504
865.743	4599
865.875	4394
866.006	4428
866.137	4466
866.269	4432
866.4	4417
866.531	4417
866.662	4390
866.793	4455
866.924	4413
867.055	4500
867.186	4451
867.317	4409
867.448	4375
867.579	4318
867.71	4379
867.841	4367
867.972	4451
868.103	4466
868.233	4478
868.364	4485
868.495	4489
868.625	4672
868.756	4763
868.886	4512
869.017	4622
869.147	4755
869.278	4771
869.408	4679
869.539	4664
869.669	4706
869.799	4675
869.929	4744
870.06	4733
870.19	4980
870.32	4919
870.45	4946
870.58	5029
870.71	5109
870.84	5094
870.97	4953
871.1	4908
871.23	5170
871.36	5143
871.489	5083
871.619	5052
871.749	5067
871.879	5102
872.008	5170
872.138	5014
872.267	5037
872.397	4839
872.526	4839
872.656	4748
872.785	4839
872.915	4957
873.044	5006
873.173	4984
873.303	4934
873.432	4949
873.561	4987
873.69	4892
873.819	4831
873.948	4900
874.077	4824
874.206	4748
874.335	4835
874.464	4919
874.593	5029
874.722	4953
874.851	5071
874.979	5052
875.108	5014
875.237	4870
875.365	4850
875.494	4908
875.623	4991
875.751	4877
875.88	4889
876.008	4934
876.136	5022
876.265	5159
876.393	5337
876.521	5258
876.65	5250
876.778	5181
876.906	5041
877.034	5006
877.162	5048
877.29	4968
877.418	5056
877.546	5033
877.674	5075
877.802	5025
877.93	5048
878.058	4991
878.185	4801
878.313	4953
878.441	4900
878.568	4782
878.696	4892
878.824	4934
878.951	4976
879.079	5128
879.206	5246
879.333	5102
879.461	4991
879.588	5014
879.715	5151
879.842	5235
879.97	4953
880.097	4816
880.224	4702
880.351	4786
880.478	4828
880.605	4797
880.732	4774
880.859	5048
880.986	4904
881.112	4870
881.239	4847
881.366	4706
881.493	4603
881.619	4603
881.746	4649
881.872	4664
881.999	4584
882.125	4679
882.252	4759
882.378	4850
882.505	4900
882.631	4793
882.757	4736
882.883	4717
883.01	4733
883.136	4626
883.262	4599
883.388	4607
883.514	4828
883.64	4870
883.766	4759
883.892	4630
884.018	4740
884.143	4873
884.269	5033
884.395	4660
884.52	4668
884.646	4664
884.772	4542
884.897	4577
885.023	4714
885.148	4771
885.274	4892
885.399	4774
885.524	4706
885.65	4725
885.775	4694
885.9	4736
886.025	4900
886.15	4790
886.275	4721
886.4	4649
886.525	4748
886.65	4717
886.775	4656
886.9	4873
887.025	5022
887.149	4759
887.274	4618
887.399	4584
887.523	4565
887.648	4573
887.773	4599
887.897	4793
888.021	4733
888.146	4656
888.27	4816
888.395	4870
888.519	4771
888.643	4820
888.767	4866
888.891	4645
889.015	4622
889.139	4691
889.263	4573
889.387	4790
889.511	4847
889.635	4748
889.759	4675
889.883	4664
890.006	4683
890.13	4820
890.254	4660
890.377	4698
890.501	4527
890.624	4512
890.748	4626
890.871	4481
890.995	4409
891.118	4386
891.241	4481
891.364	4599
891.488	4641
891.611	4474
891.734	4523
891.857	4596
891.98	4516
892.103	4710
892.226	4584
892.349	4519
892.471	4409
892.594	4554
892.717	4561
892.839	4607
892.962	4558
893.085	4668
893.207	4634
893.33	4440
893.452	4527
893.575	4660
893.697	4565
893.819	4805
893.941	4816
894.064	4759
894.186	4599
894.308	4546
894.43	4767
894.552	4793
894.674	4774
894.796	4550
894.918	4558
895.04	4523
895.161	4725
895.283	4679
895.405	4569
895.526	4645
895.648	4691
895.769	4653
895.891	4733
896.012	4702
896.134	4691
896.255	4649
896.376	4607
896.498	4596
896.619	4630
896.74	4622
896.861	4634
896.982	4915
897.103	5048
897.224	4805
897.345	4733
897.466	4668
897.587	4706
897.708	4881
897.828	4793
897.949	4691
898.07	4523
898.19	4588
898.311	4786
898.431	4660
898.552	4736
898.672	4801
898.792	4809
898.913	4759
899.033	4611
899.153	4447
899.273	4413
899.393	4478
899.513	4504
899.633	4588
899.753	4508
899.873	4512
899.993	4603
900.113	4542
900.232	4622
900.352	4516
900.472	4466
900.591	4405
900.711	4470
900.83	4481
900.95	4630
901.069	4710
901.189	4550
901.308	4356
901.427	4306
901.546	4356
901.665	4432
901.784	4481
901.904	4428
902.023	4363
902.141	4173
902.26	4169
902.379	4303
902.498	4287
902.617	4238
902.735	4360
902.854	4424
902.973	4367
903.091	4185
903.21	4280
903.328	4318
903.446	4284
903.565	4276
903.683	4344
903.801	4272
903.919	4402
904.038	4424
904.156	4348
904.274	4432
904.392	4394
904.51	4428
904.627	4447
904.745	4577
904.863	4615
904.981	4363
905.098	4299
905.216	4383
905.334	4367
905.451	4405
905.569	4436
905.686	4565
905.803	4588
905.921	4398
906.038	4538
906.155	4489
906.272	4371
906.389	4512
906.506	4356
906.623	4398
906.74	4394
906.857	4337
906.974	4417
907.091	4558
907.208	4645
907.324	4622
907.441	4478
907.557	4371
907.674	4348
907.79	4318
907.907	4344
908.023	4428
908.139	4466
908.256	4443
908.372	4493
908.488	4459
908.604	4363
908.72	4344
908.836	4379
908.952	4386
909.068	4436
909.184	4538
909.3	4504
909.415	4607
909.531	4535
909.647	4383
909.762	4379
909.878	4325
909.993	4398
910.108	4413
910.224	4436
910.339	4481
910.454	4394
910.57	4402
910.685	4291
910.8	4634
910.915	4603
911.03	4478
911.145	4322
911.259	4352
911.374	4375
911.489	4287
911.604	4280
911.718	4181
911.833	4200
911.947	4090
912.062	4055
912.176	4234
912.291	4272
912.405	4253
912.519	4432
912.633	4527
912.748	4383
912.862	4299
912.976	4128
913.09	4090
913.204	4131
913.318	4246
913.431	4341
913.545	4367
913.659	4443
913.772	4405
913.886	4249
914	4227
914.113	4333
914.226	4424
914.34	4432
914.453	4234
914.566	4405
914.68	4295
914.793	4318
914.906	4173
915.019	4147
915.132	4074
915.245	4173
915.358	4192
915.47	4204
915.583	4253
915.696	4310
915.809	4409
915.921	4402
916.034	4253
916.146	4295
916.259	4238
916.371	4375
916.483	4325
916.595	4284
916.708	4299
916.82	4367
916.932	4306
917.044	4356
917.156	4325
917.268	4246
917.38	4291
917.491	4272
917.603	4348
917.715	4344
917.826	4478
917.938	4356
918.049	4291
918.161	4428
918.272	4558
918.384	4519
918.495	4424
918.606	4318
918.717	4295
918.828	4329
918.939	4383
919.05	4268
919.161	4363
919.272	4173
919.383	4249
919.494	4470
919.604	4596
919.715	4402
919.826	4341
919.936	4398
920.047	4538
920.157	4481
920.267	4691
920.378	4561
920.488	4493
920.598	4748
920.708	4873
920.818	4771
920.928	4782
921.038	4942
921.148	4908
921.258	4607
921.368	4512
921.477	4504
921.587	4440
921.697	4421
921.806	4542
921.916	4398
922.025	4249
922.134	4280
922.244	4219
922.353	4310
922.462	4204
922.571	4192
922.68	4013
922.789	3983
922.898	4010
923.007	3945
923.116	4071
923.224	4082
923.333	4090
923.442	3991
923.55	4017
923.659	3998
923.767	4097
923.876	4036
923.984	4063
924.092	3956
924.201	4032
924.309	4105
924.417	4120
924.525	4051
924.633	4135
924.741	5060
924.849	3911
924.956	4128
925.064	3975
925.172	3941
925.279	3975
925.387	4071
925.494	4059
925.602	4265
925.709	4196
925.816	4006
925.924	4131
926.031	4219
926.138	4162
926.245	4242
926.352	4109
926.459	4242
926.566	4356
926.673	4154
926.779	4086
926.886	4131
926.993	3968
927.099	3960
927.206	3926
927.312	3926
927.419	4055
927.525	4006
927.631	4086
927.737	3926
927.843	3949
927.95	3823
928.056	3926
928.162	3987
928.267	4055
928.373	4535
928.479	4128
928.585	3854
928.69	4021
928.796	4059
928.901	3975
929.007	3869
929.112	3972
929.218	3941
929.323	3945
929.428	3922
929.533	4109
929.638	3915
929.743	3983
929.848	4071
929.953	3998
930.058	3907
930.163	3808
930.267	3785
930.372	3983
930.477	3770
930.581	4112
930.685	3960
930.79	3865
930.894	3869
930.998	3823
931.103	4032
931.207	3705
931.311	3694
931.415	3671
931.519	3500
931.623	3538
