Data from test_V78500241_977.txt Node
Date: Fri Mar 25 16:55:47 CST 2022
User: usil
Spectrometer: V785-0024
Trigger mode: 0
Integration Time (sec): 4.000000E-1
Scans to average: 1
Nonlinearity correction enabled: false
Boxcar width: 0
Storing dark spectrum: false
XAxis mode: Wavelengths
Number of Pixels in Spectrum: 1024
>>>>>Begin Spectral Data<<<<<
801.071	8020
801.214	7970
801.356	7864
801.499	7856
801.641	7731
801.783	7845
801.926	7921
802.068	7928
802.211	7909
802.353	7951
802.496	7826
802.638	7871
802.78	7864
802.923	7875
803.065	7830
803.208	7822
803.35	7902
803.492	8024
803.635	8180
803.777	8058
803.919	8100
804.061	8465
804.204	8176
804.346	8058
804.488	8005
804.63	8107
804.773	8020
804.915	8046
805.057	8191
805.199	8115
805.341	8191
805.483	8267
805.626	8130
805.768	8081
805.91	8195
806.052	8214
806.194	8115
806.336	8286
806.478	8103
806.62	8035
806.762	8073
806.904	8256
807.046	8408
807.188	8305
807.33	8259
807.472	8279
807.614	8153
807.756	8092
807.898	8005
808.04	7845
808.182	7902
808.324	7852
808.465	7887
808.607	8020
808.749	8100
808.891	8126
809.033	8240
809.174	8233
809.316	8043
809.458	7967
809.6	8027
809.741	8050
809.883	8027
810.025	8062
810.166	8005
810.308	8035
810.45	7989
810.591	7841
810.733	7731
810.875	7719
811.016	7529
811.158	7495
811.299	7575
811.441	7628
811.582	7693
811.724	7586
811.865	7502
812.007	7499
812.148	7586
812.29	7609
812.431	7738
812.573	7845
812.714	7974
812.855	8134
812.997	8195
813.138	8286
813.279	8161
813.421	8084
813.562	8020
813.703	7860
813.845	7712
813.986	7396
814.127	7274
814.268	7164
814.41	7141
814.551	7164
814.692	7160
814.833	6989
814.974	7042
815.115	7122
815.256	6996
815.397	6894
815.539	6947
815.68	6795
815.821	6719
815.962	6886
816.103	6802
816.244	6719
816.385	6597
816.526	6642
816.666	6418
816.807	6273
816.948	6399
817.089	6460
817.23	6460
817.371	6350
817.512	6331
817.653	6395
817.793	6388
817.934	6391
818.075	6369
818.216	6407
818.356	6403
818.497	6190
818.638	6136
818.778	6129
818.919	6194
819.06	6110
819.2	6258
819.341	6254
819.481	6388
819.622	6513
819.762	6749
819.903	6700
820.043	6631
820.184	6555
820.324	6570
820.465	6722
820.605	6662
820.746	6616
820.886	6559
821.026	6646
821.167	6692
821.307	6852
821.447	6772
821.588	6627
821.728	6525
821.868	6429
822.008	6311
822.149	6395
822.289	6277
822.429	6121
822.569	6087
822.709	6083
822.849	5885
822.99	5901
823.13	5912
823.27	5870
823.41	5745
823.55	5786
823.69	5771
823.83	5767
823.97	5642
824.11	5524
824.25	5539
824.389	5547
824.529	5573
824.669	5524
824.809	5528
824.949	5672
825.089	5649
825.228	5547
825.368	5349
825.508	5318
825.648	5322
825.787	5322
825.927	5368
826.067	5242
826.206	5299
826.346	5368
826.485	5368
826.625	5372
826.765	5509
826.904	5482
827.044	5216
827.183	5193
827.323	5109
827.462	5193
827.601	5147
827.741	5201
827.88	5166
828.02	5117
828.159	5235
828.298	5292
828.437	5303
828.577	5284
828.716	5478
828.855	5296
828.994	5162
829.134	5140
829.273	5159
829.412	5132
829.551	5109
829.69	5136
829.829	5212
829.968	5364
830.107	5269
830.246	5242
830.385	5170
830.524	5143
830.663	5045
830.802	4972
830.941	4873
831.08	4873
831.219	4999
831.357	4972
831.496	5121
831.635	4889
831.774	4854
831.913	4858
832.051	4729
832.19	4744
832.329	4820
832.467	4660
832.606	4599
832.744	4675
832.883	4725
833.022	4767
833.16	4774
833.299	4824
833.437	4786
833.576	4801
833.714	4847
833.852	4877
833.991	4843
834.129	4934
834.267	4923
834.406	4908
834.544	4987
834.682	4919
834.821	4946
834.959	5155
835.097	4953
835.235	5109
835.373	5098
835.511	5083
835.65	4987
835.788	5018
835.926	4885
836.064	4847
836.202	4938
836.34	5102
836.478	5178
836.615	5128
836.753	5181
836.891	5265
837.029	5208
837.167	5178
837.305	5155
837.443	5162
837.58	5067
837.718	5223
837.856	5140
837.993	5117
838.131	5201
838.269	5231
838.406	5201
838.544	5147
838.681	5041
838.819	4976
838.956	4862
839.094	4927
839.231	5010
839.369	5064
839.506	5455
839.643	5239
839.781	5033
839.918	5014
840.055	5105
840.193	5052
840.33	5075
840.467	5094
840.604	5174
840.742	5429
840.879	5083
841.016	5071
841.153	5124
841.29	5376
841.427	5311
841.564	5254
841.701	5326
841.838	5223
841.975	5254
842.112	5220
842.249	5140
842.385	5079
842.522	5334
842.659	5166
842.796	5151
842.933	5231
843.069	5037
843.206	5117
843.343	5303
843.479	5189
843.616	5273
843.752	5025
843.889	5022
844.025	5201
844.162	5045
844.298	5201
844.435	5102
844.571	5079
844.708	5189
844.844	5246
844.98	5261
845.117	5273
845.253	5128
845.389	5102
845.525	5140
845.661	5109
845.798	5037
845.934	5102
846.07	5022
846.206	5147
846.342	5296
846.478	5181
846.614	5037
846.75	4919
846.886	4896
847.022	5140
847.158	4984
847.294	4961
847.429	5010
847.565	5075
847.701	5277
847.837	4828
847.972	4786
848.108	4896
848.244	4934
848.379	4771
848.515	4748
848.65	4729
848.786	4729
848.921	4714
849.057	4831
849.192	4862
849.328	4748
849.463	4824
849.598	4755
849.734	4771
849.869	4649
850.004	4626
850.14	4645
850.275	4603
850.41	4527
850.545	4538
850.68	4599
850.815	4573
850.95	4611
851.085	4809
851.22	4782
851.355	4630
851.49	4569
851.625	4630
851.76	4615
851.895	4558
852.03	4527
852.165	4656
852.299	4721
852.434	4774
852.569	4790
852.703	4702
852.838	4816
852.973	4889
853.107	4850
853.242	4744
853.376	4668
853.511	4519
853.645	4626
853.78	4801
853.914	4679
854.048	4607
854.183	4637
854.317	4664
854.451	4843
854.585	4683
854.72	4550
854.854	4748
854.988	4599
855.122	4615
855.256	4489
855.39	4653
855.524	4767
855.658	4717
855.792	4660
855.926	4694
856.06	4740
856.194	4820
856.327	4702
856.461	4588
856.595	4569
856.729	4588
856.862	4717
856.996	4664
857.13	4668
857.263	4733
857.397	4778
857.53	4668
857.664	4706
857.797	4725
857.931	4790
858.064	4694
858.197	4672
858.331	4599
858.464	4569
858.597	4481
858.731	4615
858.864	4675
858.997	4531
859.13	4611
859.263	4630
859.396	4634
859.529	4615
859.662	4538
859.795	4481
859.928	4554
860.061	4710
860.194	4752
860.327	4542
860.46	4542
860.592	4698
860.725	4702
860.858	4710
860.99	4535
861.123	4538
861.256	4527
861.388	4618
861.521	5250
861.653	4493
861.786	4383
861.918	4386
862.05	4508
862.183	4512
862.315	4569
862.447	4634
862.58	4508
862.712	4352
862.844	4356
862.976	4421
863.108	4424
863.24	4835
863.372	4287
863.504	4363
863.636	4424
863.768	4432
863.9	4428
864.032	4352
864.164	4375
864.296	4489
864.428	4470
864.559	4500
864.691	4516
864.823	4512
864.954	4481
865.086	4493
865.217	4409
865.349	4386
865.48	4474
865.612	4489
865.743	4577
865.875	4421
866.006	4405
866.137	4436
866.269	4447
866.4	4371
866.531	4417
866.662	4383
866.793	4402
866.924	4421
867.055	4485
867.186	4424
867.317	4383
867.448	4363
867.579	4402
867.71	4428
867.841	4390
867.972	4447
868.103	4424
868.233	4504
868.364	4455
868.495	4489
868.625	4679
868.756	4801
868.886	4580
869.017	4607
869.147	4767
869.278	4729
869.408	4611
869.539	4641
869.669	4748
869.799	4710
869.929	4812
870.06	4694
870.19	4976
870.32	4976
870.45	4942
870.58	4976
870.71	5090
870.84	5136
870.97	4949
871.1	4885
871.23	5201
871.36	5121
871.489	5037
871.619	5132
871.749	5132
871.879	5162
872.008	5223
872.138	5064
872.267	5006
872.397	4915
872.526	4805
872.656	4717
872.785	4843
872.915	5003
873.044	5041
873.173	4942
873.303	4995
873.432	4957
873.561	4987
873.69	4896
873.819	4900
873.948	4953
874.077	4862
874.206	4809
874.335	4854
874.464	4976
874.593	5094
874.722	4968
874.851	5086
874.979	5060
875.108	5098
875.237	4892
875.365	4946
875.494	4934
875.623	4972
875.751	4873
875.88	4934
876.008	5003
876.136	5064
876.265	5201
876.393	5364
876.521	5296
876.65	5204
876.778	5109
876.906	5090
877.034	5071
877.162	5067
877.29	5018
877.418	5098
877.546	5075
877.674	5143
877.802	5037
877.93	5010
878.058	4965
878.185	4881
878.313	4938
878.441	4915
878.568	4820
878.696	4889
878.824	4953
878.951	5052
879.079	5132
879.206	5284
879.333	5083
879.461	5045
879.588	4984
879.715	5155
879.842	5269
879.97	5010
880.097	4809
880.224	4793
880.351	4824
880.478	4873
880.605	4843
880.732	4767
880.859	5124
880.986	4927
881.112	4885
881.239	4812
881.366	4683
881.493	4645
881.619	4618
881.746	4630
881.872	4717
881.999	4714
882.125	4675
882.252	4847
882.378	4862
882.505	4957
882.631	4854
882.757	4714
882.883	4763
883.01	4725
883.136	4691
883.262	4611
883.388	4630
883.514	4847
883.64	4896
883.766	4824
883.892	4687
884.018	4744
884.143	4938
884.269	5041
884.395	4687
884.52	4580
884.646	4664
884.772	4649
884.897	4611
885.023	4687
885.148	4793
885.274	4911
885.399	4843
885.524	4748
885.65	4740
885.775	4763
885.9	4771
886.025	4854
886.15	4797
886.275	4721
886.4	4664
886.525	4736
886.65	4733
886.775	4683
886.9	4938
887.025	5052
887.149	4847
887.274	4679
887.399	4561
887.523	4653
887.648	4622
887.773	4599
887.897	4790
888.021	4809
888.146	4740
888.27	4820
888.395	4938
888.519	4862
888.643	4793
888.767	4831
888.891	4721
889.015	4645
889.139	4687
889.263	4626
889.387	4771
889.511	4919
889.635	4778
889.759	4714
889.883	4687
890.006	4725
890.13	4885
890.254	4607
890.377	4767
890.501	4577
890.624	4527
890.748	4660
890.871	4516
890.995	4455
891.118	4428
891.241	4554
891.364	4535
891.488	4656
891.611	4523
891.734	4588
891.857	4599
891.98	4519
892.103	4664
892.226	4618
892.349	4542
892.471	4417
892.594	4584
892.717	4611
892.839	4580
892.962	4675
893.085	4687
893.207	4607
893.33	4497
893.452	4546
893.575	4664
893.697	4596
893.819	4828
893.941	4847
894.064	4828
894.186	4565
894.308	4641
894.43	4698
894.552	4877
894.674	4771
894.796	4565
894.918	4592
895.04	4588
895.161	4691
895.283	4675
895.405	4584
895.526	4698
895.648	4748
895.769	4752
895.891	4752
896.012	4801
896.134	4729
896.255	4679
896.376	4626
896.498	4637
896.619	4729
896.74	4660
896.861	4694
896.982	4949
897.103	5094
897.224	4828
897.345	4763
897.466	4683
897.587	4771
897.708	4831
897.828	4782
897.949	4702
898.07	4611
898.19	4679
898.311	4816
898.431	4672
898.552	4790
898.672	4820
898.792	4820
898.913	4793
899.033	4637
899.153	4554
899.273	4432
899.393	4497
899.513	4565
899.633	4535
899.753	4546
899.873	4516
899.993	4622
900.113	4580
900.232	4649
900.352	4580
900.472	4527
900.591	4390
900.711	4535
900.83	4424
900.95	4626
901.069	4736
901.189	4626
901.308	4440
901.427	4341
901.546	4421
901.665	4516
901.784	4512
901.904	4383
902.023	4386
902.141	4204
902.26	4188
902.379	4356
902.498	4242
902.617	4238
902.735	4383
902.854	4379
902.973	4390
903.091	4234
903.21	4204
903.328	4348
903.446	4276
903.565	4253
903.683	4394
903.801	4295
903.919	4405
904.038	4440
904.156	4371
904.274	4451
904.392	4375
904.51	4451
904.627	4489
904.745	4603
904.863	4683
904.981	4402
905.098	4333
905.216	4398
905.334	4436
905.451	4386
905.569	4485
905.686	4569
905.803	4573
905.921	4440
906.038	4622
906.155	4493
906.272	4421
906.389	4436
906.506	4337
906.623	4383
906.74	4455
906.857	4322
906.974	4424
907.091	4584
907.208	4714
907.324	4588
907.441	4538
907.557	4344
907.674	4367
907.79	4303
907.907	4356
908.023	4504
908.139	4462
908.256	4409
908.372	4474
908.488	4481
908.604	4413
908.72	4341
908.836	4428
908.952	4405
909.068	4432
909.184	4561
909.3	4481
909.415	4630
909.531	4558
909.647	4360
909.762	4383
909.878	4314
909.993	4417
910.108	4428
910.224	4432
910.339	4485
910.454	4443
910.57	4402
910.685	4348
910.8	4736
910.915	4577
911.03	4497
911.145	4383
911.259	4341
911.374	4413
911.489	4333
911.604	4246
911.718	4147
911.833	4204
911.947	4139
912.062	4051
912.176	4230
912.291	4257
912.405	4276
912.519	4493
912.633	4516
912.748	4344
912.862	4310
912.976	4188
913.09	4173
913.204	4192
913.318	4246
913.431	4428
913.545	4363
913.659	4451
913.772	4337
913.886	4230
914	4246
914.113	4363
914.226	4413
914.34	4466
914.453	4246
914.566	4455
914.68	4287
914.793	4341
914.906	4185
915.019	4128
915.132	4090
915.245	4204
915.358	4257
915.47	4234
915.583	4253
915.696	4314
915.809	4440
915.921	4421
916.034	4280
916.146	4268
916.259	4207
916.371	4383
916.483	4383
916.595	4234
916.708	4322
916.82	4363
916.932	4352
917.044	4360
917.156	4310
917.268	4280
917.38	4272
917.491	4314
917.603	4363
917.715	4413
917.826	4447
917.938	4337
918.049	4268
918.161	4405
918.272	4565
918.384	4497
918.495	4497
918.606	4287
918.717	4261
918.828	4352
918.939	4356
919.05	4268
919.161	4299
919.272	4135
919.383	4215
919.494	4466
919.604	4683
919.715	4402
919.826	4348
919.936	4421
920.047	4523
920.157	4504
920.267	4714
920.378	4538
920.488	4546
920.598	4740
920.708	4919
920.818	4759
920.928	4721
921.038	4991
921.148	4892
921.258	4611
921.368	4554
921.477	4519
921.587	4466
921.697	4398
921.806	4542
921.916	4462
922.025	4303
922.134	4272
922.244	4246
922.353	4306
922.462	4166
922.571	4120
922.68	4006
922.789	4025
922.898	3998
923.007	3994
923.116	4078
923.224	4074
923.333	4074
923.442	4017
923.55	3975
923.659	4002
923.767	4139
923.876	4025
923.984	4128
924.092	3994
924.201	4112
924.309	4112
924.417	4109
924.525	4074
924.633	4116
924.741	5029
924.849	3922
924.956	4093
925.064	3975
925.172	3949
925.279	3964
925.387	4044
925.494	4051
925.602	4238
925.709	4223
925.816	4048
925.924	4124
926.031	4227
926.138	4181
926.245	4219
926.352	4109
926.459	4306
926.566	4303
926.673	4173
926.779	4124
926.886	4048
926.993	3968
927.099	3956
927.206	3918
927.312	3960
927.419	4029
927.525	4017
927.631	4135
927.737	3983
927.843	3911
927.95	3835
928.056	3956
928.162	3975
928.267	4040
928.373	4672
928.479	4120
928.585	3869
928.69	4006
928.796	4082
928.901	3968
929.007	3857
929.112	4006
929.218	4021
929.323	3941
929.428	3937
929.533	4093
929.638	3926
929.743	3983
929.848	4055
929.953	3972
930.058	3922
930.163	3778
930.267	3850
930.372	4013
930.477	3800
930.581	4090
930.685	3968
930.79	3816
930.894	3911
930.998	3846
931.103	4040
931.207	3717
931.311	3682
931.415	3686
931.519	3526
931.623	3564
