Data from test_V78500241_382.txt Node
Date: Fri Mar 25 16:51:39 CST 2022
User: usil
Spectrometer: V785-0024
Trigger mode: 0
Integration Time (sec): 4.000000E-1
Scans to average: 1
Nonlinearity correction enabled: false
Boxcar width: 0
Storing dark spectrum: false
XAxis mode: Wavelengths
Number of Pixels in Spectrum: 1024
>>>>>Begin Spectral Data<<<<<
801.071	8062
801.214	8119
801.356	7936
801.499	7906
801.641	7750
801.783	7852
801.926	7963
802.068	8024
802.211	8005
802.353	8054
802.496	7845
802.638	7932
802.78	7936
802.923	7989
803.065	7940
803.208	7826
803.35	7925
803.492	8088
803.635	8115
803.777	8031
803.919	8103
804.061	8480
804.204	8100
804.346	8084
804.488	7978
804.63	8100
804.773	8046
804.915	8084
805.057	8396
805.199	8244
805.341	8294
805.483	8320
805.626	8176
805.768	8058
805.91	8195
806.052	8218
806.194	8126
806.336	8298
806.478	8187
806.62	8221
806.762	8206
806.904	8328
807.046	8454
807.188	8324
807.33	8320
807.472	8366
807.614	8225
807.756	8275
807.898	8001
808.04	7928
808.182	7936
808.324	7955
808.465	7993
808.607	8088
808.749	8218
808.891	8301
809.033	8248
809.174	8218
809.316	8126
809.458	8111
809.6	7963
809.741	8107
809.883	8035
810.025	8138
810.166	8119
810.308	8069
810.45	8001
810.591	7898
810.733	7799
810.875	7685
811.016	7502
811.158	7544
811.299	7719
811.441	7784
811.582	7727
811.724	7666
811.865	7658
812.007	7666
812.148	7578
812.29	7658
812.431	7803
812.573	7944
812.714	8107
812.855	8202
812.997	8210
813.138	8332
813.279	8259
813.421	8164
813.562	8069
813.703	7909
813.845	7795
813.986	7510
814.127	7305
814.268	7312
814.41	7240
814.551	7247
814.692	7209
814.833	7080
814.974	7095
815.115	7110
815.256	7000
815.397	6943
815.539	6962
815.68	6856
815.821	6856
815.962	6886
816.103	6875
816.244	6833
816.385	6650
816.526	6627
816.666	6517
816.807	6346
816.948	6441
817.089	6475
817.23	6486
817.371	6391
817.512	6410
817.653	6372
817.793	6467
817.934	6452
818.075	6471
818.216	6521
818.356	6467
818.497	6296
818.638	6144
818.778	6186
818.919	6136
819.06	6216
819.2	6334
819.341	6384
819.481	6399
819.622	6574
819.762	6719
819.903	6719
820.043	6616
820.184	6639
820.324	6521
820.465	6688
820.605	6726
820.746	6669
820.886	6513
821.026	6662
821.167	6722
821.307	6856
821.447	6814
821.588	6684
821.728	6627
821.868	6483
822.008	6346
822.149	6388
822.289	6418
822.429	6163
822.569	6091
822.709	6117
822.849	5984
822.99	5946
823.13	5920
823.27	5942
823.41	5813
823.55	5805
823.69	5840
823.83	5790
823.97	5688
824.11	5623
824.25	5524
824.389	5547
824.529	5600
824.669	5570
824.809	5630
824.949	5657
825.089	5581
825.228	5585
825.368	5421
825.508	5345
825.648	5391
825.787	5391
825.927	5372
826.067	5368
826.206	5322
826.346	5376
826.485	5440
826.625	5444
826.765	5585
826.904	5516
827.044	5254
827.183	5223
827.323	5075
827.462	5273
827.601	5197
827.741	5178
827.88	5246
828.02	5132
828.159	5239
828.298	5273
828.437	5402
828.577	5292
828.716	5486
828.855	5353
828.994	5197
829.134	5166
829.273	5235
829.412	5227
829.551	5128
829.69	5136
829.829	5258
829.968	5349
830.107	5246
830.246	5269
830.385	5223
830.524	5170
830.663	5064
830.802	4987
830.941	4904
831.08	4911
831.219	5018
831.357	4984
831.496	5170
831.635	4976
831.774	4850
831.913	4850
832.051	4767
832.19	4767
832.329	4839
832.467	4778
832.606	4641
832.744	4774
832.883	4744
833.022	4725
833.16	4801
833.299	4858
833.437	4820
833.576	4820
833.714	4835
833.852	4889
833.991	4934
834.129	4946
834.267	4927
834.406	4904
834.544	4984
834.682	5003
834.821	4987
834.959	5117
835.097	5018
835.235	5121
835.373	5060
835.511	5064
835.65	5014
835.788	4995
835.926	4896
836.064	4896
836.202	4927
836.34	5136
836.478	5246
836.615	5124
836.753	5254
836.891	5269
837.029	5261
837.167	5189
837.305	5136
837.443	5174
837.58	5067
837.718	5261
837.856	5185
837.993	5124
838.131	5254
838.269	5254
838.406	5265
838.544	5242
838.681	5079
838.819	5018
838.956	4900
839.094	4927
839.231	4984
839.369	5143
839.506	5410
839.643	5296
839.781	5143
839.918	5003
840.055	5132
840.193	5094
840.33	5102
840.467	5189
840.604	5231
840.742	5486
840.879	5079
841.016	5094
841.153	5140
841.29	5436
841.427	5376
841.564	5296
841.701	5383
841.838	5273
841.975	5292
842.112	5239
842.249	5155
842.385	5128
842.522	5292
842.659	5166
842.796	5155
842.933	5250
843.069	5113
843.206	5113
843.343	5307
843.479	5254
843.616	5254
843.752	5064
843.889	5041
844.025	5235
844.162	5033
844.298	5227
844.435	5105
844.571	5083
844.708	5258
844.844	5299
844.98	5372
845.117	5307
845.253	5105
845.389	5098
845.525	5166
845.661	5185
845.798	5060
845.934	5155
846.07	5060
846.206	5166
846.342	5311
846.478	5178
846.614	5025
846.75	4987
846.886	4965
847.022	5155
847.158	5033
847.294	5083
847.429	5109
847.565	5056
847.701	5303
847.837	4839
847.972	4801
848.108	4961
848.244	4927
848.379	4812
848.515	4717
848.65	4714
848.786	4733
848.921	4828
849.057	4858
849.192	4949
849.328	4820
849.463	4885
849.598	4828
849.734	4771
849.869	4683
850.004	4641
850.14	4702
850.275	4615
850.41	4569
850.545	4588
850.68	4580
850.815	4596
850.95	4615
851.085	4839
851.22	4790
851.355	4694
851.49	4618
851.625	4653
851.76	4664
851.895	4516
852.03	4523
852.165	4668
852.299	4725
852.434	4839
852.569	4759
852.703	4812
852.838	4877
852.973	4987
853.107	4892
853.242	4736
853.376	4679
853.511	4577
853.645	4603
853.78	4774
853.914	4691
854.048	4675
854.183	4649
854.317	4710
854.451	4873
854.585	4691
854.72	4634
854.854	4740
854.988	4573
855.122	4630
855.256	4573
855.39	4706
855.524	4744
855.658	4683
855.792	4714
855.926	4755
856.06	4744
856.194	4755
856.327	4656
856.461	4622
856.595	4660
856.729	4649
856.862	4767
856.996	4710
857.13	4771
857.263	4767
857.397	4786
857.53	4664
857.664	4729
857.797	4774
857.931	4828
858.064	4649
858.197	4752
858.331	4653
858.464	4592
858.597	4542
858.731	4622
858.864	4645
858.997	4596
859.13	4653
859.263	4679
859.396	4725
859.529	4603
859.662	4569
859.795	4538
859.928	4675
860.061	4778
860.194	4786
860.327	4653
860.46	4588
860.592	4736
860.725	4725
860.858	4736
860.99	4573
861.123	4542
861.256	4497
861.388	4622
861.521	5372
861.653	4451
861.786	4432
861.918	4440
862.05	4500
862.183	4500
862.315	4588
862.447	4694
862.58	4538
862.712	4432
862.844	4341
862.976	4489
863.108	4455
863.24	4729
863.372	4352
863.504	4451
863.636	4417
863.768	4455
863.9	4409
864.032	4394
864.164	4409
864.296	4497
864.428	4580
864.559	4645
864.691	4542
864.823	4497
864.954	4516
865.086	4493
865.217	4470
865.349	4436
865.48	4504
865.612	4523
865.743	4653
865.875	4573
866.006	4428
866.137	4466
866.269	4474
866.4	4443
866.531	4409
866.662	4451
866.793	4424
866.924	4421
867.055	4558
867.186	4455
867.317	4421
867.448	4356
867.579	4417
867.71	4398
867.841	4352
867.972	4485
868.103	4466
868.233	4459
868.364	4451
868.495	4527
868.625	4721
868.756	4725
868.886	4577
869.017	4637
869.147	4835
869.278	4736
869.408	4634
869.539	4691
869.669	4733
869.799	4653
869.929	4786
870.06	4744
870.19	4946
870.32	4946
870.45	4930
870.58	5067
870.71	5098
870.84	5098
870.97	4961
871.1	4873
871.23	5140
871.36	5170
871.489	5029
871.619	5098
871.749	5094
871.879	5143
872.008	5197
872.138	5067
872.267	5014
872.397	4866
872.526	4805
872.656	4767
872.785	4809
872.915	4930
873.044	5075
873.173	4930
873.303	4972
873.432	4984
873.561	4976
873.69	4850
873.819	4900
873.948	4866
874.077	4793
874.206	4824
874.335	4809
874.464	4934
874.593	5029
874.722	4965
874.851	5064
874.979	5105
875.108	5052
875.237	4889
875.365	4911
875.494	4942
875.623	4976
875.751	4839
875.88	4866
876.008	4965
876.136	4991
876.265	5208
876.393	5372
876.521	5318
876.65	5239
876.778	5239
876.906	5075
877.034	5033
877.162	5056
877.29	5033
877.418	5022
877.546	5056
877.674	5052
877.802	5056
877.93	5037
878.058	4930
878.185	4881
878.313	4938
878.441	4953
878.568	4839
878.696	4915
878.824	4942
878.951	5029
879.079	5109
879.206	5223
879.333	5143
879.461	4968
879.588	5018
879.715	5124
879.842	5254
879.97	4938
880.097	4828
880.224	4816
880.351	4843
880.478	4858
880.605	4809
880.732	4843
880.859	5079
880.986	4892
881.112	4934
881.239	4835
881.366	4714
881.493	4611
881.619	4535
881.746	4592
881.872	4641
881.999	4641
882.125	4664
882.252	4820
882.378	4835
882.505	4946
882.631	4858
882.757	4710
882.883	4729
883.01	4759
883.136	4687
883.262	4630
883.388	4603
883.514	4843
883.64	4866
883.766	4820
883.892	4672
884.018	4721
884.143	4885
884.269	5029
884.395	4691
884.52	4653
884.646	4660
884.772	4569
884.897	4565
885.023	4702
885.148	4820
885.274	4831
885.399	4790
885.524	4729
885.65	4706
885.775	4714
885.9	4710
886.025	4896
886.15	4778
886.275	4725
886.4	4683
886.525	4702
886.65	4706
886.775	4664
886.9	4915
887.025	5037
887.149	4835
887.274	4645
887.399	4634
887.523	4615
887.648	4596
887.773	4618
887.897	4763
888.021	4824
888.146	4675
888.27	4847
888.395	4915
888.519	4850
888.643	4809
888.767	4896
888.891	4721
889.015	4622
889.139	4668
889.263	4603
889.387	4748
889.511	4858
889.635	4782
889.759	4679
889.883	4668
890.006	4748
890.13	4835
890.254	4630
890.377	4668
890.501	4538
890.624	4527
890.748	4622
890.871	4527
890.995	4459
891.118	4402
891.241	4493
891.364	4561
891.488	4649
891.611	4485
891.734	4569
891.857	4634
891.98	4523
892.103	4656
892.226	4580
892.349	4558
892.471	4481
892.594	4519
892.717	4607
892.839	4615
892.962	4622
893.085	4698
893.207	4607
893.33	4424
893.452	4550
893.575	4679
893.697	4649
893.819	4801
893.941	4809
894.064	4733
894.186	4615
894.308	4599
894.43	4729
894.552	4889
894.674	4736
894.796	4561
894.918	4538
895.04	4577
895.161	4675
895.283	4656
895.405	4637
895.526	4653
895.648	4683
895.769	4683
895.891	4702
896.012	4767
896.134	4714
896.255	4641
896.376	4599
896.498	4611
896.619	4702
896.74	4649
896.861	4694
896.982	4927
897.103	5071
897.224	4889
897.345	4698
897.466	4656
897.587	4755
897.708	4854
897.828	4774
897.949	4687
898.07	4596
898.19	4615
898.311	4809
898.431	4634
898.552	4771
898.672	4847
898.792	4763
898.913	4717
899.033	4615
899.153	4481
899.273	4440
899.393	4512
899.513	4478
899.633	4516
899.753	4535
899.873	4481
899.993	4634
900.113	4565
900.232	4577
900.352	4542
900.472	4466
900.591	4371
900.711	4527
900.83	4459
900.95	4645
901.069	4660
901.189	4542
901.308	4329
901.427	4295
901.546	4405
901.665	4443
901.784	4535
901.904	4367
902.023	4375
902.141	4188
902.26	4177
902.379	4310
902.498	4246
902.617	4230
902.735	4386
902.854	4386
902.973	4379
903.091	4219
903.21	4249
903.328	4303
903.446	4272
903.565	4265
903.683	4375
903.801	4280
903.919	4421
904.038	4489
904.156	4325
904.274	4474
904.392	4367
904.51	4443
904.627	4459
904.745	4573
904.863	4653
904.981	4405
905.098	4322
905.216	4386
905.334	4459
905.451	4436
905.569	4462
905.686	4561
905.803	4584
905.921	4417
906.038	4596
906.155	4527
906.272	4371
906.389	4440
906.506	4348
906.623	4383
906.74	4390
906.857	4356
906.974	4352
907.091	4577
907.208	4668
907.324	4622
907.441	4542
907.557	4356
907.674	4337
907.79	4318
907.907	4428
908.023	4508
908.139	4493
908.256	4451
908.372	4497
908.488	4443
908.604	4348
908.72	4379
908.836	4383
908.952	4379
909.068	4413
909.184	4550
909.3	4504
909.415	4535
909.531	4569
909.647	4360
909.762	4383
909.878	4360
909.993	4455
910.108	4405
910.224	4367
910.339	4516
910.454	4432
910.57	4371
910.685	4310
910.8	4683
910.915	4565
911.03	4462
911.145	4318
911.259	4299
911.374	4386
911.489	4352
911.604	4253
911.718	4154
911.833	4207
911.947	4067
912.062	4051
912.176	4204
912.291	4234
912.405	4280
912.519	4485
912.633	4478
912.748	4371
912.862	4303
912.976	4257
913.09	4112
913.204	4154
913.318	4265
913.431	4375
913.545	4318
913.659	4504
913.772	4409
913.886	4196
914	4227
914.113	4402
914.226	4462
914.34	4421
914.453	4215
914.566	4428
914.68	4337
914.793	4322
914.906	4147
915.019	4143
915.132	4086
915.245	4181
915.358	4238
915.47	4238
915.583	4238
915.696	4291
915.809	4417
915.921	4432
916.034	4291
916.146	4219
916.259	4223
916.371	4383
916.483	4367
916.595	4284
916.708	4363
916.82	4337
916.932	4360
917.044	4344
917.156	4341
917.268	4280
917.38	4227
917.491	4238
917.603	4344
917.715	4421
917.826	4459
917.938	4379
918.049	4211
918.161	4352
918.272	4569
918.384	4527
918.495	4459
918.606	4371
918.717	4234
918.828	4367
918.939	4413
919.05	4268
919.161	4337
919.272	4158
919.383	4227
919.494	4413
919.604	4630
919.715	4447
919.826	4360
919.936	4398
920.047	4535
920.157	4485
920.267	4706
920.378	4558
920.488	4489
920.598	4721
920.708	4942
920.818	4755
920.928	4752
921.038	4995
921.148	4934
921.258	4615
921.368	4538
921.477	4512
921.587	4485
921.697	4383
921.806	4489
921.916	4440
922.025	4306
922.134	4287
922.244	4219
922.353	4344
922.462	4169
922.571	4124
922.68	3991
922.789	3979
922.898	4029
923.007	3968
923.116	4120
923.224	4093
923.333	4101
923.442	3998
923.55	4017
923.659	4040
923.767	4120
923.876	3968
923.984	4128
924.092	3968
924.201	4112
924.309	4063
924.417	4166
924.525	4090
924.633	4093
924.741	4904
924.849	3926
924.956	4116
925.064	3922
925.172	3949
925.279	3983
925.387	4086
925.494	4093
925.602	4253
925.709	4173
925.816	4029
925.924	4188
926.031	4242
926.138	4162
926.245	4211
926.352	4086
926.459	4257
926.566	4314
926.673	4135
926.779	4109
926.886	4109
926.993	4017
927.099	4006
927.206	3896
927.312	3941
927.419	4017
927.525	4021
927.631	4071
927.737	3987
927.843	3968
927.95	3865
928.056	3956
928.162	4032
928.267	4074
928.373	4691
928.479	4124
928.585	3896
928.69	4025
928.796	4097
928.901	3922
929.007	3842
929.112	4013
929.218	4036
929.323	3953
929.428	3926
929.533	4097
929.638	3899
929.743	3991
929.848	4055
929.953	4002
930.058	3949
930.163	3759
930.267	3823
930.372	3991
930.477	3770
930.581	4082
930.685	3930
930.79	3827
930.894	3892
930.998	3873
931.103	4074
931.207	3778
931.311	3698
931.415	3690
931.519	3538
931.623	3557
