Data from test_V78500241_2136.txt Node
Date: Fri Mar 25 17:03:51 CST 2022
User: usil
Spectrometer: V785-0024
Trigger mode: 0
Integration Time (sec): 4.000000E-1
Scans to average: 1
Nonlinearity correction enabled: false
Boxcar width: 0
Storing dark spectrum: false
XAxis mode: Wavelengths
Number of Pixels in Spectrum: 1024
>>>>>Begin Spectral Data<<<<<
801.071	7997
801.214	7986
801.356	7871
801.499	7826
801.641	7757
801.783	7788
801.926	7947
802.068	7932
802.211	8020
802.353	7887
802.496	7788
802.638	7868
802.78	7860
802.923	7875
803.065	7871
803.208	7864
803.35	8001
803.492	8073
803.635	8157
803.777	8020
803.919	8123
804.061	8393
804.204	8180
804.346	8035
804.488	8035
804.63	8096
804.773	7978
804.915	8111
805.057	8267
805.199	8172
805.341	8206
805.483	8229
805.626	8183
805.768	8050
805.91	8233
806.052	8123
806.194	8145
806.336	8259
806.478	8058
806.62	8016
806.762	8111
806.904	8248
807.046	8446
807.188	8339
807.33	8237
807.472	8355
807.614	8134
807.756	8164
807.898	8062
808.04	7841
808.182	7860
808.324	7868
808.465	7955
808.607	8065
808.749	8054
808.891	8172
809.033	8317
809.174	8161
809.316	8054
809.458	8084
809.6	8035
809.741	8081
809.883	8046
810.025	8096
810.166	8062
810.308	8008
810.45	7959
810.591	7807
810.733	7689
810.875	7666
811.016	7506
811.158	7495
811.299	7521
811.441	7685
811.582	7696
811.724	7556
811.865	7521
812.007	7544
812.148	7537
812.29	7575
812.431	7788
812.573	7898
812.714	7986
812.855	8096
812.997	8229
813.138	8259
813.279	8126
813.421	8069
813.562	7944
813.703	7822
813.845	7666
813.986	7384
814.127	7270
814.268	7255
814.41	7141
814.551	7198
814.692	7228
814.833	7042
814.974	7103
815.115	7072
815.256	6985
815.397	6909
815.539	6993
815.68	6810
815.821	6837
815.962	6791
816.103	6798
816.244	6608
816.385	6601
816.526	6620
816.666	6532
816.807	6388
816.948	6433
817.089	6456
817.23	6448
817.371	6391
817.512	6403
817.653	6315
817.793	6334
817.934	6426
818.075	6506
818.216	6399
818.356	6403
818.497	6270
818.638	6121
818.778	6148
818.919	6114
819.06	6163
819.2	6235
819.341	6361
819.481	6350
819.622	6513
819.762	6738
819.903	6654
820.043	6616
820.184	6593
820.324	6544
820.465	6684
820.605	6589
820.746	6612
820.886	6502
821.026	6627
821.167	6692
821.307	6768
821.447	6715
821.588	6688
821.728	6532
821.868	6551
822.008	6342
822.149	6350
822.289	6380
822.429	6175
822.569	6083
822.709	6133
822.849	5927
822.99	5893
823.13	5904
823.27	5927
823.41	5737
823.55	5775
823.69	5741
823.83	5748
823.97	5627
824.11	5573
824.25	5535
824.389	5512
824.529	5577
824.669	5524
824.809	5596
824.949	5657
825.089	5611
825.228	5509
825.368	5341
825.508	5345
825.648	5364
825.787	5368
825.927	5341
826.067	5326
826.206	5303
826.346	5349
826.485	5391
826.625	5410
826.765	5524
826.904	5455
827.044	5223
827.183	5201
827.323	5105
827.462	5193
827.601	5189
827.741	5231
827.88	5265
828.02	5181
828.159	5235
828.298	5307
828.437	5341
828.577	5258
828.716	5471
828.855	5330
828.994	5174
829.134	5109
829.273	5227
829.412	5105
829.551	5136
829.69	5128
829.829	5254
829.968	5357
830.107	5299
830.246	5250
830.385	5151
830.524	5162
830.663	5041
830.802	4968
830.941	4900
831.08	4877
831.219	4938
831.357	4911
831.496	5109
831.635	4927
831.774	4850
831.913	4824
832.051	4729
832.19	4778
832.329	4782
832.467	4733
832.606	4656
832.744	4763
832.883	4717
833.022	4679
833.16	4812
833.299	4816
833.437	4805
833.576	4835
833.714	4774
833.852	4889
833.991	4889
834.129	4908
834.267	4953
834.406	4930
834.544	4957
834.682	4968
834.821	4953
834.959	5117
835.097	5010
835.235	5121
835.373	5113
835.511	5083
835.65	5060
835.788	5014
835.926	4904
836.064	4831
836.202	4892
836.34	5136
836.478	5239
836.615	5117
836.753	5181
836.891	5250
837.029	5201
837.167	5136
837.305	5151
837.443	5140
837.58	5010
837.718	5242
837.856	5174
837.993	5109
838.131	5258
838.269	5197
838.406	5216
838.544	5193
838.681	4976
838.819	4999
838.956	4873
839.094	4927
839.231	5003
839.369	5060
839.506	5421
839.643	5284
839.781	5029
839.918	5064
840.055	5067
840.193	5105
840.33	5102
840.467	5140
840.604	5185
840.742	5398
840.879	5143
841.016	5124
841.153	5117
841.29	5341
841.427	5292
841.564	5322
841.701	5357
841.838	5242
841.975	5254
842.112	5261
842.249	5140
842.385	5113
842.522	5334
842.659	5128
842.796	5143
842.933	5155
843.069	5128
843.206	5090
843.343	5261
843.479	5212
843.616	5216
843.752	5037
843.889	5003
844.025	5208
844.162	5041
844.298	5216
844.435	5060
844.571	5041
844.708	5193
844.844	5292
844.98	5349
845.117	5273
845.253	5155
845.389	5121
845.525	5151
845.661	5105
845.798	5064
845.934	5143
846.07	5033
846.206	5174
846.342	5296
846.478	5151
846.614	5010
846.75	4957
846.886	4904
847.022	5143
847.158	5037
847.294	5052
847.429	5109
847.565	5117
847.701	5261
847.837	4839
847.972	4835
848.108	4984
848.244	4980
848.379	4767
848.515	4721
848.65	4702
848.786	4729
848.921	4744
849.057	4839
849.192	4911
849.328	4790
849.463	4862
849.598	4816
849.734	4733
849.869	4664
850.004	4618
850.14	4580
850.275	4607
850.41	4535
850.545	4599
850.68	4584
850.815	4634
850.95	4611
851.085	4870
851.22	4733
851.355	4668
851.49	4672
851.625	4588
851.76	4599
851.895	4561
852.03	4535
852.165	4672
852.299	4752
852.434	4714
852.569	4702
852.703	4774
852.838	4774
852.973	4957
853.107	4934
853.242	4721
853.376	4672
853.511	4558
853.645	4634
853.78	4748
853.914	4698
854.048	4649
854.183	4592
854.317	4717
854.451	4862
854.585	4672
854.72	4607
854.854	4725
854.988	4561
855.122	4615
855.256	4550
855.39	4649
855.524	4740
855.658	4710
855.792	4679
855.926	4710
856.06	4797
856.194	4820
856.327	4675
856.461	4603
856.595	4611
856.729	4649
856.862	4706
856.996	4664
857.13	4710
857.263	4797
857.397	4847
857.53	4596
857.664	4725
857.797	4759
857.931	4774
858.064	4656
858.197	4694
858.331	4615
858.464	4569
858.597	4512
858.731	4611
858.864	4607
858.997	4497
859.13	4611
859.263	4656
859.396	4641
859.529	4607
859.662	4558
859.795	4558
859.928	4580
860.061	4706
860.194	4774
860.327	4573
860.46	4546
860.592	4694
860.725	4637
860.858	4763
860.99	4519
861.123	4527
861.256	4523
861.388	4599
861.521	5383
861.653	4516
861.786	4405
861.918	4459
862.05	4523
862.183	4546
862.315	4573
862.447	4599
862.58	4523
862.712	4383
862.844	4325
862.976	4428
863.108	4405
863.24	4797
863.372	4310
863.504	4421
863.636	4394
863.768	4455
863.9	4417
864.032	4348
864.164	4379
864.296	4432
864.428	4497
864.559	4531
864.691	4519
864.823	4497
864.954	4489
865.086	4493
865.217	4428
865.349	4371
865.48	4455
865.612	4436
865.743	4592
865.875	4432
866.006	4432
866.137	4447
866.269	4424
866.4	4402
866.531	4440
866.662	4367
866.793	4409
866.924	4417
867.055	4512
867.186	4443
867.317	4432
867.448	4356
867.579	4356
867.71	4383
867.841	4363
867.972	4447
868.103	4462
868.233	4489
868.364	4470
868.495	4508
868.625	4641
868.756	4782
868.886	4580
869.017	4645
869.147	4771
869.278	4782
869.408	4649
869.539	4622
869.669	4717
869.799	4702
869.929	4740
870.06	4755
870.19	4927
870.32	4938
870.45	4999
870.58	5067
870.71	5109
870.84	5105
870.97	4968
871.1	4870
871.23	5132
871.36	5128
871.489	5045
871.619	5086
871.749	5117
871.879	5151
872.008	5254
872.138	5079
872.267	5006
872.397	4919
872.526	4809
872.656	4755
872.785	4812
872.915	4984
873.044	5064
873.173	4972
873.303	5003
873.432	5064
873.561	5067
873.69	4889
873.819	4896
873.948	4972
874.077	4831
874.206	4793
874.335	4858
874.464	4942
874.593	5147
874.722	4946
874.851	5143
874.979	5113
875.108	5143
875.237	4915
875.365	4896
875.494	4885
875.623	5022
875.751	4858
875.88	4850
876.008	4995
876.136	5037
876.265	5201
876.393	5387
876.521	5292
876.65	5242
876.778	5155
876.906	5113
877.034	5075
877.162	5090
877.29	5060
877.418	5075
877.546	5098
877.674	5064
877.802	5075
877.93	5067
878.058	4930
878.185	4930
878.313	4999
878.441	4976
878.568	4816
878.696	4911
878.824	5010
878.951	4961
879.079	5162
879.206	5334
879.333	5090
879.461	5045
879.588	5037
879.715	5155
879.842	5288
879.97	5056
880.097	4839
880.224	4809
880.351	4835
880.478	4831
880.605	4797
880.732	4786
880.859	5098
880.986	4938
881.112	4927
881.239	4854
881.366	4702
881.493	4649
881.619	4599
881.746	4679
881.872	4672
881.999	4725
882.125	4736
882.252	4801
882.378	4858
882.505	4980
882.631	4790
882.757	4698
882.883	4759
883.01	4744
883.136	4778
883.262	4641
883.388	4592
883.514	4870
883.64	4923
883.766	4824
883.892	4683
884.018	4740
884.143	4923
884.269	5041
884.395	4664
884.52	4645
884.646	4725
884.772	4599
884.897	4573
885.023	4683
885.148	4809
885.274	4881
885.399	4774
885.524	4744
885.65	4656
885.775	4782
885.9	4740
886.025	4873
886.15	4828
886.275	4774
886.4	4683
886.525	4763
886.65	4706
886.775	4725
886.9	4961
887.025	5037
887.149	4805
887.274	4641
887.399	4584
887.523	4641
887.648	4615
887.773	4592
887.897	4774
888.021	4801
888.146	4729
888.27	4881
888.395	4923
888.519	4839
888.643	4877
888.767	4843
888.891	4683
889.015	4599
889.139	4694
889.263	4615
889.387	4755
889.511	4953
889.635	4793
889.759	4706
889.883	4634
890.006	4744
890.13	4839
890.254	4622
890.377	4668
890.501	4618
890.624	4519
890.748	4660
890.871	4542
890.995	4497
891.118	4371
891.241	4542
891.364	4588
891.488	4687
891.611	4523
891.734	4546
891.857	4611
891.98	4577
892.103	4649
892.226	4637
892.349	4550
892.471	4432
892.594	4558
892.717	4611
892.839	4596
892.962	4668
893.085	4721
893.207	4618
893.33	4481
893.452	4558
893.575	4683
893.697	4596
893.819	4839
893.941	4816
894.064	4774
894.186	4626
894.308	4630
894.43	4763
894.552	4862
894.674	4797
894.796	4577
894.918	4641
895.04	4656
895.161	4717
895.283	4664
895.405	4584
895.526	4653
895.648	4725
895.769	4698
895.891	4702
896.012	4736
896.134	4752
896.255	4717
896.376	4679
896.498	4626
896.619	4702
896.74	4599
896.861	4649
896.982	4927
897.103	5094
897.224	4820
897.345	4752
897.466	4694
897.587	4755
897.708	4889
897.828	4778
897.949	4691
898.07	4565
898.19	4683
898.311	4873
898.431	4717
898.552	4782
898.672	4847
898.792	4850
898.913	4755
899.033	4637
899.153	4542
899.273	4459
899.393	4512
899.513	4538
899.633	4558
899.753	4584
899.873	4542
899.993	4630
900.113	4542
900.232	4618
900.352	4607
900.472	4500
900.591	4421
900.711	4485
900.83	4451
900.95	4656
901.069	4702
901.189	4584
901.308	4360
901.427	4356
901.546	4432
901.665	4470
901.784	4603
901.904	4398
902.023	4367
902.141	4196
902.26	4166
902.379	4287
902.498	4257
902.617	4276
902.735	4394
902.854	4398
902.973	4405
903.091	4265
903.21	4211
903.328	4284
903.446	4291
903.565	4287
903.683	4363
903.801	4303
903.919	4428
904.038	4462
904.156	4337
904.274	4481
904.392	4459
904.51	4436
904.627	4516
904.745	4573
904.863	4645
904.981	4459
905.098	4348
905.216	4398
905.334	4436
905.451	4409
905.569	4451
905.686	4558
905.803	4554
905.921	4447
906.038	4538
906.155	4478
906.272	4440
906.389	4497
906.506	4341
906.623	4371
906.74	4413
906.857	4325
906.974	4394
907.091	4569
907.208	4710
907.324	4626
907.441	4535
907.557	4333
907.674	4402
907.79	4352
907.907	4413
908.023	4481
908.139	4489
908.256	4455
908.372	4497
908.488	4459
908.604	4405
908.72	4367
908.836	4356
908.952	4360
909.068	4451
909.184	4558
909.3	4523
909.415	4588
909.531	4588
909.647	4329
909.762	4360
909.878	4409
909.993	4504
910.108	4421
910.224	4402
910.339	4474
910.454	4386
910.57	4356
910.685	4284
910.8	4675
910.915	4607
911.03	4489
911.145	4337
911.259	4363
911.374	4379
911.489	4348
911.604	4295
911.718	4219
911.833	4227
911.947	4112
912.062	4040
912.176	4223
912.291	4234
912.405	4249
912.519	4424
912.633	4497
912.748	4409
912.862	4360
912.976	4219
913.09	4105
913.204	4192
913.318	4303
913.431	4409
913.545	4356
913.659	4455
913.772	4386
913.886	4249
914	4219
914.113	4424
914.226	4447
914.34	4394
914.453	4253
914.566	4424
914.68	4333
914.793	4329
914.906	4196
915.019	4131
915.132	4116
915.245	4192
915.358	4261
915.47	4303
915.583	4253
915.696	4303
915.809	4432
915.921	4455
916.034	4303
916.146	4272
916.259	4223
916.371	4405
916.483	4363
916.595	4325
916.708	4367
916.82	4322
916.932	4322
917.044	4344
917.156	4363
917.268	4306
917.38	4196
917.491	4246
917.603	4394
917.715	4466
917.826	4462
917.938	4371
918.049	4249
918.161	4417
918.272	4573
918.384	4531
918.495	4447
918.606	4314
918.717	4284
918.828	4322
918.939	4398
919.05	4280
919.161	4325
919.272	4112
919.383	4219
919.494	4451
919.604	4656
919.715	4474
919.826	4459
919.936	4352
920.047	4561
920.157	4519
920.267	4706
920.378	4596
920.488	4512
920.598	4729
920.708	4938
920.818	4774
920.928	4786
921.038	4980
921.148	4938
921.258	4683
921.368	4554
921.477	4489
921.587	4485
921.697	4367
921.806	4580
921.916	4481
922.025	4314
922.134	4265
922.244	4211
922.353	4337
922.462	4200
922.571	4158
922.68	4010
922.789	4040
922.898	4063
923.007	4021
923.116	4093
923.224	4071
923.333	4032
923.442	3960
923.55	4006
923.659	4032
923.767	4135
923.876	4010
923.984	4128
924.092	3972
924.201	4082
924.309	4093
924.417	4143
924.525	4071
924.633	4177
924.741	5041
924.849	3960
924.956	4162
925.064	3953
925.172	3937
925.279	3983
925.387	4071
925.494	4067
925.602	4230
925.709	4147
925.816	4067
925.924	4150
926.031	4272
926.138	4166
926.245	4227
926.352	4074
926.459	4253
926.566	4318
926.673	4147
926.779	4124
926.886	4032
926.993	4025
927.099	3964
927.206	3956
927.312	3968
927.419	4055
927.525	4006
927.631	4131
927.737	4006
927.843	3934
927.95	3846
928.056	3960
928.162	3953
928.267	4086
928.373	4558
928.479	4124
928.585	3876
928.69	4032
928.796	4078
928.901	3964
929.007	3888
929.112	4025
929.218	3968
929.323	3968
929.428	3956
929.533	4074
929.638	3899
929.743	3968
929.848	4067
929.953	3991
930.058	3945
930.163	3793
930.267	3827
930.372	3994
930.477	3819
930.581	4074
930.685	3953
930.79	3880
930.894	3899
930.998	3842
931.103	4059
931.207	3732
931.311	3736
931.415	3671
931.519	3538
931.623	3542
