Data from test_V78500241_2174.txt Node
Date: Fri Mar 25 17:04:07 CST 2022
User: usil
Spectrometer: V785-0024
Trigger mode: 0
Integration Time (sec): 4.000000E-1
Scans to average: 1
Nonlinearity correction enabled: false
Boxcar width: 0
Storing dark spectrum: false
XAxis mode: Wavelengths
Number of Pixels in Spectrum: 1024
>>>>>Begin Spectral Data<<<<<
801.071	8058
801.214	7928
801.356	7830
801.499	7830
801.641	7795
801.783	7784
801.926	7986
802.068	7936
802.211	8008
802.353	7955
802.496	7852
802.638	7894
802.78	7894
802.923	7887
803.065	7860
803.208	7841
803.35	8031
803.492	8050
803.635	8134
803.777	7974
803.919	8149
804.061	8427
804.204	8126
804.346	8065
804.488	7940
804.63	8081
804.773	8008
804.915	8069
805.057	8271
805.199	8176
805.341	8206
805.483	8301
805.626	8275
805.768	8115
805.91	8164
806.052	8286
806.194	8088
806.336	8298
806.478	8123
806.62	8035
806.762	8153
806.904	8279
807.046	8415
807.188	8336
807.33	8351
807.472	8362
807.614	8157
807.756	8115
807.898	8027
808.04	7837
808.182	7902
808.324	7913
808.465	7947
808.607	8043
808.749	8115
808.891	8187
809.033	8225
809.174	8244
809.316	8164
809.458	8115
809.6	7989
809.741	8043
809.883	7997
810.025	8161
810.166	8084
810.308	8043
810.45	7947
810.591	7856
810.733	7731
810.875	7677
811.016	7460
811.158	7491
811.299	7518
811.441	7746
811.582	7681
811.724	7575
811.865	7537
812.007	7582
812.148	7567
812.29	7643
812.431	7780
812.573	7826
812.714	8050
812.855	8157
812.997	8233
813.138	8206
813.279	8130
813.421	8077
813.562	7993
813.703	7868
813.845	7693
813.986	7449
814.127	7206
814.268	7206
814.41	7183
814.551	7206
814.692	7202
814.833	7118
814.974	7122
815.115	7133
815.256	7004
815.397	6935
815.539	6939
815.68	6783
815.821	6768
815.962	6882
816.103	6837
816.244	6673
816.385	6623
816.526	6601
816.666	6509
816.807	6323
816.948	6506
817.089	6445
817.23	6388
817.371	6388
817.512	6399
817.653	6433
817.793	6334
817.934	6391
818.075	6441
818.216	6479
818.356	6418
818.497	6247
818.638	6121
818.778	6178
818.919	6121
819.06	6159
819.2	6292
819.341	6372
819.481	6395
819.622	6521
819.762	6760
819.903	6688
820.043	6544
820.184	6532
820.324	6521
820.465	6669
820.605	6741
820.746	6623
820.886	6540
821.026	6635
821.167	6650
821.307	6795
821.447	6852
821.588	6662
821.728	6574
821.868	6563
822.008	6357
822.149	6384
822.289	6391
822.429	6140
822.569	6072
822.709	6136
822.849	5885
822.99	5847
823.13	5939
823.27	5885
823.41	5824
823.55	5805
823.69	5748
823.83	5764
823.97	5684
824.11	5596
824.25	5482
824.389	5520
824.529	5570
824.669	5509
824.809	5638
824.949	5672
825.089	5604
825.228	5532
825.368	5383
825.508	5337
825.648	5341
825.787	5425
825.927	5368
826.067	5277
826.206	5318
826.346	5349
826.485	5444
826.625	5448
826.765	5535
826.904	5459
827.044	5296
827.183	5204
827.323	5181
827.462	5246
827.601	5159
827.741	5181
827.88	5162
828.02	5075
828.159	5239
828.298	5341
828.437	5372
828.577	5235
828.716	5467
828.855	5334
828.994	5117
829.134	5136
829.273	5239
829.412	5181
829.551	5132
829.69	5136
829.829	5246
829.968	5353
830.107	5277
830.246	5185
830.385	5151
830.524	5117
830.663	5045
830.802	4930
830.941	4927
831.08	4892
831.219	4968
831.357	4968
831.496	5162
831.635	4953
831.774	4847
831.913	4866
832.051	4740
832.19	4744
832.329	4850
832.467	4668
832.606	4630
832.744	4763
832.883	4706
833.022	4672
833.16	4755
833.299	4790
833.437	4854
833.576	4771
833.714	4850
833.852	4873
833.991	4892
834.129	4942
834.267	4934
834.406	4881
834.544	4946
834.682	4968
834.821	4934
834.959	5124
835.097	4972
835.235	5140
835.373	5079
835.511	5105
835.65	5105
835.788	5041
835.926	4915
836.064	4854
836.202	4961
836.34	5181
836.478	5242
836.615	5090
836.753	5227
836.891	5261
837.029	5246
837.167	5162
837.305	5117
837.443	5109
837.58	5102
837.718	5265
837.856	5143
837.993	5216
838.131	5216
838.269	5223
838.406	5166
838.544	5170
838.681	5018
838.819	5014
838.956	4839
839.094	4847
839.231	4930
839.369	5045
839.506	5395
839.643	5284
839.781	5033
839.918	5041
840.055	5105
840.193	5121
840.33	5102
840.467	5113
840.604	5174
840.742	5444
840.879	5075
841.016	5128
841.153	5132
841.29	5353
841.427	5258
841.564	5345
841.701	5383
841.838	5208
841.975	5250
842.112	5250
842.249	5155
842.385	5079
842.522	5349
842.659	5170
842.796	5117
842.933	5220
843.069	5140
843.206	5155
843.343	5318
843.479	5227
843.616	5258
843.752	4995
843.889	5014
844.025	5193
844.162	5052
844.298	5174
844.435	5067
844.571	5064
844.708	5166
844.844	5277
844.98	5345
845.117	5299
845.253	5136
845.389	5064
845.525	5140
845.661	5178
845.798	5041
845.934	5124
846.07	5060
846.206	5197
846.342	5284
846.478	5140
846.614	5014
846.75	4930
846.886	4942
847.022	5113
847.158	5006
847.294	5060
847.429	5151
847.565	5022
847.701	5284
847.837	4816
847.972	4812
848.108	4999
848.244	4930
848.379	4767
848.515	4725
848.65	4752
848.786	4759
848.921	4771
849.057	4847
849.192	4919
849.328	4843
849.463	4858
849.598	4805
849.734	4809
849.869	4725
850.004	4622
850.14	4660
850.275	4603
850.41	4554
850.545	4554
850.68	4653
850.815	4630
850.95	4599
851.085	4835
851.22	4752
851.355	4622
851.49	4622
851.625	4599
851.76	4626
851.895	4546
852.03	4569
852.165	4634
852.299	4656
852.434	4790
852.569	4771
852.703	4831
852.838	4809
852.973	4915
853.107	4850
853.242	4752
853.376	4622
853.511	4561
853.645	4588
853.78	4755
853.914	4675
854.048	4679
854.183	4714
854.317	4687
854.451	4809
854.585	4675
854.72	4668
854.854	4752
854.988	4592
855.122	4596
855.256	4508
855.39	4660
855.524	4805
855.658	4721
855.792	4668
855.926	4755
856.06	4774
856.194	4771
856.327	4691
856.461	4607
856.595	4611
856.729	4714
856.862	4729
856.996	4683
857.13	4710
857.263	4752
857.397	4771
857.53	4656
857.664	4725
857.797	4755
857.931	4782
858.064	4679
858.197	4721
858.331	4634
858.464	4634
858.597	4527
858.731	4630
858.864	4615
858.997	4565
859.13	4687
859.263	4694
859.396	4675
859.529	4588
859.662	4535
859.795	4481
859.928	4596
860.061	4755
860.194	4774
860.327	4622
860.46	4538
860.592	4694
860.725	4702
860.858	4714
860.99	4527
861.123	4527
861.256	4546
861.388	4573
861.521	5406
861.653	4436
861.786	4470
861.918	4440
862.05	4527
862.183	4500
862.315	4573
862.447	4645
862.58	4508
862.712	4360
862.844	4329
862.976	4500
863.108	4489
863.24	4812
863.372	4310
863.504	4421
863.636	4371
863.768	4466
863.9	4451
864.032	4398
864.164	4386
864.296	4459
864.428	4599
864.559	4512
864.691	4516
864.823	4531
864.954	4535
865.086	4531
865.217	4459
865.349	4405
865.48	4466
865.612	4516
865.743	4645
865.875	4497
866.006	4379
866.137	4440
866.269	4440
866.4	4398
866.531	4417
866.662	4379
866.793	4432
866.924	4409
867.055	4497
867.186	4451
867.317	4413
867.448	4379
867.579	4329
867.71	4394
867.841	4394
867.972	4402
868.103	4470
868.233	4436
868.364	4451
868.495	4462
868.625	4599
868.756	4759
868.886	4573
869.017	4622
869.147	4717
869.278	4748
869.408	4645
869.539	4618
869.669	4710
869.799	4611
869.929	4740
870.06	4733
870.19	4965
870.32	4934
870.45	4980
870.58	4953
870.71	5113
870.84	5079
870.97	4965
871.1	4858
871.23	5090
871.36	5102
871.489	5048
871.619	5041
871.749	5060
871.879	5140
872.008	5166
872.138	5067
872.267	4999
872.397	4828
872.526	4816
872.656	4725
872.785	4805
872.915	4938
873.044	5003
873.173	4938
873.303	4987
873.432	4972
873.561	4953
873.69	4934
873.819	4873
873.948	4835
874.077	4797
874.206	4729
874.335	4809
874.464	4934
874.593	5037
874.722	4957
874.851	5060
874.979	5029
875.108	5060
875.237	4942
875.365	4885
875.494	4889
875.623	5014
875.751	4809
875.88	4873
876.008	4949
876.136	5014
876.265	5147
876.393	5322
876.521	5239
876.65	5239
876.778	5178
876.906	5037
877.034	5037
877.162	5052
877.29	4987
877.418	5075
877.546	5064
877.674	5094
877.802	5018
877.93	5014
878.058	4965
878.185	4866
878.313	4980
878.441	5029
878.568	4793
878.696	4885
878.824	4965
878.951	4999
879.079	5162
879.206	5280
879.333	5086
879.461	4995
879.588	5025
879.715	5105
879.842	5204
879.97	4999
880.097	4820
880.224	4717
880.351	4729
880.478	4847
880.605	4759
880.732	4782
880.859	5033
880.986	4896
881.112	4938
881.239	4790
881.366	4649
881.493	4596
881.619	4588
881.746	4592
881.872	4698
881.999	4599
882.125	4679
882.252	4782
882.378	4816
882.505	4991
882.631	4740
882.757	4668
882.883	4744
883.01	4710
883.136	4618
883.262	4656
883.388	4588
883.514	4793
883.64	4870
883.766	4744
883.892	4656
884.018	4717
884.143	4866
884.269	5041
884.395	4660
884.52	4611
884.646	4649
884.772	4580
884.897	4588
885.023	4675
885.148	4809
885.274	4881
885.399	4767
885.524	4668
885.65	4714
885.775	4748
885.9	4706
886.025	4858
886.15	4729
886.275	4675
886.4	4710
886.525	4691
886.65	4672
886.775	4675
886.9	4904
887.025	5025
887.149	4816
887.274	4649
887.399	4573
887.523	4580
887.648	4538
887.773	4561
887.897	4786
888.021	4778
888.146	4706
888.27	4786
888.395	4873
888.519	4793
888.643	4805
888.767	4858
888.891	4649
889.015	4592
889.139	4603
889.263	4588
889.387	4717
889.511	4854
889.635	4805
889.759	4641
889.883	4645
890.006	4668
890.13	4828
890.254	4607
890.377	4675
890.501	4554
890.624	4519
890.748	4656
890.871	4470
890.995	4440
891.118	4356
891.241	4523
891.364	4519
891.488	4596
891.611	4470
891.734	4565
891.857	4542
891.98	4558
892.103	4679
892.226	4596
892.349	4561
892.471	4432
892.594	4558
892.717	4588
892.839	4588
892.962	4622
893.085	4656
893.207	4596
893.33	4481
893.452	4516
893.575	4630
893.697	4611
893.819	4793
893.941	4755
894.064	4790
894.186	4565
894.308	4550
894.43	4725
894.552	4854
894.674	4725
894.796	4550
894.918	4584
895.04	4584
895.161	4656
895.283	4622
895.405	4550
895.526	4611
895.648	4653
895.769	4729
895.891	4679
896.012	4729
896.134	4702
896.255	4664
896.376	4660
896.498	4569
896.619	4714
896.74	4668
896.861	4664
896.982	4858
897.103	5105
897.224	4839
897.345	4687
897.466	4592
897.587	4733
897.708	4854
897.828	4786
897.949	4645
898.07	4519
898.19	4645
898.311	4854
898.431	4679
898.552	4721
898.672	4816
898.792	4793
898.913	4698
899.033	4596
899.153	4478
899.273	4440
899.393	4459
899.513	4519
899.633	4485
899.753	4577
899.873	4535
899.993	4588
900.113	4535
900.232	4565
900.352	4538
900.472	4485
900.591	4405
900.711	4466
900.83	4440
900.95	4611
901.069	4691
901.189	4542
901.308	4356
901.427	4280
901.546	4398
901.665	4432
901.784	4523
901.904	4363
902.023	4344
902.141	4188
902.26	4219
902.379	4314
902.498	4246
902.617	4242
902.735	4390
902.854	4383
902.973	4344
903.091	4200
903.21	4230
903.328	4306
903.446	4280
903.565	4284
903.683	4337
903.801	4253
903.919	4398
904.038	4424
904.156	4299
904.274	4455
904.392	4344
904.51	4390
904.627	4504
904.745	4584
904.863	4538
904.981	4424
905.098	4325
905.216	4337
905.334	4424
905.451	4421
905.569	4371
905.686	4558
905.803	4550
905.921	4409
906.038	4577
906.155	4466
906.272	4363
906.389	4455
906.506	4322
906.623	4421
906.74	4386
906.857	4265
906.974	4318
907.091	4565
907.208	4630
907.324	4584
907.441	4493
907.557	4337
907.674	4379
907.79	4314
907.907	4409
908.023	4459
908.139	4474
908.256	4443
908.372	4462
908.488	4489
908.604	4318
908.72	4314
908.836	4386
908.952	4386
909.068	4394
909.184	4573
909.3	4478
909.415	4592
909.531	4558
909.647	4394
909.762	4352
909.878	4295
909.993	4405
910.108	4440
910.224	4417
910.339	4516
910.454	4383
910.57	4371
910.685	4318
910.8	4622
910.915	4626
911.03	4478
911.145	4314
911.259	4322
911.374	4341
911.489	4299
911.604	4276
911.718	4154
911.833	4169
911.947	4051
912.062	4040
912.176	4215
912.291	4276
912.405	4227
912.519	4470
912.633	4512
912.748	4383
912.862	4306
912.976	4200
913.09	4078
913.204	4124
913.318	4276
913.431	4348
913.545	4424
913.659	4402
913.772	4356
913.886	4211
914	4227
914.113	4352
914.226	4440
914.34	4390
914.453	4230
914.566	4451
914.68	4287
914.793	4322
914.906	4147
915.019	4124
915.132	4109
915.245	4169
915.358	4238
915.47	4238
915.583	4257
915.696	4337
915.809	4413
915.921	4394
916.034	4234
916.146	4204
916.259	4219
916.371	4314
916.483	4306
916.595	4295
916.708	4314
916.82	4276
916.932	4303
917.044	4303
917.156	4322
917.268	4234
917.38	4322
917.491	4303
917.603	4287
917.715	4402
917.826	4428
917.938	4360
918.049	4280
918.161	4413
918.272	4554
918.384	4561
918.495	4470
918.606	4257
918.717	4249
918.828	4337
918.939	4383
919.05	4261
919.161	4383
919.272	4131
919.383	4200
919.494	4474
919.604	4592
919.715	4428
919.826	4325
919.936	4390
920.047	4504
920.157	4478
920.267	4702
920.378	4554
920.488	4554
920.598	4668
920.708	4938
920.818	4820
920.928	4683
921.038	4957
921.148	4866
921.258	4641
921.368	4569
921.477	4531
921.587	4474
921.697	4402
921.806	4535
921.916	4440
922.025	4257
922.134	4265
922.244	4230
922.353	4310
922.462	4135
922.571	4109
922.68	3979
922.789	3941
922.898	4063
923.007	4010
923.116	4059
923.224	4074
923.333	4059
923.442	3983
923.55	3964
923.659	4025
923.767	4124
923.876	4002
923.984	4109
924.092	3987
924.201	4029
924.309	4082
924.417	4116
924.525	3998
924.633	4112
924.741	5025
924.849	3884
924.956	4131
925.064	4006
925.172	3850
925.279	3941
925.387	4082
925.494	4059
925.602	4169
925.709	4150
925.816	4010
925.924	4120
926.031	4238
926.138	4154
926.245	4215
926.352	4093
926.459	4211
926.566	4314
926.673	4147
926.779	4074
926.886	4055
926.993	3956
927.099	3975
927.206	3956
927.312	3975
927.419	4055
927.525	4074
927.631	4120
927.737	3968
927.843	3922
927.95	3827
928.056	3915
928.162	4017
928.267	4040
928.373	4672
928.479	4112
928.585	3846
928.69	4013
928.796	4101
928.901	3945
929.007	3865
929.112	3991
929.218	3960
929.323	4002
929.428	3918
929.533	4112
929.638	3918
929.743	3964
929.848	4055
929.953	3956
930.058	3896
930.163	3804
930.267	3812
930.372	3998
930.477	3785
930.581	4067
930.685	3915
930.79	3816
930.894	3876
930.998	3842
931.103	4048
931.207	3713
931.311	3686
931.415	3660
931.519	3530
931.623	3561
