Data from test_V78500241_1595.txt Node
Date: Fri Mar 25 17:00:05 CST 2022
User: usil
Spectrometer: V785-0024
Trigger mode: 0
Integration Time (sec): 4.000000E-1
Scans to average: 1
Nonlinearity correction enabled: false
Boxcar width: 0
Storing dark spectrum: false
XAxis mode: Wavelengths
Number of Pixels in Spectrum: 1024
>>>>>Begin Spectral Data<<<<<
801.071	8016
801.214	7997
801.356	7875
801.499	7795
801.641	7772
801.783	7814
801.926	7963
802.068	7909
802.211	7887
802.353	8005
802.496	7890
802.638	7833
802.78	7898
802.923	7890
803.065	7875
803.208	7868
803.35	8001
803.492	8092
803.635	8100
803.777	8008
803.919	8088
804.061	8442
804.204	8164
804.346	8012
804.488	7921
804.63	8073
804.773	7982
804.915	8065
805.057	8259
805.199	8084
805.341	8221
805.483	8271
805.626	8233
805.768	8103
805.91	8149
806.052	8244
806.194	8050
806.336	8221
806.478	8100
806.62	8001
806.762	8145
806.904	8317
807.046	8374
807.188	8408
807.33	8279
807.472	8259
807.614	8142
807.756	8123
807.898	7963
808.04	7883
808.182	7970
808.324	7871
808.465	7936
808.607	8092
808.749	8065
808.891	8199
809.033	8279
809.174	8202
809.316	8035
809.458	8046
809.6	8005
809.741	8020
809.883	7978
810.025	8050
810.166	8024
810.308	8031
810.45	7955
810.591	7879
810.733	7704
810.875	7647
811.016	7426
811.158	7476
811.299	7563
811.441	7674
811.582	7670
811.724	7525
811.865	7586
812.007	7567
812.148	7575
812.29	7601
812.431	7712
812.573	7906
812.714	7982
812.855	8096
812.997	8237
813.138	8256
813.279	8214
813.421	8100
813.562	7978
813.703	7860
813.845	7689
813.986	7430
814.127	7266
814.268	7232
814.41	7236
814.551	7160
814.692	7228
814.833	7057
814.974	7080
815.115	7084
815.256	6935
815.397	6962
815.539	6920
815.68	6829
815.821	6779
815.962	6829
816.103	6821
816.244	6715
816.385	6559
816.526	6627
816.666	6490
816.807	6323
816.948	6479
817.089	6471
817.23	6414
817.371	6384
817.512	6403
817.653	6407
817.793	6323
817.934	6346
818.075	6433
818.216	6403
818.356	6334
818.497	6182
818.638	6102
818.778	6175
818.919	6152
819.06	6114
819.2	6254
819.341	6323
819.481	6380
819.622	6506
819.762	6684
819.903	6673
820.043	6585
820.184	6540
820.324	6582
820.465	6684
820.605	6635
820.746	6662
820.886	6513
821.026	6578
821.167	6665
821.307	6802
821.447	6772
821.588	6665
821.728	6589
821.868	6494
822.008	6304
822.149	6327
822.289	6311
822.429	6140
822.569	6102
822.709	6110
822.849	5939
822.99	5847
823.13	5916
823.27	5946
823.41	5786
823.55	5729
823.69	5779
823.83	5802
823.97	5676
824.11	5554
824.25	5467
824.389	5585
824.529	5589
824.669	5509
824.809	5653
824.949	5619
825.089	5596
825.228	5539
825.368	5368
825.508	5368
825.648	5357
825.787	5360
825.927	5379
826.067	5315
826.206	5318
826.346	5383
826.485	5353
826.625	5417
826.765	5524
826.904	5455
827.044	5220
827.183	5201
827.323	5121
827.462	5216
827.601	5147
827.741	5159
827.88	5201
828.02	5113
828.159	5254
828.298	5322
828.437	5345
828.577	5239
828.716	5478
828.855	5299
828.994	5136
829.134	5151
829.273	5208
829.412	5124
829.551	5117
829.69	5143
829.829	5254
829.968	5357
830.107	5258
830.246	5212
830.385	5159
830.524	5105
830.663	5067
830.802	4976
830.941	4904
831.08	4854
831.219	4995
831.357	4991
831.496	5147
831.635	4953
831.774	4831
831.913	4805
832.051	4733
832.19	4725
832.329	4866
832.467	4649
832.606	4656
832.744	4717
832.883	4733
833.022	4744
833.16	4744
833.299	4816
833.437	4824
833.576	4778
833.714	4828
833.852	4885
833.991	4889
834.129	4930
834.267	4930
834.406	4881
834.544	4980
834.682	4980
834.821	5014
834.959	5102
835.097	4968
835.235	5117
835.373	5052
835.511	5113
835.65	4976
835.788	5025
835.926	4892
836.064	4892
836.202	4862
836.34	5166
836.478	5212
836.615	5105
836.753	5208
836.891	5254
837.029	5250
837.167	5231
837.305	5159
837.443	5117
837.58	5033
837.718	5280
837.856	5185
837.993	5121
838.131	5235
838.269	5223
838.406	5174
838.544	5197
838.681	5018
838.819	4984
838.956	4885
839.094	4896
839.231	4961
839.369	5128
839.506	5387
839.643	5258
839.781	5033
839.918	5022
840.055	5079
840.193	5033
840.33	5086
840.467	5083
840.604	5147
840.742	5402
840.879	5056
841.016	5079
841.153	5147
841.29	5364
841.427	5322
841.564	5315
841.701	5360
841.838	5239
841.975	5227
842.112	5250
842.249	5143
842.385	5136
842.522	5326
842.659	5166
842.796	5121
842.933	5204
843.069	5098
843.206	5094
843.343	5277
843.479	5181
843.616	5273
843.752	4999
843.889	5006
844.025	5223
844.162	4980
844.298	5204
844.435	5041
844.571	5025
844.708	5280
844.844	5296
844.98	5334
845.117	5265
845.253	5132
845.389	5090
845.525	5105
845.661	5098
845.798	5003
845.934	5105
846.07	5029
846.206	5174
846.342	5242
846.478	5227
846.614	5018
846.75	4972
846.886	4889
847.022	5098
847.158	5014
847.294	5003
847.429	5048
847.565	4995
847.701	5303
847.837	4854
847.972	4831
848.108	4957
848.244	4835
848.379	4744
848.515	4721
848.65	4736
848.786	4790
848.921	4725
849.057	4835
849.192	4862
849.328	4771
849.463	4866
849.598	4797
849.734	4763
849.869	4714
850.004	4588
850.14	4645
850.275	4596
850.41	4535
850.545	4535
850.68	4615
850.815	4596
850.95	4615
851.085	4831
851.22	4717
851.355	4660
851.49	4645
851.625	4668
851.76	4622
851.895	4554
852.03	4558
852.165	4683
852.299	4736
852.434	4778
852.569	4729
852.703	4778
852.838	4847
852.973	4881
853.107	4923
853.242	4740
853.376	4664
853.511	4580
853.645	4561
853.78	4793
853.914	4656
854.048	4683
854.183	4618
854.317	4656
854.451	4858
854.585	4694
854.72	4622
854.854	4736
854.988	4577
855.122	4656
855.256	4531
855.39	4683
855.524	4759
855.658	4714
855.792	4675
855.926	4763
856.06	4725
856.194	4793
856.327	4717
856.461	4611
856.595	4637
856.729	4630
856.862	4752
856.996	4694
857.13	4706
857.263	4767
857.397	4824
857.53	4615
857.664	4683
857.797	4729
857.931	4748
858.064	4683
858.197	4729
858.331	4626
858.464	4626
858.597	4478
858.731	4641
858.864	4618
858.997	4550
859.13	4668
859.263	4607
859.396	4641
859.529	4569
859.662	4626
859.795	4516
859.928	4630
860.061	4733
860.194	4759
860.327	4637
860.46	4596
860.592	4702
860.725	4721
860.858	4721
860.99	4569
861.123	4531
861.256	4561
861.388	4660
861.521	5258
861.653	4489
861.786	4417
861.918	4432
862.05	4554
862.183	4497
862.315	4588
862.447	4630
862.58	4558
862.712	4383
862.844	4287
862.976	4470
863.108	4451
863.24	4767
863.372	4303
863.504	4436
863.636	4440
863.768	4440
863.9	4462
864.032	4337
864.164	4390
864.296	4417
864.428	4542
864.559	4569
864.691	4489
864.823	4500
864.954	4497
865.086	4493
865.217	4424
865.349	4394
865.48	4451
865.612	4451
865.743	4607
865.875	4497
866.006	4386
866.137	4432
866.269	4451
866.4	4436
866.531	4424
866.662	4344
866.793	4432
866.924	4383
867.055	4474
867.186	4428
867.317	4383
867.448	4348
867.579	4371
867.71	4386
867.841	4375
867.972	4386
868.103	4459
868.233	4417
868.364	4424
868.495	4485
868.625	4660
868.756	4763
868.886	4569
869.017	4615
869.147	4752
869.278	4733
869.408	4626
869.539	4668
869.669	4702
869.799	4634
869.929	4759
870.06	4717
870.19	4908
870.32	4938
870.45	4976
870.58	4995
870.71	5045
870.84	5102
870.97	4900
871.1	4866
871.23	5113
871.36	5086
871.489	5010
871.619	5048
871.749	5056
871.879	5117
872.008	5170
872.138	5083
872.267	4949
872.397	4786
872.526	4820
872.656	4721
872.785	4763
872.915	4923
873.044	5003
873.173	4957
873.303	4972
873.432	4934
873.561	4953
873.69	4889
873.819	4839
873.948	4934
874.077	4812
874.206	4736
874.335	4759
874.464	4923
874.593	5025
874.722	4961
874.851	5060
874.979	5041
875.108	5006
875.237	4831
875.365	4854
875.494	4858
875.623	4946
875.751	4816
875.88	4790
876.008	4930
876.136	5025
876.265	5162
876.393	5277
876.521	5258
876.65	5170
876.778	5117
876.906	5128
877.034	4980
877.162	5086
877.29	4957
877.418	5025
877.546	5006
877.674	5014
877.802	5025
877.93	4961
878.058	4923
878.185	4816
878.313	4957
878.441	4957
878.568	4809
878.696	4843
878.824	4881
878.951	4976
879.079	5113
879.206	5318
879.333	5075
879.461	4980
879.588	4957
879.715	5090
879.842	5216
879.97	5022
880.097	4809
880.224	4774
880.351	4847
880.478	4790
880.605	4714
880.732	4790
880.859	5075
880.986	4862
881.112	4946
881.239	4748
881.366	4672
881.493	4599
881.619	4615
881.746	4630
881.872	4653
881.999	4664
882.125	4656
882.252	4763
882.378	4850
882.505	4949
882.631	4854
882.757	4672
882.883	4710
883.01	4698
883.136	4706
883.262	4550
883.388	4611
883.514	4816
883.64	4847
883.766	4812
883.892	4637
884.018	4664
884.143	4896
884.269	5033
884.395	4653
884.52	4660
884.646	4634
884.772	4580
884.897	4519
885.023	4683
885.148	4793
885.274	4873
885.399	4755
885.524	4733
885.65	4683
885.775	4706
885.9	4679
886.025	4847
886.15	4801
886.275	4691
886.4	4649
886.525	4714
886.65	4694
886.775	4714
886.9	4866
887.025	5045
887.149	4774
887.274	4660
887.399	4596
887.523	4550
887.648	4580
887.773	4542
887.897	4755
888.021	4801
888.146	4683
888.27	4839
888.395	4873
888.519	4767
888.643	4820
888.767	4797
888.891	4641
889.015	4618
889.139	4645
889.263	4603
889.387	4717
889.511	4908
889.635	4786
889.759	4645
889.883	4618
890.006	4752
890.13	4835
890.254	4599
890.377	4664
890.501	4550
890.624	4519
890.748	4622
890.871	4519
890.995	4485
891.118	4375
891.241	4512
891.364	4531
891.488	4611
891.611	4500
891.734	4546
891.857	4569
891.98	4550
892.103	4660
892.226	4580
892.349	4516
892.471	4413
892.594	4527
892.717	4573
892.839	4546
892.962	4603
893.085	4641
893.207	4615
893.33	4489
893.452	4519
893.575	4615
893.697	4542
893.819	4782
893.941	4824
894.064	4729
894.186	4584
894.308	4535
894.43	4729
894.552	4812
894.674	4736
894.796	4577
894.918	4607
895.04	4569
895.161	4668
895.283	4584
895.405	4615
895.526	4634
895.648	4653
895.769	4675
895.891	4694
896.012	4733
896.134	4733
896.255	4702
896.376	4599
896.498	4580
896.619	4653
896.74	4580
896.861	4656
896.982	4923
897.103	5041
897.224	4793
897.345	4763
897.466	4656
897.587	4736
897.708	4854
897.828	4790
897.949	4694
898.07	4580
898.19	4637
898.311	4824
898.431	4645
898.552	4710
898.672	4828
898.792	4786
898.913	4733
899.033	4588
899.153	4459
899.273	4413
899.393	4462
899.513	4538
899.633	4516
899.753	4542
899.873	4508
899.993	4584
900.113	4542
900.232	4584
900.352	4527
900.472	4527
900.591	4409
900.711	4489
900.83	4440
900.95	4577
901.069	4721
901.189	4542
901.308	4383
901.427	4356
901.546	4371
901.665	4481
901.784	4523
901.904	4352
902.023	4303
902.141	4185
902.26	4188
902.379	4276
902.498	4227
902.617	4196
902.735	4363
902.854	4360
902.973	4318
903.091	4215
903.21	4230
903.328	4280
903.446	4227
903.565	4242
903.683	4348
903.801	4268
903.919	4390
904.038	4417
904.156	4375
904.274	4402
904.392	4390
904.51	4424
904.627	4409
904.745	4558
904.863	4588
904.981	4440
905.098	4322
905.216	4333
905.334	4394
905.451	4436
905.569	4455
905.686	4565
905.803	4512
905.921	4421
906.038	4535
906.155	4443
906.272	4383
906.389	4470
906.506	4375
906.623	4341
906.74	4402
906.857	4280
906.974	4363
907.091	4607
907.208	4687
907.324	4542
907.441	4474
907.557	4318
907.674	4375
907.79	4306
907.907	4363
908.023	4447
908.139	4451
908.256	4379
908.372	4398
908.488	4447
908.604	4348
908.72	4344
908.836	4371
908.952	4360
909.068	4417
909.184	4596
909.3	4451
909.415	4550
909.531	4542
909.647	4344
909.762	4341
909.878	4299
909.993	4424
910.108	4405
910.224	4409
910.339	4409
910.454	4398
910.57	4314
910.685	4322
910.8	4607
910.915	4565
911.03	4436
911.145	4265
911.259	4272
911.374	4348
911.489	4238
911.604	4253
911.718	4158
911.833	4173
911.947	4071
912.062	4025
912.176	4204
912.291	4192
912.405	4204
912.519	4493
912.633	4497
912.748	4360
912.862	4329
912.976	4223
913.09	4059
913.204	4112
913.318	4230
913.431	4386
913.545	4390
913.659	4398
913.772	4371
913.886	4242
914	4211
914.113	4333
914.226	4417
914.34	4363
914.453	4219
914.566	4436
914.68	4306
914.793	4337
914.906	4173
915.019	4135
915.132	4082
915.245	4181
915.358	4204
915.47	4192
915.583	4276
915.696	4344
915.809	4379
915.921	4375
916.034	4295
916.146	4272
916.259	4192
916.371	4352
916.483	4371
916.595	4272
916.708	4306
916.82	4333
916.932	4284
917.044	4344
917.156	4344
917.268	4261
917.38	4306
917.491	4291
917.603	4360
917.715	4417
917.826	4500
917.938	4367
918.049	4272
918.161	4413
918.272	4546
918.384	4580
918.495	4481
918.606	4329
918.717	4280
918.828	4379
918.939	4379
919.05	4322
919.161	4356
919.272	4188
919.383	4200
919.494	4500
919.604	4649
919.715	4447
919.826	4375
919.936	4413
920.047	4577
920.157	4542
920.267	4752
920.378	4558
920.488	4558
920.598	4793
920.708	4908
920.818	4790
920.928	4805
921.038	4984
921.148	4965
921.258	4607
921.368	4584
921.477	4538
921.587	4512
921.697	4424
921.806	4592
921.916	4474
922.025	4314
922.134	4333
922.244	4276
922.353	4367
922.462	4188
922.571	4177
922.68	4044
922.789	4025
922.898	4078
923.007	4025
923.116	4135
923.224	4120
923.333	4120
923.442	4063
923.55	4067
923.659	4059
923.767	4097
923.876	4048
923.984	4135
924.092	4032
924.201	4040
924.309	4112
924.417	4143
924.525	4128
924.633	4128
924.741	4938
924.849	3941
924.956	4116
925.064	4029
925.172	3937
925.279	4002
925.387	4059
925.494	4059
925.602	4223
925.709	4219
925.816	4063
925.924	4173
926.031	4223
926.138	4181
926.245	4242
926.352	4105
926.459	4280
926.566	4341
926.673	4162
926.779	4150
926.886	4120
926.993	3972
927.099	4025
927.206	3968
927.312	3949
927.419	4074
927.525	4090
927.631	4071
927.737	4002
927.843	4021
927.95	3842
928.056	3991
928.162	4017
928.267	4067
928.373	4618
928.479	4105
928.585	3915
928.69	4086
928.796	4116
928.901	4021
929.007	3873
929.112	4040
929.218	3991
929.323	3994
929.428	3975
929.533	4139
929.638	3911
929.743	4051
929.848	4067
929.953	4010
930.058	3956
930.163	3800
930.267	3808
930.372	4025
930.477	3831
930.581	4166
930.685	3972
930.79	3873
930.894	3865
930.998	3857
931.103	4093
931.207	3747
931.311	3732
931.415	3713
931.519	3549
931.623	3557
