Data from test_V78500241_338.txt Node
Date: Fri Mar 25 16:51:21 CST 2022
User: usil
Spectrometer: V785-0024
Trigger mode: 0
Integration Time (sec): 4.000000E-1
Scans to average: 1
Nonlinearity correction enabled: false
Boxcar width: 0
Storing dark spectrum: false
XAxis mode: Wavelengths
Number of Pixels in Spectrum: 1024
>>>>>Begin Spectral Data<<<<<
801.071	8035
801.214	8012
801.356	7928
801.499	7955
801.641	7799
801.783	7913
801.926	7997
802.068	8024
802.211	8005
802.353	8054
802.496	7902
802.638	7837
802.78	7978
802.923	7906
803.065	7925
803.208	7875
803.35	7982
803.492	8111
803.635	8138
803.777	7993
803.919	8100
804.061	8522
804.204	8183
804.346	8062
804.488	8020
804.63	8065
804.773	8084
804.915	8081
805.057	8339
805.199	8157
805.341	8180
805.483	8248
805.626	8145
805.768	8088
805.91	8157
806.052	8225
806.194	8092
806.336	8294
806.478	8157
806.62	8145
806.762	8176
806.904	8294
807.046	8488
807.188	8355
807.33	8320
807.472	8305
807.614	8157
807.756	8142
807.898	7982
808.04	7906
808.182	7959
808.324	7894
808.465	7967
808.607	8111
808.749	8153
808.891	8199
809.033	8290
809.174	8256
809.316	8077
809.458	8088
809.6	8001
809.741	8027
809.883	8069
810.025	8138
810.166	8054
810.308	8035
810.45	8012
810.591	7925
810.733	7792
810.875	7670
811.016	7567
811.158	7502
811.299	7670
811.441	7803
811.582	7681
811.724	7658
811.865	7529
812.007	7655
812.148	7620
812.29	7605
812.431	7772
812.573	7951
812.714	7986
812.855	8138
812.997	8214
813.138	8290
813.279	8142
813.421	8145
813.562	7986
813.703	7902
813.845	7841
813.986	7480
814.127	7350
814.268	7312
814.41	7240
814.551	7255
814.692	7255
814.833	7095
814.974	7126
815.115	7088
815.256	6966
815.397	6913
815.539	6993
815.68	6837
815.821	6802
815.962	6894
816.103	6871
816.244	6722
816.385	6654
816.526	6604
816.666	6483
816.807	6308
816.948	6452
817.089	6452
817.23	6506
817.371	6369
817.512	6334
817.653	6361
817.793	6350
817.934	6391
818.075	6547
818.216	6475
818.356	6380
818.497	6235
818.638	6106
818.778	6171
818.919	6148
819.06	6117
819.2	6357
819.341	6331
819.481	6350
819.622	6528
819.762	6745
819.903	6722
820.043	6582
820.184	6555
820.324	6555
820.465	6692
820.605	6681
820.746	6654
820.886	6509
821.026	6669
821.167	6696
821.307	6757
821.447	6768
821.588	6662
821.728	6559
821.868	6525
822.008	6308
822.149	6334
822.289	6353
822.429	6171
822.569	6178
822.709	6129
822.849	5931
822.99	5958
823.13	5958
823.27	5882
823.41	5794
823.55	5847
823.69	5760
823.83	5817
823.97	5642
824.11	5566
824.25	5535
824.389	5581
824.529	5642
824.669	5551
824.809	5680
824.949	5722
825.089	5592
825.228	5520
825.368	5436
825.508	5353
825.648	5360
825.787	5421
825.927	5467
826.067	5280
826.206	5307
826.346	5387
826.485	5406
826.625	5398
826.765	5516
826.904	5459
827.044	5220
827.183	5231
827.323	5121
827.462	5273
827.601	5109
827.741	5212
827.88	5185
828.02	5174
828.159	5258
828.298	5273
828.437	5372
828.577	5280
828.716	5448
828.855	5337
828.994	5189
829.134	5128
829.273	5174
829.412	5090
829.551	5136
829.69	5189
829.829	5246
829.968	5395
830.107	5227
830.246	5292
830.385	5178
830.524	5113
830.663	5102
830.802	5037
830.941	4866
831.08	4911
831.219	5006
831.357	4999
831.496	5140
831.635	4938
831.774	4873
831.913	4847
832.051	4733
832.19	4759
832.329	4870
832.467	4649
832.606	4664
832.744	4710
832.883	4710
833.022	4733
833.16	4828
833.299	4786
833.437	4801
833.576	4862
833.714	4820
833.852	4927
833.991	4889
834.129	4938
834.267	4942
834.406	4911
834.544	4976
834.682	4984
834.821	4991
834.959	5162
835.097	5010
835.235	5136
835.373	5071
835.511	5083
835.65	5006
835.788	5041
835.926	4938
836.064	4896
836.202	4957
836.34	5178
836.478	5223
836.615	5151
836.753	5269
836.891	5311
837.029	5239
837.167	5140
837.305	5185
837.443	5170
837.58	5117
837.718	5280
837.856	5189
837.993	5159
838.131	5280
838.269	5193
838.406	5223
838.544	5235
838.681	5033
838.819	4991
838.956	4877
839.094	4911
839.231	4984
839.369	5121
839.506	5417
839.643	5299
839.781	5067
839.918	4972
840.055	5117
840.193	5071
840.33	5170
840.467	5155
840.604	5193
840.742	5463
840.879	5075
841.016	5067
841.153	5162
841.29	5360
841.427	5311
841.564	5307
841.701	5395
841.838	5326
841.975	5254
842.112	5315
842.249	5178
842.385	5102
842.522	5345
842.659	5269
842.796	5147
842.933	5185
843.069	5197
843.206	5174
843.343	5292
843.479	5284
843.616	5334
843.752	5094
843.889	5025
844.025	5261
844.162	5048
844.298	5204
844.435	5083
844.571	5037
844.708	5162
844.844	5284
844.98	5387
845.117	5292
845.253	5128
845.389	5060
845.525	5147
845.661	5140
845.798	5067
845.934	5140
846.07	5041
846.206	5212
846.342	5254
846.478	5155
846.614	4991
846.75	4987
846.886	4934
847.022	5147
847.158	5056
847.294	5029
847.429	5075
847.565	5041
847.701	5322
847.837	4850
847.972	4793
848.108	4953
848.244	4911
848.379	4744
848.515	4702
848.65	4675
848.786	4839
848.921	4782
849.057	4843
849.192	4896
849.328	4862
849.463	4820
849.598	4805
849.734	4752
849.869	4668
850.004	4634
850.14	4717
850.275	4626
850.41	4489
850.545	4527
850.68	4641
850.815	4664
850.95	4637
851.085	4809
851.22	4729
851.355	4679
851.49	4599
851.625	4641
851.76	4714
851.895	4569
852.03	4516
852.165	4672
852.299	4725
852.434	4729
852.569	4744
852.703	4812
852.838	4843
852.973	4930
853.107	4919
853.242	4725
853.376	4717
853.511	4577
853.645	4611
853.78	4862
853.914	4664
854.048	4672
854.183	4656
854.317	4714
854.451	4831
854.585	4679
854.72	4596
854.854	4752
854.988	4626
855.122	4626
855.256	4538
855.39	4660
855.524	4736
855.658	4763
855.792	4694
855.926	4733
856.06	4759
856.194	4767
856.327	4679
856.461	4653
856.595	4603
856.729	4626
856.862	4767
856.996	4698
857.13	4698
857.263	4774
857.397	4809
857.53	4656
857.664	4725
857.797	4786
857.931	4752
858.064	4698
858.197	4748
858.331	4641
858.464	4622
858.597	4523
858.731	4645
858.864	4630
858.997	4599
859.13	4656
859.263	4694
859.396	4710
859.529	4622
859.662	4558
859.795	4527
859.928	4607
860.061	4774
860.194	4755
860.327	4592
860.46	4577
860.592	4702
860.725	4748
860.858	4691
860.99	4584
861.123	4531
861.256	4546
861.388	4596
861.521	5330
861.653	4478
861.786	4436
861.918	4459
862.05	4538
862.183	4577
862.315	4596
862.447	4649
862.58	4584
862.712	4383
862.844	4344
862.976	4466
863.108	4462
863.24	4778
863.372	4352
863.504	4424
863.636	4443
863.768	4504
863.9	4409
864.032	4402
864.164	4428
864.296	4413
864.428	4565
864.559	4550
864.691	4542
864.823	4531
864.954	4489
865.086	4538
865.217	4474
865.349	4424
865.48	4489
865.612	4459
865.743	4702
865.875	4478
866.006	4504
866.137	4417
866.269	4405
866.4	4451
866.531	4405
866.662	4432
866.793	4386
866.924	4428
867.055	4485
867.186	4489
867.317	4360
867.448	4402
867.579	4379
867.71	4405
867.841	4398
867.972	4436
868.103	4455
868.233	4443
868.364	4459
868.495	4508
868.625	4679
868.756	4710
868.886	4634
869.017	4615
869.147	4774
869.278	4744
869.408	4653
869.539	4622
869.669	4691
869.799	4622
869.929	4717
870.06	4759
870.19	4942
870.32	4965
870.45	4919
870.58	5010
870.71	5102
870.84	5086
870.97	4984
871.1	4873
871.23	5124
871.36	5105
871.489	5006
871.619	5048
871.749	5102
871.879	5102
872.008	5166
872.138	5075
872.267	4984
872.397	4873
872.526	4778
872.656	4687
872.785	4824
872.915	4980
873.044	5045
873.173	4927
873.303	4949
873.432	4980
873.561	4930
873.69	4873
873.819	4900
873.948	4892
874.077	4839
874.206	4759
874.335	4786
874.464	4919
874.593	5003
874.722	4949
874.851	5105
874.979	5098
875.108	5010
875.237	4885
875.365	4919
875.494	4900
875.623	4946
875.751	4858
875.88	4820
876.008	4927
876.136	4999
876.265	5181
876.393	5376
876.521	5280
876.65	5193
876.778	5159
876.906	5071
877.034	5094
877.162	5029
877.29	4984
877.418	5056
877.546	5079
877.674	5022
877.802	5052
877.93	5010
878.058	4927
878.185	4854
878.313	4946
878.441	4934
878.568	4824
878.696	4862
878.824	4957
878.951	4984
879.079	5166
879.206	5269
879.333	5124
879.461	4995
879.588	4995
879.715	5098
879.842	5220
879.97	4968
880.097	4797
880.224	4767
880.351	4801
880.478	4824
880.605	4801
880.732	4828
880.859	5132
880.986	4930
881.112	4965
881.239	4820
881.366	4649
881.493	4656
881.619	4554
881.746	4660
881.872	4649
881.999	4649
882.125	4740
882.252	4759
882.378	4831
882.505	4942
882.631	4812
882.757	4656
882.883	4710
883.01	4790
883.136	4683
883.262	4615
883.388	4630
883.514	4839
883.64	4854
883.766	4801
883.892	4714
884.018	4744
884.143	4965
884.269	5048
884.395	4725
884.52	4694
884.646	4733
884.772	4599
884.897	4615
885.023	4721
885.148	4805
885.274	4877
885.399	4862
885.524	4763
885.65	4767
885.775	4782
885.9	4763
886.025	4854
886.15	4873
886.275	4801
886.4	4694
886.525	4740
886.65	4736
886.775	4755
886.9	4976
887.025	5079
887.149	4885
887.274	4706
887.399	4607
887.523	4653
887.648	4607
887.773	4622
887.897	4782
888.021	4850
888.146	4710
888.27	4870
888.395	4915
888.519	4843
888.643	4824
888.767	4862
888.891	4767
889.015	4641
889.139	4740
889.263	4641
889.387	4782
889.511	4911
889.635	4873
889.759	4691
889.883	4679
890.006	4767
890.13	4892
890.254	4698
890.377	4748
890.501	4580
890.624	4550
890.748	4729
890.871	4550
890.995	4470
891.118	4443
891.241	4580
891.364	4596
891.488	4653
891.611	4531
891.734	4577
891.857	4694
891.98	4611
892.103	4740
892.226	4668
892.349	4554
892.471	4508
892.594	4622
892.717	4672
892.839	4611
892.962	4596
893.085	4679
893.207	4630
893.33	4493
893.452	4569
893.575	4687
893.697	4626
893.819	4824
893.941	4824
894.064	4843
894.186	4641
894.308	4607
894.43	4790
894.552	4870
894.674	4835
894.796	4577
894.918	4637
895.04	4626
895.161	4752
895.283	4714
895.405	4599
895.526	4706
895.648	4744
895.769	4721
895.891	4740
896.012	4755
896.134	4801
896.255	4694
896.376	4672
896.498	4668
896.619	4706
896.74	4675
896.861	4702
896.982	4934
897.103	5166
897.224	4892
897.345	4778
897.466	4706
897.587	4774
897.708	4892
897.828	4820
897.949	4702
898.07	4645
898.19	4645
898.311	4870
898.431	4702
898.552	4740
898.672	4828
898.792	4839
898.913	4763
899.033	4672
899.153	4538
899.273	4512
899.393	4523
899.513	4584
899.633	4558
899.753	4546
899.873	4565
899.993	4653
900.113	4573
900.232	4634
900.352	4542
900.472	4447
900.591	4470
900.711	4512
900.83	4504
900.95	4641
901.069	4729
901.189	4607
901.308	4383
901.427	4356
901.546	4405
901.665	4512
901.784	4546
901.904	4447
902.023	4379
902.141	4265
902.26	4230
902.379	4337
902.498	4265
902.617	4253
902.735	4428
902.854	4478
902.973	4424
903.091	4219
903.21	4268
903.328	4341
903.446	4284
903.565	4325
903.683	4360
903.801	4352
903.919	4462
904.038	4500
904.156	4348
904.274	4485
904.392	4470
904.51	4478
904.627	4527
904.745	4641
904.863	4710
904.981	4436
905.098	4383
905.216	4455
905.334	4485
905.451	4459
905.569	4493
905.686	4615
905.803	4607
905.921	4459
906.038	4554
906.155	4516
906.272	4470
906.389	4504
906.506	4371
906.623	4402
906.74	4398
906.857	4333
906.974	4409
907.091	4611
907.208	4683
907.324	4611
907.441	4500
907.557	4367
907.674	4383
907.79	4386
907.907	4451
908.023	4538
908.139	4523
908.256	4436
908.372	4493
908.488	4485
908.604	4428
908.72	4386
908.836	4421
908.952	4436
909.068	4497
909.184	4523
909.3	4523
909.415	4607
909.531	4577
909.647	4383
909.762	4394
909.878	4386
909.993	4424
910.108	4443
910.224	4413
910.339	4516
910.454	4383
910.57	4375
910.685	4363
910.8	4683
910.915	4649
911.03	4519
911.145	4360
911.259	4383
911.374	4424
911.489	4348
911.604	4333
911.718	4219
911.833	4207
911.947	4131
912.062	4059
912.176	4246
912.291	4261
912.405	4299
912.519	4489
912.633	4542
912.748	4417
912.862	4363
912.976	4272
913.09	4131
913.204	4204
913.318	4295
913.431	4440
913.545	4413
913.659	4527
913.772	4379
913.886	4287
914	4322
914.113	4386
914.226	4447
914.34	4413
914.453	4257
914.566	4432
914.68	4333
914.793	4356
914.906	4215
915.019	4150
915.132	4131
915.245	4185
915.358	4234
915.47	4234
915.583	4329
915.696	4341
915.809	4383
915.921	4440
916.034	4287
916.146	4276
916.259	4219
916.371	4447
916.483	4333
916.595	4284
916.708	4318
916.82	4352
916.932	4360
917.044	4379
917.156	4356
917.268	4265
917.38	4329
917.491	4314
917.603	4394
917.715	4455
917.826	4474
917.938	4398
918.049	4295
918.161	4402
918.272	4580
918.384	4588
918.495	4512
918.606	4337
918.717	4280
918.828	4363
918.939	4402
919.05	4314
919.161	4352
919.272	4143
919.383	4246
919.494	4466
919.604	4675
919.715	4470
919.826	4371
919.936	4432
920.047	4577
920.157	4489
920.267	4729
920.378	4584
920.488	4504
920.598	4767
920.708	4972
920.818	4790
920.928	4812
921.038	4946
921.148	4949
921.258	4622
921.368	4565
921.477	4516
921.587	4500
921.697	4405
921.806	4546
921.916	4516
922.025	4249
922.134	4299
922.244	4276
922.353	4329
922.462	4185
922.571	4139
922.68	4036
922.789	4029
922.898	4051
923.007	4029
923.116	4150
923.224	4086
923.333	4086
923.442	4006
923.55	3994
923.659	4086
923.767	4131
923.876	4044
923.984	4177
924.092	3953
924.201	4139
924.309	4101
924.417	4173
924.525	4063
924.633	4143
924.741	4919
924.849	3956
924.956	4177
925.064	3998
925.172	3926
925.279	3972
925.387	4101
925.494	4093
925.602	4238
925.709	4177
925.816	4048
925.924	4143
926.031	4242
926.138	4181
926.245	4268
926.352	4078
926.459	4242
926.566	4337
926.673	4185
926.779	4135
926.886	4124
926.993	3991
927.099	4002
927.206	4017
927.312	4002
927.419	4051
927.525	4109
927.631	4158
927.737	4006
927.843	3994
927.95	3896
928.056	3972
928.162	4006
928.267	4059
928.373	4641
928.479	4139
928.585	3911
928.69	4090
928.796	4120
928.901	3960
929.007	3865
929.112	3998
929.218	4006
929.323	3983
929.428	3994
929.533	4105
929.638	3949
929.743	3991
929.848	4082
929.953	4036
930.058	3975
930.163	3819
930.267	3838
930.372	3960
930.477	3857
930.581	4105
930.685	3979
930.79	3835
930.894	3903
930.998	3876
931.103	4044
931.207	3778
931.311	3732
931.415	3694
931.519	3553
931.623	3587
